PE UV       SUBTECH     SPECTRUM    ASCII       PEDS        4.00        
   -1
CICIMAUCR0098-4.Sample.ASC
24/04/25
11:26:36.00
24/04/25
11:26:36.00
Vinicio Soto Monge
C. cupreomarginata
250,000000
1
Lambda 1050
1050L1511233
PerkinElmer UV WinLab 6.3.2.0749 / 2.02.05 Lambda 900 UV/VIS/NIR, Aug  7 2015 09:38:08

0
0
3350/servo 860,8/2
0
0
UV/VIS
1
1
1
DoubleDePol,CommonBeamDepol,RBeamAtt,SBeamAtt,60mm sphere, WB InGaAs Detector
0
0
0
0
Program
Program
3350/servo 860,8/2
3350/0,2 860,8/0,2
3350/0,2 860,8/0,2
0
15.00
 
 
 
0
 
860,8
319,2
860,8
Front
100
on
S:100 R:100
0
0
0
0
 
0
 
 
 
0
 
 
0
0
0
0
0
 
 
 
 
0
0


0
0
#HDR
-1
-1
#GR
nm
%R
1.0
0.0
2500,000000
-1,000000
2251
8
67,710500
4,817400
#DATA
2482.000000	6.805765
2481.000000	6.738088
2480.000000	6.700820
2479.000000	6.715110
2478.000000	6.744604
2477.000000	6.734316
2476.000000	6.740375
2475.000000	6.744147
2474.000000	6.707794
2473.000000	6.708594
2472.000000	6.768497
2471.000000	6.741403
2470.000000	6.758551
2469.000000	6.760952
2468.000000	6.763696
2467.000000	6.746091
2466.000000	6.775128
2465.000000	6.746548
2464.000000	6.783016
2463.000000	6.779815
2462.000000	6.768383
2461.000000	6.842462
2460.000000	6.821541
2459.000000	6.836631
2458.000000	6.847149
2457.000000	6.890247
2456.000000	6.924429
2455.000000	6.952894
2454.000000	6.956438
2453.000000	6.999308
2452.000000	7.026516
2451.000000	7.067328
2450.000000	7.121058
2449.000000	7.139577
2448.000000	7.153639
2447.000000	7.211027
2446.000000	7.240978
2445.000000	7.260413
2444.000000	7.269101
2443.000000	7.319973
2442.000000	7.348667
2441.000000	7.359985
2440.000000	7.392108
2439.000000	7.425261
2438.000000	7.468359
2437.000000	7.502769
2436.000000	7.543353
2435.000000	7.557757
2434.000000	7.589538
2433.000000	7.601998
2432.000000	7.598226
2431.000000	7.616746
2430.000000	7.667389
2429.000000	7.691968
2428.000000	7.710830
2427.000000	7.729007
2426.000000	7.749699
2425.000000	7.766618
2424.000000	7.791311
2423.000000	7.813146
2422.000000	7.803543
2421.000000	7.810402
2420.000000	7.835553
2419.000000	7.858188
2418.000000	7.854301
2417.000000	7.858759
2416.000000	7.871334
2415.000000	7.908603
2414.000000	7.915004
2413.000000	7.912146
2412.000000	7.921521
2411.000000	7.936611
2410.000000	7.966334
2409.000000	7.982453
2408.000000	8.003145
2407.000000	8.047729
2406.000000	8.055388
2405.000000	8.068878
2404.000000	8.089798
2403.000000	8.087169
2402.000000	8.108090
2401.000000	8.137127
2400.000000	8.161591
2399.000000	8.184226
2398.000000	8.183083
2397.000000	8.193943
2396.000000	8.227667
2395.000000	8.244472
2394.000000	8.267451
2393.000000	8.280140
2392.000000	8.278540
2391.000000	8.300603
2390.000000	8.330669
2389.000000	8.346674
2388.000000	8.350789
2387.000000	8.356734
2386.000000	8.364622
2385.000000	8.384399
2384.000000	8.389086
2383.000000	8.378340
2382.000000	8.382456
2381.000000	8.396060
2380.000000	8.402119
2379.000000	8.411836
2378.000000	8.417323
2377.000000	8.395488
2376.000000	8.381198
2375.000000	8.390915
2374.000000	8.377083
2373.000000	8.354676
2372.000000	8.362564
2371.000000	8.357534
2370.000000	8.353419
2369.000000	8.341415
2368.000000	8.313750
2367.000000	8.304033
2366.000000	8.283684
2365.000000	8.258762
2364.000000	8.243672
2363.000000	8.224695
2362.000000	8.208005
2361.000000	8.195772
2360.000000	8.172337
2359.000000	8.139870
2358.000000	8.123866
2357.000000	8.113348
2356.000000	8.104774
2355.000000	8.078938
2354.000000	8.062933
2353.000000	8.078824
2352.000000	8.083282
2351.000000	8.089570
2350.000000	8.100430
2349.000000	8.117121
2348.000000	8.118836
2347.000000	8.136326
2346.000000	8.170508
2345.000000	8.199431
2344.000000	8.237156
2343.000000	8.269623
2342.000000	8.283570
2341.000000	8.282655
2340.000000	8.310320
2339.000000	8.317408
2338.000000	8.322781
2337.000000	8.338214
2336.000000	8.347360
2335.000000	8.357420
2334.000000	8.347474
2333.000000	8.330898
2332.000000	8.330669
2331.000000	8.314779
2330.000000	8.286770
2329.000000	8.259677
2328.000000	8.238642
2327.000000	8.222980
2326.000000	8.181711
2325.000000	8.143757
2324.000000	8.111062
2323.000000	8.096429
2322.000000	8.063391
2321.000000	8.010575
2320.000000	7.970106
2319.000000	7.903344
2318.000000	7.862989
2317.000000	7.819662
2316.000000	7.780222
2315.000000	7.729350
2314.000000	7.684080
2313.000000	7.656186
2312.000000	7.632979
2311.000000	7.584279
2310.000000	7.551469
2309.000000	7.553413
2308.000000	7.532950
2307.000000	7.526776
2306.000000	7.516259
2305.000000	7.519574
2304.000000	7.548611
2303.000000	7.546668
2302.000000	7.588394
2301.000000	7.638924
2300.000000	7.642467
2299.000000	7.668189
2298.000000	7.691739
2297.000000	7.761245
2296.000000	7.795198
2295.000000	7.836924
2294.000000	7.877165
2293.000000	7.906316
2292.000000	7.911346
2291.000000	7.932495
2290.000000	7.961075
2289.000000	7.955359
2288.000000	7.965419
2287.000000	7.955931
2286.000000	7.944042
2285.000000	7.937640
2284.000000	7.925750
2283.000000	7.924036
2282.000000	7.916605
2281.000000	7.878537
2280.000000	7.834981
2279.000000	7.838182
2278.000000	7.808116
2277.000000	7.772563
2276.000000	7.784909
2275.000000	7.780336
2274.000000	7.789596
2273.000000	7.754615
2272.000000	7.781480
2271.000000	7.763989
2270.000000	7.775535
2269.000000	7.793369
2268.000000	7.834295
2267.000000	7.867676
2266.000000	7.906773
2265.000000	7.980967
2264.000000	8.018463
2263.000000	8.093800
2262.000000	8.161019
2261.000000	8.260248
2260.000000	8.366337
2259.000000	8.433899
2258.000000	8.552105
2257.000000	8.681743
2256.000000	8.774113
2255.000000	8.898607
2254.000000	8.994521
2253.000000	9.088148
2252.000000	9.187834
2251.000000	9.306612
2250.000000	9.409385
2249.000000	9.492838
2248.000000	9.588295
2247.000000	9.665117
2246.000000	9.755201
2245.000000	9.816704
2244.000000	9.908846
2243.000000	9.959146
2242.000000	10.016306
2241.000000	10.071865
2240.000000	10.153489
2239.000000	10.191786
2238.000000	10.225624
2237.000000	10.267808
2236.000000	10.315022
2235.000000	10.347603
2234.000000	10.377897
2233.000000	10.442831
2232.000000	10.450033
2231.000000	10.477584
2230.000000	10.520110
2229.000000	10.494274
2228.000000	10.527541
2227.000000	10.535772
2226.000000	10.565724
2225.000000	10.557150
2224.000000	10.561151
2223.000000	10.567324
2222.000000	10.575555
2221.000000	10.596933
2220.000000	10.583558
2219.000000	10.606307
2218.000000	10.596590
2217.000000	10.577613
2216.000000	10.581271
2215.000000	10.584244
2214.000000	10.566410
2213.000000	10.552234
2212.000000	10.539087
2211.000000	10.507993
2210.000000	10.530399
2209.000000	10.530742
2208.000000	10.510508
2207.000000	10.514509
2206.000000	10.514509
2205.000000	10.516224
2204.000000	10.512908
2203.000000	10.505935
2202.000000	10.489244
2201.000000	10.510050
2200.000000	10.518739
2199.000000	10.508221
2198.000000	10.514166
2197.000000	10.513251
2196.000000	10.498504
2195.000000	10.506964
2194.000000	10.498961
2193.000000	10.512451
2192.000000	10.504106
2191.000000	10.502162
2190.000000	10.492331
2189.000000	10.499304
2188.000000	10.503191
2187.000000	10.502963
2186.000000	10.494960
2185.000000	10.480442
2184.000000	10.480556
2183.000000	10.485700
2182.000000	10.470382
2181.000000	10.480327
2180.000000	10.475412
2179.000000	10.479641
2178.000000	10.477584
2177.000000	10.497247
2176.000000	10.495075
2175.000000	10.489702
2174.000000	10.481471
2173.000000	10.493245
2172.000000	10.493588
2171.000000	10.505135
2170.000000	10.507307
2169.000000	10.520911
2168.000000	10.526512
2167.000000	10.532686
2166.000000	10.540802
2165.000000	10.549148
2164.000000	10.572926
2163.000000	10.570983
2162.000000	10.582414
2161.000000	10.593732
2160.000000	10.607336
2159.000000	10.629285
2158.000000	10.641289
2157.000000	10.656379
2156.000000	10.667468
2155.000000	10.700506
2154.000000	10.716054
2153.000000	10.723827
2152.000000	10.727371
2151.000000	10.735259
2150.000000	10.736288
2149.000000	10.757094
2148.000000	10.774013
2147.000000	10.786246
2146.000000	10.806937
2145.000000	10.831973
2144.000000	10.841347
2143.000000	10.834260
2142.000000	10.838604
2141.000000	10.834831
2140.000000	10.857238
2139.000000	10.859524
2138.000000	10.847749
2137.000000	10.866040
2136.000000	10.865583
2135.000000	10.876558
2134.000000	10.875300
2133.000000	10.872557
2132.000000	10.877587
2131.000000	10.881131
2130.000000	10.871756
2129.000000	10.874614
2128.000000	10.872785
2127.000000	10.868212
2126.000000	10.860782
2125.000000	10.843177
2124.000000	10.815511
2123.000000	10.816654
2122.000000	10.825457
2121.000000	10.794705
2120.000000	10.774471
2119.000000	10.766011
2118.000000	10.756523
2117.000000	10.754465
2116.000000	10.728286
2115.000000	10.698906
2114.000000	10.664610
2113.000000	10.651692
2112.000000	10.659809
2111.000000	10.632258
2110.000000	10.617739
2109.000000	10.615567
2108.000000	10.606307
2107.000000	10.592932
2106.000000	10.568925
2105.000000	10.552006
2104.000000	10.537373
2103.000000	10.520568
2102.000000	10.505249
2101.000000	10.485129
2100.000000	10.476669
2099.000000	10.463408
2098.000000	10.438944
2097.000000	10.428084
2096.000000	10.416880
2095.000000	10.416080
2094.000000	10.406477
2093.000000	10.387843
2092.000000	10.377211
2091.000000	10.383613
2090.000000	10.374125
2089.000000	10.351375
2088.000000	10.349432
2087.000000	10.343602
2086.000000	10.323596
2085.000000	10.316508
2084.000000	10.318223
2083.000000	10.309992
2082.000000	10.300618
2081.000000	10.295816
2080.000000	10.267122
2079.000000	10.244030
2078.000000	10.244258
2077.000000	10.245287
2076.000000	10.221737
2075.000000	10.227796
2074.000000	10.214650
2073.000000	10.200474
2072.000000	10.201389
2071.000000	10.201160
2070.000000	10.181268
2069.000000	10.166293
2068.000000	10.166864
2067.000000	10.171894
2066.000000	10.156575
2065.000000	10.144343
2064.000000	10.132111
2063.000000	10.124566
2062.000000	10.128339
2061.000000	10.124452
2060.000000	10.115763
2059.000000	10.130625
2058.000000	10.140342
2057.000000	10.165607
2056.000000	10.175552
2055.000000	10.203675
2054.000000	10.216593
2053.000000	10.219451
2052.000000	10.242543
2051.000000	10.290443
2050.000000	10.327368
2049.000000	10.372753
2048.000000	10.408649
2047.000000	10.453005
2046.000000	10.519882
2045.000000	10.567896
2044.000000	10.588359
2043.000000	10.643575
2042.000000	10.706565
2041.000000	10.753779
2040.000000	10.795734
2039.000000	10.852551
2038.000000	10.887304
2037.000000	10.940691
2036.000000	10.980017
2035.000000	11.014884
2034.000000	11.057182
2033.000000	11.091135
2032.000000	11.140064
2031.000000	11.154125
2030.000000	11.171387
2029.000000	11.224088
2028.000000	11.254840
2027.000000	11.268787
2026.000000	11.281019
2025.000000	11.298281
2024.000000	11.328233
2023.000000	11.355670
2022.000000	11.360700
2021.000000	11.392023
2020.000000	11.406199
2019.000000	11.444496
2018.000000	11.456613
2017.000000	11.449640
2016.000000	11.458557
2015.000000	11.463358
2014.000000	11.466445
2013.000000	11.472847
2012.000000	11.471018
2011.000000	11.473304
2010.000000	11.455470
2009.000000	11.456499
2008.000000	11.452841
2007.000000	11.440952
2006.000000	11.456270
2005.000000	11.444153
2004.000000	11.420146
2003.000000	11.404484
2002.000000	11.388822
2001.000000	11.380934
2000.000000	11.368245
1999.000000	11.360357
1998.000000	11.324689
1997.000000	11.300225
1996.000000	11.283534
1995.000000	11.252782
1994.000000	11.212885
1993.000000	11.205454
1992.000000	11.145094
1991.000000	11.153325
1990.000000	11.107940
1989.000000	11.089763
1988.000000	11.050323
1987.000000	11.017399
1986.000000	10.987905
1985.000000	10.954638
1984.000000	10.905366
1983.000000	10.891419
1982.000000	10.864897
1981.000000	10.829001
1980.000000	10.771727
1979.000000	10.742690
1978.000000	10.700620
1977.000000	10.673984
1976.000000	10.652263
1975.000000	10.603678
1974.000000	10.598876
1973.000000	10.558979
1972.000000	10.528341
1971.000000	10.504906
1970.000000	10.458378
1969.000000	10.424425
1968.000000	10.418252
1967.000000	10.378812
1966.000000	10.353547
1965.000000	10.331598
1964.000000	10.281984
1963.000000	10.261063
1962.000000	10.229740
1961.000000	10.225967
1960.000000	10.173723
1959.000000	10.157033
1958.000000	10.138056
1957.000000	10.140571
1956.000000	10.098273
1955.000000	10.070493
1954.000000	10.051745
1953.000000	10.014477
1952.000000	9.992756
1951.000000	9.979495
1950.000000	9.958003
1949.000000	9.942913
1948.000000	9.923364
1947.000000	9.917191
1946.000000	9.875579
1945.000000	9.889411
1944.000000	9.883010
1943.000000	9.903701
1942.000000	9.892269
1941.000000	9.867919
1940.000000	9.896385
1939.000000	9.877294
1938.000000	9.862889
1937.000000	9.865290
1936.000000	9.896271
1935.000000	9.895585
1934.000000	9.931024
1933.000000	9.951372
1932.000000	9.988412
1931.000000	10.018821
1930.000000	10.041685
1929.000000	10.094043
1928.000000	10.135998
1927.000000	10.168579
1926.000000	10.226539
1925.000000	10.256033
1924.000000	10.332284
1923.000000	10.399161
1922.000000	10.453348
1921.000000	10.511194
1920.000000	10.563323
1919.000000	10.634658
1918.000000	10.712395
1917.000000	10.799621
1916.000000	10.882274
1915.000000	10.977959
1914.000000	11.057868
1913.000000	11.135033
1912.000000	11.228432
1911.000000	11.333263
1910.000000	11.417859
1909.000000	11.540752
1908.000000	11.642268
1907.000000	11.771906
1906.000000	11.873421
1905.000000	11.993571
1904.000000	12.097258
1903.000000	12.240272
1902.000000	12.337557
1901.000000	12.475998
1900.000000	12.610551
1899.000000	12.747849
1898.000000	12.892005
1897.000000	13.030675
1896.000000	13.174602
1895.000000	13.311328
1894.000000	13.479263
1893.000000	13.637595
1892.000000	13.837311
1891.000000	13.976552
1890.000000	14.175353
1889.000000	14.386043
1888.000000	14.584387
1887.000000	14.802394
1886.000000	15.055839
1885.000000	15.359700
1884.000000	15.683795
1883.000000	16.046301
1882.000000	16.425612
1881.000000	16.794863
1880.000000	17.172002
1879.000000	17.563088
1878.000000	17.928224
1877.000000	18.276097
1876.000000	18.626943
1875.000000	18.967499
1874.000000	19.267130
1873.000000	19.551556
1872.000000	19.817234
1871.000000	20.070680
1870.000000	20.287315
1869.000000	20.493775
1868.000000	20.650049
1867.000000	20.785746
1866.000000	20.913441
1865.000000	21.012784
1864.000000	21.117043
1863.000000	21.204269
1862.000000	21.292295
1861.000000	21.345796
1860.000000	21.389237
1859.000000	21.426163
1858.000000	21.426048
1857.000000	21.442053
1856.000000	21.442282
1855.000000	21.406042
1854.000000	21.377806
1853.000000	21.333450
1852.000000	21.305327
1851.000000	21.298125
1850.000000	21.281434
1849.000000	21.232620
1848.000000	21.135449
1847.000000	21.026274
1846.000000	20.938134
1845.000000	20.919500
1844.000000	20.925673
1843.000000	20.943621
1842.000000	20.925444
1841.000000	20.868742
1840.000000	20.811125
1839.000000	20.776258
1838.000000	20.739104
1837.000000	20.673485
1836.000000	20.608323
1835.000000	20.532987
1834.000000	20.460051
1833.000000	20.402548
1832.000000	20.352477
1831.000000	20.267080
1830.000000	20.182141
1829.000000	20.115493
1828.000000	20.037642
1827.000000	19.960705
1826.000000	19.878738
1825.000000	19.814262
1824.000000	19.793456
1823.000000	19.798714
1822.000000	19.783053
1821.000000	19.733895
1820.000000	19.666676
1819.000000	19.629522
1818.000000	19.615346
1817.000000	19.609287
1816.000000	19.624378
1815.000000	19.613289
1814.000000	19.590653
1813.000000	19.569047
1812.000000	19.544697
1811.000000	19.521833
1810.000000	19.494625
1809.000000	19.458157
1808.000000	19.427406
1807.000000	19.376876
1806.000000	19.313772
1805.000000	19.279134
1804.000000	19.238779
1803.000000	19.186649
1802.000000	19.140350
1801.000000	19.099424
1800.000000	19.046723
1799.000000	18.984876
1798.000000	18.940177
1797.000000	18.907253
1796.000000	18.872500
1795.000000	18.803451
1794.000000	18.749836
1793.000000	18.707652
1792.000000	18.641461
1791.000000	18.577214
1790.000000	18.503935
1789.000000	18.464495
1788.000000	18.398533
1787.000000	18.335429
1786.000000	18.262836
1785.000000	18.174924
1784.000000	18.098559
1783.000000	18.020593
1782.000000	17.952574
1781.000000	17.875294
1780.000000	17.805445
1779.000000	17.710674
1778.000000	17.631680
1777.000000	17.553600
1776.000000	17.460887
1775.000000	17.348968
1774.000000	17.231905
1773.000000	17.131533
1772.000000	17.030703
1771.000000	16.920385
1770.000000	16.814754
1769.000000	16.714154
1768.000000	16.620183
1767.000000	16.513981
1766.000000	16.448247
1765.000000	16.418181
1764.000000	16.372796
1763.000000	16.364451
1762.000000	16.386400
1761.000000	16.429384
1760.000000	16.491231
1759.000000	16.527585
1758.000000	16.592632
1757.000000	16.650821
1756.000000	16.678943
1755.000000	16.721356
1754.000000	16.738046
1753.000000	16.713239
1752.000000	16.707180
1751.000000	16.675971
1750.000000	16.649449
1749.000000	16.607494
1748.000000	16.513638
1747.000000	16.461508
1746.000000	16.372111
1745.000000	16.267623
1744.000000	16.145530
1743.000000	15.999544
1742.000000	15.818691
1741.000000	15.627778
1740.000000	15.438466
1739.000000	15.298082
1738.000000	15.143179
1737.000000	15.032975
1736.000000	14.936261
1735.000000	14.878187
1734.000000	14.851779
1733.000000	14.863554
1732.000000	14.923343
1731.000000	14.996508
1730.000000	15.088877
1729.000000	15.189250
1728.000000	15.276361
1727.000000	15.367016
1726.000000	15.437208
1725.000000	15.505114
1724.000000	15.552099
1723.000000	15.562731
1722.000000	15.580564
1721.000000	15.568104
1720.000000	15.563759
1719.000000	15.573591
1718.000000	15.580450
1717.000000	15.602171
1716.000000	15.628807
1715.000000	15.673620
1714.000000	15.697056
1713.000000	15.723463
1712.000000	15.737410
1711.000000	15.743584
1710.000000	15.732952
1709.000000	15.722320
1708.000000	15.706087
1707.000000	15.690082
1706.000000	15.657044
1705.000000	15.593025
1704.000000	15.540210
1703.000000	15.445553
1702.000000	15.396053
1701.000000	15.263214
1700.000000	15.135291
1699.000000	15.012169
1698.000000	14.914312
1697.000000	14.866527
1696.000000	14.803422
1695.000000	14.803880
1694.000000	14.867327
1693.000000	14.953866
1692.000000	15.087277
1691.000000	15.199767
1690.000000	15.310428
1689.000000	15.404741
1688.000000	15.467388
1687.000000	15.482707
1686.000000	15.466588
1685.000000	15.472533
1684.000000	15.568789
1683.000000	15.750671
1682.000000	16.028696
1681.000000	16.387429
1680.000000	16.795320
1679.000000	17.269631
1678.000000	17.707930
1677.000000	18.139371
1676.000000	18.528971
1675.000000	18.898794
1674.000000	19.181391
1673.000000	19.434150
1672.000000	19.681309
1671.000000	19.877252
1670.000000	20.035241
1669.000000	20.159506
1668.000000	20.253705
1667.000000	20.376484
1666.000000	20.465881
1665.000000	20.564539
1664.000000	20.592547
1663.000000	20.647534
1662.000000	20.705952
1661.000000	20.727101
1660.000000	20.736360
1659.000000	20.771228
1658.000000	20.780716
1657.000000	20.774429
1656.000000	20.774772
1655.000000	20.771685
1654.000000	20.743677
1653.000000	20.719670
1652.000000	20.686975
1651.000000	20.655994
1650.000000	20.611638
1649.000000	20.578371
1648.000000	20.523727
1647.000000	20.469768
1646.000000	20.423583
1645.000000	20.365509
1644.000000	20.325040
1643.000000	20.253933
1642.000000	20.179054
1641.000000	20.120637
1640.000000	20.054561
1639.000000	19.999459
1638.000000	19.922179
1637.000000	19.869592
1636.000000	19.787511
1635.000000	19.726236
1634.000000	19.648499
1633.000000	19.588367
1632.000000	19.534523
1631.000000	19.435065
1630.000000	19.340980
1629.000000	19.275704
1628.000000	19.214086
1627.000000	19.138407
1626.000000	19.068901
1625.000000	18.983161
1624.000000	18.911597
1623.000000	18.853180
1622.000000	18.767212
1621.000000	18.689246
1620.000000	18.631858
1619.000000	18.561438
1618.000000	18.479699
1617.000000	18.393960
1616.000000	18.337372
1615.000000	18.281584
1614.000000	18.238486
1613.000000	18.176068
1612.000000	18.100388
1611.000000	18.045058
1610.000000	18.000130
1609.000000	17.932568
1608.000000	17.857689
1607.000000	17.811046
1606.000000	17.770120
1605.000000	17.719477
1604.000000	17.661403
1603.000000	17.605157
1602.000000	17.550284
1601.000000	17.487637
1600.000000	17.451170
1599.000000	17.418474
1598.000000	17.368517
1597.000000	17.310786
1596.000000	17.275232
1595.000000	17.244480
