PE UV       SUBTECH     SPECTRUM    ASCII       PEDS        4.00        
   -1
CICIMAUCR0116-1.Sample.ASC
24/04/19
09:46:45.00
24/04/19
09:46:45.00
Vinicio Soto Monge
C. kalinini
250,000000
1
Lambda 1050
1050L1511233
PerkinElmer UV WinLab 6.3.2.0749 / 2.02.05 Lambda 900 UV/VIS/NIR, Aug  7 2015 09:38:08

0
0
3350/servo 860,8/2
0
0
UV/VIS
1
1
1
DoubleDePol,CommonBeamDepol,RBeamAtt,SBeamAtt,60mm sphere, WB InGaAs Detector
0
0
0
0
Program
Program
3350/servo 860,8/2
3350/0,2 860,8/0,2
3350/0,2 860,8/0,2
0
15.00
 
 
 
0
 
860,8
319,2
860,8
Front
100
on
S:100 R:100
0
0
0
0
 
0
 
 
 
0
 
 
0
0
0
0
0
 
 
 
 
0
0


0
0
#HDR
-1
-1
#GR
nm
%R
1.0
0.0
2500,000000
-1,000000
2251
8
96,409700
5,351700
#DATA
2482.000000	10.467546
2481.000000	10.474253
2480.000000	10.429293
2479.000000	10.430550
2478.000000	10.432227
2477.000000	10.496576
2476.000000	10.499196
2475.000000	10.482114
2474.000000	10.505799
2473.000000	10.496157
2472.000000	10.511039
2471.000000	10.509886
2470.000000	10.514288
2469.000000	10.605677
2468.000000	10.611231
2467.000000	10.664157
2466.000000	10.647598
2465.000000	10.679249
2464.000000	10.738777
2463.000000	10.772733
2462.000000	10.802183
2461.000000	10.862759
2460.000000	10.959388
2459.000000	11.003091
2458.000000	11.058741
2457.000000	11.125082
2456.000000	11.210182
2455.000000	11.284802
2454.000000	11.391492
2453.000000	11.462863
2452.000000	11.552679
2451.000000	11.648994
2450.000000	11.759247
2449.000000	11.857028
2448.000000	11.943491
2447.000000	12.045465
2446.000000	12.142093
2445.000000	12.245115
2444.000000	12.347403
2443.000000	12.451158
2442.000000	12.555857
2441.000000	12.647350
2440.000000	12.755612
2439.000000	12.848363
2438.000000	12.940380
2437.000000	13.024118
2436.000000	13.132589
2435.000000	13.222406
2434.000000	13.313690
2433.000000	13.375314
2432.000000	13.464502
2431.000000	13.528851
2430.000000	13.580414
2429.000000	13.668134
2428.000000	13.755436
2427.000000	13.804169
2426.000000	13.894405
2425.000000	13.963575
2424.000000	14.029496
2423.000000	14.089758
2422.000000	14.162177
2421.000000	14.227679
2420.000000	14.260902
2419.000000	14.307854
2418.000000	14.351452
2417.000000	14.426386
2416.000000	14.478159
2415.000000	14.512535
2414.000000	14.541565
2413.000000	14.586735
2412.000000	14.630229
2411.000000	14.667958
2410.000000	14.701181
2409.000000	14.746561
2408.000000	14.784185
2407.000000	14.815731
2406.000000	14.840779
2405.000000	14.894962
2404.000000	14.923573
2403.000000	14.954176
2402.000000	14.989390
2401.000000	15.018840
2400.000000	15.044936
2399.000000	15.068516
2398.000000	15.114211
2397.000000	15.138315
2396.000000	15.161582
2395.000000	15.207066
2394.000000	15.240184
2393.000000	15.258106
2392.000000	15.274140
2391.000000	15.299188
2390.000000	15.317110
2389.000000	15.317005
2388.000000	15.314909
2387.000000	15.324656
2386.000000	15.347398
2385.000000	15.337127
2384.000000	15.334088
2383.000000	15.333250
2382.000000	15.313546
2381.000000	15.298036
2380.000000	15.275084
2379.000000	15.263136
2378.000000	15.235573
2377.000000	15.197948
2376.000000	15.182962
2375.000000	15.166717
2374.000000	15.134228
2373.000000	15.098280
2372.000000	15.069355
2371.000000	15.023032
2370.000000	14.973669
2369.000000	14.927241
2368.000000	14.880080
2367.000000	14.829774
2366.000000	14.780202
2365.000000	14.728115
2364.000000	14.660622
2363.000000	14.582439
2362.000000	14.504989
2361.000000	14.437915
2360.000000	14.370107
2359.000000	14.304081
2358.000000	14.256605
2357.000000	14.199382
2356.000000	14.137758
2355.000000	14.095732
2354.000000	14.077706
2353.000000	14.066387
2352.000000	14.058736
2351.000000	14.059784
2350.000000	14.071942
2349.000000	14.086509
2348.000000	14.111138
2347.000000	14.145304
2346.000000	14.199592
2345.000000	14.243400
2344.000000	14.272640
2343.000000	14.310893
2342.000000	14.360570
2341.000000	14.388448
2340.000000	14.406055
2339.000000	14.431522
2338.000000	14.437915
2337.000000	14.434771
2336.000000	14.425338
2335.000000	14.403015
2334.000000	14.377129
2333.000000	14.353234
2332.000000	14.330282
2331.000000	14.294649
2330.000000	14.226526
2329.000000	14.182719
2328.000000	14.122038
2327.000000	14.052867
2326.000000	13.980239
2325.000000	13.893566
2324.000000	13.793794
2323.000000	13.701567
2322.000000	13.590894
2321.000000	13.477602
2320.000000	13.359803
2319.000000	13.228694
2318.000000	13.100729
2317.000000	12.965952
2316.000000	12.827297
2315.000000	12.675542
2314.000000	12.551036
2313.000000	12.447281
2312.000000	12.336503
2311.000000	12.230547
2310.000000	12.155718
2309.000000	12.105412
2308.000000	12.064958
2307.000000	12.029535
2306.000000	12.008469
2305.000000	12.040434
2304.000000	12.081727
2303.000000	12.135805
2302.000000	12.199421
2301.000000	12.286827
2300.000000	12.370145
2299.000000	12.474215
2298.000000	12.568643
2297.000000	12.674075
2296.000000	12.770704
2295.000000	12.863245
2294.000000	12.939961
2293.000000	13.005987
2292.000000	13.069183
2291.000000	13.121690
2290.000000	13.164240
2289.000000	13.175559
2288.000000	13.179646
2287.000000	13.194423
2286.000000	13.175664
2285.000000	13.159419
2284.000000	13.138249
2283.000000	13.121480
2282.000000	13.066459
2281.000000	13.058389
2280.000000	13.020764
2279.000000	13.000537
2278.000000	12.948450
2277.000000	12.928118
2276.000000	12.922564
2275.000000	12.900031
2274.000000	12.884310
2273.000000	12.862826
2272.000000	12.886302
2271.000000	12.945201
2270.000000	12.989009
2269.000000	13.062581
2268.000000	13.132799
2267.000000	13.241690
2266.000000	13.404764
2265.000000	13.546143
2264.000000	13.728816
2263.000000	13.945758
2262.000000	14.181671
2261.000000	14.420622
2260.000000	14.680849
2259.000000	14.956482
2258.000000	15.267643
2257.000000	15.534996
2256.000000	15.839869
2255.000000	16.121685
2254.000000	16.421737
2253.000000	16.709631
2252.000000	16.965771
2251.000000	17.217823
2250.000000	17.477001
2249.000000	17.715429
2248.000000	17.923149
2247.000000	18.143970
2246.000000	18.323917
2245.000000	18.479445
2244.000000	18.646082
2243.000000	18.793750
2242.000000	18.936702
2241.000000	19.057959
2240.000000	19.155531
2239.000000	19.285278
2238.000000	19.369330
2237.000000	19.424981
2236.000000	19.526640
2235.000000	19.559548
2234.000000	19.623059
2233.000000	19.634168
2232.000000	19.675251
2231.000000	19.688980
2230.000000	19.696840
2229.000000	19.697364
2228.000000	19.684159
2227.000000	19.673993
2226.000000	19.629242
2225.000000	19.616771
2224.000000	19.562587
2223.000000	19.529470
2222.000000	19.473819
2221.000000	19.406221
2220.000000	19.372265
2219.000000	19.303723
2218.000000	19.227531
2217.000000	19.181837
2216.000000	19.112772
2215.000000	19.053348
2214.000000	18.999479
2213.000000	18.949907
2212.000000	18.891427
2211.000000	18.820056
2210.000000	18.787148
2209.000000	18.748161
2208.000000	18.698379
2207.000000	18.650799
2206.000000	18.637698
2205.000000	18.606467
2204.000000	18.563288
2203.000000	18.536563
2202.000000	18.509838
2201.000000	18.474310
2200.000000	18.451672
2199.000000	18.423690
2198.000000	18.397908
2197.000000	18.384703
2196.000000	18.383550
2195.000000	18.362799
2194.000000	18.347079
2193.000000	18.310502
2192.000000	18.298345
2191.000000	18.270153
2190.000000	18.264598
2189.000000	18.265856
2188.000000	18.244057
2187.000000	18.222363
2186.000000	18.203812
2185.000000	18.172791
2184.000000	18.149000
2183.000000	18.123952
2182.000000	18.107393
2181.000000	18.115568
2180.000000	18.092092
2179.000000	18.067463
2178.000000	18.062957
2177.000000	18.055935
2176.000000	18.052476
2175.000000	18.051428
2174.000000	18.065891
2173.000000	18.085909
2172.000000	18.096389
2171.000000	18.099323
2170.000000	18.135481
2169.000000	18.145332
2168.000000	18.167865
2167.000000	18.211149
2166.000000	18.252756
2165.000000	18.283882
2164.000000	18.331044
2163.000000	18.373699
2162.000000	18.411847
2161.000000	18.472843
2160.000000	18.518956
2159.000000	18.581838
2158.000000	18.644301
2157.000000	18.722484
2156.000000	18.803811
2155.000000	18.865960
2154.000000	18.953680
2153.000000	19.027776
2152.000000	19.098099
2151.000000	19.187601
2150.000000	19.278675
2149.000000	19.356230
2148.000000	19.439024
2147.000000	19.527374
2146.000000	19.599269
2145.000000	19.657120
2144.000000	19.744002
2143.000000	19.823757
2142.000000	19.887059
2141.000000	19.957277
2140.000000	20.045940
2139.000000	20.114587
2138.000000	20.162901
2137.000000	20.225364
2136.000000	20.278394
2135.000000	20.338446
2134.000000	20.396193
2133.000000	20.438010
2132.000000	20.483075
2131.000000	20.512839
2130.000000	20.541031
2129.000000	20.585049
2128.000000	20.619005
2127.000000	20.637136
2126.000000	20.664699
2125.000000	20.671302
2124.000000	20.681153
2123.000000	20.691110
2122.000000	20.705153
2121.000000	20.701485
2120.000000	20.688175
2119.000000	20.695092
2118.000000	20.695406
2117.000000	20.688699
2116.000000	20.665328
2115.000000	20.648769
2114.000000	20.628961
2113.000000	20.607896
2112.000000	20.574254
2111.000000	20.556228
2110.000000	20.534848
2109.000000	20.506027
2108.000000	20.486009
2107.000000	20.465363
2106.000000	20.445765
2105.000000	20.419459
2104.000000	20.389486
2103.000000	20.361189
2102.000000	20.326499
2101.000000	20.298307
2100.000000	20.281119
2099.000000	20.264979
2098.000000	20.251669
2097.000000	20.237940
2096.000000	20.218447
2095.000000	20.200001
2094.000000	20.187949
2093.000000	20.172543
2092.000000	20.171180
2091.000000	20.166779
2090.000000	20.155669
2089.000000	20.145084
2088.000000	20.131565
2087.000000	20.125172
2086.000000	20.110499
2085.000000	20.095408
2084.000000	20.065329
2083.000000	20.026237
2082.000000	19.996159
2081.000000	19.965766
2080.000000	19.918395
2079.000000	19.861801
2078.000000	19.807198
2077.000000	19.745679
2076.000000	19.679338
2075.000000	19.618028
2074.000000	19.552736
2073.000000	19.487024
2072.000000	19.401819
2071.000000	19.304352
2070.000000	19.220719
2069.000000	19.142221
2068.000000	19.054291
2067.000000	18.965418
2066.000000	18.879899
2065.000000	18.794169
2064.000000	18.715357
2063.000000	18.625436
2062.000000	18.534362
2061.000000	18.468546
2060.000000	18.402939
2059.000000	18.352109
2058.000000	18.309349
2057.000000	18.274555
2056.000000	18.265332
2055.000000	18.272563
2054.000000	18.305891
2053.000000	18.335550
2052.000000	18.403148
2051.000000	18.487305
2050.000000	18.588860
2049.000000	18.712423
2048.000000	18.850239
2047.000000	19.004195
2046.000000	19.179951
2045.000000	19.331496
2044.000000	19.529679
2043.000000	19.712037
2042.000000	19.896910
2041.000000	20.078115
2040.000000	20.277870
2039.000000	20.460647
2038.000000	20.633887
2037.000000	20.796542
2036.000000	20.950812
2035.000000	21.117135
2034.000000	21.250235
2033.000000	21.393397
2032.000000	21.535091
2031.000000	21.667248
2030.000000	21.760418
2029.000000	21.862811
2028.000000	21.984278
2027.000000	22.083526
2026.000000	22.190216
2025.000000	22.280242
2024.000000	22.375823
2023.000000	22.450652
2022.000000	22.532713
2021.000000	22.605971
2020.000000	22.680172
2019.000000	22.739490
2018.000000	22.800067
2017.000000	22.828573
2016.000000	22.861586
2015.000000	22.928451
2014.000000	22.968905
2013.000000	23.020259
2012.000000	23.052538
2011.000000	23.078529
2010.000000	23.085970
2009.000000	23.098232
2008.000000	23.109761
2007.000000	23.120660
2006.000000	23.104520
2005.000000	23.102634
2004.000000	23.084084
2003.000000	23.053376
2002.000000	23.034931
2001.000000	22.993638
2000.000000	22.946896
1999.000000	22.899106
1998.000000	22.837586
1997.000000	22.806145
1996.000000	22.732364
1995.000000	22.669063
1994.000000	22.616347
1993.000000	22.554093
1992.000000	22.458618
1991.000000	22.380015
1990.000000	22.292190
1989.000000	22.195876
1988.000000	22.125867
1987.000000	22.016662
1986.000000	21.907038
1985.000000	21.821099
1984.000000	21.730654
1983.000000	21.626374
1982.000000	21.522095
1981.000000	21.421589
1980.000000	21.328943
1979.000000	21.227807
1978.000000	21.121956
1977.000000	21.021554
1976.000000	20.918218
1975.000000	20.832384
1974.000000	20.719092
1973.000000	20.620367
1972.000000	20.548053
1971.000000	20.438638
1970.000000	20.345992
1969.000000	20.252193
1968.000000	20.180089
1967.000000	20.078849
1966.000000	19.976141
1965.000000	19.892403
1964.000000	19.806360
1963.000000	19.730482
1962.000000	19.613312
1961.000000	19.536701
1960.000000	19.447304
1959.000000	19.358116
1958.000000	19.241784
1957.000000	19.164859
1956.000000	19.074204
1955.000000	19.010064
1954.000000	18.907147
1953.000000	18.823200
1952.000000	18.717558
1951.000000	18.666519
1950.000000	18.553541
1949.000000	18.507218
1948.000000	18.450415
1947.000000	18.370869
1946.000000	18.336074
1945.000000	18.272563
1944.000000	18.245210
1943.000000	18.195638
1942.000000	18.192074
1941.000000	18.151201
1940.000000	18.144284
1939.000000	18.150782
1938.000000	18.135585
1937.000000	18.165454
1936.000000	18.162101
1935.000000	18.207166
1934.000000	18.254956
1933.000000	18.295201
1932.000000	18.369611
1931.000000	18.453768
1930.000000	18.544423
1929.000000	18.665785
1928.000000	18.766292
1927.000000	18.878327
1926.000000	19.009016
1925.000000	19.154483
1924.000000	19.306763
1923.000000	19.471828
1922.000000	19.665819
1921.000000	19.879617
1920.000000	20.115635
1919.000000	20.296839
1918.000000	20.510953
1917.000000	20.707773
1916.000000	20.946620
1915.000000	21.229275
1914.000000	21.560453
1913.000000	21.870881
1912.000000	22.163911
1911.000000	22.442478
1910.000000	22.689604
1909.000000	22.978232
1908.000000	23.317166
1907.000000	23.701899
1906.000000	24.131383
1905.000000	24.562859
1904.000000	24.927679
1903.000000	25.311783
1902.000000	25.700813
1901.000000	26.146646
1900.000000	26.603589
1899.000000	27.053300
1898.000000	27.512129
1897.000000	27.912163
1896.000000	28.292075
1895.000000	28.705000
1894.000000	29.145174
1893.000000	29.633243
1892.000000	30.159041
1891.000000	30.639250
1890.000000	31.094516
1889.000000	31.581956
1888.000000	32.021292
1887.000000	32.502339
1886.000000	33.021430
1885.000000	33.586319
1884.000000	34.151419
1883.000000	34.698912
1882.000000	35.218736
1881.000000	35.739399
1880.000000	36.197809
1879.000000	36.673930
1878.000000	37.142191
1877.000000	37.540549
1876.000000	37.939954
1875.000000	38.335691
1874.000000	38.685944
1873.000000	39.019952
1872.000000	39.326292
1871.000000	39.590502
1870.000000	39.824318
1869.000000	40.030780
1868.000000	40.193645
1867.000000	40.304841
1866.000000	40.404090
1865.000000	40.506797
1864.000000	40.622081
1863.000000	40.728456
1862.000000	40.826238
1861.000000	40.910919
1860.000000	40.995076
1859.000000	41.049469
1858.000000	41.070010
1857.000000	41.091914
1856.000000	41.100717
1855.000000	41.122621
1854.000000	41.118220
1853.000000	41.068962
1852.000000	41.062045
1851.000000	41.049364
1850.000000	41.032805
1849.000000	41.030394
1848.000000	41.001049
1847.000000	40.899285
1846.000000	40.802342
1845.000000	40.781277
1844.000000	40.755600
1843.000000	40.783268
1842.000000	40.797417
1841.000000	40.728875
1840.000000	40.657609
1839.000000	40.599653
1838.000000	40.564439
1837.000000	40.507531
1836.000000	40.442553
1835.000000	40.355461
1834.000000	40.257575
1833.000000	40.199618
1832.000000	40.155601
1831.000000	40.101418
1830.000000	40.030571
1829.000000	39.960248
1828.000000	39.890134
1827.000000	39.825680
1826.000000	39.763322
1825.000000	39.712073
1824.000000	39.682204
1823.000000	39.722449
1822.000000	39.744562
1821.000000	39.717209
1820.000000	39.677908
1819.000000	39.633471
1818.000000	39.622257
1817.000000	39.622886
1816.000000	39.628755
1815.000000	39.604545
1814.000000	39.596790
1813.000000	39.589244
1812.000000	39.568074
1811.000000	39.515672
1810.000000	39.470921
1809.000000	39.438222
1808.000000	39.394310
1807.000000	39.348930
1806.000000	39.299463
1805.000000	39.244127
1804.000000	39.196022
1803.000000	39.166363
1802.000000	39.141105
1801.000000	39.087760
1800.000000	39.009682
1799.000000	38.943341
1798.000000	38.907498
1797.000000	38.874485
1796.000000	38.841367
1795.000000	38.782154
1794.000000	38.723883
1793.000000	38.675045
1792.000000	38.633123
1791.000000	38.578521
1790.000000	38.525071
1789.000000	38.471621
1788.000000	38.423097
1787.000000	38.386311
1786.000000	38.332128
1785.000000	38.254678
1784.000000	38.182364
1783.000000	38.092757
1782.000000	38.015622
1781.000000	37.935343
1780.000000	37.852443
1779.000000	37.766924
1778.000000	37.659815
1777.000000	37.525562
1776.000000	37.421283
1775.000000	37.301807
1774.000000	37.158017
1773.000000	37.007309
1772.000000	36.874733
1771.000000	36.730419
1770.000000	36.558122
1769.000000	36.425756
1768.000000	36.310577
1767.000000	36.181878
1766.000000	36.090176
1765.000000	36.036935
1764.000000	35.992604
1763.000000	35.979713
1762.000000	36.009477
1761.000000	36.051713
1760.000000	36.111346
1759.000000	36.170245
1758.000000	36.234804
1757.000000	36.282070
1756.000000	36.332690
1755.000000	36.393372
1754.000000	36.399660
1753.000000	36.406053
1752.000000	36.382577
1751.000000	36.348830
1750.000000	36.304289
1749.000000	36.226001
1748.000000	36.137547
1747.000000	36.022473
1746.000000	35.881303
1745.000000	35.713408
1744.000000	35.524866
1743.000000	35.306666
1742.000000	35.062369
1741.000000	34.812623
1740.000000	34.558056
1739.000000	34.306004
1738.000000	34.061498
1737.000000	33.876834
1736.000000	33.713656
1735.000000	33.617760
1734.000000	33.545865
1733.000000	33.530355
1732.000000	33.552154
1731.000000	33.585481
1730.000000	33.661044
1729.000000	33.750651
1728.000000	33.802319
1727.000000	33.866983
1726.000000	33.950825
1725.000000	33.994424
1724.000000	34.040642
1723.000000	34.107297
1722.000000	34.223628
1721.000000	34.311034
1720.000000	34.438161
1719.000000	34.597986
1718.000000	34.754876
1717.000000	34.946143
1716.000000	35.111103
1715.000000	35.289164
1714.000000	35.457478
1713.000000	35.589635
1712.000000	35.713932
1711.000000	35.842421
1710.000000	35.905093
1709.000000	35.949530
1708.000000	35.992080
1707.000000	36.033058
1706.000000	36.043643
1705.000000	36.019748
1704.000000	35.993861
1703.000000	35.930770
1702.000000	35.821145
1701.000000	35.697687
1700.000000	35.583766
1699.000000	35.478229
1698.000000	35.348797
1697.000000	35.293461
1696.000000	35.254788
1695.000000	35.267260
1694.000000	35.321967
1693.000000	35.423102
1692.000000	35.536080
1691.000000	35.645600
1690.000000	35.727346
1689.000000	35.815800
1688.000000	35.869250
1687.000000	35.940621
1686.000000	36.039136
1685.000000	36.176953
1684.000000	36.418420
1683.000000	36.779991
1682.000000	37.218278
1681.000000	37.755815
1680.000000	38.309176
1679.000000	38.879097
1678.000000	39.392528
1677.000000	39.843602
1676.000000	40.278116
1675.000000	40.652264
1674.000000	41.004927
1673.000000	41.308333
1672.000000	41.593817
1671.000000	41.841782
1670.000000	42.097607
1669.000000	42.310462
1668.000000	42.509693
1667.000000	42.709448
1666.000000	42.857116
1665.000000	43.002478
1664.000000	43.134216
1663.000000	43.258199
1662.000000	43.364469
1661.000000	43.469796
1660.000000	43.563071
1659.000000	43.623019
1658.000000	43.705289
1657.000000	43.743752
1656.000000	43.784835
1655.000000	43.801709
1654.000000	43.809359
1653.000000	43.827490
1652.000000	43.827490
1651.000000	43.809778
1650.000000	43.800136
1649.000000	43.774040
1648.000000	43.746058
1647.000000	43.730337
1646.000000	43.692713
1645.000000	43.627421
1644.000000	43.591997
1643.000000	43.554478
1642.000000	43.506687
1641.000000	43.453447
1640.000000	43.412993
1639.000000	43.357133
1638.000000	43.312801
1637.000000	43.267316
1636.000000	43.206845
1635.000000	43.138932
1634.000000	43.066199
1633.000000	42.990007
1632.000000	42.927439
1631.000000	42.836156
1630.000000	42.773483
1629.000000	42.681675
1628.000000	42.604750
1627.000000	42.519650
1626.000000	42.447859
1625.000000	42.364960
1624.000000	42.272523
1623.000000	42.202095
1622.000000	42.108611
1621.000000	42.056524
1620.000000	41.982218
1619.000000	41.889991
1618.000000	41.827633
1617.000000	41.759092
1616.000000	41.693380
1615.000000	41.615616
1614.000000	41.538062
1613.000000	41.448455
1612.000000	41.379809
1611.000000	41.315250
1610.000000	41.230464
1609.000000	41.151337
1608.000000	41.059425
1607.000000	40.983023
1606.000000	40.897923
