PE UV       SUBTECH     SPECTRUM    ASCII       PEDS        4.00        
   -1
CICIMAUCR0239-1.ASC
24/06/20
13:13:20.00
24/06/20
13:13:20.00
Vinicio Soto Monge
C. cupreomarginata. Sex M. Ventral 
250,000000
1
Lambda 1050
1050L1511233
PerkinElmer UV WinLab 6.3.2.0749 / 2.02.05 Lambda 900 UV/VIS/NIR, Aug  7 2015 09:38:08

0
0
3350/servo 860,8/2
0
0
UV/VIS
1
1
1
DoubleDePol,CommonBeamDepol,RBeamAtt,SBeamAtt,60mm sphere, WB InGaAs Detector
0
0
0
0
Program
Program
3350/servo 860,8/2
3350/0,2 860,8/0,2
3350/0,2 860,8/0,2
0
15.00
 
 
 
0
 
860,8
319,2
860,8
Front
100
on
S:100 R:100
0
0
0
0
 
0
 
 
 
0
 
 
0
0
0
0
0
 
 
 
 
0
0


0
0
#HDR
-1
-1
#GR
nm
%R
1.0
0.0
2500,000000
-1,000000
2251
8
61,358400
4,106400
#DATA
2482.000000	5.605189
2481.000000	5.580909
2480.000000	5.637563
2479.000000	5.622347
2478.000000	5.555118
2477.000000	5.590837
2476.000000	5.578858
2475.000000	5.606376
2474.000000	5.604865
2473.000000	5.609937
2472.000000	5.587383
2471.000000	5.588786
2470.000000	5.597204
2469.000000	5.577456
2468.000000	5.561916
2467.000000	5.637239
2466.000000	5.600657
2465.000000	5.537960
2464.000000	5.597311
2463.000000	5.578535
2462.000000	5.574974
2461.000000	5.582959
2460.000000	5.628174
2459.000000	5.622995
2458.000000	5.664325
2457.000000	5.623966
2456.000000	5.647275
2455.000000	5.677382
2454.000000	5.695080
2453.000000	5.710943
2452.000000	5.764792
2451.000000	5.763281
2450.000000	5.792849
2449.000000	5.790583
2448.000000	5.798029
2447.000000	5.842381
2446.000000	5.836661
2445.000000	5.869035
2444.000000	5.889970
2443.000000	5.920509
2442.000000	5.928603
2441.000000	5.953638
2440.000000	5.967020
2439.000000	6.025724
2438.000000	6.040616
2437.000000	6.044932
2436.000000	6.092090
2435.000000	6.083457
2434.000000	6.124464
2433.000000	6.139032
2432.000000	6.160722
2431.000000	6.157269
2430.000000	6.168168
2429.000000	6.219858
2428.000000	6.228276
2427.000000	6.246081
2426.000000	6.262052
2425.000000	6.284606
2424.000000	6.290865
2423.000000	6.296692
2422.000000	6.319030
2421.000000	6.338778
2420.000000	6.345792
2419.000000	6.347735
2418.000000	6.358418
2417.000000	6.385396
2416.000000	6.397914
2415.000000	6.417662
2414.000000	6.428561
2413.000000	6.441834
2412.000000	6.453921
2411.000000	6.461474
2410.000000	6.467733
2409.000000	6.485215
2408.000000	6.504208
2407.000000	6.507769
2406.000000	6.517913
2405.000000	6.510898
2404.000000	6.520826
2403.000000	6.545754
2402.000000	6.573056
2401.000000	6.572085
2400.000000	6.573919
2399.000000	6.604890
2398.000000	6.637803
2397.000000	6.661220
2396.000000	6.666832
2395.000000	6.680105
2394.000000	6.680860
2393.000000	6.695860
2392.000000	6.711939
2391.000000	6.720248
2390.000000	6.734385
2389.000000	6.739025
2388.000000	6.744097
2387.000000	6.756507
2386.000000	6.767514
2385.000000	6.773018
2384.000000	6.767946
2383.000000	6.762442
2382.000000	6.774852
2381.000000	6.788665
2380.000000	6.782622
2379.000000	6.779277
2378.000000	6.781003
2377.000000	6.784133
2376.000000	6.774421
2375.000000	6.764169
2374.000000	6.756507
2373.000000	6.743450
2372.000000	6.753486
2371.000000	6.733953
2370.000000	6.711831
2369.000000	6.716903
2368.000000	6.699313
2367.000000	6.675789
2366.000000	6.658091
2365.000000	6.636940
2364.000000	6.618595
2363.000000	6.598631
2362.000000	6.586437
2361.000000	6.569279
2360.000000	6.528704
2359.000000	6.501294
2358.000000	6.488021
2357.000000	6.465143
2356.000000	6.449712
2355.000000	6.435360
2354.000000	6.419173
2353.000000	6.418741
2352.000000	6.421115
2351.000000	6.421007
2350.000000	6.424892
2349.000000	6.417986
2348.000000	6.437086
2347.000000	6.460395
2346.000000	6.467518
2345.000000	6.467949
2344.000000	6.484028
2343.000000	6.511977
2342.000000	6.516726
2341.000000	6.532697
2340.000000	6.556329
2339.000000	6.562480
2338.000000	6.565178
2337.000000	6.568631
2336.000000	6.571977
2335.000000	6.582121
2334.000000	6.568416
2333.000000	6.549639
2332.000000	6.557193
2331.000000	6.544999
2330.000000	6.517049
2329.000000	6.507229
2328.000000	6.496438
2327.000000	6.469244
2326.000000	6.438381
2325.000000	6.413885
2324.000000	6.387446
2323.000000	6.368778
2322.000000	6.331656
2321.000000	6.310937
2320.000000	6.271764
2319.000000	6.223204
2318.000000	6.178096
2317.000000	6.126406
2316.000000	6.090363
2315.000000	6.068673
2314.000000	6.026911
2313.000000	5.997990
2312.000000	5.965185
2311.000000	5.932811
2310.000000	5.913171
2309.000000	5.869467
2308.000000	5.856733
2307.000000	5.836338
2306.000000	5.826086
2305.000000	5.826949
2304.000000	5.840762
2303.000000	5.845294
2302.000000	5.858352
2301.000000	5.877236
2300.000000	5.890725
2299.000000	5.929790
2298.000000	5.936588
2297.000000	5.969609
2296.000000	5.985257
2295.000000	6.014609
2294.000000	6.055400
2293.000000	6.100831
2292.000000	6.092953
2291.000000	6.131910
2290.000000	6.157701
2289.000000	6.153600
2288.000000	6.165255
2287.000000	6.172053
2286.000000	6.160507
2285.000000	6.162449
2284.000000	6.173348
2283.000000	6.153492
2282.000000	6.123708
2281.000000	6.108169
2280.000000	6.105363
2279.000000	6.079248
2278.000000	6.056371
2277.000000	6.053242
2276.000000	6.028422
2275.000000	6.014717
2274.000000	6.003602
2273.000000	5.990221
2272.000000	5.984825
2271.000000	5.981048
2270.000000	5.992595
2269.000000	6.015904
2268.000000	6.032199
2267.000000	6.047414
2266.000000	6.050544
2265.000000	6.097917
2264.000000	6.143888
2263.000000	6.186082
2262.000000	6.252124
2261.000000	6.325828
2260.000000	6.403202
2259.000000	6.472589
2258.000000	6.565178
2257.000000	6.671364
2256.000000	6.763953
2255.000000	6.877369
2254.000000	6.977296
2253.000000	7.117043
2252.000000	7.205099
2251.000000	7.330278
2250.000000	7.430960
2249.000000	7.538657
2248.000000	7.637936
2247.000000	7.735165
2246.000000	7.833366
2245.000000	7.909983
2244.000000	8.014658
2243.000000	8.067104
2242.000000	8.168650
2241.000000	8.218505
2240.000000	8.285519
2239.000000	8.346813
2238.000000	8.427100
2237.000000	8.479222
2236.000000	8.539653
2235.000000	8.554329
2234.000000	8.615515
2233.000000	8.668932
2232.000000	8.708643
2231.000000	8.752996
2230.000000	8.759686
2229.000000	8.783751
2228.000000	8.818283
2227.000000	8.827887
2226.000000	8.846987
2225.000000	8.840405
2224.000000	8.846448
2223.000000	8.875368
2222.000000	8.860584
2221.000000	8.867706
2220.000000	8.848174
2219.000000	8.872778
2218.000000	8.846016
2217.000000	8.850225
2216.000000	8.836088
2215.000000	8.844289
2214.000000	8.800909
2213.000000	8.800585
2212.000000	8.774902
2211.000000	8.781808
2210.000000	8.780082
2209.000000	8.772096
2208.000000	8.734758
2207.000000	8.745765
2206.000000	8.731953
2205.000000	8.731845
2204.000000	8.720730
2203.000000	8.723643
2202.000000	8.694399
2201.000000	8.710910
2200.000000	8.690406
2199.000000	8.691054
2198.000000	8.668608
2197.000000	8.672709
2196.000000	8.655766
2195.000000	8.682205
2194.000000	8.662565
2193.000000	8.651774
2192.000000	8.632889
2191.000000	8.639903
2190.000000	8.644543
2189.000000	8.635371
2188.000000	8.634400
2187.000000	8.624903
2186.000000	8.618860
2185.000000	8.610119
2184.000000	8.591343
2183.000000	8.605479
2182.000000	8.599760
2181.000000	8.579904
2180.000000	8.582925
2179.000000	8.548825
2178.000000	8.549041
2177.000000	8.549365
2176.000000	8.543969
2175.000000	8.542998
2174.000000	8.526379
2173.000000	8.543861
2172.000000	8.520013
2171.000000	8.518394
2170.000000	8.539113
2169.000000	8.546019
2168.000000	8.547854
2167.000000	8.547422
2166.000000	8.557890
2165.000000	8.534689
2164.000000	8.567602
2163.000000	8.576990
2162.000000	8.592638
2161.000000	8.598789
2160.000000	8.602242
2159.000000	8.623932
2158.000000	8.646918
2157.000000	8.652097
2156.000000	8.670550
2155.000000	8.676701
2154.000000	8.705406
2153.000000	8.726665
2152.000000	8.730010
2151.000000	8.751485
2150.000000	8.769398
2149.000000	8.788607
2148.000000	8.800369
2147.000000	8.808355
2146.000000	8.821412
2145.000000	8.861771
2144.000000	8.857023
2143.000000	8.867275
2142.000000	8.881411
2141.000000	8.905692
2140.000000	8.928569
2139.000000	8.917562
2138.000000	8.916699
2137.000000	8.945943
2136.000000	8.945835
2135.000000	8.954144
2134.000000	8.970655
2133.000000	8.983389
2132.000000	8.978101
2131.000000	8.977993
2130.000000	8.980151
2129.000000	8.983604
2128.000000	8.976266
2127.000000	8.965799
2126.000000	8.979828
2125.000000	8.963964
2124.000000	8.948425
2123.000000	8.961590
2122.000000	8.946914
2121.000000	8.944324
2120.000000	8.919720
2119.000000	8.918425
2118.000000	8.893929
2117.000000	8.873857
2116.000000	8.853894
2115.000000	8.847419
2114.000000	8.840836
2113.000000	8.824326
2112.000000	8.801988
2111.000000	8.792815
2110.000000	8.764434
2109.000000	8.742528
2108.000000	8.732061
2107.000000	8.713607
2106.000000	8.690190
2105.000000	8.666558
2104.000000	8.641630
2103.000000	8.627925
2102.000000	8.614760
2101.000000	8.594256
2100.000000	8.583465
2099.000000	8.566523
2098.000000	8.547530
2097.000000	8.521523
2096.000000	8.503718
2095.000000	8.497890
2094.000000	8.479761
2093.000000	8.450193
2092.000000	8.429582
2091.000000	8.425265
2090.000000	8.418575
2089.000000	8.397640
2088.000000	8.376165
2087.000000	8.362676
2086.000000	8.342281
2085.000000	8.321562
2084.000000	8.305914
2083.000000	8.288001
2082.000000	8.268576
2081.000000	8.245699
2080.000000	8.232642
2079.000000	8.218613
2078.000000	8.202426
2077.000000	8.196275
2076.000000	8.172750
2075.000000	8.138542
2074.000000	8.112535
2073.000000	8.088255
2072.000000	8.081888
2071.000000	8.065701
2070.000000	8.049083
2069.000000	8.026097
2068.000000	7.996961
2067.000000	7.977105
2066.000000	7.956170
2065.000000	7.926386
2064.000000	7.910739
2063.000000	7.895415
2062.000000	7.873509
2061.000000	7.867250
2060.000000	7.842430
2059.000000	7.826351
2058.000000	7.831855
2057.000000	7.839085
2056.000000	7.838437
2055.000000	7.834445
2054.000000	7.846747
2053.000000	7.861531
2052.000000	7.871567
2051.000000	7.875451
2050.000000	7.899300
2049.000000	7.940846
2048.000000	7.968040
2047.000000	7.998580
2046.000000	8.028687
2045.000000	8.072068
2044.000000	8.111888
2043.000000	8.136492
2042.000000	8.175448
2041.000000	8.218721
2040.000000	8.263289
2039.000000	8.307317
2038.000000	8.349727
2037.000000	8.376705
2036.000000	8.409942
2035.000000	8.446740
2034.000000	8.465948
2033.000000	8.483322
2032.000000	8.524005
2031.000000	8.556055
2030.000000	8.579041
2029.000000	8.602242
2028.000000	8.601271
2027.000000	8.620371
2026.000000	8.648644
2025.000000	8.659651
2024.000000	8.668716
2023.000000	8.673356
2022.000000	8.672061
2021.000000	8.690730
2020.000000	8.687277
2019.000000	8.700550
2018.000000	8.692133
2017.000000	8.692457
2016.000000	8.698716
2015.000000	8.707241
2014.000000	8.707349
2013.000000	8.675299
2012.000000	8.672277
2011.000000	8.649939
2010.000000	8.654364
2009.000000	8.639148
2008.000000	8.631918
2007.000000	8.622529
2006.000000	8.601918
2005.000000	8.578609
2004.000000	8.545696
2003.000000	8.525300
2002.000000	8.511595
2001.000000	8.485696
2000.000000	8.413827
1999.000000	8.402820
1998.000000	8.389546
1997.000000	8.358791
1996.000000	8.327281
1995.000000	8.297605
1994.000000	8.239872
1993.000000	8.233613
1992.000000	8.196815
1991.000000	8.160664
1990.000000	8.114585
1989.000000	8.064298
1988.000000	8.029227
1987.000000	7.993616
1986.000000	7.959084
1985.000000	7.921314
1984.000000	7.860559
1983.000000	7.834121
1982.000000	7.783402
1981.000000	7.743906
1980.000000	7.712935
1979.000000	7.670202
1978.000000	7.610418
1977.000000	7.567038
1976.000000	7.540815
1975.000000	7.514484
1974.000000	7.487614
1973.000000	7.448658
1972.000000	7.381968
1971.000000	7.369666
1970.000000	7.331357
1969.000000	7.306645
1968.000000	7.249559
1967.000000	7.224955
1966.000000	7.180063
1965.000000	7.178121
1964.000000	7.142078
1963.000000	7.097942
1962.000000	7.095676
1961.000000	7.041828
1960.000000	7.016252
1959.000000	6.975461
1958.000000	6.966613
1957.000000	6.940929
1956.000000	6.904023
1955.000000	6.881793
1954.000000	6.840247
1953.000000	6.846614
1952.000000	6.814780
1951.000000	6.778845
1950.000000	6.757478
1949.000000	6.750572
1948.000000	6.732766
1947.000000	6.687011
1946.000000	6.689278
1945.000000	6.663163
1944.000000	6.655393
1943.000000	6.626365
1942.000000	6.632084
1941.000000	6.623235
1940.000000	6.602084
1939.000000	6.617084
1938.000000	6.583523
1937.000000	6.590646
1936.000000	6.596797
1935.000000	6.573811
1934.000000	6.595070
1933.000000	6.609854
1932.000000	6.608451
1931.000000	6.640393
1930.000000	6.649350
1929.000000	6.685393
1928.000000	6.698666
1927.000000	6.715177
1926.000000	6.732119
1925.000000	6.742910
1924.000000	6.799025
1923.000000	6.859240
1922.000000	6.871434
1921.000000	6.906505
1920.000000	6.959922
1919.000000	7.002116
1918.000000	7.056396
1917.000000	7.109381
1916.000000	7.180711
1915.000000	7.241034
1914.000000	7.293264
1913.000000	7.378622
1912.000000	7.450168
1911.000000	7.546750
1910.000000	7.614087
1909.000000	7.688547
1908.000000	7.767539
1907.000000	7.874372
1906.000000	7.999551
1905.000000	8.100988
1904.000000	8.234692
1903.000000	8.352424
1902.000000	8.471236
1901.000000	8.604184
1900.000000	8.738212
1899.000000	8.905584
1898.000000	9.055906
1897.000000	9.210760
1896.000000	9.405974
1895.000000	9.573346
1894.000000	9.784747
1893.000000	9.974780
1892.000000	10.178519
1891.000000	10.437185
1890.000000	10.686571
1889.000000	10.935633
1888.000000	11.216745
1887.000000	11.536166
1886.000000	11.870802
1885.000000	12.250115
1884.000000	12.646477
1883.000000	13.101976
1882.000000	13.569884
1881.000000	14.073511
1880.000000	14.602930
1879.000000	15.075695
1878.000000	15.593458
1877.000000	16.103345
1876.000000	16.599850
1875.000000	17.096463
1874.000000	17.564156
1873.000000	18.018575
1872.000000	18.476556
1871.000000	18.885544
1870.000000	19.296583
1869.000000	19.677406
1868.000000	20.045171
1867.000000	20.314521
1866.000000	20.583331
1865.000000	20.815666
1864.000000	21.046923
1863.000000	21.239762
1862.000000	21.414472
1861.000000	21.602240
1860.000000	21.791734
1859.000000	21.924143
1858.000000	22.044789
1857.000000	22.157342
1856.000000	22.267952
1855.000000	22.336261
1854.000000	22.385469
1853.000000	22.440720
1852.000000	22.442662
1851.000000	22.450000
1850.000000	22.479568
1849.000000	22.484101
1848.000000	22.486367
1847.000000	22.472770
1846.000000	22.425504
1845.000000	22.371332
1844.000000	22.356872
1843.000000	22.341980
1842.000000	22.351368
1841.000000	22.351908
1840.000000	22.330433
1839.000000	22.309283
1838.000000	22.278635
1837.000000	22.242377
1836.000000	22.199536
1835.000000	22.152054
1834.000000	22.091515
1833.000000	22.028926
1832.000000	21.992236
1831.000000	21.937848
1830.000000	21.864144
1829.000000	21.797130
1828.000000	21.727958
1827.000000	21.655549
1826.000000	21.571269
1825.000000	21.497349
1824.000000	21.443825
1823.000000	21.385768
1822.000000	21.351344
1821.000000	21.338934
1820.000000	21.298574
1819.000000	21.243431
1818.000000	21.197460
1817.000000	21.167353
1816.000000	21.155267
1815.000000	21.155375
1814.000000	21.135303
1813.000000	21.099800
1812.000000	21.084908
1811.000000	21.069692
1810.000000	21.044764
1809.000000	20.995125
1808.000000	20.959082
1807.000000	20.926816
1806.000000	20.867464
1805.000000	20.804120
1804.000000	20.751890
1803.000000	20.703653
1802.000000	20.651316
1801.000000	20.605129
1800.000000	20.544266
1799.000000	20.479411
1798.000000	20.408189
1797.000000	20.361571
1796.000000	20.309017
1795.000000	20.255601
1794.000000	20.203695
1793.000000	20.136357
1792.000000	20.076574
1791.000000	20.014956
1790.000000	19.950424
1789.000000	19.877475
1788.000000	19.819742
1787.000000	19.767405
1786.000000	19.694132
1785.000000	19.609097
1784.000000	19.537875
1783.000000	19.470106
1782.000000	19.389711
1781.000000	19.297014
1780.000000	19.204533
1779.000000	19.124354
1778.000000	19.046657
1777.000000	18.958385
1776.000000	18.862990
1775.000000	18.760905
1774.000000	18.649647
1773.000000	18.528138
1772.000000	18.424758
1771.000000	18.307673
1770.000000	18.176235
1769.000000	18.047927
1768.000000	17.926094
1767.000000	17.812355
1766.000000	17.706492
1765.000000	17.618004
1764.000000	17.546458
1763.000000	17.508797
1762.000000	17.488509
1761.000000	17.500272
1760.000000	17.532322
1759.000000	17.590271
1758.000000	17.663651
1757.000000	17.742104
1756.000000	17.809333
1755.000000	17.876239
1754.000000	17.947677
1753.000000	17.979943
1752.000000	17.994727
1751.000000	18.010806
1750.000000	18.006921
1749.000000	17.986309
1748.000000	17.947029
1747.000000	17.900411
1746.000000	17.843757
1745.000000	17.745233
1744.000000	17.625774
1743.000000	17.512682
1742.000000	17.354266
1741.000000	17.171570
1740.000000	16.972364
1739.000000	16.751359
1738.000000	16.517621
1737.000000	16.326184
1736.000000	16.140251
1735.000000	15.993274
1734.000000	15.881045
1733.000000	15.810363
1732.000000	15.797629
1731.000000	15.840038
1730.000000	15.908131
1729.000000	15.997699
1728.000000	16.096654
1727.000000	16.208344
1726.000000	16.319062
1725.000000	16.440463
1724.000000	16.523988
1723.000000	16.617764
1722.000000	16.676576
1721.000000	16.710784
1720.000000	16.720065
1719.000000	16.731503
1718.000000	16.754812
1717.000000	16.793337
1716.000000	16.845459
1715.000000	16.880207
1714.000000	16.955098
1713.000000	17.042615
1712.000000	17.087938
1711.000000	17.124736
1710.000000	17.178369
1709.000000	17.211066
1708.000000	17.196066
1707.000000	17.179448
1706.000000	17.144916
1705.000000	17.107254
1704.000000	17.042831
1703.000000	16.956393
1702.000000	16.868768
1701.000000	16.772402
1700.000000	16.637727
1699.000000	16.487621
1698.000000	16.325968
1697.000000	16.183200
1696.000000	16.052410
1695.000000	15.957987
1694.000000	15.954965
1693.000000	15.996727
1692.000000	16.056187
1691.000000	16.213739
1690.000000	16.406255
1689.000000	16.579023
1688.000000	16.733446
1687.000000	16.840063
1686.000000	16.908372
1685.000000	16.950997
1684.000000	16.995889
1683.000000	17.094197
1682.000000	17.255742
1681.000000	17.525199
1680.000000	17.952533
1679.000000	18.474074
1678.000000	19.004895
1677.000000	19.549313
1676.000000	20.103768
1675.000000	20.650452
1674.000000	21.104872
1673.000000	21.496810
1672.000000	21.850763
1671.000000	22.147738
1670.000000	22.399713
1669.000000	22.620286
1668.000000	22.834600
1667.000000	23.004455
1666.000000	23.149057
1665.000000	23.284164
1664.000000	23.385925
1663.000000	23.490384
1662.000000	23.545312
1661.000000	23.612002
1660.000000	23.674591
1659.000000	23.725526
1658.000000	23.750453
1657.000000	23.785849
1656.000000	23.807755
1655.000000	23.798259
1654.000000	23.806028
1653.000000	23.803115
1652.000000	23.776892
1651.000000	23.768691
1650.000000	23.711821
1649.000000	23.661102
1648.000000	23.643836
1647.000000	23.589124
1646.000000	23.544017
1645.000000	23.484233
1644.000000	23.398119
1643.000000	23.329703
1642.000000	23.272401
1641.000000	23.228481
1640.000000	23.153050
1639.000000	23.062296
1638.000000	22.996145
1637.000000	22.917477
1636.000000	22.832766
1635.000000	22.767911
1634.000000	22.692696
1633.000000	22.616617
1632.000000	22.513777
1631.000000	22.409965
1630.000000	22.339930
1629.000000	22.240866
1628.000000	22.144716
1627.000000	22.060113
1626.000000	21.950797
1625.000000	21.856482
1624.000000	21.784181
1623.000000	21.698066
1622.000000	21.581845
1621.000000	21.500479
1620.000000	21.401199
1619.000000	21.324473
1618.000000	21.242676
1617.000000	21.154080
1616.000000	21.055987
1615.000000	20.987679
1614.000000	20.895737
1613.000000	20.807249
1612.000000	20.734624
1611.000000	20.659625
1610.000000	20.583870
1609.000000	20.496785
1608.000000	20.422757
1607.000000	20.355851
1606.000000	20.265313
1605.000000	20.208659
1604.000000	20.120062
1603.000000	20.027150
1602.000000	19.940065
1601.000000	19.865065
1600.000000	19.784886
1599.000000	19.724671
1598.000000	19.655068
1597.000000	19.592802
1596.000000	19.496760
1595.000000	19.413020
1594.000000	19.341582
1593.000000	19.279101
1592.000000	19.220288
1591.000000	19.142052
1590.000000	19.087988
1589.000000	19.021622
1588.000000	18.966370
1587.000000	18.925364
1586.000000	18.860508
1585.000000	18.810329
1584.000000	18.746229
1583.000000	18.705438
1582.000000	18.683208
1581.000000	18.614684
1580.000000	18.580475
