PE UV       SUBTECH     SPECTRUM    ASCII       PEDS        4.00        
   -1
CICIMAUCR0251-3.ASC
24/05/30
14:00:00.00
24/05/30
14:00:00.00
Vinicio Soto Monge
C. resplendens, F Ventral
250,000000
1
Lambda 1050
1050L1511233
PerkinElmer UV WinLab 6.3.2.0749 / 2.02.05 Lambda 900 UV/VIS/NIR, Aug  7 2015 09:38:08

0
0
3350/servo 860,8/2
0
0
UV/VIS
1
1
1
DoubleDePol,CommonBeamDepol,RBeamAtt,SBeamAtt,60mm sphere, WB InGaAs Detector
0
0
0
0
Program
Program
3350/servo 860,8/2
3350/0,2 860,8/0,2
3350/0,2 860,8/0,2
0
15.00
 
 
 
0
 
860,8
319,2
860,8
Front
100
on
S:100 R:100
0
0
0
0
 
0
 
 
 
0
 
 
0
0
0
0
0
 
 
 
 
0
0


0
0
#HDR
-1
-1
#GR
nm
%R
1.0
0.0
2500,000000
-1,000000
2251
8
60,560100
3,798400
#DATA
2500.000000	4.764316
2499.000000	4.664039
2498.000000	4.614503
2497.000000	4.600366
2496.000000	4.631271
2495.000000	4.615709
2494.000000	4.498554
2493.000000	4.662395
2492.000000	4.606174
2491.000000	4.456799
2490.000000	4.505678
2489.000000	4.476088
2488.000000	4.440251
2487.000000	4.506883
2486.000000	4.405949
2485.000000	4.359481
2484.000000	4.501623
2483.000000	4.444306
2482.000000	4.477622
2481.000000	4.326494
2480.000000	4.412743
2479.000000	4.408688
2478.000000	4.397510
2477.000000	4.452416
2476.000000	4.426662
2475.000000	4.378441
2474.000000	4.387756
2473.000000	4.376030
2472.000000	4.322549
2471.000000	4.331974
2470.000000	4.371646
2469.000000	4.366495
2468.000000	4.331206
2467.000000	4.369564
2466.000000	4.354002
2465.000000	4.380852
2464.000000	4.359262
2463.000000	4.341837
2462.000000	4.387208
2461.000000	4.361783
2460.000000	4.395099
2459.000000	4.392030
2458.000000	4.392797
2457.000000	4.387866
2456.000000	4.454717
2455.000000	4.452306
2454.000000	4.468197
2453.000000	4.451320
2452.000000	4.462827
2451.000000	4.502938
2450.000000	4.510829
2449.000000	4.503924
2448.000000	4.505678
2447.000000	4.534391
2446.000000	4.559268
2445.000000	4.564748
2444.000000	4.558282
2443.000000	4.579434
2442.000000	4.621517
2441.000000	4.654066
2440.000000	4.640257
2439.000000	4.642120
2438.000000	4.651107
2437.000000	4.689684
2436.000000	4.714671
2435.000000	4.736480
2434.000000	4.739219
2433.000000	4.751165
2432.000000	4.756754
2431.000000	4.771220
2430.000000	4.769577
2429.000000	4.792920
2428.000000	4.813633
2427.000000	4.828866
2426.000000	4.851333
2425.000000	4.848264
2424.000000	4.864155
2423.000000	4.873032
2422.000000	4.881471
2421.000000	4.888704
2420.000000	4.910293
2419.000000	4.911608
2418.000000	4.911608
2417.000000	4.932760
2416.000000	4.946459
2415.000000	4.948870
2414.000000	4.945144
2413.000000	4.964651
2412.000000	4.967939
2411.000000	4.973638
2410.000000	5.003228
2409.000000	5.001146
2408.000000	5.008817
2407.000000	5.028544
2406.000000	5.031503
2405.000000	5.031941
2404.000000	5.040380
2403.000000	5.024050
2402.000000	5.024708
2401.000000	5.060654
2400.000000	5.068545
2399.000000	5.069641
2398.000000	5.083888
2397.000000	5.091888
2396.000000	5.106902
2395.000000	5.120492
2394.000000	5.115999
2393.000000	5.125533
2392.000000	5.141314
2391.000000	5.142958
2390.000000	5.129369
2389.000000	5.145041
2388.000000	5.176274
2387.000000	5.163343
2386.000000	5.138794
2385.000000	5.138465
2384.000000	5.153698
2383.000000	5.157315
2382.000000	5.163781
2381.000000	5.172329
2380.000000	5.173644
2379.000000	5.177590
2378.000000	5.167836
2377.000000	5.164329
2376.000000	5.155342
2375.000000	5.157425
2374.000000	5.158082
2373.000000	5.152602
2372.000000	5.159726
2371.000000	5.155233
2370.000000	5.142410
2369.000000	5.148328
2368.000000	5.135287
2367.000000	5.114355
2366.000000	5.119177
2365.000000	5.112930
2364.000000	5.107122
2363.000000	5.087724
2362.000000	5.055065
2361.000000	5.045531
2360.000000	5.047065
2359.000000	5.039065
2358.000000	5.012762
2357.000000	5.003776
2356.000000	5.005529
2355.000000	4.999502
2354.000000	4.993912
2353.000000	4.995008
2352.000000	5.002022
2351.000000	5.004981
2350.000000	4.994570
2349.000000	4.996543
2348.000000	5.011118
2347.000000	5.009584
2346.000000	5.006296
2345.000000	5.025475
2344.000000	5.030845
2343.000000	5.036654
2342.000000	5.044215
2341.000000	5.064928
2340.000000	5.088162
2339.000000	5.085203
2338.000000	5.090025
2337.000000	5.091888
2336.000000	5.082354
2335.000000	5.097368
2334.000000	5.104163
2333.000000	5.102409
2332.000000	5.094628
2331.000000	5.094299
2330.000000	5.101971
2329.000000	5.073257
2328.000000	5.057476
2327.000000	5.042352
2326.000000	5.030407
2325.000000	5.030297
2324.000000	5.034681
2323.000000	5.006406
2322.000000	4.983611
2321.000000	4.968816
2320.000000	4.958514
2319.000000	4.945253
2318.000000	4.923335
2317.000000	4.899444
2316.000000	4.867114
2315.000000	4.838729
2314.000000	4.820647
2313.000000	4.806619
2312.000000	4.787769
2311.000000	4.765960
2310.000000	4.742398
2309.000000	4.731438
2308.000000	4.733959
2307.000000	4.724534
2306.000000	4.720917
2305.000000	4.712588
2304.000000	4.714232
2303.000000	4.733411
2302.000000	4.717191
2301.000000	4.720370
2300.000000	4.756425
2299.000000	4.778454
2298.000000	4.793358
2297.000000	4.802783
2296.000000	4.828318
2295.000000	4.840154
2294.000000	4.859662
2293.000000	4.875553
2292.000000	4.886950
2291.000000	4.892101
2290.000000	4.926842
2289.000000	4.920814
2288.000000	4.942404
2287.000000	4.938020
2286.000000	4.934952
2285.000000	4.931773
2284.000000	4.940212
2283.000000	4.922787
2282.000000	4.931006
2281.000000	4.911937
2280.000000	4.917636
2279.000000	4.907444
2278.000000	4.906129
2277.000000	4.901307
2276.000000	4.887169
2275.000000	4.895937
2274.000000	4.886841
2273.000000	4.874018
2272.000000	4.859333
2271.000000	4.878950
2270.000000	4.879169
2269.000000	4.897142
2268.000000	4.925527
2267.000000	4.924102
2266.000000	4.944157
2265.000000	4.977145
2264.000000	5.006954
2263.000000	5.038626
2262.000000	5.090354
2261.000000	5.142958
2260.000000	5.191617
2259.000000	5.269757
2258.000000	5.316443
2257.000000	5.376171
2256.000000	5.461215
2255.000000	5.543957
2254.000000	5.609603
2253.000000	5.688072
2252.000000	5.753170
2251.000000	5.842049
2250.000000	5.911969
2249.000000	5.975533
2248.000000	6.064741
2247.000000	6.135209
2246.000000	6.198334
2245.000000	6.223869
2244.000000	6.289187
2243.000000	6.370066
2242.000000	6.409629
2241.000000	6.460589
2240.000000	6.497193
2239.000000	6.524482
2238.000000	6.568538
2237.000000	6.612156
2236.000000	6.647225
2235.000000	6.676596
2234.000000	6.693035
2233.000000	6.730187
2232.000000	6.751667
2231.000000	6.761750
2230.000000	6.778956
2229.000000	6.797696
2228.000000	6.807011
2227.000000	6.811833
2226.000000	6.805915
2225.000000	6.802408
2224.000000	6.813477
2223.000000	6.802080
2222.000000	6.802956
2221.000000	6.796490
2220.000000	6.775997
2219.000000	6.780052
2218.000000	6.767996
2217.000000	6.747503
2216.000000	6.761092
2215.000000	6.743996
2214.000000	6.717365
2213.000000	6.705309
2212.000000	6.680651
2211.000000	6.677583
2210.000000	6.664651
2209.000000	6.645472
2208.000000	6.641965
2207.000000	6.639992
2206.000000	6.627937
2205.000000	6.613033
2204.000000	6.624869
2203.000000	6.609526
2202.000000	6.609416
2201.000000	6.595826
2200.000000	6.586073
2199.000000	6.595498
2198.000000	6.560976
2197.000000	6.577853
2196.000000	6.553853
2195.000000	6.582456
2194.000000	6.560209
2193.000000	6.542784
2192.000000	6.549688
2191.000000	6.536537
2190.000000	6.554729
2189.000000	6.528537
2188.000000	6.522399
2187.000000	6.511550
2186.000000	6.517249
2185.000000	6.516482
2184.000000	6.517468
2183.000000	6.505303
2182.000000	6.498728
2181.000000	6.485796
2180.000000	6.479001
2179.000000	6.468480
2178.000000	6.457849
2177.000000	6.461576
2176.000000	6.470562
2175.000000	6.462891
2174.000000	6.455110
2173.000000	6.455110
2172.000000	6.454452
2171.000000	6.457630
2170.000000	6.465959
2169.000000	6.457192
2168.000000	6.455986
2167.000000	6.447767
2166.000000	6.494673
2165.000000	6.465083
2164.000000	6.475713
2163.000000	6.503002
2162.000000	6.532153
2161.000000	6.504098
2160.000000	6.529852
2159.000000	6.531496
2158.000000	6.553853
2157.000000	6.559661
2156.000000	6.569853
2155.000000	6.609087
2154.000000	6.619498
2153.000000	6.623225
2152.000000	6.659609
2151.000000	6.657198
2150.000000	6.690953
2149.000000	6.713529
2148.000000	6.730954
2147.000000	6.731502
2146.000000	6.766133
2145.000000	6.781476
2144.000000	6.805148
2143.000000	6.830245
2142.000000	6.825313
2141.000000	6.848109
2140.000000	6.871452
2139.000000	6.883507
2138.000000	6.894028
2137.000000	6.918796
2136.000000	6.936440
2135.000000	6.941920
2134.000000	6.950468
2133.000000	6.962742
2132.000000	6.974030
2131.000000	7.003730
2130.000000	7.007018
2129.000000	7.006798
2128.000000	7.015347
2127.000000	7.032662
2126.000000	7.014908
2125.000000	7.026525
2124.000000	7.049211
2123.000000	7.045923
2122.000000	7.029923
2121.000000	7.028279
2120.000000	7.018854
2119.000000	7.016333
2118.000000	7.043402
2117.000000	7.016004
2116.000000	7.012607
2115.000000	7.025320
2114.000000	7.014908
2113.000000	7.016223
2112.000000	6.998469
2111.000000	6.985428
2110.000000	6.975345
2109.000000	6.970743
2108.000000	6.971181
2107.000000	6.964057
2106.000000	6.956605
2105.000000	6.945646
2104.000000	6.928221
2103.000000	6.926138
2102.000000	6.923399
2101.000000	6.920440
2100.000000	6.917809
2099.000000	6.908384
2098.000000	6.886904
2097.000000	6.879890
2096.000000	6.878904
2095.000000	6.864767
2094.000000	6.845040
2093.000000	6.841643
2092.000000	6.839451
2091.000000	6.842958
2090.000000	6.845040
2089.000000	6.834519
2088.000000	6.817751
2087.000000	6.811724
2086.000000	6.813477
2085.000000	6.810299
2084.000000	6.801860
2083.000000	6.794299
2082.000000	6.776325
2081.000000	6.766681
2080.000000	6.747393
2079.000000	6.742023
2078.000000	6.745530
2077.000000	6.717693
2076.000000	6.705200
2075.000000	6.694679
2074.000000	6.668267
2073.000000	6.640431
2072.000000	6.612485
2071.000000	6.611060
2070.000000	6.594731
2069.000000	6.566346
2068.000000	6.546729
2067.000000	6.530400
2066.000000	6.506399
2065.000000	6.484042
2064.000000	6.472535
2063.000000	6.446890
2062.000000	6.437684
2061.000000	6.414999
2060.000000	6.378943
2059.000000	6.374998
2058.000000	6.379600
2057.000000	6.377957
2056.000000	6.357134
2055.000000	6.356148
2054.000000	6.362723
2053.000000	6.374559
2052.000000	6.398779
2051.000000	6.414670
2050.000000	6.425848
2049.000000	6.472973
2048.000000	6.506399
2047.000000	6.525468
2046.000000	6.563716
2045.000000	6.584648
2044.000000	6.623115
2043.000000	6.674624
2042.000000	6.719118
2041.000000	6.749585
2040.000000	6.771065
2039.000000	6.813477
2038.000000	6.864109
2037.000000	6.918686
2036.000000	6.955509
2035.000000	6.979620
2034.000000	7.007456
2033.000000	7.046142
2032.000000	7.077486
2031.000000	7.102144
2030.000000	7.118364
2029.000000	7.147954
2028.000000	7.182366
2027.000000	7.191133
2026.000000	7.220504
2025.000000	7.234641
2024.000000	7.254368
2023.000000	7.259738
2022.000000	7.281766
2021.000000	7.310370
2020.000000	7.328343
2019.000000	7.314425
2018.000000	7.315082
2017.000000	7.330535
2016.000000	7.329768
2015.000000	7.325274
2014.000000	7.352234
2013.000000	7.354207
2012.000000	7.335686
2011.000000	7.328343
2010.000000	7.336343
2009.000000	7.319137
2008.000000	7.311575
2007.000000	7.296780
2006.000000	7.295465
2005.000000	7.288123
2004.000000	7.265108
2003.000000	7.243299
2002.000000	7.242422
2001.000000	7.229710
2000.000000	7.193654
1999.000000	7.170311
1998.000000	7.161872
1997.000000	7.129213
1996.000000	7.094253
1995.000000	7.079897
1994.000000	7.083294
1993.000000	7.039238
1992.000000	6.990688
1991.000000	6.958468
1990.000000	6.945646
1989.000000	6.897316
1988.000000	6.865643
1987.000000	6.831231
1986.000000	6.812053
1985.000000	6.765257
1984.000000	6.742680
1983.000000	6.727118
1982.000000	6.671117
1981.000000	6.634951
1980.000000	6.621910
1979.000000	6.591004
1978.000000	6.548154
1977.000000	6.514728
1976.000000	6.474179
1975.000000	6.470343
1974.000000	6.441082
1973.000000	6.411382
1972.000000	6.346394
1971.000000	6.324585
1970.000000	6.308584
1969.000000	6.273076
1968.000000	6.263652
1967.000000	6.224308
1966.000000	6.213897
1965.000000	6.174662
1964.000000	6.141894
1963.000000	6.115592
1962.000000	6.115044
1961.000000	6.088084
1960.000000	6.063645
1959.000000	6.035480
1958.000000	6.025617
1957.000000	5.988793
1956.000000	5.962601
1955.000000	5.938381
1954.000000	5.928846
1953.000000	5.892352
1952.000000	5.887092
1951.000000	5.856187
1950.000000	5.848734
1949.000000	5.818267
1948.000000	5.818706
1947.000000	5.794157
1946.000000	5.763910
1945.000000	5.753608
1944.000000	5.727634
1943.000000	5.720949
1942.000000	5.712949
1941.000000	5.696510
1940.000000	5.710867
1939.000000	5.703634
1938.000000	5.710428
1937.000000	5.695085
1936.000000	5.684126
1935.000000	5.712182
1934.000000	5.704620
1933.000000	5.719853
1932.000000	5.718648
1931.000000	5.758211
1930.000000	5.768512
1929.000000	5.769937
1928.000000	5.796459
1927.000000	5.812788
1926.000000	5.822980
1925.000000	5.880187
1924.000000	5.889064
1923.000000	5.944847
1922.000000	5.992300
1921.000000	6.006109
1920.000000	6.065727
1919.000000	6.129949
1918.000000	6.146388
1917.000000	6.221130
1916.000000	6.291159
1915.000000	6.346942
1914.000000	6.416095
1913.000000	6.469685
1912.000000	6.563058
1911.000000	6.643170
1910.000000	6.706953
1909.000000	6.805148
1908.000000	6.877479
1907.000000	6.961098
1906.000000	7.056663
1905.000000	7.193983
1904.000000	7.297328
1903.000000	7.432346
1902.000000	7.550487
1901.000000	7.677066
1900.000000	7.840140
1899.000000	7.993350
1898.000000	8.133738
1897.000000	8.310621
1896.000000	8.496709
1895.000000	8.652221
1894.000000	8.827021
1893.000000	9.001273
1892.000000	9.187690
1891.000000	9.398108
1890.000000	9.651047
1889.000000	9.856643
1888.000000	10.086897
1887.000000	10.368111
1886.000000	10.619626
1885.000000	10.917827
1884.000000	11.225453
1883.000000	11.577684
1882.000000	11.923339
1881.000000	12.273816
1880.000000	12.624402
1879.000000	12.978386
1878.000000	13.314725
1877.000000	13.659832
1876.000000	14.015131
1875.000000	14.329991
1874.000000	14.675536
1873.000000	14.985025
1872.000000	15.339338
1871.000000	15.657485
1870.000000	15.949439
1869.000000	16.254983
1868.000000	16.552527
1867.000000	16.758999
1866.000000	16.946731
1865.000000	17.095449
1864.000000	17.247344
1863.000000	17.368444
1862.000000	17.454254
1861.000000	17.581820
1860.000000	17.708400
1859.000000	17.830376
1858.000000	17.938434
1857.000000	18.011533
1856.000000	18.085069
1855.000000	18.111590
1854.000000	18.154880
1853.000000	18.205292
1852.000000	18.214607
1851.000000	18.207374
1850.000000	18.203648
1849.000000	18.198826
1848.000000	18.181839
1847.000000	18.186442
1846.000000	18.196415
1845.000000	18.160907
1844.000000	18.133290
1843.000000	18.081891
1842.000000	18.044958
1841.000000	18.051205
1840.000000	18.065233
1839.000000	18.030711
1838.000000	17.974819
1837.000000	17.947859
1836.000000	17.922215
1835.000000	17.914872
1834.000000	17.886049
1833.000000	17.821499
1832.000000	17.738647
1831.000000	17.682317
1830.000000	17.638041
1829.000000	17.609876
1828.000000	17.545326
1827.000000	17.485160
1826.000000	17.435843
1825.000000	17.386198
1824.000000	17.339840
1823.000000	17.275399
1822.000000	17.232330
1821.000000	17.212274
1820.000000	17.206685
1819.000000	17.211617
1818.000000	17.189808
1817.000000	17.151231
1816.000000	17.133696
1815.000000	17.126902
1814.000000	17.110682
1813.000000	17.087558
1812.000000	17.072325
1811.000000	17.056653
1810.000000	17.018624
1809.000000	16.981144
1808.000000	16.958348
1807.000000	16.922731
1806.000000	16.889305
1805.000000	16.848975
1804.000000	16.796809
1803.000000	16.744424
1802.000000	16.695545
1801.000000	16.658613
1800.000000	16.633297
1799.000000	16.591652
1798.000000	16.538061
1797.000000	16.478004
1796.000000	16.433729
1795.000000	16.402385
1794.000000	16.366001
1793.000000	16.318766
1792.000000	16.282272
1791.000000	16.234599
1790.000000	16.182872
1789.000000	16.153720
1788.000000	16.113390
1787.000000	16.036894
1786.000000	15.983523
1785.000000	15.945932
1784.000000	15.882369
1783.000000	15.827573
1782.000000	15.771461
1781.000000	15.714911
1780.000000	15.648937
1779.000000	15.576934
1778.000000	15.529371
1777.000000	15.467451
1776.000000	15.386901
1775.000000	15.307775
1774.000000	15.227334
1773.000000	15.140318
1772.000000	15.055274
1771.000000	14.944586
1770.000000	14.857569
1769.000000	14.777238
1768.000000	14.691756
1767.000000	14.608904
1766.000000	14.525832
1765.000000	14.453721
1764.000000	14.399143
1763.000000	14.367800
1762.000000	14.369554
1761.000000	14.373608
1760.000000	14.385554
1759.000000	14.416897
1758.000000	14.460515
1757.000000	14.492516
1756.000000	14.549176
1755.000000	14.604082
1754.000000	14.639261
1753.000000	14.661508
1752.000000	14.682111
1751.000000	14.671262
1750.000000	14.665892
1749.000000	14.652741
1748.000000	14.618767
1747.000000	14.549395
1746.000000	14.489667
1745.000000	14.433227
1744.000000	14.344128
1743.000000	14.241330
1742.000000	14.123628
1741.000000	13.982911
1740.000000	13.835728
1739.000000	13.668709
1738.000000	13.514622
1737.000000	13.368426
1736.000000	13.253573
1735.000000	13.146830
1734.000000	13.067704
1733.000000	13.027045
1732.000000	13.008305
1731.000000	13.009510
1730.000000	13.037237
1729.000000	13.062334
1728.000000	13.142884
1727.000000	13.214448
1726.000000	13.275162
1725.000000	13.339274
1724.000000	13.378947
1723.000000	13.421359
1722.000000	13.457744
1721.000000	13.493471
1720.000000	13.536979
1719.000000	13.575665
1718.000000	13.601639
1717.000000	13.667723
1716.000000	13.716711
1715.000000	13.782686
1714.000000	13.853373
1713.000000	13.934690
1712.000000	14.000336
1711.000000	14.057105
1710.000000	14.094476
1709.000000	14.129984
1708.000000	14.133930
1707.000000	14.151903
1706.000000	14.123628
1705.000000	14.126149
1704.000000	14.075846
1703.000000	14.051187
1702.000000	13.997377
1701.000000	13.930635
1700.000000	13.840550
1699.000000	13.733478
1698.000000	13.618735
1697.000000	13.537417
1696.000000	13.483498
1695.000000	13.443387
1694.000000	13.409085
1693.000000	13.401413
1692.000000	13.486786
1691.000000	13.591008
1690.000000	13.696327
1689.000000	13.767562
1688.000000	13.859619
1687.000000	13.934252
1686.000000	13.989158
1685.000000	14.024666
1684.000000	14.088120
1683.000000	14.183246
1682.000000	14.353005
1681.000000	14.610109
1680.000000	14.905242
1679.000000	15.267116
1678.000000	15.680938
1677.000000	16.064073
1676.000000	16.497840
1675.000000	16.868592
1674.000000	17.184986
1673.000000	17.478584
1672.000000	17.769223
1671.000000	17.991148
1670.000000	18.192360
1669.000000	18.354119
1668.000000	18.551057
1667.000000	18.696815
1666.000000	18.816818
1665.000000	18.939014
1664.000000	19.035236
1663.000000	19.104280
1662.000000	19.171898
1661.000000	19.253435
1660.000000	19.327520
1659.000000	19.392727
1658.000000	19.441386
1657.000000	19.453003
1656.000000	19.480072
1655.000000	19.511745
1654.000000	19.510430
1653.000000	19.536184
1652.000000	19.502648
1651.000000	19.513060
1650.000000	19.497936
1649.000000	19.489936
1648.000000	19.446866
1647.000000	19.405440
1646.000000	19.364891
1645.000000	19.322698
1644.000000	19.279189
1643.000000	19.230311
1642.000000	19.185926
1641.000000	19.138034
1640.000000	19.092444
1639.000000	19.037867
1638.000000	18.986906
1637.000000	18.927507
1636.000000	18.870519
1635.000000	18.800270
1634.000000	18.749638
1633.000000	18.686075
1632.000000	18.627662
1631.000000	18.534179
1630.000000	18.457684
1629.000000	18.419655
1628.000000	18.345132
1627.000000	18.272692
1626.000000	18.159702
1625.000000	18.113234
1624.000000	18.034109
1623.000000	17.954983
1622.000000	17.913776
1621.000000	17.823253
1620.000000	17.763525
1619.000000	17.679906
1618.000000	17.621821
1617.000000	17.531298
1616.000000	17.499845
1615.000000	17.453487
1614.000000	17.379512
1613.000000	17.309921
1612.000000	17.255344
1611.000000	17.182684
1610.000000	17.106408
1609.000000	17.057530
1608.000000	16.998678
1607.000000	16.934895
1606.000000	16.872537
1605.000000	16.809412
1604.000000	16.745191
1603.000000	16.689189
1602.000000	16.625406
1601.000000	16.543212
1600.000000	16.483265
1599.000000	16.429345
1598.000000	16.373782
1597.000000	16.312081
