PE UV       SUBTECH     SPECTRUM    ASCII       PEDS        4.00        
   -1
CICIMAUCR0250-3.ASC
24/05/30
12:17:02.00
24/05/30
12:17:02.00
Vinicio Soto Monge
C. resplendens, M Ventral
250,000000
1
Lambda 1050
1050L1511233
PerkinElmer UV WinLab 6.3.2.0749 / 2.02.05 Lambda 900 UV/VIS/NIR, Aug  7 2015 09:38:08

0
0
3350/servo 860,8/2
0
0
UV/VIS
1
1
1
DoubleDePol,CommonBeamDepol,RBeamAtt,SBeamAtt,60mm sphere, WB InGaAs Detector
0
0
0
0
Program
Program
3350/servo 860,8/2
3350/0,2 860,8/0,2
3350/0,2 860,8/0,2
0
15.00
 
 
 
0
 
860,8
319,2
860,8
Front
100
on
S:100 R:100
0
0
0
0
 
0
 
 
 
0
 
 
0
0
0
0
0
 
 
 
 
0
0


0
0
#HDR
-1
-1
#GR
nm
%R
1.0
0.0
2500,000000
-1,000000
2251
8
57,892700
4,104500
#DATA
2500.000000	5.558102
2499.000000	5.631061
2498.000000	5.582458
2497.000000	5.663389
2496.000000	5.479606
2495.000000	5.489349
2494.000000	5.461782
2493.000000	5.480492
2492.000000	5.499645
2491.000000	5.486803
2490.000000	5.408861
2489.000000	5.438532
2488.000000	5.407975
2487.000000	5.368008
2486.000000	5.428900
2485.000000	5.413843
2484.000000	5.305013
2483.000000	5.331030
2482.000000	5.327266
2481.000000	5.333687
2480.000000	5.341327
2479.000000	5.374430
2478.000000	5.329259
2477.000000	5.335680
2476.000000	5.314313
2475.000000	5.360369
2474.000000	5.310548
2473.000000	5.281652
2472.000000	5.326159
2471.000000	5.270138
2470.000000	5.288406
2469.000000	5.298259
2468.000000	5.321177
2467.000000	5.299034
2466.000000	5.314202
2465.000000	5.315420
2464.000000	5.307891
2463.000000	5.354723
2462.000000	5.315531
2461.000000	5.337009
2460.000000	5.314977
2459.000000	5.338337
2458.000000	5.349630
2457.000000	5.378083
2456.000000	5.403990
2455.000000	5.421040
2454.000000	5.411408
2453.000000	5.405872
2452.000000	5.409193
2451.000000	5.447721
2450.000000	5.507506
2449.000000	5.507395
2448.000000	5.497210
2447.000000	5.523670
2446.000000	5.543155
2445.000000	5.577809
2444.000000	5.597405
2443.000000	5.606926
2442.000000	5.631172
2441.000000	5.651543
2440.000000	5.664164
2439.000000	5.687746
2438.000000	5.726495
2437.000000	5.737124
2436.000000	5.758824
2435.000000	5.787498
2434.000000	5.798901
2433.000000	5.792812
2432.000000	5.819826
2431.000000	5.844958
2430.000000	5.851379
2429.000000	5.893671
2428.000000	5.918914
2427.000000	5.903968
2426.000000	5.912050
2425.000000	5.927882
2424.000000	5.949803
2423.000000	5.965524
2422.000000	5.961538
2421.000000	5.956556
2420.000000	5.990434
2419.000000	6.014237
2418.000000	6.003166
2417.000000	6.019330
2416.000000	6.033280
2415.000000	6.040587
2414.000000	6.060847
2413.000000	6.063062
2412.000000	6.070701
2411.000000	6.090075
2410.000000	6.093175
2409.000000	6.102032
2408.000000	6.108454
2407.000000	6.129932
2406.000000	6.137571
2405.000000	6.136685
2404.000000	6.152739
2403.000000	6.161485
2402.000000	6.168571
2401.000000	6.165803
2400.000000	6.182742
2399.000000	6.201009
2398.000000	6.226916
2397.000000	6.248727
2396.000000	6.259023
2395.000000	6.253266
2394.000000	6.256034
2393.000000	6.269430
2392.000000	6.274523
2391.000000	6.293122
2390.000000	6.311722
2389.000000	6.326779
2388.000000	6.333422
2387.000000	6.327000
2386.000000	6.339843
2385.000000	6.339400
2384.000000	6.341061
2383.000000	6.339511
2382.000000	6.350914
2381.000000	6.349807
2380.000000	6.337961
2379.000000	6.344493
2378.000000	6.353350
2377.000000	6.345821
2376.000000	6.349696
2375.000000	6.361321
2374.000000	6.331207
2373.000000	6.308068
2372.000000	6.306186
2371.000000	6.311611
2370.000000	6.307183
2369.000000	6.297219
2368.000000	6.289247
2367.000000	6.278065
2366.000000	6.257362
2365.000000	6.230459
2364.000000	6.218945
2363.000000	6.202559
2362.000000	6.176210
2361.000000	6.172335
2360.000000	6.162260
2359.000000	6.148089
2358.000000	6.122071
2357.000000	6.086090
2356.000000	6.075683
2355.000000	6.073690
2354.000000	6.062287
2353.000000	6.055533
2352.000000	6.055090
2351.000000	6.060626
2350.000000	6.068265
2349.000000	6.060847
2348.000000	6.074908
2347.000000	6.088083
2346.000000	6.085426
2345.000000	6.094172
2344.000000	6.106793
2343.000000	6.130375
2342.000000	6.144325
2341.000000	6.140782
2340.000000	6.154953
2339.000000	6.162592
2338.000000	6.176653
2337.000000	6.188720
2336.000000	6.176985
2335.000000	6.186949
2334.000000	6.185620
2333.000000	6.188056
2332.000000	6.188499
2331.000000	6.178092
2330.000000	6.162924
2329.000000	6.157167
2328.000000	6.140118
2327.000000	6.103250
2326.000000	6.092290
2325.000000	6.094615
2324.000000	6.062287
2323.000000	6.032394
2322.000000	6.010805
2321.000000	5.977259
2320.000000	5.956888
2319.000000	5.917253
2318.000000	5.879832
2317.000000	5.857468
2316.000000	5.836433
2315.000000	5.814955
2314.000000	5.784952
2313.000000	5.739560
2312.000000	5.715313
2311.000000	5.685200
2310.000000	5.672468
2309.000000	5.657632
2308.000000	5.631615
2307.000000	5.617776
2306.000000	5.622758
2305.000000	5.628626
2304.000000	5.631393
2303.000000	5.635379
2302.000000	5.654754
2301.000000	5.660732
2300.000000	5.688632
2299.000000	5.686750
2298.000000	5.721513
2297.000000	5.732253
2296.000000	5.760595
2295.000000	5.799123
2294.000000	5.813848
2293.000000	5.848944
2292.000000	5.873632
2291.000000	5.881272
2290.000000	5.869757
2289.000000	5.898321
2288.000000	5.935299
2287.000000	5.909282
2286.000000	5.910610
2285.000000	5.929874
2284.000000	5.916478
2283.000000	5.894557
2282.000000	5.894446
2281.000000	5.887914
2280.000000	5.867543
2279.000000	5.858908
2278.000000	5.856361
2277.000000	5.834551
2276.000000	5.814733
2275.000000	5.798901
2274.000000	5.778862
2273.000000	5.791816
2272.000000	5.791927
2271.000000	5.786612
2270.000000	5.797794
2269.000000	5.803219
2268.000000	5.821598
2267.000000	5.835326
2266.000000	5.859461
2265.000000	5.880275
2264.000000	5.937181
2263.000000	5.991209
2262.000000	6.026748
2261.000000	6.081218
2260.000000	6.158828
2259.000000	6.223705
2258.000000	6.312829
2257.000000	6.385789
2256.000000	6.466720
2255.000000	6.573004
2254.000000	6.671095
2253.000000	6.742172
2252.000000	6.841149
2251.000000	6.924516
2250.000000	7.029914
2249.000000	7.133098
2248.000000	7.208604
2247.000000	7.274478
2246.000000	7.359838
2245.000000	7.435786
2244.000000	7.492914
2243.000000	7.576723
2242.000000	7.625437
2241.000000	7.659979
2240.000000	7.735485
2239.000000	7.780545
2238.000000	7.849741
2237.000000	7.874983
2236.000000	7.916722
2235.000000	7.976064
2234.000000	8.003852
2233.000000	8.026659
2232.000000	8.062087
2231.000000	8.093862
2230.000000	8.123201
2229.000000	8.146118
2228.000000	8.157079
2227.000000	8.160400
2226.000000	8.155086
2225.000000	8.189296
2224.000000	8.164386
2223.000000	8.164496
2222.000000	8.196824
2221.000000	8.184757
2220.000000	8.163500
2219.000000	8.181325
2218.000000	8.156746
2217.000000	8.143240
2216.000000	8.132168
2215.000000	8.127408
2214.000000	8.116226
2213.000000	8.105154
2212.000000	8.077255
2211.000000	8.077919
2210.000000	8.051016
2209.000000	8.067844
2208.000000	8.056884
2207.000000	8.059541
2206.000000	8.025109
2205.000000	8.013706
2204.000000	8.008170
2203.000000	8.032416
2202.000000	8.010163
2201.000000	7.977835
2200.000000	7.980160
2199.000000	7.989571
2198.000000	7.965214
2197.000000	7.971192
2196.000000	7.947610
2195.000000	7.974071
2194.000000	7.965103
2193.000000	7.951043
2192.000000	7.947610
2191.000000	7.933439
2190.000000	7.940636
2189.000000	7.920486
2188.000000	7.903547
2187.000000	7.925025
2186.000000	7.896461
2185.000000	7.918272
2184.000000	7.889265
2183.000000	7.905318
2182.000000	7.891811
2181.000000	7.858265
2180.000000	7.866126
2179.000000	7.869558
2178.000000	7.856273
2177.000000	7.833909
2176.000000	7.825827
2175.000000	7.847969
2174.000000	7.849076
2173.000000	7.849187
2172.000000	7.843873
2171.000000	7.851733
2170.000000	7.854501
2169.000000	7.853062
2168.000000	7.857601
2167.000000	7.845201
2166.000000	7.849076
2165.000000	7.825605
2164.000000	7.865683
2163.000000	7.889486
2162.000000	7.892697
2161.000000	7.896904
2160.000000	7.904100
2159.000000	7.913843
2158.000000	7.910522
2157.000000	7.942186
2156.000000	7.968424
2155.000000	7.977281
2154.000000	7.994774
2153.000000	8.021788
2152.000000	8.023670
2151.000000	8.032306
2150.000000	8.071166
2149.000000	8.075926
2148.000000	8.090319
2147.000000	8.098290
2146.000000	8.126854
2145.000000	8.159846
2144.000000	8.169811
2143.000000	8.184535
2142.000000	8.198042
2141.000000	8.197821
2140.000000	8.214096
2139.000000	8.237788
2138.000000	8.260927
2137.000000	8.263473
2136.000000	8.269341
2135.000000	8.276427
2134.000000	8.284287
2133.000000	8.290487
2132.000000	8.312851
2131.000000	8.293255
2130.000000	8.318276
2129.000000	8.310969
2128.000000	8.314069
2127.000000	8.324144
2126.000000	8.321930
2125.000000	8.334883
2124.000000	8.328351
2123.000000	8.298348
2122.000000	8.314623
2121.000000	8.310526
2120.000000	8.301226
2119.000000	8.289712
2118.000000	8.301337
2117.000000	8.297462
2116.000000	8.272995
2115.000000	8.252070
2114.000000	8.244099
2113.000000	8.230370
2112.000000	8.214538
2111.000000	8.203467
2110.000000	8.184203
2109.000000	8.169257
2108.000000	8.173021
2107.000000	8.177339
2106.000000	8.155750
2105.000000	8.127518
2104.000000	8.129733
2103.000000	8.113790
2102.000000	8.089876
2101.000000	8.082348
2100.000000	8.069173
2099.000000	8.059762
2098.000000	8.049577
2097.000000	8.041605
2096.000000	8.028652
2095.000000	8.012377
2094.000000	7.993113
2093.000000	7.986138
2092.000000	7.974181
2091.000000	7.968203
2090.000000	7.957132
2089.000000	7.952593
2088.000000	7.942296
2087.000000	7.917939
2086.000000	7.922479
2085.000000	7.931336
2084.000000	7.905650
2083.000000	7.888933
2082.000000	7.872990
2081.000000	7.861476
2080.000000	7.855165
2079.000000	7.850737
2078.000000	7.828152
2077.000000	7.801248
2076.000000	7.787852
2075.000000	7.781763
2074.000000	7.772463
2073.000000	7.745339
2072.000000	7.726518
2071.000000	7.718878
2070.000000	7.706368
2069.000000	7.681568
2068.000000	7.653337
2067.000000	7.644812
2066.000000	7.625769
2065.000000	7.597095
2064.000000	7.582591
2063.000000	7.570081
2062.000000	7.560781
2061.000000	7.559009
2060.000000	7.538417
2059.000000	7.526017
2058.000000	7.523803
2057.000000	7.514503
2056.000000	7.511957
2055.000000	7.513285
2054.000000	7.526128
2053.000000	7.531221
2052.000000	7.543842
2051.000000	7.565652
2050.000000	7.571520
2049.000000	7.608830
2048.000000	7.645919
2047.000000	7.671493
2046.000000	7.711350
2045.000000	7.752535
2044.000000	7.817966
2043.000000	7.860812
2042.000000	7.870444
2041.000000	7.904654
2040.000000	7.940414
2039.000000	8.005513
2038.000000	8.051459
2037.000000	8.086776
2036.000000	8.113236
2035.000000	8.155861
2034.000000	8.204242
2033.000000	8.231477
2032.000000	8.239338
2031.000000	8.260152
2030.000000	8.306983
2029.000000	8.323812
2028.000000	8.363115
2027.000000	8.399318
2026.000000	8.394003
2025.000000	8.399539
2024.000000	8.425889
2023.000000	8.461427
2022.000000	8.469067
2021.000000	8.485120
2020.000000	8.482573
2019.000000	8.494863
2018.000000	8.501284
2017.000000	8.511691
2016.000000	8.514680
2015.000000	8.525862
2014.000000	8.526083
2013.000000	8.529405
2012.000000	8.540255
2011.000000	8.527523
2010.000000	8.526858
2009.000000	8.498627
2008.000000	8.502391
2007.000000	8.495416
2006.000000	8.484566
2005.000000	8.465413
2004.000000	8.451020
2003.000000	8.417364
2002.000000	8.405960
2001.000000	8.378614
2000.000000	8.353261
1999.000000	8.326247
1998.000000	8.308312
1997.000000	8.271666
1996.000000	8.230592
1995.000000	8.216974
1994.000000	8.189185
1993.000000	8.168150
1992.000000	8.129290
1991.000000	8.095633
1990.000000	8.067955
1989.000000	8.037841
1988.000000	7.996878
1987.000000	7.971414
1986.000000	7.915947
1985.000000	7.903768
1984.000000	7.845644
1983.000000	7.804127
1982.000000	7.753421
1981.000000	7.735596
1980.000000	7.706368
1979.000000	7.659869
1978.000000	7.609052
1977.000000	7.580709
1976.000000	7.557570
1975.000000	7.524910
1974.000000	7.463575
1973.000000	7.447079
1972.000000	7.413755
1971.000000	7.367255
1970.000000	7.342677
1969.000000	7.333820
1968.000000	7.285992
1967.000000	7.253775
1966.000000	7.228975
1965.000000	7.157676
1964.000000	7.160223
1963.000000	7.138191
1962.000000	7.097892
1961.000000	7.071321
1960.000000	7.014636
1959.000000	7.010872
1958.000000	6.994265
1957.000000	6.966254
1956.000000	6.945108
1955.000000	6.904477
1954.000000	6.864842
1953.000000	6.850006
1952.000000	6.836057
1951.000000	6.803286
1950.000000	6.779925
1949.000000	6.769518
1948.000000	6.743390
1947.000000	6.722023
1946.000000	6.695341
1945.000000	6.687923
1944.000000	6.651942
1943.000000	6.649506
1942.000000	6.629135
1941.000000	6.632235
1940.000000	6.644081
1939.000000	6.637770
1938.000000	6.603782
1937.000000	6.591382
1936.000000	6.613856
1935.000000	6.612749
1934.000000	6.626146
1933.000000	6.617067
1932.000000	6.639099
1931.000000	6.665781
1930.000000	6.651277
1929.000000	6.723794
1928.000000	6.715269
1927.000000	6.726894
1926.000000	6.790886
1925.000000	6.816018
1924.000000	6.827200
1923.000000	6.896616
1922.000000	6.920752
1921.000000	6.971901
1920.000000	7.027036
1919.000000	7.071985
1918.000000	7.129666
1917.000000	7.196204
1916.000000	7.256875
1915.000000	7.332381
1914.000000	7.368252
1913.000000	7.462136
1912.000000	7.552920
1911.000000	7.656215
1910.000000	7.733492
1909.000000	7.799920
1908.000000	7.886497
1907.000000	7.996435
1906.000000	8.128625
1905.000000	8.228931
1904.000000	8.360568
1903.000000	8.488663
1902.000000	8.606129
1901.000000	8.751273
1900.000000	8.901399
1899.000000	9.065143
1898.000000	9.248926
1897.000000	9.395620
1896.000000	9.534564
1895.000000	9.720783
1894.000000	9.868916
1893.000000	10.049599
1892.000000	10.253310
1891.000000	10.490788
1890.000000	10.727270
1889.000000	10.934303
1888.000000	11.174327
1887.000000	11.432066
1886.000000	11.726672
1885.000000	11.999025
1884.000000	12.336477
1883.000000	12.743456
1882.000000	13.128515
1881.000000	13.511358
1880.000000	13.932288
1879.000000	14.306053
1878.000000	14.687790
1877.000000	15.108387
1876.000000	15.490899
1875.000000	15.885035
1874.000000	16.265444
1873.000000	16.642088
1872.000000	17.016850
1871.000000	17.337030
1870.000000	17.672821
1869.000000	17.968092
1868.000000	18.237345
1867.000000	18.462202
1866.000000	18.658274
1865.000000	18.810614
1864.000000	18.959633
1863.000000	19.080642
1862.000000	19.203976
1861.000000	19.329635
1860.000000	19.451861
1859.000000	19.581174
1858.000000	19.673176
1857.000000	19.738164
1856.000000	19.788538
1855.000000	19.839909
1854.000000	19.855408
1853.000000	19.873787
1852.000000	19.861276
1851.000000	19.850205
1850.000000	19.853305
1849.000000	19.846994
1848.000000	19.819538
1847.000000	19.808356
1846.000000	19.791638
1845.000000	19.722111
1844.000000	19.677272
1843.000000	19.658229
1842.000000	19.649151
1841.000000	19.648597
1840.000000	19.621694
1839.000000	19.596563
1838.000000	19.554713
1837.000000	19.525817
1836.000000	19.500464
1835.000000	19.459722
1834.000000	19.395066
1833.000000	19.332956
1832.000000	19.253243
1831.000000	19.183494
1830.000000	19.126809
1829.000000	19.070235
1828.000000	19.012111
1827.000000	18.922877
1826.000000	18.856228
1825.000000	18.804525
1824.000000	18.732894
1823.000000	18.686063
1822.000000	18.663367
1821.000000	18.645763
1820.000000	18.619414
1819.000000	18.589189
1818.000000	18.553097
1817.000000	18.538483
1816.000000	18.509255
1815.000000	18.488994
1814.000000	18.482241
1813.000000	18.466077
1812.000000	18.455006
1811.000000	18.425445
1810.000000	18.385257
1809.000000	18.352707
1808.000000	18.326025
1807.000000	18.295690
1806.000000	18.238784
1805.000000	18.199370
1804.000000	18.155860
1803.000000	18.101722
1802.000000	18.048580
1801.000000	18.004848
1800.000000	17.961338
1799.000000	17.907643
1798.000000	17.852619
1797.000000	17.797041
1796.000000	17.752977
1795.000000	17.716221
1794.000000	17.673264
1793.000000	17.618129
1792.000000	17.559009
1791.000000	17.515278
1790.000000	17.462135
1789.000000	17.400469
1788.000000	17.343452
1787.000000	17.293299
1786.000000	17.249567
1785.000000	17.172069
1784.000000	17.104866
1783.000000	17.047960
1782.000000	16.986847
1781.000000	16.919976
1780.000000	16.848456
1779.000000	16.772064
1778.000000	16.695673
1777.000000	16.614077
1776.000000	16.526504
1775.000000	16.444687
1774.000000	16.355896
1773.000000	16.258912
1772.000000	16.166688
1771.000000	16.052543
1770.000000	15.929653
1769.000000	15.843407
1768.000000	15.752291
1767.000000	15.635489
1766.000000	15.554226
1765.000000	15.483702
1764.000000	15.421150
1763.000000	15.394136
1762.000000	15.381404
1761.000000	15.398343
1760.000000	15.428235
1759.000000	15.467760
1758.000000	15.528652
1757.000000	15.592311
1756.000000	15.651543
1755.000000	15.691178
1754.000000	15.736348
1753.000000	15.770669
1752.000000	15.777423
1751.000000	15.798347
1750.000000	15.773991
1749.000000	15.748970
1748.000000	15.701917
1747.000000	15.656414
1746.000000	15.595411
1745.000000	15.525220
1744.000000	15.412957
1743.000000	15.284531
1742.000000	15.144368
1741.000000	14.985496
1740.000000	14.813670
1739.000000	14.633209
1738.000000	14.453522
1737.000000	14.293432
1736.000000	14.136884
1735.000000	14.024843
1734.000000	13.935277
1733.000000	13.879256
1732.000000	13.880585
1731.000000	13.913024
1730.000000	13.968712
1729.000000	14.033590
1728.000000	14.112749
1727.000000	14.201208
1726.000000	14.281253
1725.000000	14.341038
1724.000000	14.411894
1723.000000	14.475997
1722.000000	14.513639
1721.000000	14.546853
1720.000000	14.537664
1719.000000	14.558035
1718.000000	14.608741
1717.000000	14.645830
1716.000000	14.691886
1715.000000	14.738607
1714.000000	14.811013
1713.000000	14.872680
1712.000000	14.945639
1711.000000	14.999999
1710.000000	15.006088
1709.000000	15.020813
1708.000000	15.037088
1707.000000	15.043288
1706.000000	15.014835
1705.000000	14.972100
1704.000000	14.925711
1703.000000	14.868473
1702.000000	14.791528
1701.000000	14.725764
1700.000000	14.623466
1699.000000	14.492493
1698.000000	14.359859
1697.000000	14.242726
1696.000000	14.138545
1695.000000	14.098356
1694.000000	14.098356
1693.000000	14.110978
1692.000000	14.206190
1691.000000	14.315353
1690.000000	14.414662
1689.000000	14.556817
1688.000000	14.656901
1687.000000	14.721225
1686.000000	14.764846
1685.000000	14.788870
1684.000000	14.826181
1683.000000	14.922611
1682.000000	15.096651
1681.000000	15.367897
1680.000000	15.721070
1679.000000	16.124949
1678.000000	16.603781
1677.000000	17.068885
1676.000000	17.519595
1675.000000	17.924028
1674.000000	18.307426
1673.000000	18.628935
1672.000000	18.928966
1671.000000	19.173862
1670.000000	19.384437
1669.000000	19.599773
1668.000000	19.770935
1667.000000	19.920175
1666.000000	20.037420
1665.000000	20.149018
1664.000000	20.247109
1663.000000	20.323169
1662.000000	20.402993
1661.000000	20.463885
1660.000000	20.538837
1659.000000	20.574486
1658.000000	20.623864
1657.000000	20.635489
1656.000000	20.670917
1655.000000	20.695938
1654.000000	20.677117
1653.000000	20.686306
1652.000000	20.662281
1651.000000	20.653757
1650.000000	20.636818
1649.000000	20.606372
1648.000000	20.546476
1647.000000	20.522009
1646.000000	20.483481
1645.000000	20.415282
1644.000000	20.385057
1643.000000	20.330587
1642.000000	20.273127
1641.000000	20.199946
1640.000000	20.165404
1639.000000	20.090783
1638.000000	20.017049
1637.000000	19.955825
1636.000000	19.901354
1635.000000	19.814556
1634.000000	19.751228
1633.000000	19.680261
1632.000000	19.591027
1631.000000	19.537774
1630.000000	19.463597
1629.000000	19.393073
1628.000000	19.287564
1627.000000	19.221468
1626.000000	19.137216
1625.000000	19.064146
1624.000000	18.996722
1623.000000	18.904388
1622.000000	18.826335
1621.000000	18.743633
1620.000000	18.682298
1619.000000	18.583100
1618.000000	18.521765
1617.000000	18.469952
1616.000000	18.395442
1615.000000	18.313626
1614.000000	18.253509
1613.000000	18.195495
1612.000000	18.103493
1611.000000	18.047805
1610.000000	17.981820
1609.000000	17.918714
1608.000000	17.855497
1607.000000	17.778884
1606.000000	17.698175
1605.000000	17.647579
1604.000000	17.570412
1603.000000	17.519817
1602.000000	17.448407
1601.000000	17.391501
1600.000000	17.324520
1599.000000	17.265621
1598.000000	17.208272
1597.000000	17.122691
