PE UV       SUBTECH     SPECTRUM    ASCII       PEDS        4.00        
   -1
CICIMAUCR0201-3.ASC
24/06/06
13:45:31.00
24/06/06
13:45:31.00
Vinicio Soto Monge
C. cupreomarginata. Sex F. Ventral
250,000000
1
Lambda 1050
1050L1511233
PerkinElmer UV WinLab 6.3.2.0749 / 2.02.05 Lambda 900 UV/VIS/NIR, Aug  7 2015 09:38:08

0
0
3350/servo 860,8/2
0
0
UV/VIS
1
1
1
DoubleDePol,CommonBeamDepol,RBeamAtt,SBeamAtt,60mm sphere, WB InGaAs Detector
0
0
0
0
Program
Program
3350/servo 860,8/2
3350/0,2 860,8/0,2
3350/0,2 860,8/0,2
0
15.00
 
 
 
0
 
860,8
319,2
860,8
Front
100
on
S:100 R:100
0
0
0
0
 
0
 
 
 
0
 
 
0
0
0
0
0
 
 
 
 
0
0


0
0
#HDR
-1
-1
#GR
nm
%R
1.0
0.0
2500,000000
-1,000000
2251
8
54,950700
3,908500
#DATA
2500.000000	6.314121
2499.000000	6.280032
2498.000000	6.206494
2497.000000	6.174870
2496.000000	6.055772
2495.000000	5.990166
2494.000000	6.020289
2493.000000	6.000029
2492.000000	5.958007
2491.000000	5.869568
2490.000000	5.972478
2489.000000	6.073031
2488.000000	5.930242
2487.000000	5.967333
2486.000000	5.955541
2485.000000	5.912769
2484.000000	5.939032
2483.000000	5.970013
2482.000000	5.937853
2481.000000	5.890364
2480.000000	5.878036
2479.000000	5.947823
2478.000000	5.864744
2477.000000	5.870211
2476.000000	5.924775
2475.000000	5.882753
2474.000000	5.904086
2473.000000	5.899583
2472.000000	5.880073
2471.000000	5.860348
2470.000000	5.906873
2469.000000	5.849521
2468.000000	5.842017
2467.000000	5.822722
2466.000000	5.827224
2465.000000	5.849843
2464.000000	5.858740
2463.000000	5.907194
2462.000000	5.891329
2461.000000	5.906444
2460.000000	5.917057
2459.000000	5.919308
2458.000000	5.930778
2457.000000	5.939568
2456.000000	5.945572
2455.000000	5.988987
2454.000000	5.982448
2453.000000	6.034225
2452.000000	6.030902
2451.000000	6.066277
2450.000000	6.058452
2449.000000	6.093720
2448.000000	6.117733
2447.000000	6.114624
2446.000000	6.171976
2445.000000	6.187305
2444.000000	6.218607
2443.000000	6.243477
2442.000000	6.273922
2441.000000	6.287107
2440.000000	6.309405
2439.000000	6.328486
2438.000000	6.363862
2437.000000	6.397736
2436.000000	6.408778
2435.000000	6.434184
2434.000000	6.469345
2433.000000	6.486497
2432.000000	6.511689
2431.000000	6.514690
2430.000000	6.531521
2429.000000	6.571506
2428.000000	6.578581
2427.000000	6.595304
2426.000000	6.610097
2425.000000	6.640220
2424.000000	6.657587
2423.000000	6.677954
2422.000000	6.674417
2421.000000	6.696714
2420.000000	6.722013
2419.000000	6.724907
2418.000000	6.747634
2417.000000	6.764357
2416.000000	6.777756
2415.000000	6.797588
2414.000000	6.795444
2413.000000	6.811739
2412.000000	6.832535
2411.000000	6.855797
2410.000000	6.852688
2409.000000	6.839181
2408.000000	6.860514
2407.000000	6.878309
2406.000000	6.883562
2405.000000	6.909290
2404.000000	6.936518
2403.000000	6.920545
2402.000000	6.929979
2401.000000	6.956779
2400.000000	6.967713
2399.000000	6.981113
2398.000000	6.993012
2397.000000	7.022920
2396.000000	7.033747
2395.000000	7.038893
2394.000000	7.030639
2393.000000	7.039536
2392.000000	7.058403
2391.000000	7.071696
2390.000000	7.074483
2389.000000	7.085846
2388.000000	7.094851
2387.000000	7.094636
2386.000000	7.075448
2385.000000	7.078021
2384.000000	7.099568
2383.000000	7.101711
2382.000000	7.102891
2381.000000	7.103855
2380.000000	7.107286
2379.000000	7.101711
2378.000000	7.099246
2377.000000	7.088848
2376.000000	7.078878
2375.000000	7.081880
2374.000000	7.072125
2373.000000	7.058189
2372.000000	7.052614
2371.000000	7.060333
2370.000000	7.056152
2369.000000	7.042109
2368.000000	7.027530
2367.000000	7.010056
2366.000000	7.004697
2365.000000	6.998050
2364.000000	6.973609
2363.000000	6.954313
2362.000000	6.945308
2361.000000	6.931480
2360.000000	6.904251
2359.000000	6.872842
2358.000000	6.863623
2357.000000	6.859335
2356.000000	6.856333
2355.000000	6.841111
2354.000000	6.827175
2353.000000	6.822351
2352.000000	6.808737
2351.000000	6.806700
2350.000000	6.818170
2349.000000	6.809595
2348.000000	6.813132
2347.000000	6.811095
2346.000000	6.816777
2345.000000	6.839503
2344.000000	6.858692
2343.000000	6.876272
2342.000000	6.865231
2341.000000	6.875093
2340.000000	6.894818
2339.000000	6.893210
2338.000000	6.894174
2337.000000	6.889565
2336.000000	6.891923
2335.000000	6.902536
2334.000000	6.895461
2333.000000	6.895246
2332.000000	6.892138
2331.000000	6.881418
2330.000000	6.872199
2329.000000	6.854940
2328.000000	6.840682
2327.000000	6.824388
2326.000000	6.825889
2325.000000	6.794694
2324.000000	6.761141
2323.000000	6.759640
2322.000000	6.749349
2321.000000	6.711936
2320.000000	6.682993
2319.000000	6.646009
2318.000000	6.615565
2317.000000	6.580296
2316.000000	6.544385
2315.000000	6.517906
2314.000000	6.466987
2313.000000	6.436650
2312.000000	6.418640
2311.000000	6.387767
2310.000000	6.358502
2309.000000	6.321625
2308.000000	6.288072
2307.000000	6.281962
2306.000000	6.279710
2305.000000	6.265024
2304.000000	6.259450
2303.000000	6.275208
2302.000000	6.292360
2301.000000	6.287536
2300.000000	6.309619
2299.000000	6.344459
2298.000000	6.377797
2297.000000	6.358502
2296.000000	6.404490
2295.000000	6.427216
2294.000000	6.450049
2293.000000	6.469560
2292.000000	6.505686
2291.000000	6.505364
2290.000000	6.517585
2289.000000	6.546100
2288.000000	6.529591
2287.000000	6.540418
2286.000000	6.531949
2285.000000	6.557784
2284.000000	6.551567
2283.000000	6.530985
2282.000000	6.528733
2281.000000	6.530877
2280.000000	6.493251
2279.000000	6.486390
2278.000000	6.481566
2277.000000	6.474920
2276.000000	6.470846
2275.000000	6.430218
2274.000000	6.451765
2273.000000	6.430646
2272.000000	6.439544
2271.000000	6.428181
2270.000000	6.434934
2269.000000	6.449835
2268.000000	6.451979
2267.000000	6.477492
2266.000000	6.490785
2265.000000	6.542562
2264.000000	6.593803
2263.000000	6.610633
2262.000000	6.676775
2261.000000	6.764035
2260.000000	6.833393
2259.000000	6.896854
2258.000000	6.980362
2257.000000	7.067193
2256.000000	7.153489
2255.000000	7.240212
2254.000000	7.335191
2253.000000	7.424273
2252.000000	7.515714
2251.000000	7.609834
2250.000000	7.675118
2249.000000	7.764629
2248.000000	7.859072
2247.000000	7.949333
2246.000000	8.003254
2245.000000	8.037451
2244.000000	8.125675
2243.000000	8.202108
2242.000000	8.259459
2241.000000	8.308878
2240.000000	8.359583
2239.000000	8.400104
2238.000000	8.443627
2237.000000	8.490580
2236.000000	8.514807
2235.000000	8.548575
2234.000000	8.566584
2233.000000	8.592312
2232.000000	8.615253
2231.000000	8.629403
2230.000000	8.640980
2229.000000	8.640230
2228.000000	8.660705
2227.000000	8.660062
2226.000000	8.648484
2225.000000	8.655452
2224.000000	8.643339
2223.000000	8.613216
2222.000000	8.603461
2221.000000	8.614824
2220.000000	8.596171
2219.000000	8.575911
2218.000000	8.556293
2217.000000	8.549754
2216.000000	8.501514
2215.000000	8.505052
2214.000000	8.492295
2213.000000	8.467747
2212.000000	8.440947
2211.000000	8.424546
2210.000000	8.415005
2209.000000	8.417792
2208.000000	8.377485
2207.000000	8.394208
2206.000000	8.352615
2205.000000	8.360548
2204.000000	8.340073
2203.000000	8.323779
2202.000000	8.339966
2201.000000	8.336214
2200.000000	8.314024
2199.000000	8.301696
2198.000000	8.302446
2197.000000	8.303518
2196.000000	8.286259
2195.000000	8.285187
2194.000000	8.292905
2193.000000	8.281542
2192.000000	8.266535
2191.000000	8.279506
2190.000000	8.271680
2189.000000	8.245202
2188.000000	8.248096
2187.000000	8.240056
2186.000000	8.239735
2185.000000	8.215079
2184.000000	8.194497
2183.000000	8.192353
2182.000000	8.202751
2181.000000	8.218938
2180.000000	8.193425
2179.000000	8.195890
2178.000000	8.166196
2177.000000	8.173486
2176.000000	8.182491
2175.000000	8.164588
2174.000000	8.188708
2173.000000	8.176380
2172.000000	8.160944
2171.000000	8.192782
2170.000000	8.183670
2169.000000	8.171771
2168.000000	8.180990
2167.000000	8.194390
2166.000000	8.199857
2165.000000	8.202430
2164.000000	8.212935
2163.000000	8.223655
2162.000000	8.241450
2161.000000	8.241236
2160.000000	8.279184
2159.000000	8.294085
2158.000000	8.298158
2157.000000	8.332569
2156.000000	8.340073
2155.000000	8.378021
2154.000000	8.397639
2153.000000	8.406536
2152.000000	8.429155
2151.000000	8.468926
2150.000000	8.485113
2149.000000	8.507518
2148.000000	8.547824
2147.000000	8.561117
2146.000000	8.584379
2145.000000	8.597565
2144.000000	8.637657
2143.000000	8.663063
2142.000000	8.686004
2141.000000	8.697045
2140.000000	8.730598
2139.000000	8.743998
2138.000000	8.771656
2137.000000	8.792667
2136.000000	8.807460
2135.000000	8.836297
2134.000000	8.841442
2133.000000	8.856450
2132.000000	8.869207
2131.000000	8.888717
2130.000000	8.884107
2129.000000	8.896757
2128.000000	8.916267
2127.000000	8.929667
2126.000000	8.937278
2125.000000	8.950249
2124.000000	8.952500
2123.000000	8.944031
2122.000000	8.944353
2121.000000	8.941459
2120.000000	8.939636
2119.000000	8.942423
2118.000000	8.945747
2117.000000	8.933526
2116.000000	8.927308
2115.000000	8.917661
2114.000000	8.913373
2113.000000	8.922056
2112.000000	8.916481
2111.000000	8.886037
2110.000000	8.875103
2109.000000	8.882285
2108.000000	8.874567
2107.000000	8.862775
2106.000000	8.855056
2105.000000	8.851412
2104.000000	8.856343
2103.000000	8.831580
2102.000000	8.804244
2101.000000	8.802636
2100.000000	8.807353
2099.000000	8.794275
2098.000000	8.769190
2097.000000	8.766617
2096.000000	8.765867
2095.000000	8.760614
2094.000000	8.754289
2093.000000	8.742390
2092.000000	8.735422
2091.000000	8.743891
2090.000000	8.747107
2089.000000	8.737674
2088.000000	8.722880
2087.000000	8.702727
2086.000000	8.686969
2085.000000	8.684396
2084.000000	8.677213
2083.000000	8.670353
2082.000000	8.667994
2081.000000	8.652879
2080.000000	8.633691
2079.000000	8.622971
2078.000000	8.608928
2077.000000	8.578269
2076.000000	8.562725
2075.000000	8.551255
2074.000000	8.525849
2073.000000	8.504302
2072.000000	8.470963
2071.000000	8.438910
2070.000000	8.404821
2069.000000	8.382309
2068.000000	8.376199
2067.000000	8.356153
2066.000000	8.320884
2065.000000	8.289475
2064.000000	8.264927
2063.000000	8.241343
2062.000000	8.200714
2061.000000	8.165124
2060.000000	8.156441
2059.000000	8.146150
2058.000000	8.133608
2057.000000	8.126854
2056.000000	8.123960
2055.000000	8.105843
2054.000000	8.104986
2053.000000	8.115599
2052.000000	8.126640
2051.000000	8.141541
2050.000000	8.166625
2049.000000	8.200393
2048.000000	8.225263
2047.000000	8.250562
2046.000000	8.294728
2045.000000	8.337929
2044.000000	8.390028
2043.000000	8.439339
2042.000000	8.479432
2041.000000	8.535711
2040.000000	8.570658
2039.000000	8.612680
2038.000000	8.655774
2037.000000	8.700690
2036.000000	8.739496
2035.000000	8.781411
2034.000000	8.801886
2033.000000	8.847016
2032.000000	8.873387
2031.000000	8.907155
2030.000000	8.942423
2029.000000	8.947033
2028.000000	8.988197
2027.000000	9.013068
2026.000000	9.036115
2025.000000	9.045334
2024.000000	9.056162
2023.000000	9.091001
2022.000000	9.099899
2021.000000	9.109332
2020.000000	9.131201
2019.000000	9.125626
2018.000000	9.152319
2017.000000	9.144386
2016.000000	9.164111
2015.000000	9.171829
2014.000000	9.167434
2013.000000	9.169792
2012.000000	9.174938
2011.000000	9.155213
2010.000000	9.151461
2009.000000	9.145458
2008.000000	9.145887
2007.000000	9.140098
2006.000000	9.106438
2005.000000	9.103222
2004.000000	9.091752
2003.000000	9.060342
2002.000000	9.060449
2001.000000	9.046728
2000.000000	9.024323
1999.000000	9.001383
1998.000000	8.964614
1997.000000	8.934598
1996.000000	8.915195
1995.000000	8.859559
1994.000000	8.851412
1993.000000	8.829221
1992.000000	8.790308
1991.000000	8.760400
1990.000000	8.721594
1989.000000	8.683645
1988.000000	8.666172
1987.000000	8.622971
1986.000000	8.594885
1985.000000	8.573659
1984.000000	8.504302
1983.000000	8.478681
1982.000000	8.457241
1981.000000	8.411467
1980.000000	8.370732
1979.000000	8.335035
1978.000000	8.292905
1977.000000	8.260960
1976.000000	8.241128
1975.000000	8.192567
1974.000000	8.152153
1973.000000	8.131571
1972.000000	8.095338
1971.000000	8.055889
1970.000000	8.040452
1969.000000	7.999181
1968.000000	7.982993
1967.000000	7.947618
1966.000000	7.915351
1965.000000	7.869148
1964.000000	7.839990
1963.000000	7.805151
1962.000000	7.795610
1961.000000	7.762378
1960.000000	7.712102
1959.000000	7.693021
1958.000000	7.665685
1957.000000	7.648533
1956.000000	7.635348
1955.000000	7.597399
1954.000000	7.571457
1953.000000	7.538869
1952.000000	7.526219
1951.000000	7.495775
1950.000000	7.457290
1949.000000	7.428668
1948.000000	7.403476
1947.000000	7.378821
1946.000000	7.386003
1945.000000	7.357488
1944.000000	7.340443
1943.000000	7.335834
1942.000000	7.336584
1941.000000	7.318253
1940.000000	7.331760
1939.000000	7.288559
1938.000000	7.296492
1937.000000	7.318789
1936.000000	7.283950
1935.000000	7.304853
1934.000000	7.299922
1933.000000	7.331331
1932.000000	7.311393
1931.000000	7.341944
1930.000000	7.352664
1929.000000	7.403584
1928.000000	7.419878
1927.000000	7.462543
1926.000000	7.464365
1925.000000	7.511533
1924.000000	7.564811
1923.000000	7.569742
1922.000000	7.650141
1921.000000	7.697094
1920.000000	7.769989
1919.000000	7.810725
1918.000000	7.882227
1917.000000	7.936148
1916.000000	7.986638
1915.000000	8.083010
1914.000000	8.116135
1913.000000	8.220332
1912.000000	8.308664
1911.000000	8.399140
1910.000000	8.484684
1909.000000	8.578376
1908.000000	8.678285
1907.000000	8.789451
1906.000000	8.906512
1905.000000	9.036115
1904.000000	9.167648
1903.000000	9.288247
1902.000000	9.428999
1901.000000	9.537806
1900.000000	9.715006
1899.000000	9.880842
1898.000000	10.043142
1897.000000	10.198794
1896.000000	10.391431
1895.000000	10.543010
1894.000000	10.699413
1893.000000	10.882616
1892.000000	11.094655
1891.000000	11.340784
1890.000000	11.588521
1889.000000	11.810958
1888.000000	12.078956
1887.000000	12.314043
1886.000000	12.548808
1885.000000	12.848108
1884.000000	13.145156
1883.000000	13.462464
1882.000000	13.805394
1881.000000	14.140283
1880.000000	14.485034
1879.000000	14.789372
1878.000000	15.107217
1877.000000	15.445215
1876.000000	15.760701
1875.000000	16.077152
1874.000000	16.390066
1873.000000	16.694082
1872.000000	17.010426
1871.000000	17.270383
1870.000000	17.524980
1869.000000	17.752028
1868.000000	17.959565
1867.000000	18.121971
1866.000000	18.277624
1865.000000	18.395650
1864.000000	18.506386
1863.000000	18.618409
1862.000000	18.739436
1861.000000	18.848994
1860.000000	18.959194
1859.000000	19.078399
1858.000000	19.160085
1857.000000	19.220009
1856.000000	19.259137
1855.000000	19.308770
1854.000000	19.366336
1853.000000	19.382844
1852.000000	19.366336
1851.000000	19.364942
1850.000000	19.384988
1849.000000	19.413289
1848.000000	19.442876
1847.000000	19.440410
1846.000000	19.391742
1845.000000	19.336749
1844.000000	19.318739
1843.000000	19.294941
1842.000000	19.288402
1841.000000	19.311021
1840.000000	19.291403
1839.000000	19.263853
1838.000000	19.254527
1837.000000	19.229871
1836.000000	19.200820
1835.000000	19.163515
1834.000000	19.095122
1833.000000	19.038950
1832.000000	18.982992
1831.000000	18.943543
1830.000000	18.892731
1829.000000	18.837952
1828.000000	18.801933
1827.000000	18.747262
1826.000000	18.692591
1825.000000	18.647781
1824.000000	18.601043
1823.000000	18.562773
1822.000000	18.547443
1821.000000	18.538010
1820.000000	18.532114
1819.000000	18.496524
1818.000000	18.452358
1817.000000	18.431347
1816.000000	18.405834
1815.000000	18.398651
1814.000000	18.393827
1813.000000	18.367028
1812.000000	18.351377
1811.000000	18.337762
1810.000000	18.313750
1809.000000	18.274622
1808.000000	18.233779
1807.000000	18.203228
1806.000000	18.169996
1805.000000	18.130868
1804.000000	18.094957
1803.000000	18.053900
1802.000000	18.020882
1801.000000	17.988937
1800.000000	17.955491
1799.000000	17.906072
1798.000000	17.867802
1797.000000	17.826638
1796.000000	17.781507
1795.000000	17.748383
1794.000000	17.715044
1793.000000	17.678275
1792.000000	17.639040
1791.000000	17.597768
1790.000000	17.560678
1789.000000	17.532806
1788.000000	17.488533
1787.000000	17.439007
1786.000000	17.413279
1785.000000	17.383478
1784.000000	17.327198
1783.000000	17.274564
1782.000000	17.236830
1781.000000	17.189984
1780.000000	17.149891
1779.000000	17.096506
1778.000000	17.033259
1777.000000	16.965831
1776.000000	16.906550
1775.000000	16.842659
1774.000000	16.764726
1773.000000	16.691080
1772.000000	16.615183
1771.000000	16.532426
1770.000000	16.437233
1769.000000	16.358657
1768.000000	16.283296
1767.000000	16.207184
1766.000000	16.142436
1765.000000	16.072971
1764.000000	16.039847
1763.000000	16.001041
1762.000000	15.985819
1761.000000	15.989035
1760.000000	16.007151
1759.000000	16.027090
1758.000000	16.058071
1757.000000	16.102666
1756.000000	16.141472
1755.000000	16.170201
1754.000000	16.205898
1753.000000	16.227552
1752.000000	16.231733
1751.000000	16.229696
1750.000000	16.221764
1749.000000	16.213509
1748.000000	16.178241
1747.000000	16.134075
1746.000000	16.085192
1745.000000	16.035666
1744.000000	15.956661
1743.000000	15.872510
1742.000000	15.768955
1741.000000	15.647285
1740.000000	15.534297
1739.000000	15.417236
1738.000000	15.268444
1737.000000	15.151919
1736.000000	15.036680
1735.000000	14.937628
1734.000000	14.880277
1733.000000	14.830536
1732.000000	14.818852
1731.000000	14.816815
1730.000000	14.817029
1729.000000	14.853691
1728.000000	14.908577
1727.000000	14.953279
1726.000000	15.006771
1725.000000	15.060692
1724.000000	15.107431
1723.000000	15.136696
1722.000000	15.171643
1721.000000	15.228673
1720.000000	15.224171
1719.000000	15.292135
1718.000000	15.329333
1717.000000	15.371140
1716.000000	15.454220
1715.000000	15.513393
1714.000000	15.581572
1713.000000	15.654681
1712.000000	15.736367
1711.000000	15.794576
1710.000000	15.837348
1709.000000	15.876047
1708.000000	15.888161
1707.000000	15.890090
1706.000000	15.889018
1705.000000	15.889018
1704.000000	15.853750
1703.000000	15.828236
1702.000000	15.797149
1701.000000	15.734009
1700.000000	15.668510
1699.000000	15.588969
1698.000000	15.510070
1697.000000	15.463439
1696.000000	15.410268
1695.000000	15.372212
1694.000000	15.379288
1693.000000	15.395260
1692.000000	15.440391
1691.000000	15.512965
1690.000000	15.607836
1689.000000	15.697775
1688.000000	15.788894
1687.000000	15.859646
1686.000000	15.883980
1685.000000	15.949586
1684.000000	16.037381
1683.000000	16.169450
1682.000000	16.317385
1681.000000	16.538000
1680.000000	16.832904
1679.000000	17.163077
1678.000000	17.543633
1677.000000	17.922474
1676.000000	18.273872
1675.000000	18.566096
1674.000000	18.887371
1673.000000	19.154189
1672.000000	19.383273
1671.000000	19.608391
1670.000000	19.767259
1669.000000	19.946496
1668.000000	20.099254
1667.000000	20.244723
1666.000000	20.355996
1665.000000	20.459657
1664.000000	20.545952
1663.000000	20.626994
1662.000000	20.707501
1661.000000	20.804730
1660.000000	20.853506
1659.000000	20.906676
1658.000000	20.964028
1657.000000	20.988683
1656.000000	21.041425
1655.000000	21.055468
1654.000000	21.055575
1653.000000	21.061043
1652.000000	21.043569
1651.000000	21.053217
1650.000000	21.041961
1649.000000	21.018270
1648.000000	20.990077
1647.000000	20.964885
1646.000000	20.929831
1645.000000	20.901102
1644.000000	20.868192
1643.000000	20.824883
1642.000000	20.782433
1641.000000	20.738052
1640.000000	20.698818
1639.000000	20.661727
1638.000000	20.620026
1637.000000	20.561496
1636.000000	20.505538
1635.000000	20.473700
1634.000000	20.424281
1633.000000	20.366394
1632.000000	20.309471
1631.000000	20.240221
1630.000000	20.174079
1629.000000	20.110510
1628.000000	20.051229
1627.000000	19.979084
1626.000000	19.927522
1625.000000	19.863631
1624.000000	19.802313
1623.000000	19.736708
1622.000000	19.681071
1621.000000	19.627901
1620.000000	19.544286
1619.000000	19.472570
1618.000000	19.437087
1617.000000	19.376627
1616.000000	19.307591
1615.000000	19.251418
1614.000000	19.203179
1613.000000	19.155690
1612.000000	19.098231
1611.000000	19.050099
1610.000000	18.968199
1609.000000	18.919959
1608.000000	18.859070
1607.000000	18.798932
1606.000000	18.755838
1605.000000	18.674367
1604.000000	18.621196
1603.000000	18.560843
1602.000000	18.496524
1601.000000	18.433920
1600.000000	18.375818
1599.000000	18.319431
1598.000000	18.263259
