PE UV       SUBTECH     SPECTRUM    ASCII       PEDS        4.00        
   -1
CICIMAUCR0204-2.ASC
24/06/06
13:07:11.00
24/06/06
13:07:11.00
Vinicio Soto Monge
C. cupreomarginata. Sex M. Ventral
250,000000
1
Lambda 1050
1050L1511233
PerkinElmer UV WinLab 6.3.2.0749 / 2.02.05 Lambda 900 UV/VIS/NIR, Aug  7 2015 09:38:08

0
0
3350/servo 860,8/2
0
0
UV/VIS
1
1
1
DoubleDePol,CommonBeamDepol,RBeamAtt,SBeamAtt,60mm sphere, WB InGaAs Detector
0
0
0
0
Program
Program
3350/servo 860,8/2
3350/0,2 860,8/0,2
3350/0,2 860,8/0,2
0
15.00
 
 
 
0
 
860,8
319,2
860,8
Front
100
on
S:100 R:100
0
0
0
0
 
0
 
 
 
0
 
 
0
0
0
0
0
 
 
 
 
0
0


0
0
#HDR
-1
-1
#GR
nm
%R
1.0
0.0
2500,000000
-1,000000
2251
8
55,779300
3,905000
#DATA
2500.000000	8.107597
2499.000000	8.166837
2498.000000	8.078203
2497.000000	7.954634
2496.000000	8.161524
2495.000000	8.117432
2494.000000	8.126477
2493.000000	8.054348
2492.000000	7.990472
2491.000000	7.984028
2490.000000	8.049939
2489.000000	7.954295
2488.000000	7.999630
2487.000000	7.903307
2486.000000	7.841466
2485.000000	7.900368
2484.000000	7.903194
2483.000000	7.922074
2482.000000	7.887932
2481.000000	7.892680
2480.000000	7.911447
2479.000000	7.918569
2478.000000	7.872782
2477.000000	7.957686
2476.000000	7.946607
2475.000000	7.924335
2474.000000	7.952260
2473.000000	7.933945
2472.000000	7.983237
2471.000000	7.992281
2470.000000	7.947059
2469.000000	8.016701
2468.000000	8.009013
2467.000000	8.016588
2466.000000	8.046773
2465.000000	8.022241
2464.000000	8.087925
2463.000000	8.090186
2462.000000	8.132695
2461.000000	8.135860
2460.000000	8.159263
2459.000000	8.203241
2458.000000	8.269491
2457.000000	8.261351
2456.000000	8.309512
2455.000000	8.360726
2454.000000	8.386389
2453.000000	8.390685
2452.000000	8.443934
2451.000000	8.496957
2450.000000	8.577904
2449.000000	8.620525
2448.000000	8.645850
2447.000000	8.704864
2446.000000	8.746468
2445.000000	8.803109
2444.000000	8.830355
2443.000000	8.913902
2442.000000	8.969864
2441.000000	9.024583
2440.000000	9.072744
2439.000000	9.101686
2438.000000	9.141933
2437.000000	9.212140
2436.000000	9.252048
2435.000000	9.324403
2434.000000	9.357076
2433.000000	9.378443
2432.000000	9.428866
2431.000000	9.485054
2430.000000	9.540338
2429.000000	9.587142
2428.000000	9.621963
2427.000000	9.659836
2426.000000	9.702684
2425.000000	9.728686
2424.000000	9.773343
2423.000000	9.802059
2422.000000	9.844680
2421.000000	9.883797
2420.000000	9.938064
2419.000000	9.957057
2418.000000	9.986451
2417.000000	10.014036
2416.000000	10.032916
2415.000000	10.081982
2414.000000	10.104706
2413.000000	10.122003
2412.000000	10.158972
2411.000000	10.200576
2410.000000	10.226805
2409.000000	10.251790
2408.000000	10.283671
2407.000000	10.300290
2406.000000	10.319849
2405.000000	10.334998
2404.000000	10.371967
2403.000000	10.396387
2402.000000	10.419563
2401.000000	10.430077
2400.000000	10.453366
2399.000000	10.479143
2398.000000	10.496892
2397.000000	10.510798
2396.000000	10.521764
2395.000000	10.549011
2394.000000	10.566986
2393.000000	10.568682
2392.000000	10.588127
2391.000000	10.623174
2390.000000	10.629505
2389.000000	10.638437
2388.000000	10.657091
2387.000000	10.654264
2386.000000	10.660595
2385.000000	10.670205
2384.000000	10.686711
2383.000000	10.691007
2382.000000	10.696660
2381.000000	10.695303
2380.000000	10.696434
2379.000000	10.690216
2378.000000	10.694060
2377.000000	10.708757
2376.000000	10.688633
2375.000000	10.680380
2374.000000	10.684224
2373.000000	10.679249
2372.000000	10.663987
2371.000000	10.668057
2370.000000	10.679589
2369.000000	10.663083
2368.000000	10.657204
2367.000000	10.653360
2366.000000	10.631427
2365.000000	10.618878
2364.000000	10.620800
2363.000000	10.608364
2362.000000	10.586884
2361.000000	10.582136
2360.000000	10.573543
2359.000000	10.561786
2358.000000	10.552854
2357.000000	10.533183
2356.000000	10.518825
2355.000000	10.500849
2354.000000	10.490448
2353.000000	10.478465
2352.000000	10.469307
2351.000000	10.476316
2350.000000	10.488639
2349.000000	10.491240
2348.000000	10.499267
2347.000000	10.518260
2346.000000	10.523008
2345.000000	10.551724
2344.000000	10.574222
2343.000000	10.569813
2342.000000	10.584397
2341.000000	10.602825
2340.000000	10.621479
2339.000000	10.648725
2338.000000	10.663987
2337.000000	10.675745
2336.000000	10.692364
2335.000000	10.706496
2334.000000	10.708531
2333.000000	10.708304
2332.000000	10.709435
2331.000000	10.714183
2330.000000	10.721984
2329.000000	10.709774
2328.000000	10.699938
2327.000000	10.702991
2326.000000	10.694060
2325.000000	10.682754
2324.000000	10.678797
2323.000000	10.644768
2322.000000	10.613339
2321.000000	10.583944
2320.000000	10.555116
2319.000000	10.534313
2318.000000	10.493727
2317.000000	10.467837
2316.000000	10.419789
2315.000000	10.372758
2314.000000	10.331720
2313.000000	10.279828
2312.000000	10.241389
2311.000000	10.210299
2310.000000	10.152754
2309.000000	10.123812
2308.000000	10.105497
2307.000000	10.075877
2306.000000	10.055188
2305.000000	10.048744
2304.000000	10.045013
2303.000000	10.045918
2302.000000	10.066946
2301.000000	10.071694
2300.000000	10.093401
2299.000000	10.129917
2298.000000	10.156146
2297.000000	10.184296
2296.000000	10.235849
2295.000000	10.268861
2294.000000	10.326293
2293.000000	10.366201
2292.000000	10.409840
2291.000000	10.428042
2290.000000	10.469759
2289.000000	10.488979
2288.000000	10.501302
2287.000000	10.523008
2286.000000	10.551724
2285.000000	10.559185
2284.000000	10.554550
2283.000000	10.568004
2282.000000	10.576483
2281.000000	10.544149
2280.000000	10.532957
2279.000000	10.552854
2278.000000	10.549463
2277.000000	10.536462
2276.000000	10.522556
2275.000000	10.500623
2274.000000	10.488413
2273.000000	10.491127
2272.000000	10.490448
2271.000000	10.501641
2270.000000	10.494179
2269.000000	10.512268
2268.000000	10.527078
2267.000000	10.539853
2266.000000	10.600903
2265.000000	10.695416
2264.000000	10.772972
2263.000000	10.819889
2262.000000	10.907054
2261.000000	11.027231
2260.000000	11.125137
2259.000000	11.243618
2258.000000	11.360856
2257.000000	11.513027
2256.000000	11.667912
2255.000000	11.780514
2254.000000	11.931103
2253.000000	12.055689
2252.000000	12.232393
2251.000000	12.357432
2250.000000	12.503272
2249.000000	12.607056
2248.000000	12.723276
2247.000000	12.864595
2246.000000	12.978893
2245.000000	13.087312
2244.000000	13.177869
2243.000000	13.276113
2242.000000	13.348016
2241.000000	13.427493
2240.000000	13.481647
2239.000000	13.558185
2238.000000	13.605554
2237.000000	13.661516
2236.000000	13.702668
2235.000000	13.706738
2234.000000	13.753995
2233.000000	13.775475
2232.000000	13.816288
2231.000000	13.832681
2230.000000	13.851561
2229.000000	13.845682
2228.000000	13.833020
2227.000000	13.830759
2226.000000	13.837090
2225.000000	13.823976
2224.000000	13.776154
2223.000000	13.767449
2222.000000	13.726184
2221.000000	13.731271
2220.000000	13.693850
2219.000000	13.629748
2218.000000	13.591762
2217.000000	13.564289
2216.000000	13.534556
2215.000000	13.501205
2214.000000	13.459488
2213.000000	13.443660
2212.000000	13.408500
2211.000000	13.359661
2210.000000	13.313421
2209.000000	13.309917
2208.000000	13.277470
2207.000000	13.252146
2206.000000	13.257459
2205.000000	13.214838
2204.000000	13.176512
2203.000000	13.173008
2202.000000	13.155823
2201.000000	13.149040
2200.000000	13.120550
2199.000000	13.088782
2198.000000	13.119872
2197.000000	13.064249
2196.000000	13.071145
2195.000000	13.058031
2194.000000	13.043447
2193.000000	13.026941
2192.000000	13.029202
2191.000000	13.025924
2190.000000	13.005235
2189.000000	13.011566
2188.000000	13.000599
2187.000000	12.995286
2186.000000	12.964648
2185.000000	12.942263
2184.000000	12.936950
2183.000000	12.912869
2182.000000	12.923722
2181.000000	12.879405
2180.000000	12.887432
2179.000000	12.867986
2178.000000	12.850237
2177.000000	12.839044
2176.000000	12.839270
2175.000000	12.829887
2174.000000	12.828191
2173.000000	12.802980
2172.000000	12.817451
2171.000000	12.826721
2170.000000	12.843453
2169.000000	12.837688
2168.000000	12.835653
2167.000000	12.827174
2166.000000	12.863125
2165.000000	12.879518
2164.000000	12.882231
2163.000000	12.898850
2162.000000	12.916034
2161.000000	12.948481
2160.000000	12.977197
2159.000000	13.000825
2158.000000	13.023436
2157.000000	13.066397
2156.000000	13.095226
2155.000000	13.126881
2154.000000	13.178660
2153.000000	13.215629
2152.000000	13.242423
2151.000000	13.307316
2150.000000	13.360565
2149.000000	13.387246
2148.000000	13.444339
2147.000000	13.482325
2146.000000	13.530373
2145.000000	13.575369
2144.000000	13.614712
2143.000000	13.668639
2142.000000	13.709225
2141.000000	13.747325
2140.000000	13.794582
2139.000000	13.854161
2138.000000	13.880616
2137.000000	13.914985
2136.000000	13.933300
2135.000000	13.985757
2134.000000	14.020691
2133.000000	14.034370
2132.000000	14.059356
2131.000000	14.092707
2130.000000	14.136120
2129.000000	14.148329
2128.000000	14.172071
2127.000000	14.183716
2126.000000	14.199543
2125.000000	14.213449
2124.000000	14.227015
2123.000000	14.239565
2122.000000	14.252905
2121.000000	14.262062
2120.000000	14.273933
2119.000000	14.271672
2118.000000	14.288404
2117.000000	14.293492
2116.000000	14.267037
2115.000000	14.268507
2114.000000	14.288630
2113.000000	14.280264
2112.000000	14.266132
2111.000000	14.258671
2110.000000	14.246687
2109.000000	14.253357
2108.000000	14.249739
2107.000000	14.230407
2106.000000	14.211866
2105.000000	14.186090
2104.000000	14.168792
2103.000000	14.166757
2102.000000	14.154208
2101.000000	14.136572
2100.000000	14.134763
2099.000000	14.125945
2098.000000	14.108647
2097.000000	14.094968
2096.000000	14.095307
2095.000000	14.084680
2094.000000	14.064782
2093.000000	14.049859
2092.000000	14.043528
2091.000000	14.045111
2090.000000	14.044319
2089.000000	14.033918
2088.000000	14.022952
2087.000000	14.014360
2086.000000	13.992088
2085.000000	13.979652
2084.000000	13.978635
2083.000000	13.944831
2082.000000	13.917811
2081.000000	13.895879
2080.000000	13.870780
2079.000000	13.836751
2078.000000	13.786781
2077.000000	13.753995
2076.000000	13.723470
2075.000000	13.684467
2074.000000	13.637888
2073.000000	13.591762
2072.000000	13.529921
2071.000000	13.474750
2070.000000	13.436877
2069.000000	13.381028
2068.000000	13.318396
2067.000000	13.265147
2066.000000	13.202515
2065.000000	13.135586
2064.000000	13.090025
2063.000000	13.040168
2062.000000	12.984206
2061.000000	12.937967
2060.000000	12.902807
2059.000000	12.863351
2058.000000	12.821747
2057.000000	12.788057
2056.000000	12.762393
2055.000000	12.759567
2054.000000	12.762732
2053.000000	12.774490
2052.000000	12.779691
2051.000000	12.796197
2050.000000	12.812703
2049.000000	12.852272
2048.000000	12.894780
2047.000000	12.924061
2046.000000	12.974031
2045.000000	13.036890
2044.000000	13.087991
2043.000000	13.152206
2042.000000	13.223995
2041.000000	13.272609
2040.000000	13.334110
2039.000000	13.403978
2038.000000	13.444226
2037.000000	13.474750
2036.000000	13.519068
2035.000000	13.590518
2034.000000	13.616747
2033.000000	13.644784
2032.000000	13.686954
2031.000000	13.710469
2030.000000	13.748795
2029.000000	13.750151
2028.000000	13.777284
2027.000000	13.813236
2026.000000	13.826011
2025.000000	13.836751
2024.000000	13.850431
2023.000000	13.859814
2022.000000	13.874850
2021.000000	13.884234
2020.000000	13.880729
2019.000000	13.896557
2018.000000	13.875529
2017.000000	13.889887
2016.000000	13.883330
2015.000000	13.865128
2014.000000	13.869537
2013.000000	13.863545
2012.000000	13.836977
2011.000000	13.821828
2010.000000	13.798652
2009.000000	13.769031
2008.000000	13.746647
2007.000000	13.704251
2006.000000	13.687745
2005.000000	13.647611
2004.000000	13.615164
2003.000000	13.583848
2002.000000	13.543148
2001.000000	13.496118
2000.000000	13.479838
1999.000000	13.435181
1998.000000	13.373906
1997.000000	13.325857
1996.000000	13.267634
1995.000000	13.227839
1994.000000	13.177869
1993.000000	13.111958
1992.000000	13.063684
1991.000000	13.018010
1990.000000	12.954699
1989.000000	12.907668
1988.000000	12.835314
1987.000000	12.772681
1986.000000	12.698517
1985.000000	12.661662
1984.000000	12.605474
1983.000000	12.534701
1982.000000	12.474330
1981.000000	12.404915
1980.000000	12.331429
1979.000000	12.273658
1978.000000	12.239064
1977.000000	12.165126
1976.000000	12.107016
1975.000000	12.057950
1974.000000	11.994866
1973.000000	11.925676
1972.000000	11.916180
1971.000000	11.845521
1970.000000	11.790011
1969.000000	11.745919
1968.000000	11.684305
1967.000000	11.615228
1966.000000	11.567293
1965.000000	11.517323
1964.000000	11.470971
1963.000000	11.418853
1962.000000	11.366508
1961.000000	11.336436
1960.000000	11.272334
1959.000000	11.197153
1958.000000	11.152383
1957.000000	11.109874
1956.000000	11.062278
1955.000000	11.023727
1954.000000	10.990941
1953.000000	10.935883
1952.000000	10.888966
1951.000000	10.858667
1950.000000	10.798974
1949.000000	10.757257
1948.000000	10.726393
1947.000000	10.693607
1946.000000	10.682189
1945.000000	10.665344
1944.000000	10.601129
1943.000000	10.571056
1942.000000	10.562803
1941.000000	10.543358
1940.000000	10.537931
1939.000000	10.514642
1938.000000	10.499040
1937.000000	10.485361
1936.000000	10.488752
1935.000000	10.482987
1934.000000	10.485474
1933.000000	10.506389
1932.000000	10.531600
1931.000000	10.539175
1930.000000	10.550593
1929.000000	10.597624
1928.000000	10.644089
1927.000000	10.652342
1926.000000	10.702200
1925.000000	10.783260
1924.000000	10.818194
1923.000000	10.879243
1922.000000	10.920056
1921.000000	11.021013
1920.000000	11.099021
1919.000000	11.199188
1918.000000	11.269507
1917.000000	11.393302
1916.000000	11.488494
1915.000000	11.592391
1914.000000	11.714377
1913.000000	11.839076
1912.000000	11.964341
1911.000000	12.129401
1910.000000	12.253195
1909.000000	12.430239
1908.000000	12.571105
1907.000000	12.718980
1906.000000	12.928357
1905.000000	13.122133
1904.000000	13.344059
1903.000000	13.563724
1902.000000	13.808827
1901.000000	14.055173
1900.000000	14.301518
1899.000000	14.618297
1898.000000	14.947625
1897.000000	15.225401
1896.000000	15.547493
1895.000000	15.833182
1894.000000	16.138882
1893.000000	16.468436
1892.000000	16.844342
1891.000000	17.297465
1890.000000	17.725829
1889.000000	18.126947
1888.000000	18.539709
1887.000000	18.962081
1886.000000	19.409777
1885.000000	19.859395
1884.000000	20.315231
1883.000000	20.816967
1882.000000	21.286822
1881.000000	21.716995
1880.000000	22.204712
1879.000000	22.623693
1878.000000	23.050248
1877.000000	23.428755
1876.000000	23.870120
1875.000000	24.263097
1874.000000	24.637534
1873.000000	25.032095
1872.000000	25.431743
1871.000000	25.791030
1870.000000	26.182086
1869.000000	26.538434
1868.000000	26.890147
1867.000000	27.167583
1866.000000	27.410876
1865.000000	27.579893
1864.000000	27.784522
1863.000000	27.962470
1862.000000	28.136008
1861.000000	28.309547
1860.000000	28.504906
1859.000000	28.682514
1858.000000	28.816484
1857.000000	28.952489
1856.000000	29.082049
1855.000000	29.184477
1854.000000	29.283173
1853.000000	29.372373
1852.000000	29.436588
1851.000000	29.488028
1850.000000	29.530424
1849.000000	29.558461
1848.000000	29.616119
1847.000000	29.707806
1846.000000	29.739801
1845.000000	29.707467
1844.000000	29.702493
1843.000000	29.678864
1842.000000	29.716059
1841.000000	29.781066
1840.000000	29.782648
1839.000000	29.762751
1838.000000	29.737992
1837.000000	29.708824
1836.000000	29.683839
1835.000000	29.691866
1834.000000	29.666768
1833.000000	29.622789
1832.000000	29.560044
1831.000000	29.528728
1830.000000	29.512335
1829.000000	29.481584
1828.000000	29.449137
1827.000000	29.392384
1826.000000	29.344675
1825.000000	29.332126
1824.000000	29.294931
1823.000000	29.266780
1822.000000	29.256605
1821.000000	29.260675
1820.000000	29.241230
1819.000000	29.225629
1818.000000	29.196008
1817.000000	29.150334
1816.000000	29.112122
1815.000000	29.124106
1814.000000	29.108278
1813.000000	29.086571
1812.000000	29.053673
1811.000000	29.013877
1810.000000	28.993754
1809.000000	28.961533
1808.000000	28.938470
1807.000000	28.897770
1806.000000	28.858540
1805.000000	28.828355
1804.000000	28.791160
1803.000000	28.747295
1802.000000	28.719709
1801.000000	28.711004
1800.000000	28.664878
1799.000000	28.615021
1798.000000	28.581217
1797.000000	28.532039
1796.000000	28.500270
1795.000000	28.475851
1794.000000	28.445778
1793.000000	28.409148
1792.000000	28.359065
1791.000000	28.324018
1790.000000	28.307286
1789.000000	28.280718
1788.000000	28.256638
1787.000000	28.237192
1786.000000	28.199319
1785.000000	28.170603
1784.000000	28.132730
1783.000000	28.069306
1782.000000	28.051217
1781.000000	28.028833
1780.000000	27.981350
1779.000000	27.946529
1778.000000	27.896559
1777.000000	27.848171
1776.000000	27.796166
1775.000000	27.739752
1774.000000	27.696113
1773.000000	27.642977
1772.000000	27.575258
1771.000000	27.520878
1770.000000	27.467969
1769.000000	27.406467
1768.000000	27.348018
1767.000000	27.273515
1766.000000	27.204212
1765.000000	27.145198
1764.000000	27.125300
1763.000000	27.097602
1762.000000	27.085505
1761.000000	27.089801
1760.000000	27.092741
1759.000000	27.113995
1758.000000	27.139545
1757.000000	27.188611
1756.000000	27.218231
1755.000000	27.240390
1754.000000	27.281881
1753.000000	27.315797
1752.000000	27.335243
1751.000000	27.349827
1750.000000	27.367124
1749.000000	27.347905
1748.000000	27.332303
1747.000000	27.296013
1746.000000	27.273515
1745.000000	27.224336
1744.000000	27.174253
1743.000000	27.117500
1742.000000	27.048762
1741.000000	26.942491
1740.000000	26.841646
1739.000000	26.741593
1738.000000	26.637809
1737.000000	26.527694
1736.000000	26.430919
1735.000000	26.359016
1734.000000	26.291297
1733.000000	26.222446
1732.000000	26.176094
1731.000000	26.192148
1730.000000	26.199496
1729.000000	26.197122
1728.000000	26.220298
1727.000000	26.250710
1726.000000	26.283835
1725.000000	26.353816
1724.000000	26.385471
1723.000000	26.430580
1722.000000	26.488012
1721.000000	26.582864
1720.000000	26.645158
1719.000000	26.729270
1718.000000	26.816548
1717.000000	26.940569
1716.000000	27.050571
1715.000000	27.166678
1714.000000	27.269445
1713.000000	27.405676
1712.000000	27.507312
1711.000000	27.610644
1710.000000	27.684581
1709.000000	27.751284
1708.000000	27.790627
1707.000000	27.807020
1706.000000	27.843762
1705.000000	27.852807
1704.000000	27.846023
1703.000000	27.824769
1702.000000	27.783052
1701.000000	27.723472
1700.000000	27.673841
1699.000000	27.601034
1698.000000	27.553890
1697.000000	27.472152
1696.000000	27.420712
1695.000000	27.356045
1694.000000	27.338974
1693.000000	27.314667
1692.000000	27.332077
1691.000000	27.380578
1690.000000	27.423878
1689.000000	27.502790
1688.000000	27.552647
1687.000000	27.621271
1686.000000	27.694191
1685.000000	27.808150
1684.000000	27.900290
1683.000000	28.062636
1682.000000	28.266473
1681.000000	28.451544
1680.000000	28.709421
1679.000000	29.000989
1678.000000	29.293687
1677.000000	29.595430
1676.000000	29.893103
1675.000000	30.186253
1674.000000	30.420502
1673.000000	30.691494
1672.000000	30.909237
1671.000000	31.127546
1670.000000	31.288762
1669.000000	31.477111
1668.000000	31.617072
1667.000000	31.798525
1666.000000	31.926729
1665.000000	32.039331
1664.000000	32.148881
1663.000000	32.271658
1662.000000	32.359728
1661.000000	32.446215
1660.000000	32.539259
1659.000000	32.595673
1658.000000	32.653444
1657.000000	32.718563
1656.000000	32.730434
1655.000000	32.802450
1654.000000	32.803128
1653.000000	32.812511
1652.000000	32.806520
1651.000000	32.796458
1650.000000	32.798154
1649.000000	32.772829
1648.000000	32.758811
1647.000000	32.726929
1646.000000	32.667123
1645.000000	32.642251
1644.000000	32.628572
1643.000000	32.585950
1642.000000	32.544911
1641.000000	32.499576
1640.000000	32.464416
1639.000000	32.405176
1638.000000	32.386183
1637.000000	32.339604
1636.000000	32.304218
1635.000000	32.245317
1634.000000	32.179745
1633.000000	32.131697
1632.000000	32.072569
1631.000000	32.000440
1630.000000	31.944365
1629.000000	31.883429
1628.000000	31.835946
1627.000000	31.756582
1626.000000	31.672808
1625.000000	31.615489
1624.000000	31.535560
1623.000000	31.454048
1622.000000	31.391302
1621.000000	31.324826
