PE UV       SUBTECH     SPECTRUM    ASCII       PEDS        4.00        
   -1
CICIMAUCR0251-2.ASC
24/05/30
15:38:52.00
24/05/30
15:38:52.00
Vinicio Soto Monge
C. resplendens, F Ventral
250,000000
1
Lambda 1050
1050L1511233
PerkinElmer UV WinLab 6.3.2.0749 / 2.02.05 Lambda 900 UV/VIS/NIR, Aug  7 2015 09:38:08

0
0
3350/servo 860,8/2
0
0
UV/VIS
1
1
1
DoubleDePol,CommonBeamDepol,RBeamAtt,SBeamAtt,60mm sphere, WB InGaAs Detector
0
0
0
0
Program
Program
3350/servo 860,8/2
3350/0,2 860,8/0,2
3350/0,2 860,8/0,2
0
15.00
 
 
 
0
 
860,8
319,2
860,8
Front
100
on
S:100 R:100
0
0
0
0
 
0
 
 
 
0
 
 
0
0
0
0
0
 
 
 
 
0
0


0
0
#HDR
-1
-1
#GR
nm
%R
1.0
0.0
2500,000000
-1,000000
2251
8
49,097900
3,206000
#DATA
2500.000000	4.522781
2499.000000	4.538930
2498.000000	4.477189
2497.000000	4.408747
2496.000000	4.389961
2495.000000	4.373153
2494.000000	4.405671
2493.000000	4.329209
2492.000000	4.338547
2491.000000	4.293505
2490.000000	4.262415
2489.000000	4.339097
2488.000000	4.302184
2487.000000	4.316576
2486.000000	4.291418
2485.000000	4.290100
2484.000000	4.248463
2483.000000	4.311522
2482.000000	4.270764
2481.000000	4.280872
2480.000000	4.297240
2479.000000	4.239674
2478.000000	4.238466
2477.000000	4.164970
2476.000000	4.223305
2475.000000	4.197598
2474.000000	4.189359
2473.000000	4.168706
2472.000000	4.177275
2471.000000	4.181889
2470.000000	4.202213
2469.000000	4.133111
2468.000000	4.166948
2467.000000	4.235170
2466.000000	4.183097
2465.000000	4.158818
2464.000000	4.183317
2463.000000	4.148492
2462.000000	4.158599
2461.000000	4.189798
2460.000000	4.195841
2459.000000	4.237587
2458.000000	4.199576
2457.000000	4.199246
2456.000000	4.219021
2455.000000	4.222976
2454.000000	4.232094
2453.000000	4.226272
2452.000000	4.268348
2451.000000	4.277905
2450.000000	4.302514
2449.000000	4.317784
2448.000000	4.331297
2447.000000	4.322508
2446.000000	4.351291
2445.000000	4.360739
2444.000000	4.360080
2443.000000	4.377108
2442.000000	4.388314
2441.000000	4.419074
2440.000000	4.409187
2439.000000	4.433575
2438.000000	4.469609
2437.000000	4.496964
2436.000000	4.478618
2435.000000	4.501248
2434.000000	4.518826
2433.000000	4.513003
2432.000000	4.520144
2431.000000	4.552223
2430.000000	4.566944
2429.000000	4.557936
2428.000000	4.567274
2427.000000	4.587158
2426.000000	4.577381
2425.000000	4.608800
2424.000000	4.626597
2423.000000	4.633519
2422.000000	4.631212
2421.000000	4.648240
2420.000000	4.658676
2419.000000	4.668014
2418.000000	4.673178
2417.000000	4.680758
2416.000000	4.692073
2415.000000	4.703169
2414.000000	4.710310
2413.000000	4.725690
2412.000000	4.737994
2411.000000	4.714814
2410.000000	4.714155
2409.000000	4.735907
2408.000000	4.741180
2407.000000	4.746014
2406.000000	4.749749
2405.000000	4.763482
2404.000000	4.781498
2403.000000	4.782817
2402.000000	4.781389
2401.000000	4.796769
2400.000000	4.811710
2399.000000	4.835439
2398.000000	4.820608
2397.000000	4.839504
2396.000000	4.835219
2395.000000	4.850819
2394.000000	4.872462
2393.000000	4.867408
2392.000000	4.872242
2391.000000	4.884107
2390.000000	4.897400
2389.000000	4.905969
2388.000000	4.908825
2387.000000	4.920909
2386.000000	4.897400
2385.000000	4.886633
2384.000000	4.904650
2383.000000	4.916955
2382.000000	4.906628
2381.000000	4.906298
2380.000000	4.909924
2379.000000	4.905639
2378.000000	4.889600
2377.000000	4.887293
2376.000000	4.900256
2375.000000	4.900805
2374.000000	4.895532
2373.000000	4.884217
2372.000000	4.887842
2371.000000	4.886633
2370.000000	4.873341
2369.000000	4.879493
2368.000000	4.863563
2367.000000	4.847414
2366.000000	4.836428
2365.000000	4.845876
2364.000000	4.849941
2363.000000	4.828189
2362.000000	4.815884
2361.000000	4.796769
2360.000000	4.784355
2359.000000	4.776555
2358.000000	4.785563
2357.000000	4.785453
2356.000000	4.756561
2355.000000	4.733380
2354.000000	4.735468
2353.000000	4.734918
2352.000000	4.718989
2351.000000	4.725251
2350.000000	4.715803
2349.000000	4.710749
2348.000000	4.715803
2347.000000	4.722614
2346.000000	4.730963
2345.000000	4.729645
2344.000000	4.740851
2343.000000	4.762713
2342.000000	4.770732
2341.000000	4.777544
2340.000000	4.769084
2339.000000	4.778093
2338.000000	4.792375
2337.000000	4.798087
2336.000000	4.798307
2335.000000	4.815445
2334.000000	4.812808
2333.000000	4.805667
2332.000000	4.810941
2331.000000	4.819620
2330.000000	4.812149
2329.000000	4.796659
2328.000000	4.789848
2327.000000	4.795670
2326.000000	4.793363
2325.000000	4.775676
2324.000000	4.763701
2323.000000	4.736237
2322.000000	4.703718
2321.000000	4.689327
2320.000000	4.661203
2319.000000	4.645054
2318.000000	4.627806
2317.000000	4.617150
2316.000000	4.575953
2315.000000	4.557496
2314.000000	4.520144
2313.000000	4.484660
2312.000000	4.470158
2311.000000	4.430170
2310.000000	4.411933
2309.000000	4.398421
2308.000000	4.382491
2307.000000	4.381612
2306.000000	4.377437
2305.000000	4.362607
2304.000000	4.349533
2303.000000	4.351840
2302.000000	4.368868
2301.000000	4.383150
2300.000000	4.395235
2299.000000	4.380074
2298.000000	4.427973
2297.000000	4.450933
2296.000000	4.463787
2295.000000	4.467082
2294.000000	4.487406
2293.000000	4.507291
2292.000000	4.520693
2291.000000	4.514871
2290.000000	4.540798
2289.000000	4.539369
2288.000000	4.569800
2287.000000	4.575623
2286.000000	4.574195
2285.000000	4.574085
2284.000000	4.572437
2283.000000	4.592431
2282.000000	4.562000
2281.000000	4.545961
2280.000000	4.571668
2279.000000	4.549586
2278.000000	4.546950
2277.000000	4.564417
2276.000000	4.569691
2275.000000	4.552113
2274.000000	4.550246
2273.000000	4.557386
2272.000000	4.562110
2271.000000	4.572986
2270.000000	4.569910
2269.000000	4.580347
2268.000000	4.600890
2267.000000	4.604516
2266.000000	4.635826
2265.000000	4.672738
2264.000000	4.712507
2263.000000	4.742499
2262.000000	4.780290
2261.000000	4.824563
2260.000000	4.871803
2259.000000	4.916735
2258.000000	4.946836
2257.000000	5.034723
2256.000000	5.084489
2255.000000	5.140737
2254.000000	5.206872
2253.000000	5.270920
2252.000000	5.321675
2251.000000	5.404728
2250.000000	5.439224
2249.000000	5.521618
2248.000000	5.575449
2247.000000	5.612581
2246.000000	5.669818
2245.000000	5.702885
2244.000000	5.758803
2243.000000	5.766713
2242.000000	5.825268
2241.000000	5.868882
2240.000000	5.907552
2239.000000	5.914803
2238.000000	5.965228
2237.000000	5.993682
2236.000000	6.006974
2235.000000	6.039273
2234.000000	6.049819
2233.000000	6.072670
2232.000000	6.096839
2231.000000	6.112878
2230.000000	6.126611
2229.000000	6.130895
2228.000000	6.132873
2227.000000	6.139245
2226.000000	6.144078
2225.000000	6.133092
2224.000000	6.122985
2223.000000	6.121557
2222.000000	6.122985
2221.000000	6.116833
2220.000000	6.118701
2219.000000	6.124743
2218.000000	6.081239
2217.000000	6.072121
2216.000000	6.086512
2215.000000	6.043997
2214.000000	6.059707
2213.000000	6.054104
2212.000000	6.059926
2211.000000	6.019938
2210.000000	6.022574
2209.000000	6.002360
2208.000000	6.039053
2207.000000	6.024881
2206.000000	5.997746
2205.000000	6.009501
2204.000000	5.991594
2203.000000	5.969732
2202.000000	5.961383
2201.000000	5.968853
2200.000000	5.954791
2199.000000	5.958197
2198.000000	5.952045
2197.000000	5.942377
2196.000000	5.932930
2195.000000	5.923262
2194.000000	5.946113
2193.000000	5.935786
2192.000000	5.918318
2191.000000	5.910299
2190.000000	5.918758
2189.000000	5.918318
2188.000000	5.906454
2187.000000	5.936006
2186.000000	5.903158
2185.000000	5.883163
2184.000000	5.872178
2183.000000	5.891403
2182.000000	5.892721
2181.000000	5.868552
2180.000000	5.885580
2179.000000	5.865586
2178.000000	5.871079
2177.000000	5.851744
2176.000000	5.840648
2175.000000	5.840978
2174.000000	5.851414
2173.000000	5.851634
2172.000000	5.868333
2171.000000	5.885910
2170.000000	5.858006
2169.000000	5.875254
2168.000000	5.877890
2167.000000	5.869761
2166.000000	5.891403
2165.000000	5.906234
2164.000000	5.905245
2163.000000	5.919307
2162.000000	5.930183
2161.000000	5.938862
2160.000000	5.956549
2159.000000	5.964349
2158.000000	5.966986
2157.000000	5.982036
2156.000000	6.013236
2155.000000	6.026859
2154.000000	6.021805
2153.000000	6.045425
2152.000000	6.086952
2151.000000	6.082008
2150.000000	6.089369
2149.000000	6.120239
2148.000000	6.139464
2147.000000	6.161875
2146.000000	6.171983
2145.000000	6.178904
2144.000000	6.200546
2143.000000	6.205270
2142.000000	6.226473
2141.000000	6.240205
2140.000000	6.263165
2139.000000	6.267230
2138.000000	6.272174
2137.000000	6.295793
2136.000000	6.306999
2135.000000	6.312602
2134.000000	6.311284
2133.000000	6.315458
2132.000000	6.329081
2131.000000	6.338968
2130.000000	6.343253
2129.000000	6.333146
2128.000000	6.358413
2127.000000	6.357314
2126.000000	6.368960
2125.000000	6.366982
2124.000000	6.366982
2123.000000	6.356436
2122.000000	6.358852
2121.000000	6.347427
2120.000000	6.351822
2119.000000	6.335562
2118.000000	6.332047
2117.000000	6.330289
2116.000000	6.318974
2115.000000	6.313041
2114.000000	6.319193
2113.000000	6.307219
2112.000000	6.284368
2111.000000	6.278985
2110.000000	6.266791
2109.000000	6.264813
2108.000000	6.269317
2107.000000	6.255695
2106.000000	6.248774
2105.000000	6.234932
2104.000000	6.225154
2103.000000	6.205709
2102.000000	6.200875
2101.000000	6.210104
2100.000000	6.209335
2099.000000	6.180661
2098.000000	6.173850
2097.000000	6.174180
2096.000000	6.169126
2095.000000	6.159459
2094.000000	6.153856
2093.000000	6.154405
2092.000000	6.149022
2091.000000	6.137707
2090.000000	6.129907
2089.000000	6.119690
2088.000000	6.116614
2087.000000	6.116723
2086.000000	6.116064
2085.000000	6.107935
2084.000000	6.103980
2083.000000	6.117383
2082.000000	6.105518
2081.000000	6.067617
2080.000000	6.054324
2079.000000	6.057839
2078.000000	6.071571
2077.000000	6.038065
2076.000000	6.014005
2075.000000	6.021476
2074.000000	6.008073
2073.000000	5.991484
2072.000000	5.968304
2071.000000	5.945783
2070.000000	5.939411
2069.000000	5.917330
2068.000000	5.889755
2067.000000	5.883493
2066.000000	5.878440
2065.000000	5.852733
2064.000000	5.825158
2063.000000	5.805054
2062.000000	5.781105
2061.000000	5.783192
2060.000000	5.771986
2059.000000	5.751223
2058.000000	5.740676
2057.000000	5.733426
2056.000000	5.713761
2055.000000	5.694206
2054.000000	5.704972
2053.000000	5.708488
2052.000000	5.712333
2051.000000	5.725406
2050.000000	5.736062
2049.000000	5.742434
2048.000000	5.757485
2047.000000	5.796595
2046.000000	5.808789
2045.000000	5.840099
2044.000000	5.862510
2043.000000	5.877780
2042.000000	5.902059
2041.000000	5.945673
2040.000000	5.983904
2039.000000	5.997417
2038.000000	6.036636
2037.000000	6.057729
2036.000000	6.090247
2035.000000	6.112988
2034.000000	6.132323
2033.000000	6.161326
2032.000000	6.191428
2031.000000	6.209884
2030.000000	6.228340
2029.000000	6.240754
2028.000000	6.256354
2027.000000	6.270965
2026.000000	6.277886
2025.000000	6.295354
2024.000000	6.301286
2023.000000	6.308647
2022.000000	6.328971
2021.000000	6.339957
2020.000000	6.339737
2019.000000	6.336771
2018.000000	6.337650
2017.000000	6.356216
2016.000000	6.344461
2015.000000	6.345779
2014.000000	6.351162
2013.000000	6.340726
2012.000000	6.334134
2011.000000	6.332157
2010.000000	6.338748
2009.000000	6.327653
2008.000000	6.313151
2007.000000	6.315239
2006.000000	6.302055
2005.000000	6.306779
2004.000000	6.287884
2003.000000	6.261188
2002.000000	6.252509
2001.000000	6.251850
2000.000000	6.229549
1999.000000	6.202194
1998.000000	6.204061
1997.000000	6.179892
1996.000000	6.157481
1995.000000	6.125512
1994.000000	6.114526
1993.000000	6.088929
1992.000000	6.087501
1991.000000	6.046304
1990.000000	6.014115
1989.000000	5.987420
1988.000000	5.990935
1987.000000	5.969403
1986.000000	5.955890
1985.000000	5.904476
1984.000000	5.887228
1983.000000	5.861302
1982.000000	5.850426
1981.000000	5.818127
1980.000000	5.794617
1979.000000	5.766164
1978.000000	5.755837
1977.000000	5.716837
1976.000000	5.709257
1975.000000	5.674651
1974.000000	5.642572
1973.000000	5.632685
1972.000000	5.615877
1971.000000	5.589511
1970.000000	5.582260
1969.000000	5.539305
1968.000000	5.514257
1967.000000	5.506677
1966.000000	5.474049
1965.000000	5.476686
1964.000000	5.465480
1963.000000	5.444057
1962.000000	5.433291
1961.000000	5.399894
1960.000000	5.363531
1959.000000	5.366058
1958.000000	5.347162
1957.000000	5.329035
1956.000000	5.321235
1955.000000	5.309920
1954.000000	5.280038
1953.000000	5.262461
1952.000000	5.257957
1951.000000	5.244554
1950.000000	5.242576
1949.000000	5.205554
1948.000000	5.201269
1947.000000	5.190613
1946.000000	5.176112
1945.000000	5.198413
1944.000000	5.174354
1943.000000	5.166993
1942.000000	5.146230
1941.000000	5.155568
1940.000000	5.137441
1939.000000	5.140407
1938.000000	5.102286
1937.000000	5.152053
1936.000000	5.145571
1935.000000	5.132937
1934.000000	5.113822
1933.000000	5.133157
1932.000000	5.169191
1931.000000	5.168641
1930.000000	5.178529
1929.000000	5.184461
1928.000000	5.211926
1927.000000	5.238951
1926.000000	5.256638
1925.000000	5.265317
1924.000000	5.316182
1923.000000	5.320796
1922.000000	5.373089
1921.000000	5.378032
1920.000000	5.436587
1919.000000	5.482948
1918.000000	5.513159
1917.000000	5.534032
1916.000000	5.562376
1915.000000	5.602035
1914.000000	5.638398
1913.000000	5.702006
1912.000000	5.770558
1911.000000	5.849107
1910.000000	5.889755
1909.000000	5.932930
1908.000000	5.987639
1907.000000	6.036307
1906.000000	6.117492
1905.000000	6.187033
1904.000000	6.315239
1903.000000	6.390272
1902.000000	6.464756
1901.000000	6.548139
1900.000000	6.646573
1899.000000	6.780051
1898.000000	6.855415
1897.000000	6.962417
1896.000000	7.075572
1895.000000	7.157856
1894.000000	7.260135
1893.000000	7.359557
1892.000000	7.504791
1891.000000	7.674742
1890.000000	7.848979
1889.000000	7.994651
1888.000000	8.138127
1887.000000	8.325546
1886.000000	8.489016
1885.000000	8.683577
1884.000000	8.895824
1883.000000	9.143885
1882.000000	9.406778
1881.000000	9.643304
1880.000000	9.907844
1879.000000	10.141953
1878.000000	10.402758
1877.000000	10.664442
1876.000000	10.913163
1875.000000	11.185393
1874.000000	11.432576
1873.000000	11.692502
1872.000000	11.963743
1871.000000	12.221362
1870.000000	12.462393
1869.000000	12.691888
1868.000000	12.872826
1867.000000	13.033879
1866.000000	13.163842
1865.000000	13.273591
1864.000000	13.364664
1863.000000	13.457934
1862.000000	13.525278
1861.000000	13.638872
1860.000000	13.733131
1859.000000	13.828159
1858.000000	13.925494
1857.000000	13.975370
1856.000000	14.012941
1855.000000	14.059631
1854.000000	14.083800
1853.000000	14.123569
1852.000000	14.134775
1851.000000	14.115440
1850.000000	14.107310
1849.000000	14.115659
1848.000000	14.122471
1847.000000	14.142355
1846.000000	14.138949
1845.000000	14.103904
1844.000000	14.073913
1843.000000	14.031947
1842.000000	13.998110
1841.000000	14.001406
1840.000000	14.004153
1839.000000	14.000308
1838.000000	13.995254
1837.000000	13.964603
1836.000000	13.944609
1835.000000	13.916485
1834.000000	13.877156
1833.000000	13.835409
1832.000000	13.799376
1831.000000	13.748621
1830.000000	13.713686
1829.000000	13.677103
1828.000000	13.639311
1827.000000	13.579768
1826.000000	13.539010
1825.000000	13.507590
1824.000000	13.462109
1823.000000	13.436292
1822.000000	13.393227
1821.000000	13.380813
1820.000000	13.391799
1819.000000	13.375210
1818.000000	13.333025
1817.000000	13.310833
1816.000000	13.298749
1815.000000	13.287982
1814.000000	13.280952
1813.000000	13.272383
1812.000000	13.256233
1811.000000	13.235470
1810.000000	13.222177
1809.000000	13.200205
1808.000000	13.177684
1807.000000	13.143957
1806.000000	13.104518
1805.000000	13.074527
1804.000000	13.049699
1803.000000	13.025090
1802.000000	12.995428
1801.000000	12.957966
1800.000000	12.922043
1799.000000	12.887437
1798.000000	12.849426
1797.000000	12.812293
1796.000000	12.782961
1795.000000	12.758353
1794.000000	12.714849
1793.000000	12.678266
1792.000000	12.656404
1791.000000	12.628170
1790.000000	12.597300
1789.000000	12.553686
1788.000000	12.529077
1787.000000	12.486013
1786.000000	12.428007
1785.000000	12.395709
1784.000000	12.361982
1783.000000	12.322762
1782.000000	12.282774
1781.000000	12.242455
1780.000000	12.197413
1779.000000	12.141605
1778.000000	12.099749
1777.000000	12.062067
1776.000000	11.993186
1775.000000	11.927051
1774.000000	11.862563
1773.000000	11.801592
1772.000000	11.740400
1771.000000	11.668003
1770.000000	11.590333
1769.000000	11.514640
1768.000000	11.446747
1767.000000	11.397421
1766.000000	11.340184
1765.000000	11.282948
1764.000000	11.241861
1763.000000	11.210002
1762.000000	11.187920
1761.000000	11.193413
1760.000000	11.224393
1759.000000	11.247463
1758.000000	11.279982
1757.000000	11.323046
1756.000000	11.366001
1755.000000	11.405111
1754.000000	11.435432
1753.000000	11.464654
1752.000000	11.490032
1751.000000	11.497832
1750.000000	11.484759
1749.000000	11.480035
1748.000000	11.452680
1747.000000	11.417855
1746.000000	11.388083
1745.000000	11.335460
1744.000000	11.277784
1743.000000	11.204179
1742.000000	11.117171
1741.000000	11.005664
1740.000000	10.883391
1739.000000	10.778695
1738.000000	10.657411
1737.000000	10.560296
1736.000000	10.437144
1735.000000	10.346181
1734.000000	10.299711
1733.000000	10.258514
1732.000000	10.240497
1731.000000	10.235993
1730.000000	10.246209
1729.000000	10.307621
1728.000000	10.335854
1727.000000	10.379139
1726.000000	10.431761
1725.000000	10.458347
1724.000000	10.524702
1723.000000	10.558978
1722.000000	10.585234
1721.000000	10.604020
1720.000000	10.648403
1719.000000	10.669825
1718.000000	10.685755
1717.000000	10.735741
1716.000000	10.770896
1715.000000	10.813301
1714.000000	10.860101
1713.000000	10.912723
1712.000000	10.969301
1711.000000	11.040819
1710.000000	11.073117
1709.000000	11.089376
1708.000000	11.102010
1707.000000	11.112776
1706.000000	11.104098
1705.000000	11.081796
1704.000000	11.056748
1703.000000	11.046751
1702.000000	11.004675
1701.000000	10.947219
1700.000000	10.912723
1699.000000	10.834943
1698.000000	10.750901
1697.000000	10.702453
1696.000000	10.642800
1695.000000	10.629727
1694.000000	10.596769
1693.000000	10.631594
1692.000000	10.677186
1691.000000	10.740794
1690.000000	10.825386
1689.000000	10.880315
1688.000000	10.944802
1687.000000	10.999182
1686.000000	11.061143
1685.000000	11.088498
1684.000000	11.105086
1683.000000	11.187700
1682.000000	11.309094
1681.000000	11.467291
1680.000000	11.695248
1679.000000	11.977366
1678.000000	12.280576
1677.000000	12.562145
1676.000000	12.889634
1675.000000	13.159118
1674.000000	13.445410
1673.000000	13.693691
1672.000000	13.878584
1671.000000	14.041395
1670.000000	14.194318
1669.000000	14.332081
1668.000000	14.457101
1667.000000	14.596182
1666.000000	14.680554
1665.000000	14.754818
1664.000000	14.817987
1663.000000	14.888297
1662.000000	14.956629
1661.000000	15.022654
1660.000000	15.051987
1659.000000	15.080989
1658.000000	15.134271
1657.000000	15.164372
1656.000000	15.190958
1655.000000	15.194584
1654.000000	15.204141
1653.000000	15.216885
1652.000000	15.182170
1651.000000	15.197110
1650.000000	15.181620
1649.000000	15.147674
1648.000000	15.142840
1647.000000	15.115705
1646.000000	15.070992
1645.000000	15.021446
1644.000000	15.024632
1643.000000	14.985852
1642.000000	14.932131
1641.000000	14.891922
1640.000000	14.845562
1639.000000	14.818976
1638.000000	14.779976
1637.000000	14.740757
1636.000000	14.676819
1635.000000	14.628041
1634.000000	14.608047
1633.000000	14.548723
1632.000000	14.518622
1631.000000	14.455014
1630.000000	14.402171
1629.000000	14.332301
1628.000000	14.291983
1627.000000	14.238591
1626.000000	14.169600
1625.000000	14.127195
1624.000000	14.074682
1623.000000	14.004592
1622.000000	13.936699
1621.000000	13.906158
1620.000000	13.853756
1619.000000	13.798716
1618.000000	13.757519
1617.000000	13.717091
1616.000000	13.646122
1615.000000	13.589875
1614.000000	13.533957
1613.000000	13.508250
1612.000000	13.454089
1611.000000	13.397292
1610.000000	13.371585
1609.000000	13.325664
1608.000000	13.273261
1607.000000	13.221628
1606.000000	13.178233
1605.000000	13.126270
1604.000000	13.088149
1603.000000	13.032670
1602.000000	12.999054
1601.000000	12.943795
1600.000000	12.884910
1599.000000	12.847778
1598.000000	12.803724
1597.000000	12.739677
1596.000000	12.704742
