PE UV       SUBTECH     SPECTRUM    ASCII       PEDS        4.00        
   -1
CICIMAUCR0251-1.ASC
24/05/30
11:00:22.00
24/05/30
11:00:22.00
Vinicio Soto Monge
C. resplendens, F Ventral
250,000000
1
Lambda 1050
1050L1511233
PerkinElmer UV WinLab 6.3.2.0749 / 2.02.05 Lambda 900 UV/VIS/NIR, Aug  7 2015 09:38:08

0
0
3350/servo 860,8/2
0
0
UV/VIS
1
1
1
DoubleDePol,CommonBeamDepol,RBeamAtt,SBeamAtt,60mm sphere, WB InGaAs Detector
0
0
0
0
Program
Program
3350/servo 860,8/2
3350/0,2 860,8/0,2
3350/0,2 860,8/0,2
0
15.00
 
 
 
0
 
860,8
319,2
860,8
Front
100
on
S:100 R:100
0
0
0
0
 
0
 
 
 
0
 
 
0
0
0
0
0
 
 
 
 
0
0


0
0
#HDR
-1
-1
#GR
nm
%R
1.0
0.0
2500,000000
-1,000000
2251
8
57,323100
3,678600
#DATA
2500.000000	4.745820
2499.000000	4.714212
2498.000000	4.629814
2497.000000	4.807914
2496.000000	4.592714
2495.000000	4.624322
2494.000000	4.636314
2493.000000	4.613337
2492.000000	4.645729
2491.000000	4.550347
2490.000000	4.585877
2489.000000	4.568728
2488.000000	4.567832
2487.000000	4.600672
2486.000000	4.482761
2485.000000	4.433668
2484.000000	4.438152
2483.000000	4.549226
2482.000000	4.415959
2481.000000	4.576910
2480.000000	4.556511
2479.000000	4.419434
2478.000000	4.501927
2477.000000	4.434453
2476.000000	4.510109
2475.000000	4.482200
2474.000000	4.445773
2473.000000	4.404751
2472.000000	4.406208
2471.000000	4.370341
2470.000000	4.403182
2469.000000	4.419322
2468.000000	4.397353
2467.000000	4.394439
2466.000000	4.397353
2465.000000	4.428400
2464.000000	4.388499
2463.000000	4.408674
2462.000000	4.403182
2461.000000	4.441178
2460.000000	4.438824
2459.000000	4.480519
2458.000000	4.429970
2457.000000	4.440617
2456.000000	4.480631
2455.000000	4.453619
2454.000000	4.448799
2453.000000	4.476036
2452.000000	4.495314
2451.000000	4.495202
2450.000000	4.525464
2449.000000	4.543398
2448.000000	4.559425
2447.000000	4.601905
2446.000000	4.588455
2445.000000	4.566599
2444.000000	4.596189
2443.000000	4.643600
2442.000000	4.635418
2441.000000	4.653687
2440.000000	4.646066
2439.000000	4.693365
2438.000000	4.703452
2437.000000	4.718471
2436.000000	4.727886
2435.000000	4.737525
2434.000000	4.743130
2433.000000	4.761623
2432.000000	4.799844
2431.000000	4.805336
2430.000000	4.819346
2429.000000	4.802982
2428.000000	4.819458
2427.000000	4.851514
2426.000000	4.846470
2425.000000	4.856894
2424.000000	4.866869
2423.000000	4.882225
2422.000000	4.889286
2421.000000	4.902624
2420.000000	4.905986
2419.000000	4.901055
2418.000000	4.920557
2417.000000	4.934119
2416.000000	4.931541
2415.000000	4.944991
2414.000000	4.959674
2413.000000	4.971667
2412.000000	4.987134
2411.000000	4.990385
2410.000000	5.001593
2409.000000	4.992290
2408.000000	4.997670
2407.000000	5.012577
2406.000000	5.034209
2405.000000	5.026475
2404.000000	5.037235
2403.000000	5.054048
2402.000000	5.051918
2401.000000	5.059876
2400.000000	5.061333
2399.000000	5.071645
2398.000000	5.100674
2397.000000	5.119841
2396.000000	5.142818
2395.000000	5.146292
2394.000000	5.154250
2393.000000	5.171399
2392.000000	5.187427
2391.000000	5.185409
2390.000000	5.186642
2389.000000	5.194040
2388.000000	5.210852
2387.000000	5.217241
2386.000000	5.212645
2385.000000	5.215896
2384.000000	5.222509
2383.000000	5.227440
2382.000000	5.224750
2381.000000	5.236967
2380.000000	5.257815
2379.000000	5.257703
2378.000000	5.237976
2377.000000	5.240330
2376.000000	5.240442
2375.000000	5.231363
2374.000000	5.229234
2373.000000	5.235062
2372.000000	5.242571
2371.000000	5.236183
2370.000000	5.226095
2369.000000	5.216680
2368.000000	5.219034
2367.000000	5.207490
2366.000000	5.190901
2365.000000	5.186754
2364.000000	5.183952
2363.000000	5.176218
2362.000000	5.165346
2361.000000	5.158621
2360.000000	5.153353
2359.000000	5.146180
2358.000000	5.142706
2357.000000	5.135308
2356.000000	5.133178
2355.000000	5.110986
2354.000000	5.087897
2353.000000	5.093053
2352.000000	5.105718
2351.000000	5.116478
2350.000000	5.117823
2349.000000	5.128359
2348.000000	5.127014
2347.000000	5.143490
2346.000000	5.148534
2345.000000	5.152233
2344.000000	5.166243
2343.000000	5.177900
2342.000000	5.193031
2341.000000	5.199195
2340.000000	5.193815
2339.000000	5.212085
2338.000000	5.237079
2337.000000	5.245598
2336.000000	5.235734
2335.000000	5.247167
2334.000000	5.241675
2333.000000	5.224862
2332.000000	5.232372
2331.000000	5.244253
2330.000000	5.253219
2329.000000	5.238424
2328.000000	5.219370
2327.000000	5.219931
2326.000000	5.223181
2325.000000	5.206593
2324.000000	5.194936
2323.000000	5.167812
2322.000000	5.150775
2321.000000	5.122979
2320.000000	5.115581
2319.000000	5.105382
2318.000000	5.082293
2317.000000	5.067498
2316.000000	5.037460
2315.000000	5.004395
2314.000000	4.968865
2313.000000	4.944543
2312.000000	4.920109
2311.000000	4.904417
2310.000000	4.898477
2309.000000	4.887605
2308.000000	4.891303
2307.000000	4.860817
2306.000000	4.856670
2305.000000	4.849945
2304.000000	4.863283
2303.000000	4.883009
2302.000000	4.890631
2301.000000	4.915177
2300.000000	4.914729
2299.000000	4.948354
2298.000000	4.972227
2297.000000	4.983211
2296.000000	4.999239
2295.000000	5.033985
2294.000000	5.057522
2293.000000	5.061109
2292.000000	5.053039
2291.000000	5.082181
2290.000000	5.096415
2289.000000	5.097424
2288.000000	5.106503
2287.000000	5.106839
2286.000000	5.115806
2285.000000	5.103364
2284.000000	5.116926
2283.000000	5.113788
2282.000000	5.107287
2281.000000	5.093053
2280.000000	5.072093
2279.000000	5.081508
2278.000000	5.084759
2277.000000	5.062566
2276.000000	5.071533
2275.000000	5.064920
2274.000000	5.048892
2273.000000	5.025355
2272.000000	5.061221
2271.000000	5.067498
2270.000000	5.063575
2269.000000	5.085992
2268.000000	5.101683
2267.000000	5.108969
2266.000000	5.158733
2265.000000	5.208274
2264.000000	5.263195
2263.000000	5.295138
2262.000000	5.313072
2261.000000	5.379313
2260.000000	5.426276
2259.000000	5.514597
2258.000000	5.593616
2257.000000	5.612333
2256.000000	5.704578
2255.000000	5.798279
2254.000000	5.857347
2253.000000	5.933563
2252.000000	6.008323
2251.000000	6.082073
2250.000000	6.171179
2249.000000	6.249189
2248.000000	6.299514
2247.000000	6.354323
2246.000000	6.434350
2245.000000	6.522111
2244.000000	6.551477
2243.000000	6.594069
2242.000000	6.643833
2241.000000	6.678243
2240.000000	6.738319
2239.000000	6.751209
2238.000000	6.809268
2237.000000	6.835271
2236.000000	6.909694
2235.000000	6.915747
2234.000000	6.928636
2233.000000	6.978962
2232.000000	6.980419
2231.000000	6.998464
2230.000000	7.006422
2229.000000	7.016285
2228.000000	7.032537
2227.000000	7.064481
2226.000000	7.023795
2225.000000	7.047444
2224.000000	7.019200
2223.000000	7.033770
2222.000000	7.039935
2221.000000	7.005189
2220.000000	7.015389
2219.000000	7.011578
2218.000000	6.964391
2217.000000	6.998352
2216.000000	6.979298
2215.000000	6.944776
2214.000000	6.934577
2213.000000	6.934016
2212.000000	6.937603
2211.000000	6.934577
2210.000000	6.908013
2209.000000	6.890977
2208.000000	6.879992
2207.000000	6.891761
2206.000000	6.889407
2205.000000	6.881113
2204.000000	6.857464
2203.000000	6.858136
2202.000000	6.854325
2201.000000	6.850066
2200.000000	6.834823
2199.000000	6.845919
2198.000000	6.845135
2197.000000	6.820476
2196.000000	6.830564
2195.000000	6.821821
2194.000000	6.817338
2193.000000	6.810277
2192.000000	6.804224
2191.000000	6.830115
2190.000000	6.804448
2189.000000	6.795146
2188.000000	6.781359
2187.000000	6.777436
2186.000000	6.756477
2185.000000	6.792343
2184.000000	6.761521
2183.000000	6.738880
2182.000000	6.728120
2181.000000	6.732939
2180.000000	6.720947
2179.000000	6.704807
2178.000000	6.715118
2177.000000	6.706488
2176.000000	6.692141
2175.000000	6.697073
2174.000000	6.722404
2173.000000	6.698306
2172.000000	6.683959
2171.000000	6.694383
2170.000000	6.688891
2169.000000	6.693374
2168.000000	6.707945
2167.000000	6.690796
2166.000000	6.686537
2165.000000	6.716463
2164.000000	6.733388
2163.000000	6.733836
2162.000000	6.736750
2161.000000	6.750649
2160.000000	6.758046
2159.000000	6.754572
2158.000000	6.755580
2157.000000	6.785282
2156.000000	6.801422
2155.000000	6.818571
2154.000000	6.834487
2153.000000	6.858921
2152.000000	6.875285
2151.000000	6.896805
2150.000000	6.903082
2149.000000	6.915523
2148.000000	6.918997
2147.000000	6.950268
2146.000000	6.989385
2145.000000	7.003956
2144.000000	7.010009
2143.000000	7.020993
2142.000000	7.035452
2141.000000	7.064929
2140.000000	7.081742
2139.000000	7.089700
2138.000000	7.100572
2137.000000	7.131283
2136.000000	7.152466
2135.000000	7.173650
2134.000000	7.171632
2133.000000	7.184858
2132.000000	7.204473
2131.000000	7.213215
2130.000000	7.213439
2129.000000	7.219604
2128.000000	7.221846
2127.000000	7.236753
2126.000000	7.253117
2125.000000	7.244262
2124.000000	7.249642
2123.000000	7.279456
2122.000000	7.279568
2121.000000	7.264661
2120.000000	7.265558
2119.000000	7.256367
2118.000000	7.250315
2117.000000	7.263316
2116.000000	7.247401
2115.000000	7.239331
2114.000000	7.242021
2113.000000	7.246280
2112.000000	7.243141
2111.000000	7.232830
2110.000000	7.229355
2109.000000	7.231036
2108.000000	7.218595
2107.000000	7.215121
2106.000000	7.227562
2105.000000	7.216802
2104.000000	7.195954
2103.000000	7.197187
2102.000000	7.205257
2101.000000	7.181496
2100.000000	7.168382
2099.000000	7.171184
2098.000000	7.169279
2097.000000	7.167485
2096.000000	7.162890
2095.000000	7.157510
2094.000000	7.146974
2093.000000	7.138568
2092.000000	7.136550
2091.000000	7.131283
2090.000000	7.131619
2089.000000	7.133076
2088.000000	7.139240
2087.000000	7.146414
2086.000000	7.126127
2085.000000	7.100572
2084.000000	7.103934
2083.000000	7.109987
2082.000000	7.102365
2081.000000	7.087906
2080.000000	7.069189
2079.000000	7.053161
2078.000000	7.052040
2077.000000	7.047220
2076.000000	7.035452
2075.000000	7.022338
2074.000000	6.997792
2073.000000	6.970780
2072.000000	6.945225
2071.000000	6.935586
2070.000000	6.925610
2069.000000	6.910143
2068.000000	6.884700
2067.000000	6.849506
2066.000000	6.836728
2065.000000	6.831012
2064.000000	6.810613
2063.000000	6.793128
2062.000000	6.784161
2061.000000	6.770039
2060.000000	6.744708
2059.000000	6.731819
2058.000000	6.740449
2057.000000	6.741794
2056.000000	6.722516
2055.000000	6.738992
2054.000000	6.756925
2053.000000	6.761969
2052.000000	6.763538
2051.000000	6.783041
2050.000000	6.809941
2049.000000	6.838298
2048.000000	6.873155
2047.000000	6.901400
2046.000000	6.934353
2045.000000	6.973358
2044.000000	7.024131
2043.000000	7.053833
2042.000000	7.081406
2041.000000	7.139801
2040.000000	7.194834
2039.000000	7.220725
2038.000000	7.254126
2037.000000	7.290216
2036.000000	7.331015
2035.000000	7.362062
2034.000000	7.409248
2033.000000	7.445563
2032.000000	7.458117
2031.000000	7.470334
2030.000000	7.507994
2029.000000	7.536351
2028.000000	7.545541
2027.000000	7.558767
2026.000000	7.578718
2025.000000	7.606403
2024.000000	7.609765
2023.000000	7.628259
2022.000000	7.644175
2021.000000	7.646640
2020.000000	7.669281
2019.000000	7.690353
2018.000000	7.705596
2017.000000	7.679929
2016.000000	7.702121
2015.000000	7.703915
2014.000000	7.698311
2013.000000	7.715011
2012.000000	7.710303
2011.000000	7.697302
2010.000000	7.701113
2009.000000	7.696181
2008.000000	7.676454
2007.000000	7.671635
2006.000000	7.670178
2005.000000	7.651908
2004.000000	7.621758
2003.000000	7.616154
2002.000000	7.612231
2001.000000	7.583650
2000.000000	7.563811
1999.000000	7.541058
1998.000000	7.505752
1997.000000	7.505528
1996.000000	7.449935
1995.000000	7.441865
1994.000000	7.408800
1993.000000	7.383806
1992.000000	7.364079
1991.000000	7.331351
1990.000000	7.288647
1989.000000	7.270714
1988.000000	7.237089
1987.000000	7.200214
1986.000000	7.175443
1985.000000	7.141706
1984.000000	7.134981
1983.000000	7.068740
1982.000000	7.036572
1981.000000	7.015277
1980.000000	6.982100
1979.000000	6.943992
1978.000000	6.916419
1977.000000	6.901064
1976.000000	6.865758
1975.000000	6.822718
1974.000000	6.819580
1973.000000	6.769030
1972.000000	6.720386
1971.000000	6.717584
1970.000000	6.689900
1969.000000	6.669052
1968.000000	6.651343
1967.000000	6.613347
1966.000000	6.588464
1965.000000	6.561452
1964.000000	6.556185
1963.000000	6.511463
1962.000000	6.478063
1961.000000	6.477726
1960.000000	6.444998
1959.000000	6.426168
1958.000000	6.403079
1957.000000	6.365195
1956.000000	6.323276
1955.000000	6.338519
1954.000000	6.319577
1953.000000	6.292565
1952.000000	6.270821
1951.000000	6.233273
1950.000000	6.234955
1949.000000	6.194268
1948.000000	6.176896
1947.000000	6.164566
1946.000000	6.167256
1945.000000	6.146297
1944.000000	6.142038
1943.000000	6.138787
1942.000000	6.108973
1941.000000	6.104490
1940.000000	6.082970
1939.000000	6.095187
1938.000000	6.103593
1937.000000	6.087565
1936.000000	6.111215
1935.000000	6.117604
1934.000000	6.116035
1933.000000	6.097092
1932.000000	6.122535
1931.000000	6.137442
1930.000000	6.119285
1929.000000	6.163894
1928.000000	6.197183
1927.000000	6.243809
1926.000000	6.245715
1925.000000	6.297049
1924.000000	6.308817
1923.000000	6.350961
1922.000000	6.360263
1921.000000	6.417874
1920.000000	6.491064
1919.000000	6.554840
1918.000000	6.588464
1917.000000	6.618054
1916.000000	6.697409
1915.000000	6.741346
1914.000000	6.808371
1913.000000	6.888735
1912.000000	6.986808
1911.000000	7.061791
1910.000000	7.116376
1909.000000	7.192368
1908.000000	7.242917
1907.000000	7.332920
1906.000000	7.427742
1905.000000	7.593289
1904.000000	7.703466
1903.000000	7.817343
1902.000000	7.931331
1901.000000	8.016402
1900.000000	8.190243
1899.000000	8.359713
1898.000000	8.538821
1897.000000	8.716249
1896.000000	8.816563
1895.000000	8.956555
1894.000000	9.068638
1893.000000	9.228020
1892.000000	9.430218
1891.000000	9.653711
1890.000000	9.871264
1889.000000	10.061357
1888.000000	10.278350
1887.000000	10.494110
1886.000000	10.719509
1885.000000	10.986490
1884.000000	11.290011
1883.000000	11.638365
1882.000000	11.917116
1881.000000	12.252132
1880.000000	12.551506
1879.000000	12.827678
1878.000000	13.135458
1877.000000	13.446825
1876.000000	13.730843
1875.000000	14.058798
1874.000000	14.363888
1873.000000	14.696214
1872.000000	15.038628
1871.000000	15.328138
1870.000000	15.641747
1869.000000	15.949975
1868.000000	16.208999
1867.000000	16.390013
1866.000000	16.534040
1865.000000	16.641639
1864.000000	16.747894
1863.000000	16.807410
1862.000000	16.885980
1861.000000	16.998063
1860.000000	17.134581
1859.000000	17.262243
1858.000000	17.380939
1857.000000	17.450767
1856.000000	17.486409
1855.000000	17.510059
1854.000000	17.562514
1853.000000	17.622142
1852.000000	17.618555
1851.000000	17.582801
1850.000000	17.526087
1849.000000	17.522388
1848.000000	17.551193
1847.000000	17.633462
1846.000000	17.657560
1845.000000	17.598492
1844.000000	17.508938
1843.000000	17.422970
1842.000000	17.388673
1841.000000	17.425324
1840.000000	17.443145
1839.000000	17.442249
1838.000000	17.419720
1837.000000	17.412659
1836.000000	17.407391
1835.000000	17.378922
1834.000000	17.331398
1833.000000	17.248457
1832.000000	17.155540
1831.000000	17.100507
1830.000000	17.068788
1829.000000	17.024403
1828.000000	16.976544
1827.000000	16.930702
1826.000000	16.901896
1825.000000	16.873427
1824.000000	16.795754
1823.000000	16.722003
1822.000000	16.666522
1821.000000	16.669996
1820.000000	16.698466
1819.000000	16.714269
1818.000000	16.672014
1817.000000	16.630431
1816.000000	16.601065
1815.000000	16.590530
1814.000000	16.587279
1813.000000	16.564975
1812.000000	16.553206
1811.000000	16.539868
1810.000000	16.521823
1809.000000	16.475308
1808.000000	16.428682
1807.000000	16.408619
1806.000000	16.376563
1805.000000	16.329824
1804.000000	16.276361
1803.000000	16.216733
1802.000000	16.177167
1801.000000	16.154078
1800.000000	16.125497
1799.000000	16.069231
1798.000000	16.018010
1797.000000	15.998507
1796.000000	15.970710
1795.000000	15.923860
1794.000000	15.880484
1793.000000	15.837892
1792.000000	15.788463
1791.000000	15.739259
1790.000000	15.699021
1789.000000	15.673466
1788.000000	15.635694
1787.000000	15.586714
1786.000000	15.541993
1785.000000	15.493349
1784.000000	15.435402
1783.000000	15.375438
1782.000000	15.330716
1781.000000	15.280503
1780.000000	15.201597
1779.000000	15.140736
1778.000000	15.106999
1777.000000	15.055665
1776.000000	14.977207
1775.000000	14.896507
1774.000000	14.814910
1773.000000	14.730848
1772.000000	14.652614
1771.000000	14.584804
1770.000000	14.499621
1769.000000	14.412084
1768.000000	14.338445
1767.000000	14.256288
1766.000000	14.195652
1765.000000	14.135015
1764.000000	14.090294
1763.000000	14.077516
1762.000000	14.067204
1761.000000	14.055996
1760.000000	14.089397
1759.000000	14.125712
1758.000000	14.173683
1757.000000	14.238131
1756.000000	14.269178
1755.000000	14.284645
1754.000000	14.336540
1753.000000	14.362879
1752.000000	14.360862
1751.000000	14.375769
1750.000000	14.366242
1749.000000	14.338670
1748.000000	14.294397
1747.000000	14.257633
1746.000000	14.220982
1745.000000	14.143309
1744.000000	14.057341
1743.000000	13.972718
1742.000000	13.870387
1741.000000	13.712574
1740.000000	13.581661
1739.000000	13.445256
1738.000000	13.291478
1737.000000	13.154961
1736.000000	13.048706
1735.000000	12.964532
1734.000000	12.906809
1733.000000	12.875762
1732.000000	12.864890
1731.000000	12.876322
1730.000000	12.905576
1729.000000	12.956574
1728.000000	13.014633
1727.000000	13.079193
1726.000000	13.135570
1725.000000	13.176256
1724.000000	13.224452
1723.000000	13.273545
1722.000000	13.319947
1721.000000	13.348192
1720.000000	13.365004
1719.000000	13.400983
1718.000000	13.452429
1717.000000	13.507798
1716.000000	13.568099
1715.000000	13.616631
1714.000000	13.686010
1713.000000	13.737792
1712.000000	13.786997
1711.000000	13.835641
1710.000000	13.883164
1709.000000	13.899304
1708.000000	13.905805
1707.000000	13.918022
1706.000000	13.898968
1705.000000	13.878457
1704.000000	13.861532
1703.000000	13.798093
1702.000000	13.758304
1701.000000	13.700357
1700.000000	13.596007
1699.000000	13.515308
1698.000000	13.430685
1697.000000	13.356486
1696.000000	13.260319
1695.000000	13.226582
1694.000000	13.216606
1693.000000	13.252025
1692.000000	13.320731
1691.000000	13.417907
1690.000000	13.495581
1689.000000	13.608561
1688.000000	13.663481
1687.000000	13.712350
1686.000000	13.742612
1685.000000	13.808517
1684.000000	13.850996
1683.000000	13.964424
1682.000000	14.119435
1681.000000	14.355034
1680.000000	14.664271
1679.000000	15.022488
1678.000000	15.369721
1677.000000	15.757192
1676.000000	16.104650
1675.000000	16.478559
1674.000000	16.763137
1673.000000	17.019135
1672.000000	17.243637
1671.000000	17.459958
1670.000000	17.620124
1669.000000	17.785671
1668.000000	17.927904
1667.000000	18.072043
1666.000000	18.174823
1665.000000	18.285673
1664.000000	18.370744
1663.000000	18.443710
1662.000000	18.494932
1661.000000	18.587177
1660.000000	18.612283
1659.000000	18.685810
1658.000000	18.723582
1657.000000	18.768191
1656.000000	18.773459
1655.000000	18.783434
1654.000000	18.776597
1653.000000	18.784891
1652.000000	18.801255
1651.000000	18.779511
1650.000000	18.745550
1649.000000	18.720780
1648.000000	18.694552
1647.000000	18.644675
1646.000000	18.643442
1645.000000	18.614749
1644.000000	18.558820
1643.000000	18.501881
1642.000000	18.435865
1641.000000	18.424320
1640.000000	18.358415
1639.000000	18.314367
1638.000000	18.267516
1637.000000	18.214725
1636.000000	18.153303
1635.000000	18.108134
1634.000000	18.054782
1633.000000	17.999189
1632.000000	17.931603
1631.000000	17.856059
1630.000000	17.803044
1629.000000	17.734785
1628.000000	17.659129
1627.000000	17.615977
1626.000000	17.510731
1625.000000	17.471951
1624.000000	17.386992
1623.000000	17.313241
1622.000000	17.246327
1621.000000	17.195554
1620.000000	17.131106
1619.000000	17.089299
1618.000000	17.009720
1617.000000	16.954351
1616.000000	16.903017
1615.000000	16.875669
1614.000000	16.791046
1613.000000	16.724245
1612.000000	16.672911
1611.000000	16.621913
1610.000000	16.550516
1609.000000	16.477214
1608.000000	16.432717
1607.000000	16.369950
1606.000000	16.321867
1605.000000	16.266049
1604.000000	16.208663
1603.000000	16.140180
1602.000000	16.093553
1601.000000	16.024510
1600.000000	15.961520
1599.000000	15.914781
1598.000000	15.864568
1597.000000	15.800793
