PE UV       SUBTECH     SPECTRUM    ASCII       PEDS        4.00        
   -1
CICIMAUCR0250-2.ASC
24/05/30
11:32:27.00
24/05/30
11:32:27.00
Vinicio Soto Monge
C. resplendens, M Ventral
250,000000
1
Lambda 1050
1050L1511233
PerkinElmer UV WinLab 6.3.2.0749 / 2.02.05 Lambda 900 UV/VIS/NIR, Aug  7 2015 09:38:08

0
0
3350/servo 860,8/2
0
0
UV/VIS
1
1
1
DoubleDePol,CommonBeamDepol,RBeamAtt,SBeamAtt,60mm sphere, WB InGaAs Detector
0
0
0
0
Program
Program
3350/servo 860,8/2
3350/0,2 860,8/0,2
3350/0,2 860,8/0,2
0
15.00
 
 
 
0
 
860,8
319,2
860,8
Front
100
on
S:100 R:100
0
0
0
0
 
0
 
 
 
0
 
 
0
0
0
0
0
 
 
 
 
0
0


0
0
#HDR
-1
-1
#GR
nm
%R
1.0
0.0
2500,000000
-1,000000
2251
8
57,718300
4,029700
#DATA
2500.000000	5.525104
2499.000000	5.266916
2498.000000	5.394920
2497.000000	5.372241
2496.000000	5.330918
2495.000000	5.345964
2494.000000	5.413019
2493.000000	5.322740
2492.000000	5.291121
2491.000000	5.293738
2490.000000	5.304314
2489.000000	5.271059
2488.000000	5.225702
2487.000000	5.332553
2486.000000	5.302024
2485.000000	5.247944
2484.000000	5.285996
2483.000000	5.183833
2482.000000	5.196481
2481.000000	5.259283
2480.000000	5.269969
2479.000000	5.259065
2478.000000	5.204440
2477.000000	5.191683
2476.000000	5.205422
2475.000000	5.119504
2474.000000	5.096607
2473.000000	5.149379
2472.000000	5.168460
2471.000000	5.161918
2470.000000	5.138803
2469.000000	5.157665
2468.000000	5.187649
2467.000000	5.185469
2466.000000	5.162245
2465.000000	5.189721
2464.000000	5.174456
2463.000000	5.190811
2462.000000	5.212291
2461.000000	5.204440
2460.000000	5.193101
2459.000000	5.195936
2458.000000	5.252633
2457.000000	5.254050
2456.000000	5.262445
2455.000000	5.268987
2454.000000	5.259502
2453.000000	5.301479
2452.000000	5.282507
2451.000000	5.308457
2450.000000	5.340295
2449.000000	5.355559
2448.000000	5.362210
2447.000000	5.399826
2446.000000	5.431991
2445.000000	5.445511
2444.000000	5.456305
2443.000000	5.462193
2442.000000	5.491413
2441.000000	5.531210
2440.000000	5.519653
2439.000000	5.541350
2438.000000	5.572642
2437.000000	5.578203
2436.000000	5.607097
2435.000000	5.608296
2434.000000	5.634137
2433.000000	5.655289
2432.000000	5.670444
2431.000000	5.676877
2430.000000	5.697266
2429.000000	5.718092
2428.000000	5.726705
2427.000000	5.741424
2426.000000	5.763122
2425.000000	5.752764
2424.000000	5.788635
2423.000000	5.793324
2422.000000	5.812077
2421.000000	5.818074
2420.000000	5.811532
2419.000000	5.826797
2418.000000	5.837700
2417.000000	5.857435
2416.000000	5.878151
2415.000000	5.884257
2414.000000	5.904537
2413.000000	5.906936
2412.000000	5.905954
2411.000000	5.920674
2410.000000	5.928742
2409.000000	5.949240
2408.000000	5.945424
2407.000000	5.951530
2406.000000	5.953819
2405.000000	5.966249
2404.000000	5.968430
2403.000000	5.988056
2402.000000	5.996233
2401.000000	5.991327
2400.000000	6.000158
2399.000000	6.020438
2398.000000	6.052494
2397.000000	6.058490
2396.000000	6.062852
2395.000000	6.069939
2394.000000	6.080733
2393.000000	6.086076
2392.000000	6.100359
2391.000000	6.109081
2390.000000	6.113116
2389.000000	6.118894
2388.000000	6.129798
2387.000000	6.143209
2386.000000	6.161417
2385.000000	6.153022
2384.000000	6.147679
2383.000000	6.154221
2382.000000	6.155747
2381.000000	6.169158
2380.000000	6.167632
2379.000000	6.148442
2378.000000	6.147570
2377.000000	6.149969
2376.000000	6.139065
2375.000000	6.146261
2374.000000	6.142336
2373.000000	6.127944
2372.000000	6.113770
2371.000000	6.109409
2370.000000	6.103630
2369.000000	6.102212
2368.000000	6.107228
2367.000000	6.093817
2366.000000	6.068958
2365.000000	6.039301
2364.000000	6.023273
2363.000000	6.025454
2362.000000	6.025127
2361.000000	5.974754
2360.000000	5.943679
2359.000000	5.943570
2358.000000	5.920892
2357.000000	5.891998
2356.000000	5.896141
2355.000000	5.896796
2354.000000	5.882076
2353.000000	5.874444
2352.000000	5.868011
2351.000000	5.869974
2350.000000	5.887092
2349.000000	5.885238
2348.000000	5.863759
2347.000000	5.870410
2346.000000	5.896577
2345.000000	5.919692
2344.000000	5.937356
2343.000000	5.950985
2342.000000	5.956327
2341.000000	5.958508
2340.000000	5.977698
2339.000000	5.981187
2338.000000	5.990127
2337.000000	5.993834
2336.000000	5.986856
2335.000000	5.997432
2334.000000	5.990672
2333.000000	5.977916
2332.000000	5.974318
2331.000000	5.975408
2330.000000	5.968103
2329.000000	5.954037
2328.000000	5.940845
2327.000000	5.924381
2326.000000	5.900285
2325.000000	5.882512
2324.000000	5.863541
2323.000000	5.840535
2322.000000	5.802701
2321.000000	5.776206
2320.000000	5.777950
2319.000000	5.755053
2318.000000	5.714493
2317.000000	5.685709
2316.000000	5.652345
2315.000000	5.623997
2314.000000	5.604371
2313.000000	5.580166
2312.000000	5.559777
2311.000000	5.521506
2310.000000	5.510603
2309.000000	5.491195
2308.000000	5.480510
2307.000000	5.482037
2306.000000	5.464918
2305.000000	5.470043
2304.000000	5.475058
2303.000000	5.483999
2302.000000	5.490868
2301.000000	5.498064
2300.000000	5.527830
2299.000000	5.558359
2298.000000	5.572315
2297.000000	5.591287
2296.000000	5.602190
2295.000000	5.634682
2294.000000	5.652999
2293.000000	5.678186
2292.000000	5.695086
2291.000000	5.717437
2290.000000	5.716238
2289.000000	5.736736
2288.000000	5.759633
2287.000000	5.758433
2286.000000	5.738699
2285.000000	5.739680
2284.000000	5.736300
2283.000000	5.710350
2282.000000	5.710677
2281.000000	5.696721
2280.000000	5.701628
2279.000000	5.687672
2278.000000	5.672298
2277.000000	5.675569
2276.000000	5.654744
2275.000000	5.638171
2274.000000	5.646675
2273.000000	5.629884
2272.000000	5.633155
2271.000000	5.625523
2270.000000	5.616146
2269.000000	5.629884
2268.000000	5.645585
2267.000000	5.684182
2266.000000	5.690615
2265.000000	5.696067
2264.000000	5.775661
2263.000000	5.782966
2262.000000	5.836719
2261.000000	5.906172
2260.000000	5.975844
2259.000000	6.036357
2258.000000	6.089456
2257.000000	6.161199
2256.000000	6.243409
2255.000000	6.345791
2254.000000	6.441412
2253.000000	6.522968
2252.000000	6.616736
2251.000000	6.677358
2250.000000	6.765456
2249.000000	6.848103
2248.000000	6.932494
2247.000000	6.999112
2246.000000	7.081759
2245.000000	7.139328
2244.000000	7.216087
2243.000000	7.240074
2242.000000	7.322284
2241.000000	7.381489
2240.000000	7.420304
2239.000000	7.465989
2238.000000	7.523449
2237.000000	7.576111
2236.000000	7.584616
2235.000000	7.631936
2234.000000	7.670752
2233.000000	7.694412
2232.000000	7.729193
2231.000000	7.759613
2230.000000	7.783818
2229.000000	7.778803
2228.000000	7.795157
2227.000000	7.803117
2226.000000	7.813148
2225.000000	7.836045
2224.000000	7.858287
2223.000000	7.827322
2222.000000	7.847166
2221.000000	7.835281
2220.000000	7.843459
2219.000000	7.813257
2218.000000	7.798865
2217.000000	7.810858
2216.000000	7.796466
2215.000000	7.770625
2214.000000	7.775968
2213.000000	7.751435
2212.000000	7.755361
2211.000000	7.736934
2210.000000	7.728212
2209.000000	7.730065
2208.000000	7.711094
2207.000000	7.698991
2206.000000	7.709676
2205.000000	7.691032
2204.000000	7.669661
2203.000000	7.699209
2202.000000	7.693430
2201.000000	7.688960
2200.000000	7.653852
2199.000000	7.669225
2198.000000	7.634444
2197.000000	7.628883
2196.000000	7.640659
2195.000000	7.624086
2194.000000	7.642730
2193.000000	7.624413
2192.000000	7.626812
2191.000000	7.599444
2190.000000	7.604460
2189.000000	7.596937
2188.000000	7.598899
2187.000000	7.612201
2186.000000	7.579710
2185.000000	7.571532
2184.000000	7.583962
2183.000000	7.551906
2182.000000	7.556377
2181.000000	7.558339
2180.000000	7.545691
2179.000000	7.551797
2178.000000	7.555504
2177.000000	7.546237
2176.000000	7.521050
2175.000000	7.521704
2174.000000	7.516253
2173.000000	7.513636
2172.000000	7.529010
2171.000000	7.525411
2170.000000	7.521377
2169.000000	7.519524
2168.000000	7.530100
2167.000000	7.554414
2166.000000	7.548308
2165.000000	7.556050
2164.000000	7.556159
2163.000000	7.563900
2162.000000	7.590177
2161.000000	7.589741
2160.000000	7.602061
2159.000000	7.602606
2158.000000	7.612637
2157.000000	7.623213
2156.000000	7.643166
2155.000000	7.648073
2154.000000	7.669443
2153.000000	7.684708
2152.000000	7.703461
2151.000000	7.723196
2150.000000	7.720143
2149.000000	7.744130
2148.000000	7.771061
2147.000000	7.784581
2146.000000	7.796139
2145.000000	7.812603
2144.000000	7.829176
2143.000000	7.850546
2142.000000	7.845966
2141.000000	7.849237
2140.000000	7.872679
2139.000000	7.911604
2138.000000	7.916074
2137.000000	7.911604
2136.000000	7.929812
2135.000000	7.920654
2134.000000	7.931230
2133.000000	7.960559
2132.000000	7.972880
2131.000000	7.957834
2130.000000	7.957507
2129.000000	7.974952
2128.000000	7.981821
2127.000000	7.955435
2126.000000	7.955217
2125.000000	7.975061
2124.000000	7.967319
2123.000000	7.969718
2122.000000	7.966883
2121.000000	7.958161
2120.000000	7.944641
2119.000000	7.943550
2118.000000	7.935482
2117.000000	7.924688
2116.000000	7.890234
2115.000000	7.875078
2114.000000	7.875296
2113.000000	7.872352
2112.000000	7.872025
2111.000000	7.864720
2110.000000	7.847166
2109.000000	7.828848
2108.000000	7.815219
2107.000000	7.812166
2106.000000	7.796684
2105.000000	7.785890
2104.000000	7.769862
2103.000000	7.757432
2102.000000	7.739660
2101.000000	7.726358
2100.000000	7.717854
2099.000000	7.701826
2098.000000	7.684053
2097.000000	7.679256
2096.000000	7.679365
2095.000000	7.675331
2094.000000	7.666935
2093.000000	7.649054
2092.000000	7.631391
2091.000000	7.609912
2090.000000	7.606641
2089.000000	7.622668
2088.000000	7.611656
2087.000000	7.590177
2086.000000	7.584071
2085.000000	7.573931
2084.000000	7.565971
2083.000000	7.560520
2082.000000	7.545582
2081.000000	7.535660
2080.000000	7.522904
2079.000000	7.515926
2078.000000	7.494228
2077.000000	7.472204
2076.000000	7.455086
2075.000000	7.457048
2074.000000	7.454213
2073.000000	7.420958
2072.000000	7.407329
2071.000000	7.383342
2070.000000	7.372112
2069.000000	7.364262
2068.000000	7.348125
2067.000000	7.328281
2066.000000	7.306584
2065.000000	7.296225
2064.000000	7.284886
2063.000000	7.278998
2062.000000	7.263952
2061.000000	7.249887
2060.000000	7.238765
2059.000000	7.238438
2058.000000	7.240728
2057.000000	7.221211
2056.000000	7.204093
2055.000000	7.205074
2054.000000	7.215214
2053.000000	7.244980
2052.000000	7.255884
2051.000000	7.278998
2050.000000	7.297425
2049.000000	7.317269
2048.000000	7.342128
2047.000000	7.366551
2046.000000	7.415616
2045.000000	7.434588
2044.000000	7.470023
2043.000000	7.511564
2042.000000	7.554523
2041.000000	7.587015
2040.000000	7.627248
2039.000000	7.660066
2038.000000	7.710439
2037.000000	7.756451
2036.000000	7.786217
2035.000000	7.801590
2034.000000	7.815219
2033.000000	7.869081
2032.000000	7.881293
2031.000000	7.904517
2030.000000	7.940934
2029.000000	7.973425
2028.000000	7.986291
2027.000000	7.991198
2026.000000	8.023580
2025.000000	8.039608
2024.000000	8.055527
2023.000000	8.068283
2022.000000	8.080604
2021.000000	8.095651
2020.000000	8.093688
2019.000000	8.113314
2018.000000	8.120837
2017.000000	8.131086
2016.000000	8.130541
2015.000000	8.130541
2014.000000	8.132612
2013.000000	8.126289
2012.000000	8.117566
2011.000000	8.122254
2010.000000	8.122363
2009.000000	8.109934
2008.000000	8.101429
2007.000000	8.088018
2006.000000	8.082676
2005.000000	8.056944
2004.000000	8.042879
2003.000000	8.028487
2002.000000	7.980403
2001.000000	7.977023
2000.000000	7.953472
1999.000000	7.941261
1998.000000	7.915747
1997.000000	7.894486
1996.000000	7.887617
1995.000000	7.836699
1994.000000	7.822416
1993.000000	7.783055
1992.000000	7.755361
1991.000000	7.731483
1990.000000	7.710112
1989.000000	7.662247
1988.000000	7.620924
1987.000000	7.589631
1986.000000	7.548962
1985.000000	7.523013
1984.000000	7.485833
1983.000000	7.453995
1982.000000	7.413871
1981.000000	7.373420
1980.000000	7.337658
1979.000000	7.303095
1978.000000	7.290120
1977.000000	7.259700
1976.000000	7.224482
1975.000000	7.163097
1974.000000	7.159935
1973.000000	7.134422
1972.000000	7.084921
1971.000000	7.057336
1970.000000	7.020265
1969.000000	6.991480
1968.000000	6.965530
1967.000000	6.936419
1966.000000	6.923880
1965.000000	6.881030
1964.000000	6.856389
1963.000000	6.836109
1962.000000	6.801764
1961.000000	6.770581
1960.000000	6.759677
1959.000000	6.732419
1958.000000	6.688043
1957.000000	6.672452
1956.000000	6.676595
1955.000000	6.634835
1954.000000	6.590350
1953.000000	6.580210
1952.000000	6.548918
1951.000000	6.538015
1950.000000	6.524386
1949.000000	6.481863
1948.000000	6.469433
1947.000000	6.441085
1946.000000	6.448172
1945.000000	6.427565
1944.000000	6.437051
1943.000000	6.386024
1942.000000	6.388640
1941.000000	6.396927
1940.000000	6.378609
1939.000000	6.378936
1938.000000	6.377301
1937.000000	6.365307
1936.000000	6.362364
1935.000000	6.367052
1934.000000	6.371195
1933.000000	6.394310
1932.000000	6.394528
1931.000000	6.411537
1930.000000	6.422113
1929.000000	6.436615
1928.000000	6.462455
1927.000000	6.495056
1926.000000	6.534417
1925.000000	6.549899
1924.000000	6.603434
1923.000000	6.639088
1922.000000	6.672997
1921.000000	6.697965
1920.000000	6.737980
1919.000000	6.808633
1918.000000	6.852028
1917.000000	6.902292
1916.000000	6.944378
1915.000000	7.012959
1914.000000	7.077071
1913.000000	7.172801
1912.000000	7.240837
1911.000000	7.319013
1910.000000	7.383124
1909.000000	7.469696
1908.000000	7.533480
1907.000000	7.627139
1906.000000	7.748601
1905.000000	7.879657
1904.000000	8.004172
1903.000000	8.122909
1902.000000	8.213842
1901.000000	8.343590
1900.000000	8.477373
1899.000000	8.642666
1898.000000	8.789750
1897.000000	8.944249
1896.000000	9.078795
1895.000000	9.216285
1894.000000	9.378634
1893.000000	9.557229
1892.000000	9.744219
1891.000000	9.969698
1890.000000	10.188962
1889.000000	10.406700
1888.000000	10.644717
1887.000000	10.884043
1886.000000	11.149646
1885.000000	11.433675
1884.000000	11.771676
1883.000000	12.132136
1882.000000	12.523344
1881.000000	12.904958
1880.000000	13.301399
1879.000000	13.705691
1878.000000	14.087195
1877.000000	14.495303
1876.000000	14.877352
1875.000000	15.246209
1874.000000	15.598274
1873.000000	15.970402
1872.000000	16.331844
1871.000000	16.639860
1870.000000	16.940462
1869.000000	17.232996
1868.000000	17.498163
1867.000000	17.702925
1866.000000	17.887735
1865.000000	18.058698
1864.000000	18.202948
1863.000000	18.332260
1862.000000	18.463644
1861.000000	18.592956
1860.000000	18.712456
1859.000000	18.816363
1858.000000	18.879384
1857.000000	18.958651
1856.000000	19.001064
1855.000000	19.043042
1854.000000	19.076187
1853.000000	19.094178
1852.000000	19.079240
1851.000000	19.067901
1850.000000	19.067356
1849.000000	19.067465
1848.000000	19.055144
1847.000000	19.020472
1846.000000	18.967918
1845.000000	18.902499
1844.000000	18.882328
1843.000000	18.863465
1842.000000	18.873714
1841.000000	18.864120
1840.000000	18.823451
1839.000000	18.799136
1838.000000	18.758903
1837.000000	18.742112
1836.000000	18.699590
1835.000000	18.638532
1834.000000	18.575402
1833.000000	18.514889
1832.000000	18.461572
1831.000000	18.393318
1830.000000	18.335531
1829.000000	18.281560
1828.000000	18.219302
1827.000000	18.147886
1826.000000	18.061751
1825.000000	17.994369
1824.000000	17.941488
1823.000000	17.908669
1822.000000	17.885991
1821.000000	17.861458
1820.000000	17.847393
1819.000000	17.809886
1818.000000	17.768672
1817.000000	17.747847
1816.000000	17.727785
1815.000000	17.704670
1814.000000	17.701835
1813.000000	17.695838
1812.000000	17.682972
1811.000000	17.665527
1810.000000	17.629765
1809.000000	17.587351
1808.000000	17.541776
1807.000000	17.497617
1806.000000	17.456948
1805.000000	17.415843
1804.000000	17.369177
1803.000000	17.321421
1802.000000	17.277699
1801.000000	17.233214
1800.000000	17.178371
1799.000000	17.128434
1798.000000	17.073918
1797.000000	17.029215
1796.000000	16.983966
1795.000000	16.933375
1794.000000	16.886600
1793.000000	16.839716
1792.000000	16.781711
1791.000000	16.734064
1790.000000	16.686199
1789.000000	16.634299
1788.000000	16.571170
1787.000000	16.510875
1786.000000	16.470206
1785.000000	16.408603
1784.000000	16.336423
1783.000000	16.271004
1782.000000	16.192064
1781.000000	16.126318
1780.000000	16.069730
1779.000000	15.994607
1778.000000	15.919702
1777.000000	15.850357
1776.000000	15.772726
1775.000000	15.686481
1774.000000	15.606452
1773.000000	15.513992
1772.000000	15.403870
1771.000000	15.282844
1770.000000	15.162036
1769.000000	15.074483
1768.000000	14.993581
1767.000000	14.891091
1766.000000	14.815749
1765.000000	14.742479
1764.000000	14.692761
1763.000000	14.667247
1762.000000	14.662232
1761.000000	14.681967
1760.000000	14.710969
1759.000000	14.745532
1758.000000	14.811824
1757.000000	14.877352
1756.000000	14.938847
1755.000000	14.983550
1754.000000	15.008300
1753.000000	15.028253
1752.000000	15.045698
1751.000000	15.038284
1750.000000	15.029234
1749.000000	15.003612
1748.000000	14.971556
1747.000000	14.932850
1746.000000	14.848350
1745.000000	14.762214
1744.000000	14.651110
1743.000000	14.543168
1742.000000	14.404370
1741.000000	14.237224
1740.000000	14.056121
1739.000000	13.887775
1738.000000	13.721719
1737.000000	13.552501
1736.000000	13.416646
1735.000000	13.314047
1734.000000	13.244811
1733.000000	13.205233
1732.000000	13.199345
1731.000000	13.228784
1730.000000	13.268144
1729.000000	13.351881
1728.000000	13.437799
1727.000000	13.534619
1726.000000	13.623372
1725.000000	13.682794
1724.000000	13.741890
1723.000000	13.783322
1722.000000	13.826608
1721.000000	13.862807
1720.000000	13.870984
1719.000000	13.897043
1718.000000	13.911217
1717.000000	13.952649
1716.000000	13.998552
1715.000000	14.037040
1714.000000	14.093301
1713.000000	14.163300
1712.000000	14.213346
1711.000000	14.275167
1710.000000	14.304169
1709.000000	14.295120
1708.000000	14.303188
1707.000000	14.302643
1706.000000	14.271678
1705.000000	14.206804
1704.000000	14.186415
1703.000000	14.142911
1702.000000	14.071931
1701.000000	13.972275
1700.000000	13.877962
1699.000000	13.736438
1698.000000	13.624244
1697.000000	13.510959
1696.000000	13.426677
1695.000000	13.381320
1694.000000	13.370199
1693.000000	13.404653
1692.000000	13.478468
1691.000000	13.603201
1690.000000	13.738619
1689.000000	13.857900
1688.000000	13.948288
1687.000000	14.038349
1686.000000	14.043146
1685.000000	14.065607
1684.000000	14.097335
1683.000000	14.213346
1682.000000	14.377984
1681.000000	14.671063
1680.000000	15.031742
1679.000000	15.451735
1678.000000	15.922645
1677.000000	16.385379
1676.000000	16.815729
1675.000000	17.222202
1674.000000	17.592257
1673.000000	17.886427
1672.000000	18.171764
1671.000000	18.385686
1670.000000	18.611165
1669.000000	18.786598
1668.000000	18.942732
1667.000000	19.107044
1666.000000	19.222618
1665.000000	19.319766
1664.000000	19.409608
1663.000000	19.492691
1662.000000	19.561381
1661.000000	19.637704
1660.000000	19.666489
1659.000000	19.721877
1658.000000	19.755241
1657.000000	19.779010
1656.000000	19.802016
1655.000000	19.817062
1654.000000	19.809430
1653.000000	19.786751
1652.000000	19.798200
1651.000000	19.792639
1650.000000	19.761238
1649.000000	19.723185
1648.000000	19.667470
1647.000000	19.626256
1646.000000	19.590602
1645.000000	19.549606
1644.000000	19.477645
1643.000000	19.421711
1642.000000	19.384749
1641.000000	19.316386
1640.000000	19.265795
1639.000000	19.207353
1638.000000	19.144333
1637.000000	19.072371
1636.000000	18.999647
1635.000000	18.926704
1634.000000	18.887016
1633.000000	18.817345
1632.000000	18.742876
1631.000000	18.659793
1630.000000	18.568969
1629.000000	18.489812
1628.000000	18.437476
1627.000000	18.349378
1626.000000	18.283522
1625.000000	18.199022
1624.000000	18.104382
1623.000000	18.040271
1622.000000	17.964712
1621.000000	17.874324
1620.000000	17.814029
1619.000000	17.728766
1618.000000	17.659203
1617.000000	17.583971
1616.000000	17.539595
1615.000000	17.447026
1614.000000	17.375610
1613.000000	17.318259
1612.000000	17.262217
1611.000000	17.192545
1610.000000	17.146969
1609.000000	17.056582
1608.000000	16.984729
1607.000000	16.929886
1606.000000	16.865993
1605.000000	16.805807
1604.000000	16.744640
1603.000000	16.666682
1602.000000	16.600826
1601.000000	16.553834
1600.000000	16.484707
1599.000000	16.423540
1598.000000	16.358339
1597.000000	16.293355
