PE UV       SUBTECH     SPECTRUM    ASCII       PEDS        4.00        
   -1
CICIMAUCR0225-2.ASC
24/05/30
15:21:44.00
24/05/30
15:21:44.00
Vinicio Soto Monge
C. resplendens, F Ventral
250,000000
1
Lambda 1050
1050L1511233
PerkinElmer UV WinLab 6.3.2.0749 / 2.02.05 Lambda 900 UV/VIS/NIR, Aug  7 2015 09:38:08

0
0
3350/servo 860,8/2
0
0
UV/VIS
1
1
1
DoubleDePol,CommonBeamDepol,RBeamAtt,SBeamAtt,60mm sphere, WB InGaAs Detector
0
0
0
0
Program
Program
3350/servo 860,8/2
3350/0,2 860,8/0,2
3350/0,2 860,8/0,2
0
15.00
 
 
 
0
 
860,8
319,2
860,8
Front
100
on
S:100 R:100
0
0
0
0
 
0
 
 
 
0
 
 
0
0
0
0
0
 
 
 
 
0
0


0
0
#HDR
-1
-1
#GR
nm
%R
1.0
0.0
2500,000000
-1,000000
2251
8
55,860700
4,466100
#DATA
2500.000000	5.391332
2499.000000	5.325349
2498.000000	5.216443
2497.000000	5.258483
2496.000000	5.321707
2495.000000	5.309018
2494.000000	5.276358
2493.000000	5.131812
2492.000000	5.226153
2491.000000	5.193934
2490.000000	5.110516
2489.000000	5.092972
2488.000000	5.133688
2487.000000	5.257931
2486.000000	5.085910
2485.000000	5.153328
2484.000000	5.133798
2483.000000	5.103013
2482.000000	5.132253
2481.000000	5.148363
2480.000000	5.133136
2479.000000	5.111509
2478.000000	5.080835
2477.000000	5.044423
2476.000000	5.023237
2475.000000	5.081056
2474.000000	5.013307
2473.000000	5.050050
2472.000000	4.999404
2471.000000	5.008893
2470.000000	5.024892
2469.000000	5.047512
2468.000000	5.048284
2467.000000	5.029527
2466.000000	5.012424
2465.000000	5.025996
2464.000000	5.022134
2463.000000	5.034713
2462.000000	5.012424
2461.000000	5.031733
2460.000000	5.026327
2459.000000	4.999293
2458.000000	5.058767
2457.000000	5.079400
2456.000000	5.046519
2455.000000	5.099593
2454.000000	5.068146
2453.000000	5.051264
2452.000000	5.059539
2451.000000	5.092641
2450.000000	5.115371
2449.000000	5.118240
2448.000000	5.129495
2447.000000	5.138543
2446.000000	5.154101
2445.000000	5.180582
2444.000000	5.184334
2443.000000	5.200775
2442.000000	5.213133
2441.000000	5.228580
2440.000000	5.229132
2439.000000	5.261131
2438.000000	5.295226
2437.000000	5.295005
2436.000000	5.295336
2435.000000	5.313873
2434.000000	5.301736
2433.000000	5.306150
2432.000000	5.335279
2431.000000	5.337155
2430.000000	5.358009
2429.000000	5.348410
2428.000000	5.351058
2427.000000	5.391222
2426.000000	5.394642
2425.000000	5.402035
2424.000000	5.414062
2423.000000	5.415386
2422.000000	5.420462
2421.000000	5.443744
2420.000000	5.449261
2419.000000	5.452350
2418.000000	5.481259
2417.000000	5.479163
2416.000000	5.472212
2415.000000	5.480377
2414.000000	5.497921
2413.000000	5.486556
2412.000000	5.494059
2411.000000	5.513810
2410.000000	5.536429
2409.000000	5.532347
2408.000000	5.534002
2407.000000	5.541726
2406.000000	5.552650
2405.000000	5.550001
2404.000000	5.567766
2403.000000	5.559491
2402.000000	5.576924
2401.000000	5.583545
2400.000000	5.591710
2399.000000	5.604178
2398.000000	5.594910
2397.000000	5.580786
2396.000000	5.592593
2395.000000	5.604951
2394.000000	5.602303
2393.000000	5.602523
2392.000000	5.602303
2391.000000	5.607709
2390.000000	5.617530
2389.000000	5.623709
2388.000000	5.608923
2387.000000	5.604620
2386.000000	5.619185
2385.000000	5.617971
2384.000000	5.613116
2383.000000	5.612233
2382.000000	5.620288
2381.000000	5.626577
2380.000000	5.608923
2379.000000	5.586634
2378.000000	5.599765
2377.000000	5.606164
2376.000000	5.591931
2375.000000	5.575269
2374.000000	5.577917
2373.000000	5.577586
2372.000000	5.569421
2371.000000	5.562690
2370.000000	5.554525
2369.000000	5.549891
2368.000000	5.536871
2367.000000	5.526278
2366.000000	5.519327
2365.000000	5.512044
2364.000000	5.506196
2363.000000	5.480597
2362.000000	5.457426
2361.000000	5.460736
2360.000000	5.457647
2359.000000	5.458640
2358.000000	5.450033
2357.000000	5.418034
2356.000000	5.405456
2355.000000	5.402918
2354.000000	5.391994
2353.000000	5.397070
2352.000000	5.382946
2351.000000	5.378091
2350.000000	5.390118
2349.000000	5.392215
2348.000000	5.396849
2347.000000	5.397953
2346.000000	5.398063
2345.000000	5.397732
2344.000000	5.408545
2343.000000	5.418034
2342.000000	5.424545
2341.000000	5.429620
2340.000000	5.421565
2339.000000	5.428517
2338.000000	5.439109
2337.000000	5.430393
2336.000000	5.425869
2335.000000	5.435910
2334.000000	5.430393
2333.000000	5.415276
2332.000000	5.416159
2331.000000	5.408987
2330.000000	5.409649
2329.000000	5.400380
2328.000000	5.373347
2327.000000	5.366726
2326.000000	5.351830
2325.000000	5.332410
2324.000000	5.316853
2323.000000	5.309129
2322.000000	5.286068
2321.000000	5.271503
2320.000000	5.257600
2319.000000	5.238070
2318.000000	5.211919
2317.000000	5.193271
2316.000000	5.181686
2315.000000	5.157963
2314.000000	5.144832
2313.000000	5.117247
2312.000000	5.093414
2311.000000	5.101137
2310.000000	5.109523
2309.000000	5.087786
2308.000000	5.048395
2307.000000	5.041995
2306.000000	5.031071
2305.000000	5.019155
2304.000000	5.017169
2303.000000	5.042657
2302.000000	5.046740
2301.000000	5.046188
2300.000000	5.063732
2299.000000	5.077525
2298.000000	5.073883
2297.000000	5.099151
2296.000000	5.115813
2295.000000	5.116254
2294.000000	5.121661
2293.000000	5.135122
2292.000000	5.149908
2291.000000	5.163811
2290.000000	5.152115
2289.000000	5.163369
2288.000000	5.170100
2287.000000	5.175065
2286.000000	5.153218
2285.000000	5.163369
2284.000000	5.148253
2283.000000	5.155314
2282.000000	5.156859
2281.000000	5.136667
2280.000000	5.130488
2279.000000	5.134681
2278.000000	5.103455
2277.000000	5.104558
2276.000000	5.106765
2275.000000	5.074766
2274.000000	5.085138
2273.000000	5.078297
2272.000000	5.083152
2271.000000	5.068366
2270.000000	5.077635
2269.000000	5.094407
2268.000000	5.100034
2267.000000	5.109303
2266.000000	5.101799
2265.000000	5.139757
2264.000000	5.167893
2263.000000	5.199671
2262.000000	5.221298
2261.000000	5.243918
2260.000000	5.298867
2259.000000	5.306370
2258.000000	5.359333
2257.000000	5.411745
2256.000000	5.472874
2255.000000	5.501452
2254.000000	5.554856
2253.000000	5.633308
2252.000000	5.662548
2251.000000	5.729966
2250.000000	5.791646
2249.000000	5.847147
2248.000000	5.904083
2247.000000	5.946123
2246.000000	6.000079
2245.000000	6.029650
2244.000000	6.085372
2243.000000	6.132598
2242.000000	6.164817
2241.000000	6.218773
2240.000000	6.260923
2239.000000	6.283653
2238.000000	6.307928
2237.000000	6.350961
2236.000000	6.367070
2235.000000	6.393442
2234.000000	6.390573
2233.000000	6.442653
2232.000000	6.456446
2231.000000	6.490320
2230.000000	6.481714
2229.000000	6.526512
2228.000000	6.522429
2227.000000	6.538208
2226.000000	6.532691
2225.000000	6.535781
2224.000000	6.535891
2223.000000	6.545380
2222.000000	6.540636
2221.000000	6.560828
2220.000000	6.542511
2219.000000	6.524636
2218.000000	6.511616
2217.000000	6.521436
2216.000000	6.508085
2215.000000	6.510733
2214.000000	6.486790
2213.000000	6.484914
2212.000000	6.484693
2211.000000	6.485024
2210.000000	6.476969
2209.000000	6.472997
2208.000000	6.471894
2207.000000	6.484472
2206.000000	6.467039
2205.000000	6.445633
2204.000000	6.431288
2203.000000	6.454791
2202.000000	6.431950
2201.000000	6.444088
2200.000000	6.439343
2199.000000	6.434819
2198.000000	6.439454
2197.000000	6.430075
2196.000000	6.433606
2195.000000	6.428309
2194.000000	6.432282
2193.000000	6.423454
2192.000000	6.416834
2191.000000	6.413744
2190.000000	6.402269
2189.000000	6.424006
2188.000000	6.415179
2187.000000	6.399731
2186.000000	6.396200
2185.000000	6.383401
2184.000000	6.387373
2183.000000	6.380201
2182.000000	6.362326
2181.000000	6.374905
2180.000000	6.388256
2179.000000	6.369719
2178.000000	6.346327
2177.000000	6.361884
2176.000000	6.356698
2175.000000	6.375456
2174.000000	6.372587
2173.000000	6.357692
2172.000000	6.338713
2171.000000	6.346106
2170.000000	6.360119
2169.000000	6.359788
2168.000000	6.365857
2167.000000	6.375015
2166.000000	6.370601
2165.000000	6.382849
2164.000000	6.393221
2163.000000	6.386711
2162.000000	6.400724
2161.000000	6.435592
2160.000000	6.430957
2159.000000	6.418489
2158.000000	6.428530
2157.000000	6.446846
2156.000000	6.457218
2155.000000	6.447839
2154.000000	6.468583
2153.000000	6.480390
2152.000000	6.489327
2151.000000	6.495506
2150.000000	6.515809
2149.000000	6.519450
2148.000000	6.544277
2147.000000	6.545270
2146.000000	6.562042
2145.000000	6.589737
2144.000000	6.575613
2143.000000	6.602867
2142.000000	6.606840
2141.000000	6.599116
2140.000000	6.599778
2139.000000	6.606840
2138.000000	6.625487
2137.000000	6.647335
2136.000000	6.647114
2135.000000	6.654617
2134.000000	6.656603
2133.000000	6.664989
2132.000000	6.663555
2131.000000	6.680988
2130.000000	6.683636
2129.000000	6.674699
2128.000000	6.657155
2127.000000	6.650645
2126.000000	6.672492
2125.000000	6.669292
2124.000000	6.665982
2123.000000	6.662341
2122.000000	6.648990
2121.000000	6.649541
2120.000000	6.640162
2119.000000	6.633432
2118.000000	6.629680
2117.000000	6.614674
2116.000000	6.613791
2115.000000	6.596799
2114.000000	6.590620
2113.000000	6.586537
2112.000000	6.569986
2111.000000	6.562924
2110.000000	6.555090
2109.000000	6.571862
2108.000000	6.552994
2107.000000	6.528609
2106.000000	6.518016
2105.000000	6.506099
2104.000000	6.508196
2103.000000	6.499148
2102.000000	6.479948
2101.000000	6.479838
2100.000000	6.474652
2099.000000	6.464059
2098.000000	6.456336
2097.000000	6.444971
2096.000000	6.443095
2095.000000	6.442322
2094.000000	6.422241
2093.000000	6.414406
2092.000000	6.423454
2091.000000	6.420475
2090.000000	6.413524
2089.000000	6.400283
2088.000000	6.390242
2087.000000	6.387152
2086.000000	6.389028
2085.000000	6.380973
2084.000000	6.367181
2083.000000	6.363981
2082.000000	6.348423
2081.000000	6.333637
2080.000000	6.336065
2079.000000	6.334851
2078.000000	6.315762
2077.000000	6.315873
2076.000000	6.311790
2075.000000	6.304066
2074.000000	6.295460
2073.000000	6.287957
2072.000000	6.280122
2071.000000	6.270302
2070.000000	6.258496
2069.000000	6.245476
2068.000000	6.248013
2067.000000	6.239517
2066.000000	6.235545
2065.000000	6.216566
2064.000000	6.193505
2063.000000	6.188430
2062.000000	6.175851
2061.000000	6.179933
2060.000000	6.183244
2059.000000	6.167906
2058.000000	6.164927
2057.000000	6.174306
2056.000000	6.169562
2055.000000	6.160072
2054.000000	6.169230
2053.000000	6.177727
2052.000000	6.175410
2051.000000	6.193285
2050.000000	6.211160
2049.000000	6.233007
2048.000000	6.257392
2047.000000	6.284426
2046.000000	6.301418
2045.000000	6.331651
2044.000000	6.355705
2043.000000	6.383180
2042.000000	6.419813
2041.000000	6.439785
2040.000000	6.461301
2039.000000	6.505106
2038.000000	6.529491
2037.000000	6.553656
2036.000000	6.575393
2035.000000	6.595916
2034.000000	6.628797
2033.000000	6.638838
2032.000000	6.647445
2031.000000	6.668741
2030.000000	6.680326
2029.000000	6.711663
2028.000000	6.735496
2027.000000	6.751827
2026.000000	6.766171
2025.000000	6.782281
2024.000000	6.769371
2023.000000	6.763854
2022.000000	6.766833
2021.000000	6.788129
2020.000000	6.802914
2019.000000	6.822555
2018.000000	6.817810
2017.000000	6.815052
2016.000000	6.823327
2015.000000	6.822003
2014.000000	6.820458
2013.000000	6.824982
2012.000000	6.812845
2011.000000	6.817589
2010.000000	6.805121
2009.000000	6.804238
2008.000000	6.799273
2007.000000	6.799714
2006.000000	6.785370
2005.000000	6.764626
2004.000000	6.737151
2003.000000	6.738365
2002.000000	6.722587
2001.000000	6.712987
2000.000000	6.702174
1999.000000	6.684078
1998.000000	6.677899
1997.000000	6.661679
1996.000000	6.629570
1995.000000	6.603861
1994.000000	6.579144
1993.000000	6.574069
1992.000000	6.557076
1991.000000	6.519450
1990.000000	6.477962
1989.000000	6.456777
1988.000000	6.439454
1987.000000	6.417386
1986.000000	6.393552
1985.000000	6.371484
1984.000000	6.354712
1983.000000	6.350409
1982.000000	6.312011
1981.000000	6.269419
1980.000000	6.248786
1979.000000	6.227490
1978.000000	6.193505
1977.000000	6.177837
1976.000000	6.152900
1975.000000	6.136018
1974.000000	6.096185
1973.000000	6.065180
1972.000000	6.060656
1971.000000	6.036491
1970.000000	6.021485
1969.000000	6.019389
1968.000000	5.994672
1967.000000	5.956164
1966.000000	5.954288
1965.000000	5.935640
1964.000000	5.897904
1963.000000	5.885767
1962.000000	5.884663
1961.000000	5.871753
1960.000000	5.852554
1959.000000	5.836886
1958.000000	5.817356
1957.000000	5.812942
1956.000000	5.804004
1955.000000	5.777743
1954.000000	5.757331
1953.000000	5.753910
1952.000000	5.738904
1951.000000	5.716063
1950.000000	5.706905
1949.000000	5.708671
1948.000000	5.708891
1947.000000	5.682520
1946.000000	5.668948
1945.000000	5.664424
1944.000000	5.657804
1943.000000	5.659128
1942.000000	5.650632
1941.000000	5.666631
1940.000000	5.660452
1939.000000	5.648645
1938.000000	5.671376
1937.000000	5.666190
1936.000000	5.672920
1935.000000	5.667183
1934.000000	5.683072
1933.000000	5.662990
1932.000000	5.686382
1931.000000	5.694326
1930.000000	5.720367
1929.000000	5.720146
1928.000000	5.760089
1927.000000	5.777081
1926.000000	5.775095
1925.000000	5.819452
1924.000000	5.839093
1923.000000	5.856416
1922.000000	5.865023
1921.000000	5.929461
1920.000000	5.961681
1919.000000	5.988273
1918.000000	6.024133
1917.000000	6.067497
1916.000000	6.084710
1915.000000	6.145728
1914.000000	6.174748
1913.000000	6.249337
1912.000000	6.271185
1911.000000	6.344782
1910.000000	6.405690
1909.000000	6.449605
1908.000000	6.488555
1907.000000	6.553876
1906.000000	6.625929
1905.000000	6.689153
1904.000000	6.786915
1903.000000	6.861946
1902.000000	6.944701
1901.000000	7.025360
1900.000000	7.113963
1899.000000	7.193519
1898.000000	7.320961
1897.000000	7.423467
1896.000000	7.516484
1895.000000	7.612922
1894.000000	7.719290
1893.000000	7.813189
1892.000000	7.922536
1891.000000	8.121259
1890.000000	8.280590
1889.000000	8.414653
1888.000000	8.585460
1887.000000	8.765204
1886.000000	8.939431
1885.000000	9.140361
1884.000000	9.407825
1883.000000	9.699896
1882.000000	10.009842
1881.000000	10.310077
1880.000000	10.630505
1879.000000	10.943099
1878.000000	11.269375
1877.000000	11.595761
1876.000000	11.929651
1875.000000	12.291566
1874.000000	12.633400
1873.000000	12.929443
1872.000000	13.267305
1871.000000	13.583760
1870.000000	13.855308
1869.000000	14.141530
1868.000000	14.403698
1867.000000	14.576160
1866.000000	14.746194
1865.000000	14.875954
1864.000000	14.989715
1863.000000	15.081849
1862.000000	15.164384
1861.000000	15.270862
1860.000000	15.392898
1859.000000	15.493639
1858.000000	15.595152
1857.000000	15.651094
1856.000000	15.702182
1855.000000	15.724470
1854.000000	15.731312
1853.000000	15.737601
1852.000000	15.725243
1851.000000	15.702954
1850.000000	15.691258
1849.000000	15.672721
1848.000000	15.684086
1847.000000	15.673604
1846.000000	15.658708
1845.000000	15.607400
1844.000000	15.539540
1843.000000	15.492315
1842.000000	15.470467
1841.000000	15.472122
1840.000000	15.479515
1839.000000	15.458440
1838.000000	15.421587
1837.000000	15.397201
1836.000000	15.380209
1835.000000	15.349314
1834.000000	15.277262
1833.000000	15.206754
1832.000000	15.141764
1831.000000	15.081077
1830.000000	15.024252
1829.000000	14.955510
1828.000000	14.905415
1827.000000	14.860727
1826.000000	14.778414
1825.000000	14.715189
1824.000000	14.669398
1823.000000	14.613345
1822.000000	14.575939
1821.000000	14.557182
1820.000000	14.546258
1819.000000	14.536548
1818.000000	14.509404
1817.000000	14.482371
1816.000000	14.460965
1815.000000	14.446400
1814.000000	14.436911
1813.000000	14.415174
1812.000000	14.410098
1811.000000	14.396306
1810.000000	14.369272
1809.000000	14.338487
1808.000000	14.303620
1807.000000	14.270628
1806.000000	14.238078
1805.000000	14.202990
1804.000000	14.154771
1803.000000	14.107325
1802.000000	14.071133
1801.000000	14.028762
1800.000000	13.969068
1799.000000	13.925153
1798.000000	13.888741
1797.000000	13.846370
1796.000000	13.807641
1795.000000	13.761849
1794.000000	13.724334
1793.000000	13.684280
1792.000000	13.632641
1791.000000	13.595456
1790.000000	13.547900
1789.000000	13.482468
1788.000000	13.444401
1787.000000	13.399603
1786.000000	13.344543
1785.000000	13.289483
1784.000000	13.226920
1783.000000	13.160606
1782.000000	13.093188
1781.000000	13.014074
1780.000000	12.954601
1779.000000	12.910134
1778.000000	12.851764
1777.000000	12.779491
1776.000000	12.703356
1775.000000	12.623580
1774.000000	12.537073
1773.000000	12.432471
1772.000000	12.334047
1771.000000	12.261995
1770.000000	12.173833
1769.000000	12.084789
1768.000000	11.982835
1767.000000	11.890480
1766.000000	11.827476
1765.000000	11.759285
1764.000000	11.697605
1763.000000	11.650159
1762.000000	11.639897
1761.000000	11.665496
1760.000000	11.678296
1759.000000	11.732473
1758.000000	11.783891
1757.000000	11.822510
1756.000000	11.874260
1755.000000	11.904052
1754.000000	11.945760
1753.000000	11.963415
1752.000000	11.986145
1751.000000	11.980628
1750.000000	11.982173
1749.000000	11.950726
1748.000000	11.914203
1747.000000	11.880218
1746.000000	11.819531
1745.000000	11.762485
1744.000000	11.682158
1743.000000	11.570824
1742.000000	11.454305
1741.000000	11.327966
1740.000000	11.173048
1739.000000	11.024530
1738.000000	10.865640
1737.000000	10.714915
1736.000000	10.610975
1735.000000	10.520937
1734.000000	10.446127
1733.000000	10.392943
1732.000000	10.380916
1731.000000	10.399784
1730.000000	10.466098
1729.000000	10.530758
1728.000000	10.596300
1727.000000	10.678724
1726.000000	10.778913
1725.000000	10.815546
1724.000000	10.880867
1723.000000	10.927431
1722.000000	10.947071
1721.000000	10.984256
1720.000000	11.013717
1719.000000	11.010737
1718.000000	11.015482
1717.000000	11.049467
1716.000000	11.073300
1715.000000	11.128470
1714.000000	11.167972
1713.000000	11.196992
1712.000000	11.267278
1711.000000	11.292546
1710.000000	11.314835
1709.000000	11.325317
1708.000000	11.340655
1707.000000	11.333924
1706.000000	11.298505
1705.000000	11.271692
1704.000000	11.242452
1703.000000	11.185737
1702.000000	11.123836
1701.000000	11.053329
1700.000000	10.969250
1699.000000	10.851186
1698.000000	10.760155
1697.000000	10.657428
1696.000000	10.585486
1695.000000	10.537819
1694.000000	10.541019
1693.000000	10.571915
1692.000000	10.653235
1691.000000	10.741949
1690.000000	10.830442
1689.000000	10.951926
1688.000000	11.040860
1687.000000	11.109051
1686.000000	11.151973
1685.000000	11.160359
1684.000000	11.184523
1683.000000	11.228659
1682.000000	11.376515
1681.000000	11.612312
1680.000000	11.917734
1679.000000	12.276119
1678.000000	12.709535
1677.000000	13.133683
1676.000000	13.560699
1675.000000	13.952848
1674.000000	14.303178
1673.000000	14.594918
1672.000000	14.888754
1671.000000	15.118482
1670.000000	15.304626
1669.000000	15.484701
1668.000000	15.636750
1667.000000	15.806233
1666.000000	15.909621
1665.000000	16.017865
1664.000000	16.103599
1663.000000	16.179293
1662.000000	16.264806
1661.000000	16.306184
1660.000000	16.363671
1659.000000	16.401518
1658.000000	16.457129
1657.000000	16.451061
1656.000000	16.481515
1655.000000	16.469377
1654.000000	16.464522
1653.000000	16.460109
1652.000000	16.470701
1651.000000	16.421600
1650.000000	16.412000
1649.000000	16.380664
1648.000000	16.334321
1647.000000	16.301219
1646.000000	16.252338
1645.000000	16.207319
1644.000000	16.164507
1643.000000	16.124674
1642.000000	16.068622
1641.000000	16.030996
1640.000000	15.968653
1639.000000	15.906973
1638.000000	15.859968
1637.000000	15.771255
1636.000000	15.716085
1635.000000	15.637964
1634.000000	15.606186
1633.000000	15.544506
1632.000000	15.461530
1631.000000	15.384292
1630.000000	15.308378
1629.000000	15.225402
1628.000000	15.158536
1627.000000	15.077436
1626.000000	15.027783
1625.000000	14.960696
1624.000000	14.899347
1623.000000	14.805557
1622.000000	14.725119
1621.000000	14.657481
1620.000000	14.614669
1619.000000	14.539748
1618.000000	14.475420
1617.000000	14.384830
1616.000000	14.353383
1615.000000	14.280448
1614.000000	14.210824
1613.000000	14.128951
1612.000000	14.098608
1611.000000	14.018501
1610.000000	13.985288
1609.000000	13.924822
1608.000000	13.876383
1607.000000	13.801903
1606.000000	13.741657
1605.000000	13.677991
1604.000000	13.629000
1603.000000	13.559706
1602.000000	13.510605
1601.000000	13.468455
1600.000000	13.421229
1599.000000	13.357011
1598.000000	13.300186
1597.000000	13.245568
1596.000000	13.178260
