PE UV       SUBTECH     SPECTRUM    ASCII       PEDS        4.00        
   -1
CICIMAUCR0250-3.ASC
24/05/30
12:17:02.00
24/05/30
12:17:02.00
Vinicio Soto Monge
C. resplendens, M Ventral
250,000000
1
Lambda 1050
1050L1511233
PerkinElmer UV WinLab 6.3.2.0749 / 2.02.05 Lambda 900 UV/VIS/NIR, Aug  7 2015 09:38:08

0
0
3350/servo 860,8/2
0
0
UV/VIS
1
1
1
DoubleDePol,CommonBeamDepol,RBeamAtt,SBeamAtt,60mm sphere, WB InGaAs Detector
0
0
0
0
Program
Program
3350/servo 860,8/2
3350/0,2 860,8/0,2
3350/0,2 860,8/0,2
0
15.00
 
 
 
0
 
860,8
319,2
860,8
Front
100
on
S:100 R:100
0
0
0
0
 
0
 
 
 
0
 
 
0
0
0
0
0
 
 
 
 
0
0


0
0
#HDR
-1
-1
#GR
nm
%R
1.0
0.0
2500,000000
-1,000000
2251
8
57,892700
4,104500
#DATA
250.000000	4.657933
251.000000	4.652833
252.000000	4.638567
253.000000	4.637400
254.000000	4.609500
255.000000	4.618933
256.000000	4.607400
257.000000	4.589467
258.000000	4.590700
259.000000	4.587433
260.000000	4.555267
261.000000	4.533233
262.000000	4.516333
263.000000	4.497533
264.000000	4.478600
265.000000	4.461767
266.000000	4.445000
267.000000	4.430400
268.000000	4.415467
269.000000	4.407333
270.000000	4.387833
271.000000	4.389200
272.000000	4.367533
273.000000	4.364200
274.000000	4.358067
275.000000	4.356267
276.000000	4.335800
277.000000	4.334933
278.000000	4.315267
279.000000	4.334767
280.000000	4.325167
281.000000	4.307067
282.000000	4.300167
283.000000	4.289667
284.000000	4.282133
285.000000	4.281333
286.000000	4.285900
287.000000	4.282667
288.000000	4.263233
289.000000	4.267633
290.000000	4.250400
291.000000	4.235967
292.000000	4.243967
293.000000	4.246300
294.000000	4.248000
295.000000	4.239733
296.000000	4.220367
297.000000	4.204333
298.000000	4.210833
299.000000	4.218867
300.000000	4.201033
301.000000	4.204933
302.000000	4.223233
303.000000	4.225900
304.000000	4.197233
305.000000	4.182767
306.000000	4.192133
307.000000	4.171733
308.000000	4.165800
309.000000	4.190933
310.000000	4.186200
311.000000	4.174533
312.000000	4.165933
313.000000	4.185633
314.000000	4.190267
315.000000	4.162400
316.000000	4.386967
317.000000	4.805633
318.000000	4.794967
319.000000	4.599533
320.000000	4.580533
321.000000	4.591267
322.000000	4.659800
323.000000	4.587533
324.000000	4.586767
325.000000	4.683733
326.000000	4.655267
327.000000	4.508900
328.000000	4.447433
329.000000	4.552267
330.000000	4.557967
331.000000	4.351333
332.000000	4.382500
333.000000	4.431633
334.000000	4.393000
335.000000	4.343600
336.000000	4.309800
337.000000	4.323333
338.000000	4.359133
339.000000	4.342567
340.000000	4.325300
341.000000	4.283167
342.000000	4.265300
343.000000	4.339300
344.000000	4.302967
345.000000	4.323233
346.000000	4.371333
347.000000	4.274133
348.000000	4.194167
349.000000	4.259500
350.000000	4.299633
351.000000	4.333667
352.000000	4.315300
353.000000	4.304633
354.000000	4.295133
355.000000	4.259467
356.000000	4.316967
357.000000	4.275967
358.000000	4.287767
359.000000	4.370767
360.000000	4.381433
361.000000	4.342967
362.000000	4.389433
363.000000	4.391833
364.000000	4.321300
365.000000	4.322233
366.000000	4.343400
367.000000	4.347200
368.000000	4.307900
369.000000	4.300433
370.000000	4.303833
371.000000	4.276267
372.000000	4.287700
373.000000	4.268300
374.000000	4.306700
375.000000	4.447033
376.000000	4.559167
377.000000	4.595567
378.000000	4.610500
379.000000	4.637167
380.000000	4.655533
381.000000	4.679400
382.000000	4.706233
383.000000	4.734600
384.000000	4.755267
385.000000	4.785067
386.000000	4.819800
387.000000	4.853133
388.000000	4.893700
389.000000	4.918067
390.000000	4.955533
391.000000	4.998600
392.000000	5.032000
393.000000	5.076433
394.000000	5.113933
395.000000	5.164667
396.000000	5.211467
397.000000	5.258633
398.000000	5.302600
399.000000	5.352167
400.000000	5.410233
401.000000	5.473567
402.000000	5.520800
403.000000	5.580367
404.000000	5.648133
405.000000	5.707933
406.000000	5.768400
407.000000	5.826733
408.000000	5.895367
409.000000	5.966433
410.000000	6.027533
411.000000	6.108633
412.000000	6.174167
413.000000	6.256633
414.000000	6.327067
415.000000	6.407333
416.000000	6.488000
417.000000	6.570033
418.000000	6.660033
419.000000	6.730267
420.000000	6.821633
421.000000	6.905967
422.000000	6.997100
423.000000	7.092067
424.000000	7.183233
425.000000	7.279800
426.000000	7.372533
427.000000	7.449933
428.000000	7.544033
429.000000	7.633467
430.000000	7.738767
431.000000	7.837900
432.000000	7.940367
433.000000	8.028400
434.000000	8.129600
435.000000	8.244833
436.000000	8.337200
437.000000	8.434833
438.000000	8.539433
439.000000	8.639933
440.000000	8.726733
441.000000	8.829367
442.000000	8.940400
443.000000	9.045200
444.000000	9.138500
445.000000	9.230100
446.000000	9.313533
447.000000	9.421067
448.000000	9.503133
449.000000	9.600333
450.000000	9.688233
451.000000	9.775767
452.000000	9.860067
453.000000	9.959867
454.000000	10.042533
455.000000	10.133600
456.000000	10.221833
457.000000	10.304867
458.000000	10.376900
459.000000	10.465867
460.000000	10.537567
461.000000	10.611767
462.000000	10.687700
463.000000	10.763833
464.000000	10.849467
465.000000	10.923233
466.000000	11.001733
467.000000	11.069967
468.000000	11.150700
469.000000	11.220667
470.000000	11.302567
471.000000	11.366000
472.000000	11.451167
473.000000	11.531900
474.000000	11.609133
475.000000	11.685900
476.000000	11.756300
477.000000	11.833733
478.000000	11.908367
479.000000	11.986233
480.000000	12.069900
481.000000	12.130100
482.000000	12.204867
483.000000	12.245000
484.000000	12.291533
485.000000	12.346067
486.000000	12.398433
487.000000	12.439567
488.000000	12.497500
489.000000	12.534867
490.000000	12.581500
491.000000	12.625467
492.000000	12.669933
493.000000	12.739533
494.000000	12.805967
495.000000	12.870233
496.000000	12.929667
497.000000	13.001300
498.000000	13.070100
499.000000	13.136967
500.000000	13.239100
501.000000	13.325967
502.000000	13.423067
503.000000	13.514367
504.000000	13.611233
505.000000	13.719800
506.000000	13.823467
507.000000	13.944133
508.000000	14.074733
509.000000	14.211400
510.000000	14.362167
511.000000	14.502000
512.000000	14.666567
513.000000	14.814533
514.000000	14.994600
515.000000	15.181000
516.000000	15.360433
517.000000	15.560233
518.000000	15.763633
519.000000	15.973267
520.000000	16.179933
521.000000	16.405600
522.000000	16.636400
523.000000	16.861567
524.000000	17.117400
525.000000	17.364133
526.000000	17.621233
527.000000	17.873467
528.000000	18.131333
529.000000	18.389500
530.000000	18.657500
531.000000	18.923733
532.000000	19.199333
533.000000	19.480367
534.000000	19.761633
535.000000	20.038700
536.000000	20.319700
537.000000	20.601033
538.000000	20.873533
539.000000	21.143400
540.000000	21.432500
541.000000	21.710333
542.000000	21.986100
543.000000	22.265300
544.000000	22.541433
545.000000	22.812833
546.000000	23.085800
547.000000	23.354800
548.000000	23.613767
549.000000	23.868933
550.000000	24.110900
551.000000	24.364067
552.000000	24.616867
553.000000	24.850567
554.000000	25.098433
555.000000	25.321300
556.000000	25.542300
557.000000	25.753867
558.000000	25.960567
559.000000	26.174567
560.000000	26.402667
561.000000	26.597233
562.000000	26.797533
563.000000	26.988467
564.000000	27.170300
565.000000	27.348167
566.000000	27.501800
567.000000	27.665300
568.000000	27.824767
569.000000	27.966767
570.000000	28.104633
571.000000	28.238800
572.000000	28.378033
573.000000	28.511933
574.000000	28.628400
575.000000	28.739467
576.000000	28.848300
577.000000	28.950500
578.000000	29.047433
579.000000	29.118633
580.000000	29.196867
581.000000	29.287767
582.000000	29.365267
583.000000	29.419567
584.000000	29.475467
585.000000	29.527467
586.000000	29.564100
587.000000	29.600967
588.000000	29.632300
589.000000	29.664167
590.000000	29.691133
591.000000	29.706700
592.000000	29.709033
593.000000	29.720633
594.000000	29.722933
595.000000	29.712200
596.000000	29.713067
597.000000	29.687500
598.000000	29.676433
599.000000	29.654833
600.000000	29.616867
601.000000	29.596600
602.000000	29.562367
603.000000	29.519567
604.000000	29.480900
605.000000	29.448967
606.000000	29.398000
607.000000	29.345900
608.000000	29.304500
609.000000	29.248233
610.000000	29.195867
611.000000	29.139233
612.000000	29.089933
613.000000	29.038900
614.000000	28.981667
615.000000	28.914067
616.000000	28.868133
617.000000	28.823533
618.000000	28.767133
619.000000	28.717067
620.000000	28.676867
621.000000	28.620500
622.000000	28.568933
623.000000	28.529533
624.000000	28.493633
625.000000	28.462100
626.000000	28.425400
627.000000	28.394767
628.000000	28.363733
629.000000	28.323400
630.000000	28.297633
631.000000	28.276600
632.000000	28.263800
633.000000	28.251933
634.000000	28.228567
635.000000	28.218267
636.000000	28.204733
637.000000	28.194267
638.000000	28.193167
639.000000	28.191433
640.000000	28.198833
641.000000	28.197133
642.000000	28.204033
643.000000	28.215800
644.000000	28.238800
645.000000	28.257733
646.000000	28.260467
647.000000	28.279500
648.000000	28.312900
649.000000	28.329467
650.000000	28.354067
651.000000	28.392767
652.000000	28.428133
653.000000	28.465900
654.000000	28.509367
655.000000	28.557833
656.000000	28.602267
657.000000	28.662100
658.000000	28.737800
659.000000	28.799967
660.000000	28.873800
661.000000	28.952400
662.000000	29.023000
663.000000	29.103800
664.000000	29.192433
665.000000	29.275567
666.000000	29.358933
667.000000	29.453433
668.000000	29.549433
669.000000	29.647867
670.000000	29.741867
671.000000	29.851567
672.000000	29.978333
673.000000	30.086300
674.000000	30.191500
675.000000	30.327533
676.000000	30.449567
677.000000	30.561300
678.000000	30.692867
679.000000	30.824600
680.000000	30.944100
681.000000	31.080133
682.000000	31.233433
683.000000	31.387867
684.000000	31.522433
685.000000	31.650133
686.000000	31.778467
687.000000	31.920700
688.000000	32.092067
689.000000	32.242933
690.000000	32.411000
691.000000	32.556200
692.000000	32.733067
693.000000	32.913767
694.000000	33.075833
695.000000	33.234833
696.000000	33.388900
697.000000	33.578600
698.000000	33.746800
699.000000	33.902967
700.000000	34.078633
701.000000	34.259167
702.000000	34.457000
703.000000	34.614900
704.000000	34.823967
705.000000	35.010233
706.000000	35.195033
707.000000	35.408500
708.000000	35.588067
709.000000	35.770400
710.000000	35.972433
711.000000	36.211367
712.000000	36.407700
713.000000	36.618000
714.000000	36.805167
715.000000	37.011833
716.000000	37.222200
717.000000	37.442433
718.000000	37.652067
719.000000	37.847267
720.000000	38.078867
721.000000	38.272667
722.000000	38.532200
723.000000	38.739333
724.000000	38.967867
725.000000	39.192867
726.000000	39.364300
727.000000	39.580933
728.000000	39.800100
729.000000	40.037367
730.000000	40.185133
731.000000	40.445967
732.000000	40.625900
733.000000	40.840900
734.000000	41.031900
735.000000	41.260600
736.000000	41.463567
737.000000	41.648867
738.000000	41.873567
739.000000	42.073533
740.000000	42.305167
741.000000	42.525700
742.000000	42.724533
743.000000	42.957067
744.000000	43.159967
745.000000	43.342733
746.000000	43.577867
747.000000	43.789933
748.000000	43.980633
749.000000	44.173067
750.000000	44.354300
751.000000	44.532233
752.000000	44.774767
753.000000	44.921000
754.000000	45.091033
755.000000	45.274233
756.000000	45.451567
757.000000	45.624633
758.000000	45.801400
759.000000	46.060100
760.000000	46.171433
761.000000	46.401067
762.000000	46.587600
763.000000	46.746533
764.000000	46.915300
765.000000	47.108233
766.000000	47.242933
767.000000	47.380100
768.000000	47.523367
769.000000	47.722033
770.000000	47.833033
771.000000	48.012267
772.000000	48.134533
773.000000	48.281100
774.000000	48.459600
775.000000	48.683300
776.000000	48.739233
777.000000	48.921667
778.000000	49.036233
779.000000	49.158867
780.000000	49.386433
781.000000	49.463367
782.000000	49.636933
783.000000	49.817100
784.000000	49.954833
785.000000	49.989200
786.000000	50.161567
787.000000	50.270767
788.000000	50.428900
789.000000	50.476533
790.000000	50.651700
791.000000	50.810500
792.000000	50.878200
793.000000	51.075333
794.000000	51.087300
795.000000	51.251600
796.000000	51.375933
797.000000	51.437400
798.000000	51.498433
799.000000	51.725633
800.000000	51.840067
801.000000	51.953067
802.000000	52.043800
803.000000	52.123867
804.000000	52.203800
805.000000	52.269167
806.000000	52.421733
807.000000	52.460100
808.000000	52.638200
809.000000	52.803533
810.000000	52.761533
811.000000	52.945633
812.000000	53.037833
813.000000	53.084033
814.000000	53.060900
815.000000	53.245467
816.000000	53.396467
817.000000	53.475933
818.000000	53.420600
819.000000	53.506200
820.000000	53.647500
821.000000	53.765200
822.000000	53.790800
823.000000	53.761233
824.000000	53.795567
825.000000	53.865967
826.000000	54.091433
827.000000	54.103767
828.000000	54.012133
829.000000	54.135900
830.000000	54.236767
831.000000	54.232767
832.000000	54.317233
833.000000	54.360667
834.000000	54.334767
835.000000	54.350367
836.000000	54.346133
837.000000	54.546100
838.000000	54.457900
839.000000	54.566567
840.000000	54.591667
841.000000	54.612133
842.000000	54.507700
843.000000	54.548900
844.000000	54.710567
845.000000	54.449433
846.000000	54.563467
847.000000	54.500600
848.000000	54.433600
849.000000	54.706900
850.000000	54.693433
851.000000	54.336400
852.000000	54.620167
853.000000	54.362533
854.000000	54.849400
855.000000	54.520433
856.000000	54.628633
857.000000	53.475300
858.000000	54.208122
859.000000	54.198921
860.000000	54.176337
861.000000	54.151657
862.000000	54.115745
863.000000	54.092927
864.000000	54.061553
865.000000	54.043934
866.000000	54.006172
867.000000	53.981663
868.000000	53.947266
869.000000	53.897201
870.000000	53.859949
871.000000	53.846438
872.000000	53.903696
873.000000	54.054934
874.000000	54.255081
875.000000	54.421194
876.000000	54.585586
877.000000	54.714139
878.000000	54.851120
879.000000	54.967153
880.000000	55.074811
881.000000	55.184101
882.000000	55.272319
883.000000	55.342275
884.000000	55.418636
885.000000	55.485117
886.000000	55.538423
887.000000	55.594889
888.000000	55.622680
889.000000	55.651844
890.000000	55.690604
891.000000	55.726158
892.000000	55.758860
893.000000	55.763801
894.000000	55.773437
895.000000	55.785859
896.000000	55.777535
897.000000	55.767671
898.000000	55.753577
899.000000	55.739913
900.000000	55.745729
901.000000	55.738995
902.000000	55.742115
903.000000	55.728895
904.000000	55.719765
905.000000	55.716205
906.000000	55.728116
907.000000	55.751678
908.000000	55.782663
909.000000	55.814945
910.000000	55.856833
911.000000	55.911970
912.000000	55.976726
913.000000	56.027354
914.000000	56.064787
915.000000	56.109963
916.000000	56.162332
917.000000	56.212440
918.000000	56.254681
919.000000	56.279465
920.000000	56.312259
921.000000	56.343649
922.000000	56.377240
923.000000	56.402542
924.000000	56.422425
925.000000	56.433117
926.000000	56.450129
927.000000	56.475787
928.000000	56.500950
929.000000	56.518380
930.000000	56.535704
931.000000	56.551400
932.000000	56.566779
933.000000	56.581582
934.000000	56.599437
935.000000	56.611699
936.000000	56.619712
937.000000	56.631280
938.000000	56.657717
939.000000	56.663487
940.000000	56.669124
941.000000	56.687495
942.000000	56.702955
943.000000	56.700879
944.000000	56.708012
945.000000	56.722882
946.000000	56.719546
947.000000	56.717411
948.000000	56.723407
949.000000	56.723481
950.000000	56.721761
951.000000	56.719507
952.000000	56.723905
953.000000	56.724983
954.000000	56.713938
955.000000	56.703494
956.000000	56.684640
957.000000	56.668481
958.000000	56.651057
959.000000	56.632729
960.000000	56.611497
961.000000	56.580971
962.000000	56.557136
963.000000	56.541446
964.000000	56.526579
965.000000	56.513250
966.000000	56.499078
967.000000	56.487628
968.000000	56.475250
969.000000	56.472308
970.000000	56.478563
971.000000	56.485033
972.000000	56.481322
973.000000	56.472545
974.000000	56.471494
975.000000	56.462781
976.000000	56.458357
977.000000	56.458973
978.000000	56.457021
979.000000	56.455863
980.000000	56.453585
981.000000	56.456350
982.000000	56.459015
983.000000	56.450315
984.000000	56.448213
985.000000	56.447737
986.000000	56.453470
987.000000	56.458587
988.000000	56.459325
989.000000	56.460344
990.000000	56.471592
991.000000	56.486588
992.000000	56.502327
993.000000	56.512034
994.000000	56.533197
995.000000	56.552914
996.000000	56.577637
997.000000	56.596613
998.000000	56.604379
999.000000	56.633425
1000.000000	56.657459
1001.000000	56.687129
1002.000000	56.710455
1003.000000	56.733297
1004.000000	56.753966
1005.000000	56.781028
1006.000000	56.810560
1007.000000	56.826505
1008.000000	56.847085
1009.000000	56.884510
1010.000000	56.923850
1011.000000	56.960190
1012.000000	57.002895
1013.000000	57.077707
1014.000000	57.138003
1015.000000	57.212910
1016.000000	57.280887
1017.000000	57.379439
1018.000000	57.484036
1019.000000	57.576515
1020.000000	57.675917
1021.000000	57.778480
1022.000000	57.887665
1023.000000	57.996533
1024.000000	58.107105
1025.000000	58.203019
1026.000000	58.314109
1027.000000	58.416615
1028.000000	58.516115
1029.000000	58.612536
1030.000000	58.709315
1031.000000	58.810915
1032.000000	58.900096
1033.000000	58.994946
1034.000000	59.080408
1035.000000	59.171107
1036.000000	59.256996
1037.000000	59.344269
1038.000000	59.415551
1039.000000	59.490489
1040.000000	59.565548
1041.000000	59.643552
1042.000000	59.698484
1043.000000	59.781312
1044.000000	59.855944
1045.000000	59.938065
1046.000000	60.011655
1047.000000	60.083204
1048.000000	60.156703
1049.000000	60.239482
1050.000000	60.328827
1051.000000	60.409589
1052.000000	60.498060
1053.000000	60.584953
1054.000000	60.674069
1055.000000	60.761846
1056.000000	60.866492
1057.000000	60.958752
1058.000000	61.049278
1059.000000	61.129332
1060.000000	61.221359
1061.000000	61.310194
1062.000000	61.394325
1063.000000	61.477963
1064.000000	61.562769
1065.000000	61.652040
1066.000000	61.729599
1067.000000	61.811689
1068.000000	61.891685
1069.000000	61.966197
1070.000000	62.054515
1071.000000	62.128483
1072.000000	62.200302
1073.000000	62.274067
1074.000000	62.348993
1075.000000	62.440747
1076.000000	62.511146
1077.000000	62.568533
1078.000000	62.642369
1079.000000	62.713302
1080.000000	62.790924
1081.000000	62.867683
1082.000000	62.943858
1083.000000	63.008842
1084.000000	63.097566
1085.000000	63.181919
1086.000000	63.224861
1087.000000	63.308538
1088.000000	63.369993
1089.000000	63.440554
1090.000000	63.488414
1091.000000	63.559382
1092.000000	63.611539
1093.000000	63.666296
1094.000000	63.709595
1095.000000	63.752458
1096.000000	63.795522
1097.000000	63.850856
1098.000000	63.876824
1099.000000	63.908996
1100.000000	63.931061
1101.000000	63.956996
1102.000000	63.979532
1103.000000	64.001657
1104.000000	64.025604
1105.000000	64.042236
1106.000000	64.063264
1107.000000	64.076641
1108.000000	64.090608
1109.000000	64.105145
1110.000000	64.122362
1111.000000	64.138018
1112.000000	64.151023
1113.000000	64.163519
1114.000000	64.161287
1115.000000	64.175773
1116.000000	64.177171
1117.000000	64.161131
1118.000000	64.139006
1119.000000	64.096839
1120.000000	64.043419
1121.000000	63.974793
1122.000000	63.900260
1123.000000	63.790513
1124.000000	63.671379
1125.000000	63.531748
1126.000000	63.365226
1127.000000	63.161566
1128.000000	62.897841
1129.000000	62.588239
1130.000000	62.211145
1131.000000	61.791639
1132.000000	61.333421
1133.000000	60.865900
1134.000000	60.348342
1135.000000	59.761037
1136.000000	59.196691
1137.000000	58.647663
1138.000000	58.120939
1139.000000	57.623077
1140.000000	57.135605
1141.000000	56.666683
1142.000000	56.231284
1143.000000	55.814415
1144.000000	55.464891
1145.000000	55.176468
1146.000000	54.954237
1147.000000	54.821471
1148.000000	54.718385
1149.000000	54.648934
1150.000000	54.566926
1151.000000	54.473452
1152.000000	54.343554
1153.000000	54.162473
1154.000000	53.927061
1155.000000	53.637045
1156.000000	53.286715
1157.000000	52.874396
1158.000000	52.443315
1159.000000	51.991269
1160.000000	51.536386
1161.000000	51.073619
1162.000000	50.590400
1163.000000	50.109588
1164.000000	49.635617
1165.000000	49.178316
1166.000000	48.729504
1167.000000	48.278404
1168.000000	47.840093
1169.000000	47.421021
