PE UV       SUBTECH     SPECTRUM    ASCII       PEDS        4.00        
   -1
CICIMAUCR0204-3.ASC
24/06/06
14:12:33.00
24/06/06
14:12:33.00
Vinicio Soto Monge
C. cupreomarginata. Sex M. Ventral
250,000000
1
Lambda 1050
1050L1511233
PerkinElmer UV WinLab 6.3.2.0749 / 2.02.05 Lambda 900 UV/VIS/NIR, Aug  7 2015 09:38:08

0
0
3350/servo 860,8/2
0
0
UV/VIS
1
1
1
DoubleDePol,CommonBeamDepol,RBeamAtt,SBeamAtt,60mm sphere, WB InGaAs Detector
0
0
0
0
Program
Program
3350/servo 860,8/2
3350/0,2 860,8/0,2
3350/0,2 860,8/0,2
0
15.00
 
 
 
0
 
860,8
319,2
860,8
Front
100
on
S:100 R:100
0
0
0
0
 
0
 
 
 
0
 
 
0
0
0
0
0
 
 
 
 
0
0


0
0
#HDR
-1
-1
#GR
nm
%R
1.0
0.0
2500,000000
-1,000000
2251
8
53,165300
3,700600
#DATA
250.000000	4.494767
251.000000	4.499300
252.000000	4.491500
253.000000	4.487833
254.000000	4.474133
255.000000	4.469600
256.000000	4.434300
257.000000	4.441767
258.000000	4.453500
259.000000	4.429833
260.000000	4.436633
261.000000	4.427833
262.000000	4.409733
263.000000	4.367367
264.000000	4.366600
265.000000	4.306100
266.000000	4.286200
267.000000	4.279533
268.000000	4.262933
269.000000	4.272700
270.000000	4.252800
271.000000	4.248567
272.000000	4.241333
273.000000	4.215667
274.000000	4.212000
275.000000	4.223433
276.000000	4.200967
277.000000	4.192800
278.000000	4.191433
279.000000	4.201400
280.000000	4.170833
281.000000	4.160500
282.000000	4.153200
283.000000	4.146233
284.000000	4.141567
285.000000	4.131467
286.000000	4.142667
287.000000	4.142167
288.000000	4.129933
289.000000	4.115867
290.000000	4.119100
291.000000	4.124967
292.000000	4.132367
293.000000	4.127500
294.000000	4.141033
295.000000	4.133833
296.000000	4.110200
297.000000	4.111300
298.000000	4.122400
299.000000	4.106833
300.000000	4.107933
301.000000	4.113700
302.000000	4.106800
303.000000	4.120433
304.000000	4.119733
305.000000	4.117800
306.000000	4.106433
307.000000	4.096267
308.000000	4.100467
309.000000	4.116167
310.000000	4.113167
311.000000	4.091867
312.000000	4.086667
313.000000	4.102067
314.000000	4.096667
315.000000	4.077033
316.000000	4.430167
317.000000	4.942367
318.000000	5.046633
319.000000	4.876333
320.000000	5.001000
321.000000	5.308433
322.000000	4.958867
323.000000	4.891467
324.000000	4.724667
325.000000	4.447500
326.000000	4.475700
327.000000	4.428533
328.000000	4.250467
329.000000	4.201000
330.000000	4.360100
331.000000	4.401967
332.000000	4.193200
333.000000	4.158000
334.000000	4.311467
335.000000	4.289367
336.000000	4.195433
337.000000	4.125000
338.000000	4.282033
339.000000	4.337600
340.000000	4.248333
341.000000	4.327633
342.000000	4.245667
343.000000	4.145533
344.000000	4.157233
345.000000	4.074333
346.000000	4.082800
347.000000	4.164767
348.000000	4.207100
349.000000	4.189367
350.000000	4.119733
351.000000	4.036400
352.000000	3.953833
353.000000	3.992300
354.000000	4.034333
355.000000	4.071167
356.000000	4.086900
357.000000	3.996300
358.000000	4.043067
359.000000	4.088500
360.000000	4.119067
361.000000	4.145067
362.000000	4.121667
363.000000	4.054233
364.000000	3.959867
365.000000	3.983367
366.000000	3.991800
367.000000	3.993300
368.000000	3.997767
369.000000	3.917933
370.000000	3.902333
371.000000	3.955967
372.000000	3.949333
373.000000	3.808667
374.000000	3.662000
375.000000	4.019233
376.000000	4.257400
377.000000	4.262000
378.000000	4.250100
379.000000	4.261133
380.000000	4.289367
381.000000	4.309300
382.000000	4.326167
383.000000	4.340700
384.000000	4.375733
385.000000	4.388633
386.000000	4.404000
387.000000	4.433900
388.000000	4.460867
389.000000	4.481933
390.000000	4.509067
391.000000	4.530733
392.000000	4.555467
393.000000	4.579333
394.000000	4.611467
395.000000	4.665000
396.000000	4.696133
397.000000	4.717967
398.000000	4.750600
399.000000	4.781467
400.000000	4.820667
401.000000	4.851333
402.000000	4.891033
403.000000	4.944667
404.000000	4.967400
405.000000	4.991967
406.000000	5.037267
407.000000	5.085667
408.000000	5.122633
409.000000	5.151967
410.000000	5.193067
411.000000	5.229467
412.000000	5.279400
413.000000	5.319533
414.000000	5.354300
415.000000	5.399967
416.000000	5.438533
417.000000	5.483600
418.000000	5.518267
419.000000	5.563500
420.000000	5.611433
421.000000	5.656000
422.000000	5.695867
423.000000	5.737333
424.000000	5.789433
425.000000	5.833233
426.000000	5.884767
427.000000	5.931900
428.000000	5.978933
429.000000	6.030567
430.000000	6.074267
431.000000	6.122867
432.000000	6.185067
433.000000	6.244300
434.000000	6.291333
435.000000	6.342967
436.000000	6.411067
437.000000	6.461467
438.000000	6.521433
439.000000	6.571633
440.000000	6.633433
441.000000	6.698167
442.000000	6.762967
443.000000	6.815433
444.000000	6.869200
445.000000	6.926667
446.000000	6.979533
447.000000	7.030433
448.000000	7.097167
449.000000	7.150533
450.000000	7.199333
451.000000	7.259767
452.000000	7.308800
453.000000	7.365800
454.000000	7.414267
455.000000	7.478600
456.000000	7.527067
457.000000	7.585200
458.000000	7.628433
459.000000	7.678767
460.000000	7.735533
461.000000	7.793233
462.000000	7.848467
463.000000	7.901000
464.000000	7.970700
465.000000	8.023500
466.000000	8.083633
467.000000	8.154300
468.000000	8.209833
469.000000	8.280367
470.000000	8.348867
471.000000	8.431467
472.000000	8.495733
473.000000	8.575233
474.000000	8.660700
475.000000	8.743667
476.000000	8.828533
477.000000	8.908933
478.000000	9.001667
479.000000	9.091533
480.000000	9.199400
481.000000	9.295000
482.000000	9.386233
483.000000	9.478167
484.000000	9.567200
485.000000	9.659700
486.000000	9.760167
487.000000	9.860367
488.000000	9.966500
489.000000	10.067767
490.000000	10.178667
491.000000	10.304933
492.000000	10.417833
493.000000	10.553967
494.000000	10.692900
495.000000	10.836767
496.000000	10.989933
497.000000	11.140200
498.000000	11.314867
499.000000	11.481400
500.000000	11.679200
501.000000	11.870067
502.000000	12.076200
503.000000	12.297467
504.000000	12.519733
505.000000	12.754567
506.000000	12.997167
507.000000	13.252000
508.000000	13.515467
509.000000	13.789400
510.000000	14.085500
511.000000	14.387700
512.000000	14.690600
513.000000	15.018000
514.000000	15.345067
515.000000	15.696333
516.000000	16.043367
517.000000	16.400667
518.000000	16.765100
519.000000	17.137333
520.000000	17.505267
521.000000	17.880800
522.000000	18.259633
523.000000	18.633933
524.000000	19.002367
525.000000	19.380833
526.000000	19.748733
527.000000	20.110100
528.000000	20.463533
529.000000	20.796667
530.000000	21.125067
531.000000	21.453533
532.000000	21.770367
533.000000	22.059433
534.000000	22.356667
535.000000	22.651467
536.000000	22.915467
537.000000	23.166033
538.000000	23.415833
539.000000	23.643667
540.000000	23.849133
541.000000	24.067533
542.000000	24.267100
543.000000	24.456367
544.000000	24.623900
545.000000	24.803500
546.000000	24.956933
547.000000	25.112233
548.000000	25.255733
549.000000	25.358967
550.000000	25.483333
551.000000	25.596933
552.000000	25.705300
553.000000	25.814267
554.000000	25.902933
555.000000	25.989400
556.000000	26.065133
557.000000	26.143833
558.000000	26.216233
559.000000	26.266833
560.000000	26.317867
561.000000	26.359033
562.000000	26.394267
563.000000	26.431133
564.000000	26.449233
565.000000	26.464467
566.000000	26.470533
567.000000	26.450433
568.000000	26.447700
569.000000	26.429433
570.000000	26.399533
571.000000	26.358233
572.000000	26.320900
573.000000	26.291267
574.000000	26.235600
575.000000	26.177000
576.000000	26.114933
577.000000	26.034733
578.000000	25.958967
579.000000	25.875333
580.000000	25.791433
581.000000	25.697767
582.000000	25.603367
583.000000	25.500100
584.000000	25.394067
585.000000	25.277733
586.000000	25.163233
587.000000	25.049500
588.000000	24.926033
589.000000	24.812633
590.000000	24.684467
591.000000	24.547733
592.000000	24.414733
593.000000	24.274933
594.000000	24.148500
595.000000	24.016400
596.000000	23.873667
597.000000	23.731100
598.000000	23.592367
599.000000	23.465400
600.000000	23.313400
601.000000	23.156667
602.000000	23.002567
603.000000	22.840633
604.000000	22.681833
605.000000	22.516800
606.000000	22.347067
607.000000	22.190800
608.000000	22.018633
609.000000	21.850400
610.000000	21.693733
611.000000	21.517600
612.000000	21.332433
613.000000	21.156567
614.000000	20.975733
615.000000	20.797433
616.000000	20.623900
617.000000	20.467000
618.000000	20.314200
619.000000	20.162433
620.000000	20.017633
621.000000	19.866033
622.000000	19.713433
623.000000	19.577667
624.000000	19.439000
625.000000	19.317567
626.000000	19.210633
627.000000	19.100333
628.000000	19.002800
629.000000	18.908267
630.000000	18.820967
631.000000	18.738767
632.000000	18.670867
633.000000	18.627833
634.000000	18.585133
635.000000	18.537567
636.000000	18.489367
637.000000	18.454000
638.000000	18.439233
639.000000	18.419967
640.000000	18.399700
641.000000	18.392667
642.000000	18.383033
643.000000	18.388333
644.000000	18.397033
645.000000	18.393200
646.000000	18.412533
647.000000	18.427800
648.000000	18.437433
649.000000	18.455933
650.000000	18.482233
651.000000	18.513967
652.000000	18.533700
653.000000	18.575567
654.000000	18.614800
655.000000	18.654033
656.000000	18.711667
657.000000	18.769333
658.000000	18.837300
659.000000	18.899733
660.000000	18.963100
661.000000	19.037900
662.000000	19.110000
663.000000	19.193000
664.000000	19.285433
665.000000	19.376100
666.000000	19.460133
667.000000	19.560700
668.000000	19.655833
669.000000	19.748200
670.000000	19.850400
671.000000	19.969300
672.000000	20.089800
673.000000	20.211533
674.000000	20.328733
675.000000	20.455433
676.000000	20.581467
677.000000	20.690900
678.000000	20.824700
679.000000	20.966967
680.000000	21.096500
681.000000	21.221300
682.000000	21.364800
683.000000	21.514600
684.000000	21.650867
685.000000	21.792600
686.000000	21.936200
687.000000	22.083567
688.000000	22.243833
689.000000	22.404500
690.000000	22.574567
691.000000	22.725200
692.000000	22.880767
693.000000	23.049467
694.000000	23.211267
695.000000	23.374133
696.000000	23.547033
697.000000	23.719133
698.000000	23.912567
699.000000	24.089800
700.000000	24.259600
701.000000	24.468700
702.000000	24.662133
703.000000	24.816267
704.000000	25.026000
705.000000	25.228733
706.000000	25.417467
707.000000	25.623367
708.000000	25.821567
709.000000	26.018267
710.000000	26.247267
711.000000	26.432367
712.000000	26.649067
713.000000	26.858467
714.000000	27.047733
715.000000	27.263000
716.000000	27.490200
717.000000	27.701300
718.000000	27.899100
719.000000	28.122567
720.000000	28.331967
721.000000	28.543133
722.000000	28.749467
723.000000	28.986533
724.000000	29.239600
725.000000	29.465467
726.000000	29.711267
727.000000	29.915233
728.000000	30.147767
729.000000	30.392633
730.000000	30.592000
731.000000	30.853500
732.000000	31.075000
733.000000	31.287800
734.000000	31.507533
735.000000	31.704167
736.000000	31.923133
737.000000	32.206233
738.000000	32.449200
739.000000	32.680033
740.000000	32.879967
741.000000	33.126433
742.000000	33.361033
743.000000	33.596700
744.000000	33.864333
745.000000	34.106400
746.000000	34.324767
747.000000	34.548967
748.000000	34.783300
749.000000	34.997367
750.000000	35.210467
751.000000	35.427600
752.000000	35.690333
753.000000	35.875900
754.000000	36.052600
755.000000	36.345467
756.000000	36.557200
757.000000	36.750867
758.000000	36.945833
759.000000	37.093967
760.000000	37.329567
761.000000	37.487033
762.000000	37.756900
763.000000	37.914500
764.000000	38.126200
765.000000	38.271400
766.000000	38.480300
767.000000	38.673100
768.000000	38.841000
769.000000	39.032867
770.000000	39.235967
771.000000	39.404833
772.000000	39.552867
773.000000	39.752433
774.000000	39.886567
775.000000	40.052700
776.000000	40.238567
777.000000	40.477833
778.000000	40.632467
779.000000	40.788367
780.000000	40.940867
781.000000	41.174300
782.000000	41.308667
783.000000	41.454833
784.000000	41.540367
785.000000	41.719867
786.000000	41.908367
787.000000	42.046867
788.000000	42.241300
789.000000	42.289767
790.000000	42.491667
791.000000	42.592100
792.000000	42.795567
793.000000	42.963600
794.000000	43.049767
795.000000	43.214233
796.000000	43.245733
797.000000	43.370800
798.000000	43.586900
799.000000	43.628133
800.000000	43.806800
801.000000	43.901833
802.000000	44.112567
803.000000	44.101367
804.000000	44.319367
805.000000	44.393500
806.000000	44.536333
807.000000	44.611367
808.000000	44.709567
809.000000	44.819267
810.000000	44.902467
811.000000	45.011100
812.000000	45.135600
813.000000	45.231833
814.000000	45.341167
815.000000	45.360900
816.000000	45.477367
817.000000	45.578167
818.000000	45.724167
819.000000	45.870667
820.000000	45.933767
821.000000	46.022333
822.000000	46.101067
823.000000	46.076133
824.000000	46.251033
825.000000	46.321500
826.000000	46.438633
827.000000	46.539133
828.000000	46.494533
829.000000	46.698133
830.000000	46.811600
831.000000	46.762967
832.000000	46.808967
833.000000	46.929233
834.000000	46.995967
835.000000	46.998067
836.000000	47.023767
837.000000	47.185033
838.000000	47.188033
839.000000	47.318767
840.000000	47.366600
841.000000	47.296867
842.000000	47.475967
843.000000	47.494567
844.000000	47.602900
845.000000	47.453567
846.000000	47.553233
847.000000	47.545567
848.000000	47.522867
849.000000	47.594033
850.000000	47.637033
851.000000	47.618400
852.000000	47.645133
853.000000	47.793600
854.000000	47.655000
855.000000	47.753667
856.000000	47.965200
857.000000	46.667900
858.000000	47.462256
859.000000	47.474481
860.000000	47.482487
861.000000	47.504394
862.000000	47.511160
863.000000	47.530609
864.000000	47.548257
865.000000	47.555727
866.000000	47.565163
867.000000	47.570521
868.000000	47.586573
869.000000	47.588785
870.000000	47.590112
871.000000	47.594575
872.000000	47.640243
873.000000	47.742232
874.000000	47.934258
875.000000	48.172572
876.000000	48.389326
877.000000	48.573105
878.000000	48.759561
879.000000	48.947877
880.000000	49.100713
881.000000	49.227186
882.000000	49.377246
883.000000	49.499580
884.000000	49.624108
885.000000	49.750142
886.000000	49.866267
887.000000	49.991369
888.000000	50.093933
889.000000	50.215383
890.000000	50.324203
891.000000	50.425234
892.000000	50.528817
893.000000	50.616785
894.000000	50.722244
895.000000	50.822988
896.000000	50.892478
897.000000	50.970831
898.000000	51.049641
899.000000	51.117273
900.000000	51.177519
901.000000	51.237480
902.000000	51.310231
903.000000	51.379926
904.000000	51.445634
905.000000	51.495956
906.000000	51.551728
907.000000	51.607360
908.000000	51.666537
909.000000	51.717487
910.000000	51.783747
911.000000	51.832627
912.000000	51.891012
913.000000	51.956626
914.000000	52.023376
915.000000	52.061396
916.000000	52.085837
917.000000	52.135968
918.000000	52.181778
919.000000	52.232298
920.000000	52.269424
921.000000	52.306701
922.000000	52.347769
923.000000	52.395785
924.000000	52.431860
925.000000	52.445476
926.000000	52.462327
927.000000	52.488788
928.000000	52.537238
929.000000	52.563963
930.000000	52.564814
931.000000	52.592344
932.000000	52.620062
933.000000	52.619301
934.000000	52.613377
935.000000	52.621419
936.000000	52.632261
937.000000	52.651381
938.000000	52.665168
939.000000	52.673467
940.000000	52.679914
941.000000	52.702985
942.000000	52.709881
943.000000	52.696358
944.000000	52.690791
945.000000	52.699206
946.000000	52.686818
947.000000	52.660776
948.000000	52.665034
949.000000	52.659827
950.000000	52.627131
951.000000	52.606579
952.000000	52.592371
953.000000	52.577960
954.000000	52.562803
955.000000	52.539203
956.000000	52.514375
957.000000	52.501997
958.000000	52.515716
959.000000	52.504810
960.000000	52.486595
961.000000	52.477569
962.000000	52.468435
963.000000	52.477007
964.000000	52.478013
965.000000	52.476001
966.000000	52.470193
967.000000	52.463641
968.000000	52.481090
969.000000	52.490730
970.000000	52.500612
971.000000	52.510717
972.000000	52.515708
973.000000	52.522891
974.000000	52.537729
975.000000	52.562493
976.000000	52.578952
977.000000	52.591384
978.000000	52.608390
979.000000	52.632431
980.000000	52.654940
981.000000	52.677820
982.000000	52.704802
983.000000	52.741898
984.000000	52.771573
985.000000	52.796148
986.000000	52.827329
987.000000	52.850339
988.000000	52.888220
989.000000	52.932690
990.000000	52.973326
991.000000	53.014030
992.000000	53.058847
993.000000	53.109283
994.000000	53.159468
995.000000	53.210296
996.000000	53.251566
997.000000	53.297746
998.000000	53.357420
999.000000	53.426552
1000.000000	53.475933
1001.000000	53.522241
1002.000000	53.578527
1003.000000	53.642072
1004.000000	53.701064
1005.000000	53.758548
1006.000000	53.817922
1007.000000	53.875924
1008.000000	53.941749
1009.000000	54.008561
1010.000000	54.064872
1011.000000	54.128939
1012.000000	54.200923
1013.000000	54.284471
1014.000000	54.364999
1015.000000	54.441864
1016.000000	54.518684
1017.000000	54.606738
1018.000000	54.697780
1019.000000	54.789113
1020.000000	54.884660
1021.000000	54.989515
1022.000000	55.075742
1023.000000	55.170108
1024.000000	55.267340
1025.000000	55.374308
1026.000000	55.478615
1027.000000	55.569057
1028.000000	55.666799
1029.000000	55.768861
1030.000000	55.859747
1031.000000	55.952299
1032.000000	56.059357
1033.000000	56.142719
1034.000000	56.240150
1035.000000	56.338266
1036.000000	56.437029
1037.000000	56.522880
1038.000000	56.607258
1039.000000	56.695703
1040.000000	56.782837
1041.000000	56.873698
1042.000000	56.976127
1043.000000	57.053849
1044.000000	57.144383
1045.000000	57.230010
1046.000000	57.316789
1047.000000	57.403539
1048.000000	57.497219
1049.000000	57.585126
1050.000000	57.678739
1051.000000	57.762269
1052.000000	57.858339
1053.000000	57.958619
1054.000000	58.054730
1055.000000	58.135164
1056.000000	58.238845
1057.000000	58.329729
1058.000000	58.433164
1059.000000	58.519501
1060.000000	58.605924
1061.000000	58.691602
1062.000000	58.776382
1063.000000	58.876219
1064.000000	58.959099
1065.000000	59.034187
1066.000000	59.128488
1067.000000	59.215420
1068.000000	59.298385
1069.000000	59.380616
1070.000000	59.460230
1071.000000	59.542876
1072.000000	59.625175
1073.000000	59.711192
1074.000000	59.785011
1075.000000	59.859177
1076.000000	59.937123
1077.000000	60.011156
1078.000000	60.089906
1079.000000	60.157575
1080.000000	60.235068
1081.000000	60.317499
1082.000000	60.376541
1083.000000	60.461409
1084.000000	60.514719
1085.000000	60.594686
1086.000000	60.646310
1087.000000	60.723034
1088.000000	60.783155
1089.000000	60.844782
1090.000000	60.914921
1091.000000	60.969632
1092.000000	61.027783
1093.000000	61.080318
1094.000000	61.134413
1095.000000	61.180062
1096.000000	61.233932
1097.000000	61.269777
1098.000000	61.322628
1099.000000	61.359629
1100.000000	61.397521
1101.000000	61.438709
1102.000000	61.480041
1103.000000	61.509516
1104.000000	61.556559
1105.000000	61.588924
1106.000000	61.622671
1107.000000	61.663881
1108.000000	61.695164
1109.000000	61.727196
1110.000000	61.754940
1111.000000	61.782539
1112.000000	61.825082
1113.000000	61.867355
1114.000000	61.889875
1115.000000	61.922232
1116.000000	61.957085
1117.000000	61.974334
1118.000000	61.985260
1119.000000	61.992609
1120.000000	61.995913
1121.000000	61.990990
1122.000000	61.971557
1123.000000	61.939348
1124.000000	61.910916
1125.000000	61.859443
1126.000000	61.760083
1127.000000	61.671217
1128.000000	61.564153
1129.000000	61.423345
1130.000000	61.252974
1131.000000	61.067237
1132.000000	60.868793
1133.000000	60.662016
1134.000000	60.413541
1135.000000	60.103773
1136.000000	59.811814
1137.000000	59.537070
1138.000000	59.269604
1139.000000	59.007206
1140.000000	58.766826
1141.000000	58.521661
1142.000000	58.299011
1143.000000	58.099219
1144.000000	57.913632
1145.000000	57.730135
1146.000000	57.572543
1147.000000	57.432114
1148.000000	57.298290
1149.000000	57.170141
1150.000000	57.045002
1151.000000	56.921262
1152.000000	56.789933
1153.000000	56.635285
1154.000000	56.477807
1155.000000	56.300363
1156.000000	56.109858
1157.000000	55.915230
1158.000000	55.702674
1159.000000	55.488465
1160.000000	55.273671
1161.000000	55.055409
1162.000000	54.843011
1163.000000	54.634528
1164.000000	54.429183
1165.000000	54.235026
1166.000000	54.029922
1167.000000	53.834698
1168.000000	53.651246
1169.000000	53.479118
1170.000000	53.315545
