PE UV       SUBTECH     SPECTRUM    ASCII       PEDS        4.00        
   -1
CICIMAUCR0201-2.ASC
24/06/06
12:51:51.00
24/06/06
12:51:51.00
Vinicio Soto Monge
C. cupreomarginata. Sex F. Ventral
250,000000
1
Lambda 1050
1050L1511233
PerkinElmer UV WinLab 6.3.2.0749 / 2.02.05 Lambda 900 UV/VIS/NIR, Aug  7 2015 09:38:08

0
0
3350/servo 860,8/2
0
0
UV/VIS
1
1
1
DoubleDePol,CommonBeamDepol,RBeamAtt,SBeamAtt,60mm sphere, WB InGaAs Detector
0
0
0
0
Program
Program
3350/servo 860,8/2
3350/0,2 860,8/0,2
3350/0,2 860,8/0,2
0
15.00
 
 
 
0
 
860,8
319,2
860,8
Front
100
on
S:100 R:100
0
0
0
0
 
0
 
 
 
0
 
 
0
0
0
0
0
 
 
 
 
0
0


0
0
#HDR
-1
-1
#GR
nm
%R
1.0
0.0
2500,000000
-1,000000
2251
8
55,450300
4,194700
#DATA
2482.000000	6.141096
2481.000000	6.149992
2480.000000	6.157898
2479.000000	6.144281
2478.000000	6.161193
2477.000000	6.076194
2476.000000	6.100684
2475.000000	6.134617
2474.000000	6.143512
2473.000000	6.119243
2472.000000	6.092667
2471.000000	6.073449
2470.000000	6.107712
2469.000000	6.101342
2468.000000	6.131323
2467.000000	6.111116
2466.000000	6.098048
2465.000000	6.138131
2464.000000	6.107492
2463.000000	6.109798
2462.000000	6.123855
2461.000000	6.146038
2460.000000	6.166354
2459.000000	6.152407
2458.000000	6.150321
2457.000000	6.192491
2456.000000	6.206987
2455.000000	6.239932
2454.000000	6.253769
2453.000000	6.258930
2452.000000	6.256075
2451.000000	6.304944
2450.000000	6.307140
2449.000000	6.315157
2448.000000	6.364026
2447.000000	6.390272
2446.000000	6.435297
2445.000000	6.441666
2444.000000	6.463410
2443.000000	6.487790
2442.000000	6.525018
2441.000000	6.555437
2440.000000	6.581464
2439.000000	6.606832
2438.000000	6.634725
2437.000000	6.615068
2436.000000	6.667451
2435.000000	6.686998
2434.000000	6.686779
2433.000000	6.694686
2432.000000	6.739711
2431.000000	6.783747
2430.000000	6.781222
2429.000000	6.811312
2428.000000	6.819218
2427.000000	6.830859
2426.000000	6.854031
2425.000000	6.856666
2424.000000	6.883571
2423.000000	6.908280
2422.000000	6.905864
2421.000000	6.917176
2420.000000	6.944959
2419.000000	6.971535
2418.000000	6.973073
2417.000000	6.984164
2416.000000	7.026334
2415.000000	7.031715
2414.000000	7.014034
2413.000000	7.035888
2412.000000	7.047309
2411.000000	7.078497
2410.000000	7.089699
2409.000000	7.083659
2408.000000	7.094750
2407.000000	7.109356
2406.000000	7.112321
2405.000000	7.123632
2404.000000	7.144607
2403.000000	7.155809
2402.000000	7.156468
2401.000000	7.174917
2400.000000	7.190511
2399.000000	7.185240
2398.000000	7.194464
2397.000000	7.215769
2396.000000	7.229276
2395.000000	7.231473
2394.000000	7.234108
2393.000000	7.253436
2392.000000	7.282099
2391.000000	7.288248
2390.000000	7.294618
2389.000000	7.297363
2388.000000	7.303074
2387.000000	7.305600
2386.000000	7.312298
2385.000000	7.329759
2384.000000	7.325916
2383.000000	7.299779
2382.000000	7.291763
2381.000000	7.296595
2380.000000	7.312738
2379.000000	7.317789
2378.000000	7.313287
2377.000000	7.307137
2376.000000	7.304721
2375.000000	7.303733
2374.000000	7.292861
2373.000000	7.280781
2372.000000	7.269579
2371.000000	7.254864
2370.000000	7.249373
2369.000000	7.243223
2368.000000	7.224554
2367.000000	7.209839
2366.000000	7.203360
2365.000000	7.203030
2364.000000	7.175137
2363.000000	7.157126
2362.000000	7.150537
2361.000000	7.141532
2360.000000	7.131210
2359.000000	7.093872
2358.000000	7.069822
2357.000000	7.065319
2356.000000	7.052910
2355.000000	7.040720
2354.000000	7.032484
2353.000000	7.020184
2352.000000	7.015572
2351.000000	7.015133
2350.000000	7.024467
2349.000000	7.028860
2348.000000	7.022490
2347.000000	7.020184
2346.000000	7.018098
2345.000000	7.027432
2344.000000	7.061915
2343.000000	7.084208
2342.000000	7.074873
2341.000000	7.063562
2340.000000	7.083000
2339.000000	7.115506
2338.000000	7.112650
2337.000000	7.125060
2336.000000	7.126817
2335.000000	7.105842
2334.000000	7.106171
2333.000000	7.093103
2332.000000	7.091785
2331.000000	7.085965
2330.000000	7.071798
2329.000000	7.057083
2328.000000	7.047529
2327.000000	7.038853
2326.000000	7.014144
2325.000000	6.994158
2324.000000	6.979332
2323.000000	6.963518
2322.000000	6.928047
2321.000000	6.898507
2320.000000	6.862377
2319.000000	6.840523
2318.000000	6.820426
2317.000000	6.769471
2316.000000	6.743335
2315.000000	6.705118
2314.000000	6.682496
2313.000000	6.655042
2312.000000	6.618033
2311.000000	6.583221
2310.000000	6.557634
2309.000000	6.533584
2308.000000	6.501956
2307.000000	6.508545
2306.000000	6.491743
2305.000000	6.476369
2304.000000	6.467144
2303.000000	6.471537
2302.000000	6.465058
2301.000000	6.493281
2300.000000	6.517550
2299.000000	6.550825
2298.000000	6.571141
2297.000000	6.573008
2296.000000	6.606173
2295.000000	6.642522
2294.000000	6.664705
2293.000000	6.679641
2292.000000	6.701714
2291.000000	6.726862
2290.000000	6.747288
2289.000000	6.751791
2288.000000	6.753218
2287.000000	6.756403
2286.000000	6.769801
2285.000000	6.765079
2284.000000	6.752010
2283.000000	6.742676
2282.000000	6.743994
2281.000000	6.713574
2280.000000	6.706546
2279.000000	6.696662
2278.000000	6.667341
2277.000000	6.666023
2276.000000	6.658226
2275.000000	6.633408
2274.000000	6.620998
2273.000000	6.630003
2272.000000	6.623853
2271.000000	6.624402
2270.000000	6.640655
2269.000000	6.650649
2268.000000	6.642413
2267.000000	6.686559
2266.000000	6.697541
2265.000000	6.738613
2264.000000	6.769471
2263.000000	6.818340
2262.000000	6.880497
2261.000000	6.927279
2260.000000	7.017000
2259.000000	7.083878
2258.000000	7.148121
2257.000000	7.242455
2256.000000	7.330418
2255.000000	7.403776
2254.000000	7.490422
2253.000000	7.600240
2252.000000	7.704017
2251.000000	7.787478
2250.000000	7.864131
2249.000000	7.937379
2248.000000	8.008211
2247.000000	8.093649
2246.000000	8.147350
2245.000000	8.198085
2244.000000	8.290881
2243.000000	8.327560
2242.000000	8.384665
2241.000000	8.413986
2240.000000	8.481304
2239.000000	8.512712
2238.000000	8.558835
2237.000000	8.598040
2236.000000	8.642736
2235.000000	8.664260
2234.000000	8.676010
2233.000000	8.711811
2232.000000	8.724989
2231.000000	8.726636
2230.000000	8.749588
2229.000000	8.750906
2228.000000	8.790769
2227.000000	8.782314
2226.000000	8.770124
2225.000000	8.770453
2224.000000	8.767378
2223.000000	8.750247
2222.000000	8.740363
2221.000000	8.720816
2220.000000	8.705002
2219.000000	8.703355
2218.000000	8.665029
2217.000000	8.681721
2216.000000	8.653388
2215.000000	8.634829
2214.000000	8.637684
2213.000000	8.607594
2212.000000	8.610230
2211.000000	8.587278
2210.000000	8.573002
2209.000000	8.551368
2208.000000	8.548073
2207.000000	8.518642
2206.000000	8.529404
2205.000000	8.526000
2204.000000	8.520729
2203.000000	8.499973
2202.000000	8.484489
2201.000000	8.499314
2200.000000	8.471311
2199.000000	8.486685
2198.000000	8.469993
2197.000000	8.464941
2196.000000	8.455168
2195.000000	8.448359
2194.000000	8.442978
2193.000000	8.433753
2192.000000	8.427933
2191.000000	8.436828
2190.000000	8.428702
2189.000000	8.413766
2188.000000	8.414316
2187.000000	8.429800
2186.000000	8.412339
2185.000000	8.395647
2184.000000	8.383237
2183.000000	8.382688
2182.000000	8.374671
2181.000000	8.380382
2180.000000	8.367094
2179.000000	8.370608
2178.000000	8.354355
2177.000000	8.359297
2176.000000	8.349743
2175.000000	8.342824
2174.000000	8.358309
2173.000000	8.366655
2172.000000	8.348425
2171.000000	8.347986
2170.000000	8.357540
2169.000000	8.357540
2168.000000	8.352488
2167.000000	8.372475
2166.000000	8.396964
2165.000000	8.399380
2164.000000	8.410362
2163.000000	8.427164
2162.000000	8.448579
2161.000000	8.448908
2160.000000	8.441550
2159.000000	8.461098
2158.000000	8.506892
2157.000000	8.495800
2156.000000	8.523254
2155.000000	8.535774
2154.000000	8.566083
2153.000000	8.584093
2152.000000	8.598260
2151.000000	8.638123
2150.000000	8.652070
2149.000000	8.674143
2148.000000	8.705002
2147.000000	8.744317
2146.000000	8.761558
2145.000000	8.794723
2144.000000	8.810756
2143.000000	8.820969
2142.000000	8.835575
2141.000000	8.855232
2140.000000	8.882467
2139.000000	8.889276
2138.000000	8.899598
2137.000000	8.920683
2136.000000	8.940341
2135.000000	8.948467
2134.000000	8.972737
2133.000000	8.988111
2132.000000	9.006231
2131.000000	9.005243
2130.000000	9.030391
2129.000000	9.026218
2128.000000	9.026437
2127.000000	9.044118
2126.000000	9.055978
2125.000000	9.055759
2124.000000	9.054990
2123.000000	9.047742
2122.000000	9.046314
2121.000000	9.056637
2120.000000	9.043569
2119.000000	9.041922
2118.000000	9.064654
2117.000000	9.046095
2116.000000	9.026877
2115.000000	9.028524
2114.000000	9.017982
2113.000000	9.004254
2112.000000	9.016224
2111.000000	8.993932
2110.000000	8.986574
2109.000000	8.984158
2108.000000	8.971639
2107.000000	8.957911
2106.000000	8.933203
2105.000000	8.915851
2104.000000	8.921342
2103.000000	8.930457
2102.000000	8.914753
2101.000000	8.903222
2100.000000	8.894437
2099.000000	8.883455
2098.000000	8.877196
2097.000000	8.865006
2096.000000	8.855781
2095.000000	8.849412
2094.000000	8.838211
2093.000000	8.842274
2092.000000	8.836563
2091.000000	8.815478
2090.000000	8.817675
2089.000000	8.821079
2088.000000	8.810427
2087.000000	8.798347
2086.000000	8.802081
2085.000000	8.790550
2084.000000	8.777921
2083.000000	8.775395
2082.000000	8.767049
2081.000000	8.753651
2080.000000	8.741022
2079.000000	8.722902
2078.000000	8.714007
2077.000000	8.695668
2076.000000	8.676999
2075.000000	8.657232
2074.000000	8.641088
2073.000000	8.632303
2072.000000	8.610449
2071.000000	8.586619
2070.000000	8.552136
2069.000000	8.527757
2068.000000	8.512053
2067.000000	8.481304
2066.000000	8.456595
2065.000000	8.445504
2064.000000	8.429910
2063.000000	8.406738
2062.000000	8.369400
2061.000000	8.355124
2060.000000	8.344472
2059.000000	8.337773
2058.000000	8.312405
2057.000000	8.307244
2056.000000	8.315041
2055.000000	8.312185
2054.000000	8.307573
2053.000000	8.310868
2052.000000	8.332721
2051.000000	8.361384
2050.000000	8.375879
2049.000000	8.397623
2048.000000	8.440672
2047.000000	8.459890
2046.000000	8.501950
2045.000000	8.536213
2044.000000	8.568389
2043.000000	8.625934
2042.000000	8.669311
2041.000000	8.713238
2040.000000	8.771222
2039.000000	8.810207
2038.000000	8.835795
2037.000000	8.872034
2036.000000	8.915961
2035.000000	8.961755
2034.000000	8.986464
2033.000000	9.005353
2032.000000	9.047962
2031.000000	9.075087
2030.000000	9.081127
2029.000000	9.104847
2028.000000	9.129776
2027.000000	9.152727
2026.000000	9.197094
2025.000000	9.208075
2024.000000	9.223560
2023.000000	9.226195
2022.000000	9.242009
2021.000000	9.256285
2020.000000	9.272977
2019.000000	9.282422
2018.000000	9.283300
2017.000000	9.300761
2016.000000	9.306801
2015.000000	9.310645
2014.000000	9.309656
2013.000000	9.321956
2012.000000	9.313830
2011.000000	9.303726
2010.000000	9.285606
2009.000000	9.294062
2008.000000	9.278468
2007.000000	9.274844
2006.000000	9.275723
2005.000000	9.260129
2004.000000	9.250355
2003.000000	9.240252
2002.000000	9.221803
2001.000000	9.193799
2000.000000	9.163709
1999.000000	9.133290
1998.000000	9.133180
1997.000000	9.102321
1996.000000	9.075306
1995.000000	9.067839
1994.000000	9.026328
1993.000000	8.994590
1992.000000	8.955495
1991.000000	8.939901
1990.000000	8.908384
1989.000000	8.875658
1988.000000	8.828876
1987.000000	8.824483
1986.000000	8.795492
1985.000000	8.751565
1984.000000	8.717631
1983.000000	8.673594
1982.000000	8.633621
1981.000000	8.608253
1980.000000	8.575747
1979.000000	8.536432
1978.000000	8.526219
1977.000000	8.478449
1976.000000	8.447480
1975.000000	8.403004
1974.000000	8.374452
1973.000000	8.359736
1972.000000	8.321740
1971.000000	8.303839
1970.000000	8.273530
1969.000000	8.235313
1968.000000	8.200611
1967.000000	8.186554
1966.000000	8.159320
1965.000000	8.130218
1964.000000	8.085852
1963.000000	8.064767
1962.000000	8.031822
1961.000000	8.006783
1960.000000	7.980427
1959.000000	7.964504
1958.000000	7.922773
1957.000000	7.910144
1956.000000	7.879834
1955.000000	7.874893
1954.000000	7.867425
1953.000000	7.821082
1952.000000	7.790773
1951.000000	7.773421
1950.000000	7.743112
1949.000000	7.712912
1948.000000	7.699844
1947.000000	7.691388
1946.000000	7.661957
1945.000000	7.644496
1944.000000	7.636369
1943.000000	7.622423
1942.000000	7.604632
1941.000000	7.622313
1940.000000	7.576409
1939.000000	7.587611
1938.000000	7.597274
1937.000000	7.570040
1936.000000	7.569161
1935.000000	7.571797
1934.000000	7.591234
1933.000000	7.566416
1932.000000	7.610233
1931.000000	7.636479
1930.000000	7.648669
1929.000000	7.684250
1928.000000	7.674366
1927.000000	7.708629
1926.000000	7.729824
1925.000000	7.778144
1924.000000	7.807245
1923.000000	7.854027
1922.000000	7.908826
1921.000000	7.933096
1920.000000	7.991848
1919.000000	8.045549
1918.000000	8.114075
1917.000000	8.163273
1916.000000	8.231250
1915.000000	8.291430
1914.000000	8.347547
1913.000000	8.428811
1912.000000	8.531710
1911.000000	8.578053
1910.000000	8.649215
1909.000000	8.750576
1908.000000	8.865775
1907.000000	8.938144
1906.000000	9.065423
1905.000000	9.170298
1904.000000	9.294831
1903.000000	9.434299
1902.000000	9.545544
1901.000000	9.689624
1900.000000	9.831509
1899.000000	9.952857
1898.000000	10.111762
1897.000000	10.278575
1896.000000	10.445278
1895.000000	10.593641
1894.000000	10.767152
1893.000000	10.958674
1892.000000	11.147120
1891.000000	11.379384
1890.000000	11.584413
1889.000000	11.801412
1888.000000	12.036092
1887.000000	12.276812
1886.000000	12.527415
1885.000000	12.783838
1884.000000	13.114828
1883.000000	13.454383
1882.000000	13.770437
1881.000000	14.096924
1880.000000	14.446583
1879.000000	14.756597
1878.000000	15.068588
1877.000000	15.430217
1876.000000	15.753300
1875.000000	16.057494
1874.000000	16.383102
1873.000000	16.677083
1872.000000	16.956019
1871.000000	17.223095
1870.000000	17.485888
1869.000000	17.704644
1868.000000	17.922302
1867.000000	18.116240
1866.000000	18.261089
1865.000000	18.389355
1864.000000	18.500491
1863.000000	18.639739
1862.000000	18.768994
1861.000000	18.881337
1860.000000	19.003564
1859.000000	19.099654
1858.000000	19.173891
1857.000000	19.227481
1856.000000	19.276130
1855.000000	19.301828
1854.000000	19.331478
1853.000000	19.377162
1852.000000	19.393855
1851.000000	19.402640
1850.000000	19.420650
1849.000000	19.437233
1848.000000	19.429436
1847.000000	19.424713
1846.000000	19.385399
1845.000000	19.338397
1844.000000	19.311821
1843.000000	19.312151
1842.000000	19.331588
1841.000000	19.342131
1840.000000	19.315225
1839.000000	19.273495
1838.000000	19.268004
1837.000000	19.227921
1836.000000	19.176856
1835.000000	19.135454
1834.000000	19.088013
1833.000000	19.038266
1832.000000	19.009055
1831.000000	18.973364
1830.000000	18.920103
1829.000000	18.876505
1828.000000	18.824342
1827.000000	18.762405
1826.000000	18.697393
1825.000000	18.646108
1824.000000	18.616128
1823.000000	18.577692
1822.000000	18.580438
1821.000000	18.592957
1820.000000	18.542441
1819.000000	18.496867
1818.000000	18.475782
1817.000000	18.458540
1816.000000	18.448437
1815.000000	18.431196
1814.000000	18.414943
1813.000000	18.396054
1812.000000	18.392320
1811.000000	18.375848
1810.000000	18.338949
1809.000000	18.304357
1808.000000	18.279099
1807.000000	18.254939
1806.000000	18.214856
1805.000000	18.162363
1804.000000	18.128759
1803.000000	18.099547
1802.000000	18.079561
1801.000000	18.046615
1800.000000	17.989840
1799.000000	17.937896
1798.000000	17.902755
1797.000000	17.880242
1796.000000	17.846309
1795.000000	17.792827
1794.000000	17.754611
1793.000000	17.725729
1792.000000	17.683779
1791.000000	17.641609
1790.000000	17.600208
1789.000000	17.570338
1788.000000	17.532560
1787.000000	17.489622
1786.000000	17.455139
1785.000000	17.407918
1784.000000	17.346859
1783.000000	17.316330
1782.000000	17.265924
1781.000000	17.209478
1780.000000	17.163025
1779.000000	17.096585
1778.000000	17.042555
1777.000000	16.984462
1776.000000	16.925051
1775.000000	16.854328
1774.000000	16.780861
1773.000000	16.699925
1772.000000	16.614817
1771.000000	16.528171
1770.000000	16.440976
1769.000000	16.360919
1768.000000	16.289867
1767.000000	16.203002
1766.000000	16.140186
1765.000000	16.084838
1764.000000	16.027953
1763.000000	16.001157
1762.000000	15.987650
1761.000000	15.992482
1760.000000	16.018179
1759.000000	16.053101
1758.000000	16.089890
1757.000000	16.129863
1756.000000	16.165664
1755.000000	16.204100
1754.000000	16.225075
1753.000000	16.247697
1752.000000	16.266915
1751.000000	16.284047
1750.000000	16.282509
1749.000000	16.239241
1748.000000	16.194106
1747.000000	16.163138
1746.000000	16.129095
1745.000000	16.069354
1744.000000	16.001267
1743.000000	15.904628
1742.000000	15.796568
1741.000000	15.677416
1740.000000	15.554860
1739.000000	15.400237
1738.000000	15.286137
1737.000000	15.159188
1736.000000	15.031800
1735.000000	14.954927
1734.000000	14.889366
1733.000000	14.845989
1732.000000	14.840058
1731.000000	14.845879
1730.000000	14.877396
1729.000000	14.911659
1728.000000	14.966348
1727.000000	15.029274
1726.000000	15.074738
1725.000000	15.116579
1724.000000	15.154136
1723.000000	15.197953
1722.000000	15.246822
1721.000000	15.274825
1720.000000	15.315348
1719.000000	15.348952
1718.000000	15.385192
1717.000000	15.449874
1716.000000	15.489628
1715.000000	15.568148
1714.000000	15.635466
1713.000000	15.665226
1712.000000	15.728700
1711.000000	15.809856
1710.000000	15.839836
1709.000000	15.860371
1708.000000	15.894635
1707.000000	15.886618
1706.000000	15.886398
1705.000000	15.868169
1704.000000	15.847413
1703.000000	15.811722
1702.000000	15.772847
1701.000000	15.709592
1700.000000	15.639858
1699.000000	15.568257
1698.000000	15.502477
1697.000000	15.421871
1696.000000	15.382995
1695.000000	15.359714
1694.000000	15.355541
1693.000000	15.392220
1692.000000	15.444493
1691.000000	15.547941
1690.000000	15.657978
1689.000000	15.739353
1688.000000	15.833686
1687.000000	15.916378
1686.000000	15.972824
1685.000000	16.010382
1684.000000	16.097577
1683.000000	16.197181
1682.000000	16.408470
1681.000000	16.620637
1680.000000	16.932628
1679.000000	17.277894
1678.000000	17.663463
1677.000000	18.048922
1676.000000	18.390563
1675.000000	18.712328
1674.000000	19.032007
1673.000000	19.305671
1672.000000	19.519486
1671.000000	19.744172
1670.000000	19.903737
1669.000000	20.090536
1668.000000	20.246916
1667.000000	20.403186
1666.000000	20.494334
1665.000000	20.590205
1664.000000	20.669493
1663.000000	20.769976
1662.000000	20.848715
1661.000000	20.902306
1660.000000	20.966878
1659.000000	21.003997
1658.000000	21.069228
1657.000000	21.108104
1656.000000	21.149615
1655.000000	21.159498
1654.000000	21.161145
1653.000000	21.169601
1652.000000	21.162244
1651.000000	21.144234
1650.000000	21.124466
1649.000000	21.105797
1648.000000	21.076806
1647.000000	21.051438
1646.000000	21.017614
1645.000000	20.968416
1644.000000	20.946672
1643.000000	20.895387
1642.000000	20.851241
1641.000000	20.807753
1640.000000	20.784142
1639.000000	20.717044
1638.000000	20.676631
1637.000000	20.627323
1636.000000	20.587899
1635.000000	20.507842
1634.000000	20.479180
1633.000000	20.413728
1632.000000	20.345093
1631.000000	20.270746
1630.000000	20.229894
1629.000000	20.144237
1628.000000	20.087900
1627.000000	20.017727
1626.000000	19.965783
1625.000000	19.883530
1624.000000	19.822911
1623.000000	19.753946
1622.000000	19.692997
1621.000000	19.629193
1620.000000	19.573626
1619.000000	19.527393
1618.000000	19.453266
1617.000000	19.415599
1616.000000	19.361459
1615.000000	19.280413
1614.000000	19.224516
1613.000000	19.170486
1612.000000	19.108330
1611.000000	19.045075
1610.000000	18.989288
1609.000000	18.949534
1608.000000	18.907364
1607.000000	18.829174
1606.000000	18.781513
1605.000000	18.710461
1604.000000	18.645120
1603.000000	18.600973
1602.000000	18.521795
1601.000000	18.462933
1600.000000	18.406157
1599.000000	18.359485
1598.000000	18.273169
1597.000000	18.235501
1596.000000	18.179275
1595.000000	18.122280
1594.000000	18.059684
1593.000000	18.006752
1592.000000	17.954698
1591.000000	17.904292
1590.000000	17.875740
1589.000000	17.819513
1588.000000	17.773280
1587.000000	17.729573
1586.000000	17.689160
1585.000000	17.638424
1584.000000	17.609103
1583.000000	17.591862
1582.000000	17.543872
1581.000000	17.515209
1580.000000	17.495113
