Time1=100ms:Average1=5:Objective=10X:Aperture=1: (11/21/2018 1:44:30 PM)
11/21/2018 1:44:30 PM
Reflectance
10X
Ap#: 1
Avg1: 5.000000
Avg2: 0.000000
Int.Time1:100.000000

420.190645	3.588784
420.624620	3.550827
421.058582	3.509649
421.492531	3.478828
421.926468	3.443913
422.360391	3.420199
422.794301	3.408382
423.228199	3.397157
423.662083	3.392853
424.095955	3.391529
424.529813	3.387318
424.963658	3.385780
425.397491	3.385961
425.831310	3.377356
426.265116	3.365062
426.698909	3.353564
427.132689	3.349290
427.566455	3.348559
428.000209	3.359087
428.433949	3.369070
428.867676	3.379848
429.301389	3.388904
429.735090	3.391431
430.168777	3.395271
430.602451	3.393383
431.036111	3.382393
431.469759	3.373387
431.903392	3.363730
432.337013	3.354988
432.770620	3.352352
433.204213	3.353185
433.637794	3.358402
434.071360	3.363943
434.504914	3.379860
434.938453	3.394322
435.371979	3.413310
435.805492	3.431494
436.238991	3.446192
436.672477	3.455336
437.105949	3.466542
437.539407	3.469977
437.972852	3.474296
438.406283	3.480128
438.839700	3.483993
439.273104	3.492959
439.706494	3.506343
440.139871	3.521401
440.573233	3.537182
441.006582	3.552771
441.439917	3.562600
441.873238	3.570053
442.306546	3.574695
442.739839	3.573135
443.173119	3.569488
443.606385	3.566451
444.039636	3.563702
444.472874	3.566469
444.906099	3.571088
445.339309	3.579342
445.772505	3.590921
446.205687	3.604390
446.638855	3.615974
447.072009	3.630658
447.505149	3.646667
447.938275	3.659918
448.371387	3.673530
448.804485	3.681492
449.237569	3.686556
449.670638	3.690248
450.103694	3.691841
450.536735	3.690981
450.969762	3.688967
451.402774	3.685304
451.835773	3.683881
452.268757	3.687838
452.701727	3.691663
453.134683	3.697691
453.567624	3.701237
454.000551	3.703076
454.433464	3.700601
454.866362	3.697036
455.299246	3.692029
455.732116	3.683698
456.164971	3.677701
456.597811	3.673822
457.030638	3.665445
457.463449	3.665280
457.896246	3.662157
458.329029	3.661124
458.761797	3.659363
459.194551	3.659738
459.627290	3.660446
460.060014	3.662019
460.492724	3.665568
460.925419	3.670328
461.358099	3.678204
461.790765	3.684072
462.223416	3.691001
462.656052	3.697573
463.088674	3.702941
463.521281	3.711442
463.953873	3.723088
464.386450	3.737484
464.819012	3.754879
465.251560	3.777019
465.684093	3.799590
466.116611	3.828826
466.549114	3.861854
466.981602	3.899153
467.414075	3.937971
467.846533	3.980555
468.278977	4.022716
468.711405	4.067415
469.143818	4.115699
469.576216	4.163227
470.008600	4.210213
470.440968	4.258147
470.873321	4.304551
471.305659	4.353359
471.737982	4.403628
472.170289	4.458478
472.602582	4.511672
473.034859	4.567499
473.467122	4.629637
473.899369	4.694335
474.331600	4.763158
474.763817	4.836275
475.196018	4.913422
475.628204	4.994303
476.060375	5.079579
476.492530	5.167180
476.924670	5.254534
477.356795	5.338052
477.788904	5.422537
478.220998	5.503226
478.653076	5.578192
479.085139	5.649477
479.517186	5.718856
479.949219	5.788545
480.381235	5.861168
480.813236	5.940857
481.245221	6.025068
481.677191	6.113658
482.109146	6.203180
482.541084	6.292941
482.973008	6.378390
483.404915	6.462737
483.836807	6.540931
484.268683	6.613537
484.700544	6.676096
485.132388	6.731888
485.564217	6.780981
485.996031	6.827636
486.427828	6.868882
486.859610	6.905064
487.291376	6.941430
487.723126	6.979387
488.154860	7.013322
488.586579	7.050499
489.018281	7.093796
489.449968	7.141791
489.881639	7.195816
490.313293	7.255123
490.744932	7.318361
491.176555	7.382152
491.608162	7.447921
492.039753	7.510804
492.471328	7.565935
492.902886	7.613464
493.334429	7.650893
493.765956	7.680657
494.197466	7.701784
494.628960	7.719621
495.060439	7.740027
495.491901	7.764718
495.923347	7.795406
496.354776	7.837048
496.786190	7.886093
497.217587	7.945187
497.648968	8.009441
498.080332	8.082073
498.511681	8.155588
498.943013	8.225875
499.374328	8.293631
499.805628	8.356434
500.236911	8.413898
500.668177	8.461412
501.099427	8.500217
501.530661	8.536328
501.961878	8.569247
502.393079	8.598824
502.824264	8.627221
503.255431	8.657734
503.686583	8.689812
504.117717	8.731641
504.548835	8.781558
504.979937	8.842750
505.411022	8.916451
505.842090	9.007056
506.273142	9.110143
506.704177	9.222142
507.135195	9.342642
507.566197	9.465912
507.997182	9.587753
508.428150	9.703106
508.859102	9.811335
509.290036	9.907081
509.720954	9.992185
510.151855	10.075804
510.582739	10.153531
511.013607	10.231216
511.444457	10.313442
511.875291	10.406451
512.306107	10.513286
512.736907	10.631962
513.167690	10.766250
513.598456	10.911671
514.029205	11.068763
514.459936	11.232068
514.890651	11.395860
515.321349	11.554924
515.752030	11.707562
516.182693	11.847311
516.613340	11.970650
517.043969	12.083822
517.474582	12.181419
517.905177	12.264597
518.335755	12.331718
518.766315	12.388168
519.196859	12.432644
519.627385	12.466608
520.057894	12.495579
520.488386	12.523038
520.918860	12.554761
521.349318	12.594730
521.779757	12.641001
522.210180	12.700105
522.640585	12.774843
523.070973	12.862306
523.501343	12.955618
523.931696	13.060273
524.362031	13.166821
524.792349	13.272681
525.222650	13.370859
525.652933	13.454907
526.083198	13.526517
526.513446	13.579580
526.943677	13.615954
527.373890	13.636889
527.804085	13.650301
528.234262	13.654786
528.664422	13.660169
529.094565	13.668531
529.524689	13.687316
529.954796	13.721563
530.384885	13.764626
530.814957	13.821385
531.245011	13.892037
531.675047	13.975230
532.105065	14.064732
532.535065	14.157528
532.965048	14.250833
533.395013	14.343080
533.824959	14.425546
534.254888	14.495860
534.684799	14.547680
535.114693	14.588747
535.544568	14.614824
535.974425	14.622162
536.404264	14.614210
536.834086	14.590624
537.263889	14.553717
537.693674	14.507921
538.123441	14.458644
538.553190	14.406518
538.982921	14.359979
539.412634	14.317706
539.842329	14.285798
540.272006	14.269676
540.701664	14.269275
541.131304	14.281531
541.560926	14.310553
541.990530	14.351207
542.420116	14.403909
542.849683	14.462122
543.279232	14.519606
543.708763	14.579236
544.138275	14.633531
544.567769	14.681319
544.997245	14.712412
545.426702	14.737575
545.856141	14.749072
546.285562	14.752278
546.714964	14.747419
547.144347	14.741290
547.573713	14.733829
548.003059	14.736593
548.432387	14.744698
548.861697	14.762704
549.290988	14.792588
549.720260	14.840610
550.149514	14.902477
550.578750	14.979515
551.007966	15.073387
551.437164	15.175836
551.866344	15.290985
552.295504	15.409550
552.724646	15.528374
553.153769	15.645493
553.582874	15.751297
554.011960	15.841032
554.441027	15.914397
554.870075	15.967511
555.299104	15.999364
555.728115	16.010588
556.157106	16.004245
556.586079	15.982909
557.015033	15.947212
557.443968	15.902422
557.872884	15.853692
558.301781	15.809171
558.730659	15.760846
559.159518	15.726967
559.588358	15.705891
560.017180	15.693750
560.445982	15.694349
560.874765	15.710726
561.303528	15.736985
561.732273	15.773321
562.160999	15.818525
562.589705	15.872272
563.018393	15.928019
563.447061	15.984310
563.875710	16.041760
564.304340	16.094838
564.732950	16.142788
565.161542	16.183835
565.590114	16.219689
566.018666	16.248258
566.447200	16.268868
566.875714	16.285095
567.304208	16.296794
567.732684	16.306632
568.161140	16.318927
568.589576	16.333911
569.017993	16.352363
569.446391	16.377306
569.874769	16.411125
570.303128	16.458106
570.731467	16.517093
571.159787	16.586295
571.588087	16.669375
572.016368	16.769209
572.444629	16.876178
572.872870	16.987532
573.301092	17.104386
573.729294	17.218499
574.157476	17.324093
574.585639	17.418997
575.013782	17.500501
575.441906	17.562631
575.870009	17.605876
576.298093	17.629760
576.726157	17.634614
577.154202	17.619296
577.582226	17.590194
578.010231	17.550309
578.438216	17.501660
578.866181	17.449786
579.294126	17.397646
579.722051	17.347620
580.149957	17.303889
580.577842	17.271335
581.005707	17.243646
581.433553	17.228164
581.861378	17.218226
582.289184	17.216261
582.716969	17.217647
583.144734	17.223788
583.572479	17.233816
584.000205	17.242425
584.427910	17.253373
584.855594	17.264979
585.283259	17.271717
585.710904	17.277446
586.138528	17.284291
586.566132	17.287137
586.993716	17.290045
587.421280	17.291801
587.848823	17.296366
588.276346	17.299757
588.703849	17.302073
589.131332	17.301754
589.558794	17.300027
589.986236	17.297269
590.413657	17.295603
590.841058	17.292128
591.268438	17.289905
591.695799	17.288815
592.123138	17.293558
592.550458	17.305141
592.977756	17.324612
593.405034	17.353308
593.832292	17.390675
594.259529	17.439818
594.686746	17.493406
595.113942	17.559275
595.541117	17.629286
595.968272	17.706823
596.395406	17.784260
596.822519	17.858201
597.249612	17.930034
597.676684	17.992605
598.103735	18.042350
598.530766	18.080151
598.957775	18.101344
599.384764	18.104377
599.811733	18.099006
600.238680	18.077985
600.665606	18.046658
601.092512	18.005007
601.519397	17.958301
601.946261	17.909864
602.373104	17.861211
602.799926	17.816256
603.226727	17.774667
603.653507	17.735758
604.080266	17.700805
604.507004	17.670300
604.933721	17.642365
605.360417	17.612829
605.787092	17.581542
606.213746	17.550775
606.640379	17.513225
607.066991	17.472478
607.493581	17.430167
607.920150	17.388507
608.346699	17.343422
608.773226	17.301045
609.199731	17.257677
609.626216	17.219239
610.052679	17.187587
610.479121	17.162467
610.905542	17.145844
611.331941	17.138376
611.758319	17.141172
612.184676	17.157363
612.611011	17.182722
613.037325	17.212174
613.463617	17.249632
613.889888	17.292420
614.316138	17.339943
614.742366	17.390861
615.168573	17.443789
615.594758	17.498046
616.020921	17.554581
616.447063	17.613110
616.873184	17.675340
617.299283	17.741543
617.725360	17.812437
618.151416	17.889889
618.577450	17.973516
619.003462	18.068132
619.429453	18.167085
619.855422	18.275855
620.281369	18.391689
620.707295	18.507571
621.133199	18.621788
621.559081	18.734164
621.984941	18.841301
622.410779	18.940994
622.836596	19.029949
623.262391	19.101686
623.688163	19.158316
624.113914	19.200553
624.539644	19.227695
624.965351	19.239316
625.391036	19.235716
625.816699	19.219886
626.242340	19.193375
626.667960	19.158444
627.093557	19.119980
627.519132	19.075547
627.944685	19.028458
628.370216	18.980674
628.795725	18.938302
629.221212	18.890053
629.646677	18.845003
630.072119	18.800408
630.497540	18.753408
630.922938	18.704983
631.348314	18.651788
631.773668	18.595564
632.198999	18.536569
632.624308	18.471881
633.049595	18.404125
633.474860	18.332433
633.900102	18.264792
634.325322	18.197395
634.750520	18.133792
635.175695	18.078635
635.600848	18.035313
636.025978	18.002552
636.451086	17.985990
636.876171	17.981872
637.301234	17.990399
637.726275	18.012055
638.151293	18.049181
638.576288	18.094772
639.001261	18.151221
639.426211	18.217614
639.851139	18.289455
640.276044	18.364299
640.700927	18.440167
641.125787	18.513575
641.550624	18.584791
641.975438	18.648990
642.400230	18.709467
642.824999	18.761558
643.249745	18.803582
643.674469	18.844867
644.099169	18.877160
644.523847	18.908230
644.948502	18.936443
645.373135	18.957903
645.797744	18.982171
646.222330	19.006175
646.646894	19.029571
647.071435	19.053032
647.495953	19.077053
647.920447	19.105100
648.344919	19.128322
648.769368	19.148061
649.193794	19.165883
649.618197	19.174934
650.042576	19.181227
650.466933	19.185002
650.891267	19.183831
651.315577	19.175199
651.739864	19.163773
652.164129	19.148336
652.588370	19.126326
653.012587	19.103644
653.436782	19.079383
653.860953	19.054560
654.285102	19.031336
654.709226	19.009378
655.133328	18.988145
655.557406	18.969290
655.981461	18.956009
656.405493	18.948053
656.829501	18.938815
657.253486	18.935926
657.677448	18.931007
658.101386	18.927227
658.525301	18.925038
658.949192	18.919049
659.373060	18.909496
659.796904	18.897041
660.220725	18.879009
660.644522	18.857407
661.068296	18.830641
661.492046	18.801083
661.915772	18.774308
662.339475	18.747388
662.763154	18.726922
663.186810	18.712401
663.610442	18.702868
664.034050	18.702907
664.457635	18.714362
664.881196	18.742022
665.304733	18.782613
665.728247	18.840616
666.151736	18.913921
666.575202	19.002246
666.998644	19.106828
667.422062	19.224943
667.845457	19.355144
668.268827	19.497232
668.692174	19.649193
669.115496	19.806398
669.538795	19.965672
669.962070	20.127411
670.385321	20.284060
670.808547	20.436835
671.231750	20.580056
671.654929	20.710527
672.078084	20.833919
672.501214	20.942512
672.924321	21.042761
673.347404	21.132574
673.770462	21.214104
674.193496	21.284045
674.616506	21.347408
675.039492	21.400847
675.462454	21.450448
675.885391	21.492126
676.308305	21.529200
676.731194	21.564619
677.154058	21.598025
677.576899	21.632761
677.999715	21.664709
678.422507	21.696177
678.845274	21.728204
679.268017	21.762877
679.690736	21.797595
680.113430	21.829304
680.536100	21.863112
680.958746	21.896673
681.381367	21.927078
681.803963	21.954734
682.226535	21.979685
682.649083	22.003229
683.071605	22.026439
683.494104	22.047655
683.916578	22.068171
684.339027	22.091248
684.761451	22.115477
685.183851	22.136635
685.606227	22.160550
686.028577	22.178549
686.450903	22.195779
686.873204	22.207271
687.295481	22.216223
687.717733	22.219020
688.139959	22.212968
688.562162	22.199132
688.984339	22.178534
689.406492	22.147454
689.828619	22.104597
690.250722	22.051300
690.672800	21.982485
691.094853	21.902513
691.516881	21.814260
691.938884	21.716174
692.360863	21.604702
692.782816	21.487674
693.204744	21.370023
693.626647	21.247408
694.048526	21.129141
694.470379	21.016380
694.892207	20.910331
695.314010	20.814688
695.735788	20.734663
696.157540	20.664571
696.579268	20.614234
697.000970	20.581864
697.422648	20.568529
697.844300	20.571920
698.265926	20.594953
698.687528	20.638491
699.109104	20.697781
699.530655	20.772964
699.952181	20.865764
