Time1=100ms:Average1=5:Objective=10X:Aperture=1: (11/21/2018 1:55:00 PM)
11/21/2018 1:55:00 PM
Reflectance
10X
Ap#: 1
Avg1: 5.000000
Avg2: 0.000000
Int.Time1:100.000000

420.190645	3.191779
420.624620	3.151822
421.058582	3.108991
421.492531	3.076987
421.926468	3.045495
422.360391	3.015066
422.794301	2.999986
423.228199	2.987125
423.662083	2.983165
424.095955	2.975953
424.529813	2.967129
424.963658	2.964170
425.397491	2.954867
425.831310	2.935641
426.265116	2.921219
426.698909	2.908692
427.132689	2.898090
427.566455	2.894824
428.000209	2.896498
428.433949	2.898159
428.867676	2.896352
429.301389	2.896221
429.735090	2.891639
430.168777	2.886149
430.602451	2.878780
431.036111	2.862713
431.469759	2.849864
431.903392	2.842568
432.337013	2.827574
432.770620	2.812706
433.204213	2.805387
433.637794	2.805410
434.071360	2.805801
434.504914	2.810853
434.938453	2.817078
435.371979	2.825095
435.805492	2.836446
436.238991	2.843699
436.672477	2.849302
437.105949	2.852284
437.539407	2.850488
437.972852	2.850447
438.406283	2.849487
438.839700	2.853859
439.273104	2.859344
439.706494	2.867370
440.139871	2.876973
440.573233	2.887821
441.006582	2.894516
441.439917	2.898144
441.873238	2.901559
442.306546	2.905560
442.739839	2.903857
443.173119	2.900738
443.606385	2.897976
444.039636	2.896610
444.472874	2.901863
444.906099	2.907653
445.339309	2.913758
445.772505	2.927469
446.205687	2.943717
446.638855	2.958055
447.072009	2.976361
447.505149	2.997465
447.938275	3.014343
448.371387	3.034704
448.804485	3.048668
449.237569	3.059982
449.670638	3.070588
450.103694	3.076139
450.536735	3.083619
450.969762	3.092480
451.402774	3.102482
451.835773	3.116673
452.268757	3.133737
452.701727	3.153819
453.134683	3.174321
453.567624	3.193539
454.000551	3.214842
454.433464	3.233161
454.866362	3.250533
455.299246	3.268602
455.732116	3.282493
456.164971	3.299160
456.597811	3.317103
457.030638	3.333919
457.463449	3.354157
457.896246	3.371695
458.329029	3.390806
458.761797	3.410373
459.194551	3.431391
459.627290	3.451898
460.060014	3.474938
460.492724	3.497557
460.925419	3.520063
461.358099	3.547537
461.790765	3.569618
462.223416	3.591026
462.656052	3.612282
463.088674	3.630743
463.521281	3.652020
463.953873	3.674072
464.386450	3.694544
464.819012	3.714736
465.251560	3.737885
465.684093	3.759380
466.116611	3.783577
466.549114	3.808919
466.981602	3.835248
467.414075	3.859470
467.846533	3.885671
468.278977	3.909350
468.711405	3.932053
469.143818	3.955186
469.576216	3.974400
470.008600	3.990776
470.440968	4.003000
470.873321	4.013539
471.305659	4.022168
471.737982	4.029906
472.170289	4.039488
472.602582	4.045346
473.034859	4.052022
473.467122	4.059363
473.899369	4.068578
474.331600	4.080090
474.763817	4.090197
475.196018	4.103367
475.628204	4.121688
476.060375	4.138707
476.492530	4.156043
476.924670	4.173018
477.356795	4.186676
477.788904	4.200034
478.220998	4.209112
478.653076	4.214012
479.085139	4.218167
479.517186	4.220242
479.949219	4.221419
480.381235	4.225919
480.813236	4.233781
481.245221	4.244772
481.677191	4.259979
482.109146	4.275413
482.541084	4.290990
482.973008	4.307283
483.404915	4.323582
483.836807	4.338807
484.268683	4.351425
484.700544	4.361985
485.132388	4.369251
485.564217	4.373601
485.996031	4.377916
486.427828	4.380947
486.859610	4.384639
487.291376	4.386734
487.723126	4.390099
488.154860	4.396575
488.586579	4.407471
489.018281	4.422942
489.449968	4.445201
489.881639	4.476893
490.313293	4.514342
490.744932	4.556598
491.176555	4.603520
491.608162	4.655777
492.039753	4.707818
492.471328	4.755608
492.902886	4.800580
493.334429	4.843930
493.765956	4.884224
494.197466	4.922875
494.628960	4.964307
495.060439	5.007999
495.491901	5.059501
495.923347	5.119186
496.354776	5.187254
496.786190	5.263739
497.217587	5.349136
497.648968	5.440801
498.080332	5.536183
498.511681	5.632620
498.943013	5.730083
499.374328	5.825108
499.805628	5.917374
500.236911	6.007012
500.668177	6.090236
501.099427	6.169793
501.530661	6.245538
501.961878	6.317792
502.393079	6.386197
502.824264	6.454365
503.255431	6.519043
503.686583	6.583344
504.117717	6.651891
504.548835	6.726919
504.979937	6.808864
505.411022	6.898177
505.842090	6.998683
506.273142	7.107624
506.704177	7.222516
507.135195	7.341793
507.566197	7.460690
507.997182	7.572092
508.428150	7.676768
508.859102	7.771017
509.290036	7.852940
509.720954	7.925431
510.151855	7.992059
510.582739	8.051493
511.013607	8.109733
511.444457	8.172844
511.875291	8.243181
512.306107	8.321611
512.736907	8.411420
513.167690	8.510691
513.598456	8.616114
514.029205	8.729793
514.459936	8.844466
514.890651	8.959549
515.321349	9.069582
515.752030	9.173899
516.182693	9.267020
516.613340	9.347453
517.043969	9.420153
517.474582	9.483772
517.905177	9.535460
518.335755	9.575021
518.766315	9.605517
519.196859	9.628172
519.627385	9.645278
520.057894	9.657917
520.488386	9.666674
520.918860	9.680039
521.349318	9.700653
521.779757	9.727646
522.210180	9.765601
522.640585	9.815781
523.070973	9.877392
523.501343	9.946785
523.931696	10.026746
524.362031	10.108756
524.792349	10.190613
525.222650	10.266937
525.652933	10.334740
526.083198	10.392824
526.513446	10.438282
526.943677	10.470531
527.373890	10.493594
527.804085	10.512212
528.234262	10.524586
528.664422	10.538930
529.094565	10.557376
529.524689	10.584413
529.954796	10.626851
530.384885	10.676576
530.814957	10.737025
531.245011	10.808647
531.675047	10.890665
532.105065	10.981261
532.535065	11.075138
532.965048	11.168729
533.395013	11.261644
533.824959	11.349748
534.254888	11.426444
534.684799	11.490124
535.114693	11.545337
535.544568	11.589090
535.974425	11.619026
536.404264	11.634750
536.834086	11.637314
537.263889	11.628156
537.693674	11.612985
538.123441	11.594914
538.553190	11.575675
538.982921	11.560648
539.412634	11.551482
539.842329	11.551217
540.272006	11.563832
540.701664	11.587767
541.131304	11.624907
541.560926	11.674290
541.990530	11.734265
542.420116	11.804129
542.849683	11.877041
543.279232	11.947468
543.708763	12.019225
544.138275	12.083471
544.567769	12.141416
544.997245	12.185355
545.426702	12.218400
545.856141	12.241337
546.285562	12.256137
546.714964	12.262533
547.144347	12.270838
547.573713	12.279763
548.003059	12.298596
548.432387	12.322768
548.861697	12.356059
549.290988	12.400769
549.720260	12.460603
550.149514	12.532937
550.578750	12.618910
551.007966	12.717180
551.437164	12.820476
551.866344	12.931325
552.295504	13.044088
552.724646	13.152056
553.153769	13.255499
553.582874	13.349268
554.011960	13.426581
554.441027	13.485343
554.870075	13.529160
555.299104	13.555655
555.728115	13.561623
556.157106	13.556063
556.586079	13.538201
557.015033	13.512055
557.443968	13.481553
557.872884	13.450164
558.301781	13.427280
558.730659	13.406272
559.159518	13.397753
559.588358	13.402602
560.017180	13.418606
560.445982	13.444535
560.874765	13.482802
561.303528	13.529783
561.732273	13.584322
562.160999	13.644971
562.589705	13.710192
563.018393	13.775728
563.447061	13.842115
563.875710	13.908945
564.304340	13.970652
564.732950	14.029788
565.161542	14.085504
565.590114	14.135482
566.018666	14.182570
566.447200	14.226072
566.875714	14.267895
567.304208	14.312317
567.732684	14.357322
568.161140	14.402900
568.589576	14.453946
569.017993	14.509879
569.446391	14.572640
569.874769	14.644999
570.303128	14.724316
570.731467	14.815800
571.159787	14.913172
571.588087	15.015078
572.016368	15.128655
572.444629	15.243611
572.872870	15.357895
573.301092	15.473117
573.729294	15.579311
574.157476	15.676559
574.585639	15.758523
575.013782	15.824043
575.441906	15.872970
575.870009	15.903461
576.298093	15.918192
576.726157	15.914281
577.154202	15.892026
577.582226	15.860151
578.010231	15.820596
578.438216	15.775374
578.866181	15.728687
579.294126	15.684722
579.722051	15.645720
580.149957	15.611820
580.577842	15.586359
581.005707	15.567353
581.433553	15.560010
581.861378	15.555337
582.289184	15.559699
582.716969	15.566066
583.144734	15.577496
583.572479	15.592981
584.000205	15.605316
584.427910	15.620191
584.855594	15.637950
585.283259	15.653142
585.710904	15.669718
586.138528	15.688039
586.566132	15.703741
586.993716	15.726842
587.421280	15.748908
587.848823	15.777040
588.276346	15.808822
588.703849	15.841346
589.131332	15.873229
589.558794	15.905516
589.986236	15.937399
590.413657	15.972320
590.841058	16.004332
591.268438	16.035953
591.695799	16.067970
592.123138	16.103830
592.550458	16.142632
592.977756	16.183881
593.405034	16.231482
593.832292	16.282918
594.259529	16.342788
594.686746	16.403118
595.113942	16.469990
595.541117	16.536519
595.968272	16.605476
596.395406	16.668123
596.822519	16.724066
597.249612	16.774407
597.676684	16.812816
598.103735	16.836716
598.530766	16.848046
598.957775	16.843960
599.384764	16.824866
599.811733	16.797212
600.238680	16.753169
600.665606	16.702971
601.092512	16.644787
601.519397	16.583919
601.946261	16.522913
602.373104	16.465345
602.799926	16.411571
603.226727	16.364380
603.653507	16.320628
604.080266	16.282995
604.507004	16.251441
604.933721	16.224873
605.360417	16.197554
605.787092	16.169744
606.213746	16.143876
606.640379	16.114485
607.066991	16.083778
607.493581	16.051140
607.920150	16.021044
608.346699	15.989471
608.773226	15.961785
609.199731	15.934484
609.626216	15.912240
610.052679	15.896178
610.479121	15.886228
610.905542	15.881876
611.331941	15.885680
611.758319	15.895536
612.184676	15.913854
612.611011	15.937786
613.037325	15.961624
613.463617	15.992500
613.889888	16.022769
614.316138	16.055731
614.742366	16.088660
615.168573	16.119137
615.594758	16.147579
616.020921	16.175338
616.447063	16.203337
616.873184	16.233523
617.299283	16.265850
617.725360	16.300705
618.151416	16.340556
618.577450	16.385361
619.003462	16.439398
619.429453	16.498125
619.855422	16.564560
620.281369	16.639207
620.707295	16.713196
621.133199	16.789466
621.559081	16.864050
621.984941	16.936074
622.410779	17.003641
622.836596	17.063461
623.262391	17.111761
623.688163	17.152799
624.113914	17.184856
624.539644	17.207444
624.965351	17.220459
625.391036	17.225315
625.816699	17.223731
626.242340	17.218614
626.667960	17.208046
627.093557	17.200356
627.519132	17.191487
627.944685	17.182524
628.370216	17.178553
628.795725	17.181567
629.221212	17.184020
629.646677	17.190120
630.072119	17.199745
630.497540	17.208884
630.922938	17.219371
631.348314	17.225084
631.773668	17.230199
632.198999	17.232515
632.624308	17.229880
633.049595	17.224517
633.474860	17.215507
633.900102	17.209429
634.325322	17.202070
634.750520	17.199720
635.175695	17.202386
635.600848	17.214964
636.025978	17.237422
636.451086	17.275017
636.876171	17.320486
637.301234	17.379247
637.726275	17.448796
638.151293	17.532248
638.576288	17.622204
639.001261	17.719758
639.426211	17.825603
639.851139	17.933983
640.276044	18.044437
640.700927	18.152796
641.125787	18.258787
641.550624	18.356970
641.975438	18.448107
642.400230	18.532076
642.824999	18.606746
643.249745	18.670425
643.674469	18.728291
644.099169	18.778495
644.523847	18.824741
644.948502	18.867572
645.373135	18.904104
645.797744	18.940706
646.222330	18.978340
646.646894	19.013654
647.071435	19.051911
647.495953	19.089626
647.920447	19.130965
648.344919	19.170701
648.769368	19.208867
649.193794	19.248365
649.618197	19.280211
650.042576	19.311404
650.466933	19.339785
650.891267	19.365034
651.315577	19.383496
651.739864	19.400572
652.164129	19.412113
652.588370	19.417914
653.012587	19.420976
653.436782	19.420778
653.860953	19.417537
654.285102	19.411154
654.709226	19.405848
655.133328	19.396212
655.557406	19.386532
655.981461	19.376868
656.405493	19.365645
656.829501	19.351098
657.253486	19.333251
657.677448	19.311047
658.101386	19.284232
658.525301	19.254924
658.949192	19.218493
659.373060	19.173484
659.796904	19.121591
660.220725	19.062655
660.644522	18.995083
661.068296	18.920828
661.492046	18.840523
661.915772	18.757616
662.339475	18.671526
662.763154	18.589191
663.186810	18.510779
663.610442	18.436063
664.034050	18.369226
664.457635	18.314122
664.881196	18.273088
665.304733	18.246980
665.728247	18.237094
666.151736	18.246291
666.575202	18.268578
666.998644	18.309106
667.422062	18.366162
667.845457	18.435953
668.268827	18.518957
668.692174	18.612200
669.115496	18.714016
669.538795	18.822545
669.962070	18.934909
670.385321	19.050180
670.808547	19.164507
671.231750	19.273365
671.654929	19.376266
672.078084	19.476327
672.501214	19.567231
672.924321	19.655260
673.347404	19.736266
673.770462	19.814561
674.193496	19.884970
674.616506	19.952198
675.039492	20.016275
675.462454	20.076584
675.885391	20.134342
676.308305	20.188631
676.731194	20.244951
677.154058	20.300774
677.576899	20.359587
677.999715	20.417423
678.422507	20.474735
678.845274	20.533374
679.268017	20.590860
679.690736	20.650617
680.113430	20.708111
680.536100	20.766308
680.958746	20.823401
681.381367	20.880826
681.803963	20.935400
682.226535	20.988061
682.649083	21.039569
683.071605	21.092066
683.494104	21.141526
683.916578	21.190837
684.339027	21.244071
684.761451	21.295685
685.183851	21.345423
685.606227	21.396603
686.028577	21.443340
686.450903	21.488637
686.873204	21.528280
687.295481	21.563842
687.717733	21.593467
688.139959	21.613018
688.562162	21.627564
688.984339	21.632832
689.406492	21.629774
689.828619	21.611059
690.250722	21.584003
690.672800	21.539537
691.094853	21.483894
691.516881	21.420177
691.938884	21.347740
692.360863	21.264732
692.782816	21.177923
693.204744	21.089064
693.626647	20.997618
694.048526	20.912216
694.470379	20.831036
694.892207	20.762176
695.314010	20.703229
695.735788	20.658237
696.157540	20.627038
696.579268	20.613184
697.000970	20.617791
697.422648	20.639356
697.844300	20.679408
698.265926	20.739788
698.687528	20.818852
699.109104	20.911677
699.530655	21.018786
699.952181	21.142175
