Time1=100ms:Average1=5:Objective=10X:Aperture=1: (11/21/2018 10:08:31 AM)
11/21/2018 10:08:31 AM
Reflectance
10X
Ap#: 1
Avg1: 5.000000
Avg2: 0.000000
Int.Time1:100.000000

420.190645	3.789830
420.624620	3.781244
421.058582	3.774787
421.492531	3.771285
421.926468	3.782182
422.360391	3.801565
422.794301	3.830753
423.228199	3.867462
423.662083	3.921349
424.095955	3.977136
424.529813	4.031665
424.963658	4.085916
425.397491	4.147214
425.831310	4.205833
426.265116	4.253986
426.698909	4.308308
427.132689	4.370540
427.566455	4.430257
428.000209	4.507959
428.433949	4.587553
428.867676	4.668681
429.301389	4.754644
429.735090	4.836320
430.168777	4.913019
430.602451	4.985759
431.036111	5.046586
431.469759	5.112227
431.903392	5.173601
432.337013	5.240430
432.770620	5.303863
433.204213	5.381932
433.637794	5.467472
434.071360	5.563767
434.504914	5.665261
434.938453	5.773113
435.371979	5.882443
435.805492	5.985708
436.238991	6.087857
436.672477	6.183874
437.105949	6.272811
437.539407	6.357563
437.972852	6.434502
438.406283	6.513122
438.839700	6.586760
439.273104	6.674065
439.706494	6.773472
440.139871	6.872034
440.573233	6.969204
441.006582	7.071851
441.439917	7.168717
441.873238	7.254670
442.306546	7.330262
442.739839	7.392444
443.173119	7.451824
443.606385	7.504194
444.039636	7.557394
444.472874	7.617288
444.906099	7.679275
445.339309	7.746251
445.772505	7.822826
446.205687	7.907378
446.638855	7.991537
447.072009	8.077928
447.505149	8.164541
447.938275	8.252577
448.371387	8.338099
448.804485	8.413452
449.237569	8.484088
449.670638	8.550295
450.103694	8.606084
450.536735	8.658272
450.969762	8.711429
451.402774	8.771175
451.835773	8.834236
452.268757	8.907575
452.701727	8.980704
453.134683	9.051646
453.567624	9.123235
454.000551	9.191751
454.433464	9.251798
454.866362	9.303567
455.299246	9.353556
455.732116	9.397214
456.164971	9.439357
456.597811	9.483659
457.030638	9.528114
457.463449	9.570071
457.896246	9.614276
458.329029	9.659865
458.761797	9.711229
459.194551	9.763932
459.627290	9.817938
460.060014	9.873724
460.492724	9.935295
460.925419	9.994413
461.358099	10.052299
461.790765	10.103068
462.223416	10.153064
462.656052	10.198616
463.088674	10.237179
463.521281	10.280892
463.953873	10.320738
464.386450	10.354878
464.819012	10.391588
465.251560	10.431873
465.684093	10.471544
466.116611	10.514122
466.549114	10.561517
466.981602	10.609492
467.414075	10.652362
467.846533	10.695828
468.278977	10.735491
468.711405	10.770364
469.143818	10.805667
469.576216	10.835340
470.008600	10.854992
470.440968	10.875237
470.873321	10.890131
471.305659	10.900327
471.737982	10.903774
472.170289	10.903136
472.602582	10.897332
473.034859	10.890217
473.467122	10.887764
473.899369	10.882872
474.331600	10.881928
474.763817	10.879605
475.196018	10.883239
475.628204	10.889477
476.060375	10.900423
476.492530	10.909866
476.924670	10.912204
477.356795	10.907269
477.788904	10.900591
478.220998	10.880177
478.653076	10.852010
479.085139	10.817069
479.517186	10.776041
479.949219	10.732989
480.381235	10.691324
480.813236	10.657442
481.245221	10.629170
481.677191	10.603228
482.109146	10.584451
482.541084	10.565259
482.973008	10.545674
483.404915	10.522767
483.836807	10.488217
484.268683	10.448769
484.700544	10.404152
485.132388	10.351059
485.564217	10.287277
485.996031	10.221161
486.427828	10.148321
486.859610	10.068118
487.291376	9.985294
487.723126	9.905644
488.154860	9.829368
488.586579	9.759231
489.018281	9.696978
489.449968	9.647257
489.881639	9.609922
490.313293	9.584975
490.744932	9.573501
491.176555	9.567796
491.608162	9.567264
492.039753	9.567393
492.471328	9.562626
492.902886	9.554864
493.334429	9.544371
493.765956	9.526701
494.197466	9.511135
494.628960	9.499189
495.060439	9.498053
495.491901	9.508815
495.923347	9.537604
496.354776	9.582423
496.786190	9.648836
497.217587	9.734826
497.648968	9.832812
498.080332	9.938950
498.511681	10.052432
498.943013	10.172116
499.374328	10.285900
499.805628	10.397568
500.236911	10.503369
500.668177	10.605899
501.099427	10.699634
501.530661	10.791360
501.961878	10.874343
502.393079	10.956737
502.824264	11.034532
503.255431	11.112822
503.686583	11.191340
504.117717	11.277504
504.548835	11.369599
504.979937	11.480643
505.411022	11.600718
505.842090	11.737191
506.273142	11.883788
506.704177	12.041573
507.135195	12.205485
507.566197	12.364803
507.997182	12.513499
508.428150	12.651678
508.859102	12.769664
509.290036	12.868741
509.720954	12.949609
510.151855	13.011966
510.582739	13.062010
511.013607	13.107939
511.444457	13.154302
511.875291	13.204336
512.306107	13.265718
512.736907	13.339049
513.167690	13.425247
513.598456	13.521985
514.029205	13.622166
514.459936	13.726217
514.890651	13.821131
515.321349	13.912798
515.752030	13.989325
516.182693	14.046768
516.613340	14.084232
517.043969	14.104331
517.474582	14.101947
517.905177	14.081491
518.335755	14.039741
518.766315	13.986292
519.196859	13.914840
519.627385	13.836281
520.057894	13.748991
520.488386	13.662215
520.918860	13.580965
521.349318	13.509910
521.779757	13.448809
522.210180	13.406175
522.640585	13.375114
523.070973	13.362438
523.501343	13.361974
523.931696	13.371097
524.362031	13.386606
524.792349	13.403671
525.222650	13.418196
525.652933	13.419750
526.083198	13.413618
526.513446	13.391379
526.943677	13.354900
527.373890	13.312846
527.804085	13.266777
528.234262	13.227498
528.664422	13.193474
529.094565	13.171748
529.524689	13.169200
529.954796	13.188209
530.384885	13.229732
530.814957	13.293231
531.245011	13.380357
531.675047	13.484408
532.105065	13.604657
532.535065	13.736346
532.965048	13.875912
533.395013	14.018668
533.824959	14.156887
534.254888	14.292031
534.684799	14.417223
535.114693	14.533262
535.544568	14.637701
535.974425	14.731853
536.404264	14.813275
536.834086	14.886046
537.263889	14.955139
537.693674	15.019177
538.123441	15.081453
538.553190	15.150656
538.982921	15.228050
539.412634	15.316467
539.842329	15.420963
540.272006	15.545708
540.701664	15.685857
541.131304	15.840647
541.560926	16.009177
541.990530	16.189690
542.420116	16.383440
542.849683	16.579316
543.279232	16.773724
543.708763	16.958745
544.138275	17.131805
544.567769	17.290969
544.997245	17.431853
545.426702	17.553583
545.856141	17.657868
546.285562	17.746053
546.714964	17.819084
547.144347	17.883829
547.573713	17.945389
548.003059	18.006683
548.432387	18.074305
548.861697	18.146812
549.290988	18.230764
549.720260	18.328405
550.149514	18.440034
550.578750	18.559846
551.007966	18.688612
551.437164	18.823755
551.866344	18.959194
552.295504	19.092505
552.724646	19.219200
553.153769	19.336066
553.582874	19.433016
554.011960	19.509139
554.441027	19.560917
554.870075	19.585555
555.299104	19.584982
555.728115	19.557209
556.157106	19.509672
556.586079	19.444276
557.015033	19.373846
557.443968	19.296672
557.872884	19.215251
558.301781	19.143467
558.730659	19.080272
559.159518	19.029061
559.588358	18.992075
560.017180	18.974306
560.445982	18.973340
560.874765	18.986277
561.303528	19.017432
561.732273	19.052760
562.160999	19.100931
562.589705	19.156140
563.018393	19.211411
563.447061	19.272541
563.875710	19.329193
564.304340	19.382602
564.732950	19.427750
565.161542	19.465784
565.590114	19.496435
566.018666	19.520322
566.447200	19.535004
566.875714	19.545241
567.304208	19.548868
567.732684	19.554063
568.161140	19.559173
568.589576	19.566179
569.017993	19.578242
569.446391	19.596621
569.874769	19.624696
570.303128	19.659608
570.731467	19.707008
571.159787	19.766957
571.588087	19.834393
572.016368	19.909638
572.444629	19.995285
572.872870	20.082408
573.301092	20.168498
573.729294	20.249855
574.157476	20.320585
574.585639	20.371965
575.013782	20.407943
575.441906	20.420483
575.870009	20.413540
576.298093	20.384888
576.726157	20.328016
577.154202	20.256982
577.582226	20.172330
578.010231	20.080900
578.438216	19.980703
578.866181	19.882771
579.294126	19.784120
579.722051	19.695898
580.149957	19.618354
580.577842	19.553521
581.005707	19.500752
581.433553	19.456680
581.861378	19.426093
582.289184	19.403702
582.716969	19.388655
583.144734	19.382773
583.572479	19.382171
584.000205	19.382667
584.427910	19.383694
584.855594	19.386815
585.283259	19.391419
585.710904	19.398001
586.138528	19.403095
586.566132	19.408281
586.993716	19.412871
587.421280	19.416847
587.848823	19.423146
588.276346	19.431284
588.703849	19.437218
589.131332	19.441755
589.558794	19.444388
589.986236	19.446890
590.413657	19.448269
590.841058	19.446804
591.268438	19.445247
591.695799	19.446520
592.123138	19.448701
592.550458	19.458312
592.977756	19.471923
593.405034	19.491557
593.832292	19.518004
594.259529	19.551257
594.686746	19.594968
595.113942	19.643634
595.541117	19.695080
595.968272	19.746715
596.395406	19.794345
596.822519	19.836031
597.249612	19.871728
597.676684	19.896238
598.103735	19.905592
598.530766	19.899493
598.957775	19.870884
599.384764	19.829302
599.811733	19.771329
600.238680	19.703566
600.665606	19.626373
601.092512	19.544319
601.519397	19.458660
601.946261	19.377699
602.373104	19.295192
602.799926	19.223975
603.226727	19.157201
603.653507	19.097568
604.080266	19.047061
604.507004	19.003666
604.933721	18.967375
605.360417	18.936055
605.787092	18.903028
606.213746	18.871181
606.640379	18.838655
607.066991	18.808163
607.493581	18.774410
607.920150	18.742972
608.346699	18.709322
608.773226	18.679140
609.199731	18.654170
609.626216	18.630502
610.052679	18.613626
610.479121	18.602333
610.905542	18.599007
611.331941	18.602673
611.758319	18.612778
612.184676	18.630973
612.611011	18.655655
613.037325	18.687434
613.463617	18.718448
613.889888	18.753713
614.316138	18.786395
614.742366	18.814663
615.168573	18.841588
615.594758	18.867251
616.020921	18.887276
616.447063	18.908216
616.873184	18.927522
617.299283	18.944645
617.725360	18.965669
618.151416	18.989162
618.577450	19.015592
619.003462	19.046915
619.429453	19.081151
619.855422	19.121410
620.281369	19.159094
620.707295	19.199212
621.133199	19.234162
621.559081	19.265659
621.984941	19.288355
622.410779	19.301890
622.836596	19.302631
623.262391	19.288246
623.688163	19.259951
624.113914	19.217382
624.539644	19.158851
624.965351	19.087148
625.391036	19.003238
625.816699	18.911857
626.242340	18.810657
626.667960	18.705017
627.093557	18.597947
627.519132	18.491296
627.944685	18.389954
628.370216	18.289047
628.795725	18.194904
629.221212	18.103343
629.646677	18.013923
630.072119	17.926369
630.497540	17.844046
630.922938	17.758709
631.348314	17.674028
631.773668	17.587729
632.198999	17.499643
632.624308	17.411397
633.049595	17.318652
633.474860	17.229407
633.900102	17.141372
634.325322	17.055555
634.750520	16.974700
635.175695	16.902485
635.600848	16.837027
636.025978	16.784925
636.451086	16.744578
636.876171	16.717871
637.301234	16.702894
637.726275	16.699021
638.151293	16.706993
638.576288	16.728117
639.001261	16.754255
639.426211	16.785326
639.851139	16.820232
640.276044	16.853925
640.700927	16.887983
641.125787	16.919062
641.550624	16.943955
641.975438	16.961550
642.400230	16.969284
642.824999	16.972367
643.249745	16.967209
643.674469	16.955906
644.099169	16.939851
644.523847	16.917754
644.948502	16.892232
645.373135	16.865726
645.797744	16.838304
646.222330	16.814431
646.646894	16.791427
647.071435	16.770219
647.495953	16.752855
647.920447	16.738605
648.344919	16.726122
648.769368	16.717038
649.193794	16.707144
649.618197	16.697511
650.042576	16.683358
650.466933	16.669292
650.891267	16.656371
651.315577	16.644595
651.739864	16.631463
652.164129	16.618024
652.588370	16.602380
653.012587	16.591466
653.436782	16.579626
653.860953	16.567260
654.285102	16.555091
654.709226	16.544829
655.133328	16.535884
655.557406	16.531428
655.981461	16.526879
656.405493	16.521509
656.829501	16.513219
657.253486	16.502546
657.677448	16.486861
658.101386	16.467942
658.525301	16.442059
658.949192	16.407070
659.373060	16.360825
659.796904	16.307554
660.220725	16.242646
660.644522	16.169322
661.068296	16.086654
661.492046	15.997612
661.915772	15.902147
662.339475	15.806443
662.763154	15.711502
663.186810	15.618269
663.610442	15.529055
664.034050	15.447549
664.457635	15.374009
664.881196	15.309860
665.304733	15.259283
665.728247	15.224742
666.151736	15.200655
666.575202	15.193806
666.998644	15.200371
667.422062	15.221102
667.845457	15.254220
668.268827	15.300293
668.692174	15.355046
669.115496	15.416325
669.538795	15.484697
669.962070	15.555849
670.385321	15.628618
670.808547	15.702255
671.231750	15.771350
671.654929	15.839615
672.078084	15.906416
672.501214	15.970140
672.924321	16.028764
673.347404	16.084605
673.770462	16.135003
674.193496	16.183294
674.616506	16.228704
675.039492	16.270384
675.462454	16.310478
675.885391	16.347162
676.308305	16.384180
676.731194	16.420907
677.154058	16.455056
677.576899	16.486588
677.999715	16.519334
678.422507	16.547568
678.845274	16.573525
679.268017	16.600861
679.690736	16.620737
680.113430	16.641759
680.536100	16.657314
680.958746	16.670718
681.381367	16.677658
681.803963	16.682699
682.226535	16.685708
682.649083	16.687849
683.071605	16.689830
683.494104	16.691890
683.916578	16.694769
684.339027	16.700558
684.761451	16.705690
685.183851	16.711985
685.606227	16.718425
686.028577	16.722550
686.450903	16.726599
686.873204	16.729965
687.295481	16.732500
687.717733	16.728846
688.139959	16.721609
688.562162	16.704241
688.984339	16.678983
689.406492	16.645343
689.828619	16.598903
690.250722	16.542753
690.672800	16.475847
691.094853	16.395441
691.516881	16.306805
691.938884	16.208907
692.360863	16.098712
692.782816	15.986765
693.204744	15.867259
693.626647	15.749193
694.048526	15.628652
694.470379	15.511731
694.892207	15.398301
695.314010	15.291498
695.735788	15.193261
696.157540	15.104086
696.579268	15.024348
697.000970	14.957222
697.422648	14.901334
697.844300	14.855818
698.265926	14.823865
698.687528	14.805151
699.109104	14.799349
699.530655	14.803185
699.952181	14.818400
