Time1=100ms:Average1=5:Objective=10X:Aperture=1: (11/21/2018 11:46:14 AM)
11/21/2018 11:46:14 AM
Reflectance
10X
Ap#: 1
Avg1: 5.000000
Avg2: 0.000000
Int.Time1:100.000000

420.190645	6.271152
420.624620	6.263208
421.058582	6.254866
421.492531	6.255937
421.926468	6.269961
422.360391	6.295456
422.794301	6.330750
423.228199	6.383321
423.662083	6.442465
424.095955	6.507883
424.529813	6.567818
424.963658	6.632277
425.397491	6.685376
425.831310	6.725854
426.265116	6.763739
426.698909	6.799357
427.132689	6.842997
427.566455	6.896726
428.000209	6.965116
428.433949	7.034624
428.867676	7.107256
429.301389	7.175812
429.735090	7.237674
430.168777	7.294430
430.602451	7.338711
431.036111	7.370224
431.469759	7.399755
431.903392	7.419201
432.337013	7.437858
432.770620	7.466856
433.204213	7.505040
433.637794	7.555000
434.071360	7.613767
434.504914	7.687915
434.938453	7.768061
435.371979	7.847466
435.805492	7.926143
436.238991	7.997923
436.672477	8.061428
437.105949	8.117504
437.539407	8.160837
437.972852	8.200945
438.406283	8.241291
438.839700	8.287190
439.273104	8.338244
439.706494	8.399352
440.139871	8.463478
440.573233	8.533541
441.006582	8.599760
441.439917	8.651373
441.873238	8.698085
442.306546	8.730196
442.739839	8.753058
443.173119	8.770732
443.606385	8.786945
444.039636	8.803104
444.472874	8.830776
444.906099	8.860912
445.339309	8.905219
445.772505	8.955114
446.205687	9.010866
446.638855	9.072123
447.072009	9.130254
447.505149	9.193043
447.938275	9.252707
448.371387	9.304962
448.804485	9.346913
449.237569	9.380826
449.670638	9.402097
450.103694	9.414703
450.536735	9.425939
450.969762	9.441742
451.402774	9.459704
451.835773	9.481158
452.268757	9.509177
452.701727	9.539253
453.134683	9.569279
453.567624	9.595053
454.000551	9.619656
454.433464	9.636411
454.866362	9.646553
455.299246	9.649369
455.732116	9.651317
456.164971	9.647528
456.597811	9.645740
457.030638	9.642684
457.463449	9.639777
457.896246	9.637211
458.329029	9.639111
458.761797	9.641079
459.194551	9.644805
459.627290	9.645809
460.060014	9.646917
460.492724	9.652233
460.925419	9.654355
461.358099	9.651150
461.790765	9.647273
462.223416	9.642464
462.656052	9.630406
463.088674	9.626379
463.521281	9.615776
463.953873	9.602953
464.386450	9.592475
464.819012	9.588072
465.251560	9.586480
465.684093	9.590034
466.116611	9.598508
466.549114	9.614327
466.981602	9.635762
467.414075	9.657625
467.846533	9.682505
468.278977	9.713395
468.711405	9.744062
469.143818	9.775702
469.576216	9.812110
470.008600	9.845155
470.440968	9.876648
470.873321	9.911759
471.305659	9.947786
471.737982	9.984630
472.170289	10.020963
472.602582	10.059842
473.034859	10.105164
473.467122	10.158757
473.899369	10.218036
474.331600	10.285138
474.763817	10.365555
475.196018	10.453101
475.628204	10.550465
476.060375	10.657326
476.492530	10.767164
476.924670	10.881747
477.356795	10.996243
477.788904	11.106194
478.220998	11.209648
478.653076	11.310180
479.085139	11.409580
479.517186	11.510191
479.949219	11.610017
480.381235	11.720621
480.813236	11.837645
481.245221	11.965147
481.677191	12.102665
482.109146	12.245566
482.541084	12.386411
482.973008	12.524781
483.404915	12.661152
483.836807	12.790874
484.268683	12.906156
484.700544	13.007588
485.132388	13.100685
485.564217	13.188681
485.996031	13.266046
486.427828	13.333383
486.859610	13.395415
487.291376	13.453754
487.723126	13.514662
488.154860	13.578904
488.586579	13.647364
489.018281	13.727522
489.449968	13.818135
489.881639	13.922170
490.313293	14.036575
490.744932	14.164888
491.176555	14.288579
491.608162	14.411413
492.039753	14.524286
492.471328	14.622205
492.902886	14.698535
493.334429	14.756235
493.765956	14.795127
494.197466	14.824319
494.628960	14.844435
495.060439	14.864082
495.491901	14.891809
495.923347	14.938637
496.354776	14.996233
496.786190	15.070956
497.217587	15.151545
497.648968	15.244879
498.080332	15.340383
498.511681	15.434096
498.943013	15.515774
499.374328	15.590667
499.805628	15.654837
500.236911	15.700011
500.668177	15.728300
501.099427	15.739703
501.530661	15.739298
501.961878	15.725174
502.393079	15.699237
502.824264	15.669497
503.255431	15.632012
503.686583	15.598448
504.117717	15.571475
504.548835	15.564730
504.979937	15.573381
505.411022	15.601458
505.842090	15.647639
506.273142	15.718332
506.704177	15.809549
507.135195	15.906197
507.566197	16.004289
507.997182	16.100717
508.428150	16.183385
508.859102	16.251092
509.290036	16.299120
509.720954	16.336182
510.151855	16.359669
510.582739	16.383443
511.013607	16.409375
511.444457	16.449648
511.875291	16.502786
512.306107	16.586407
512.736907	16.690505
513.167690	16.820653
513.598456	16.977672
514.029205	17.154031
514.459936	17.342497
514.890651	17.530549
515.321349	17.716950
515.752030	17.893475
516.182693	18.056317
516.613340	18.204840
517.043969	18.334927
517.474582	18.439078
517.905177	18.523695
518.335755	18.588158
518.766315	18.636473
519.196859	18.671247
519.627385	18.695462
520.057894	18.714002
520.488386	18.735941
520.918860	18.763649
521.349318	18.804641
521.779757	18.864124
522.210180	18.944980
522.640585	19.044843
523.070973	19.168354
523.501343	19.305508
523.931696	19.453303
524.362031	19.605983
524.792349	19.755434
525.222650	19.895854
525.652933	20.017059
526.083198	20.117435
526.513446	20.185787
526.943677	20.230584
527.373890	20.257918
527.804085	20.269834
528.234262	20.277555
528.664422	20.291873
529.094565	20.317364
529.524689	20.357900
529.954796	20.417147
530.384885	20.500591
530.814957	20.609660
531.245011	20.742920
531.675047	20.895280
532.105065	21.062437
532.535065	21.236636
532.965048	21.409210
533.395013	21.573083
533.824959	21.724246
534.254888	21.856561
534.684799	21.957141
535.114693	22.037565
535.544568	22.093207
535.974425	22.125410
536.404264	22.124504
536.834086	22.105787
537.263889	22.071696
537.693674	22.028055
538.123441	21.974499
538.553190	21.922427
538.982921	21.877969
539.412634	21.844871
539.842329	21.839875
540.272006	21.847785
540.701664	21.870964
541.131304	21.918993
541.560926	21.980038
541.990530	22.055145
542.420116	22.140190
542.849683	22.226455
543.279232	22.315335
543.708763	22.389819
544.138275	22.451845
544.567769	22.490450
544.997245	22.514148
545.426702	22.514089
545.856141	22.499245
546.285562	22.475041
546.714964	22.436918
547.144347	22.397657
547.573713	22.362437
548.003059	22.343500
548.432387	22.334852
548.861697	22.342576
549.290988	22.374021
549.720260	22.428295
550.149514	22.504536
550.578750	22.599903
551.007966	22.708911
551.437164	22.837698
551.866344	22.969785
552.295504	23.101115
552.724646	23.229678
553.153769	23.341412
553.582874	23.439103
554.011960	23.513446
554.441027	23.560666
554.870075	23.581695
555.299104	23.572182
555.728115	23.531820
556.157106	23.473139
556.586079	23.390610
557.015033	23.299217
557.443968	23.201851
557.872884	23.102853
558.301781	23.005615
558.730659	22.927749
559.159518	22.858672
559.588358	22.806703
560.017180	22.776280
560.445982	22.763661
560.874765	22.766838
561.303528	22.786781
561.732273	22.818867
562.160999	22.859534
562.589705	22.902620
563.018393	22.950207
563.447061	22.997393
563.875710	23.043223
564.304340	23.085526
564.732950	23.118585
565.161542	23.146580
565.590114	23.164430
566.018666	23.174399
566.447200	23.174406
566.875714	23.168495
567.304208	23.162031
567.732684	23.152072
568.161140	23.143941
568.589576	23.141161
569.017993	23.144982
569.446391	23.156870
569.874769	23.181646
570.303128	23.217202
570.731467	23.265750
571.159787	23.329912
571.588087	23.407533
572.016368	23.491667
572.444629	23.583342
572.872870	23.676749
573.301092	23.767560
573.729294	23.849386
574.157476	23.921016
574.585639	23.969271
575.013782	23.996766
575.441906	23.997814
575.870009	23.973289
576.298093	23.921457
576.726157	23.843947
577.154202	23.743339
577.582226	23.628936
578.010231	23.494890
578.438216	23.355756
578.866181	23.213985
579.294126	23.076840
579.722051	22.952249
580.149957	22.842622
580.577842	22.742193
581.005707	22.656974
581.433553	22.587170
581.861378	22.531291
582.289184	22.486935
582.716969	22.448961
583.144734	22.416360
583.572479	22.393220
584.000205	22.371716
584.427910	22.354211
584.855594	22.335834
585.283259	22.316912
585.710904	22.301680
586.138528	22.286630
586.566132	22.270796
586.993716	22.256849
587.421280	22.244781
587.848823	22.234801
588.276346	22.225776
588.703849	22.214299
589.131332	22.202746
589.558794	22.190239
589.986236	22.172548
590.413657	22.154479
590.841058	22.130695
591.268438	22.110487
591.695799	22.088723
592.123138	22.068899
592.550458	22.053706
592.977756	22.042274
593.405034	22.034971
593.832292	22.038294
594.259529	22.046572
594.686746	22.060292
595.113942	22.076998
595.541117	22.094796
595.968272	22.115240
596.395406	22.133702
596.822519	22.142243
597.249612	22.143096
597.676684	22.125093
598.103735	22.090668
598.530766	22.040285
598.957775	21.969066
599.384764	21.877190
599.811733	21.768964
600.238680	21.648403
600.665606	21.513143
601.092512	21.374201
601.519397	21.230055
601.946261	21.091001
602.373104	20.951627
602.799926	20.818983
603.226727	20.698457
603.653507	20.586709
604.080266	20.484318
604.507004	20.392377
604.933721	20.305954
605.360417	20.227736
605.787092	20.149285
606.213746	20.070241
606.640379	19.990428
607.066991	19.907534
607.493581	19.824595
607.920150	19.741989
608.346699	19.661258
608.773226	19.582911
609.199731	19.507330
609.626216	19.435985
610.052679	19.371972
610.479121	19.314453
610.905542	19.268987
611.331941	19.235451
611.758319	19.207970
612.184676	19.192680
612.611011	19.186897
613.037325	19.189115
613.463617	19.193210
613.889888	19.203516
614.316138	19.214778
614.742366	19.227640
615.168573	19.239405
615.594758	19.252772
616.020921	19.268400
616.447063	19.283180
616.873184	19.296323
617.299283	19.312785
617.725360	19.332514
618.151416	19.361407
618.577450	19.392616
619.003462	19.431468
619.429453	19.479875
619.855422	19.535555
620.281369	19.600405
620.707295	19.670535
621.133199	19.741498
621.559081	19.810068
621.984941	19.879519
622.410779	19.942319
622.836596	19.996993
623.262391	20.043625
623.688163	20.077971
624.113914	20.104338
624.539644	20.116450
624.965351	20.118202
625.391036	20.107990
625.816699	20.088715
626.242340	20.063203
626.667960	20.032494
627.093557	19.997793
627.519132	19.964233
627.944685	19.931265
628.370216	19.898826
628.795725	19.870046
629.221212	19.838967
629.646677	19.809961
630.072119	19.784282
630.497540	19.756395
630.922938	19.724801
631.348314	19.685834
631.773668	19.644168
632.198999	19.596348
632.624308	19.542192
633.049595	19.482002
633.474860	19.414776
633.900102	19.342043
634.325322	19.267517
634.750520	19.195738
635.175695	19.124244
635.600848	19.059435
636.025978	19.005445
636.451086	18.959025
636.876171	18.927374
637.301234	18.900852
637.726275	18.891148
638.151293	18.894894
638.576288	18.906997
639.001261	18.932383
639.426211	18.966512
639.851139	19.004988
640.276044	19.049800
640.700927	19.096251
641.125787	19.141929
641.550624	19.189155
641.975438	19.230288
642.400230	19.270496
642.824999	19.303943
643.249745	19.329953
643.674469	19.354775
644.099169	19.377262
644.523847	19.398788
644.948502	19.421867
645.373135	19.444987
645.797744	19.469484
646.222330	19.494874
646.646894	19.526259
647.071435	19.561166
647.495953	19.600619
647.920447	19.638342
648.344919	19.679990
648.769368	19.721048
649.193794	19.759970
649.618197	19.795016
650.042576	19.823005
650.466933	19.848805
650.891267	19.864596
651.315577	19.871850
651.739864	19.870827
652.164129	19.858547
652.588370	19.836671
653.012587	19.810967
653.436782	19.775227
653.860953	19.731907
654.285102	19.682041
654.709226	19.626798
655.133328	19.569983
655.557406	19.507821
655.981461	19.445958
656.405493	19.382804
656.829501	19.313350
657.253486	19.240607
657.677448	19.164789
658.101386	19.080938
658.525301	18.993139
658.949192	18.901252
659.373060	18.802483
659.796904	18.696097
660.220725	18.582854
660.644522	18.461445
661.068296	18.336866
661.492046	18.208180
661.915772	18.076275
662.339475	17.944858
662.763154	17.818613
663.186810	17.698749
663.610442	17.585719
664.034050	17.483668
664.457635	17.394329
664.881196	17.325058
665.304733	17.272897
665.728247	17.240191
666.151736	17.226240
666.575202	17.232198
666.998644	17.260512
667.422062	17.308298
667.845457	17.368966
668.268827	17.444148
668.692174	17.534749
669.115496	17.632181
669.538795	17.737100
669.962070	17.846266
670.385321	17.957279
670.808547	18.063003
671.231750	18.169500
671.654929	18.269668
672.078084	18.360918
672.501214	18.445253
672.924321	18.520363
673.347404	18.590761
673.770462	18.653099
674.193496	18.708406
674.616506	18.754675
675.039492	18.797585
675.462454	18.832083
675.885391	18.859790
676.308305	18.881879
676.731194	18.902997
677.154058	18.919448
677.576899	18.931609
677.999715	18.939976
678.422507	18.947299
678.845274	18.948313
679.268017	18.946656
679.690736	18.941405
680.113430	18.927872
680.536100	18.910818
680.958746	18.890736
681.381367	18.865980
681.803963	18.831691
682.226535	18.794501
682.649083	18.754115
683.071605	18.709572
683.494104	18.661735
683.916578	18.613968
684.339027	18.564094
684.761451	18.511990
685.183851	18.458435
685.606227	18.405049
686.028577	18.350399
686.450903	18.290213
686.873204	18.229195
687.295481	18.166516
687.717733	18.101420
688.139959	18.026794
688.562162	17.947367
688.984339	17.862302
689.406492	17.769255
689.828619	17.668841
690.250722	17.560099
690.672800	17.446814
691.094853	17.325044
691.516881	17.193194
691.938884	17.058102
692.360863	16.917891
692.782816	16.776778
693.204744	16.634846
693.626647	16.494116
694.048526	16.358537
694.470379	16.229042
694.892207	16.108393
695.314010	16.000711
695.735788	15.905111
696.157540	15.824334
696.579268	15.758832
697.000970	15.710581
697.422648	15.678219
697.844300	15.663355
698.265926	15.665521
698.687528	15.682061
699.109104	15.712681
699.530655	15.757245
699.952181	15.813029
