PE UV       SUBTECH     SPECTRUM    ASCII       PEDS        4.00        
   -1
CICIMAUCR0261-2.ASC
24/07/01
15:47:14.00
24/07/01
15:47:14.00
Vinicio Soto Monge
C. resplendens. Sex M. Ventral
250,000000
1
Lambda 1050
1050L1511233
PerkinElmer UV WinLab 6.3.2.0749 / 2.02.05 Lambda 900 UV/VIS/NIR, Aug  7 2015 09:38:08

0
0
3350/servo 860,8/2
0
0
UV/VIS
1
1
1
DoubleDePol,CommonBeamDepol,RBeamAtt,SBeamAtt,60mm sphere, WB InGaAs Detector
0
0
0
0
Program
Program
3350/servo 860,8/2
3350/0,2 860,8/0,2
3350/0,2 860,8/0,2
0
15.00
 
 
 
0
 
860,8
319,2
860,8
Front
100
on
S:100 R:100
0
0
0
0
 
0
 
 
 
0
 
 
0
0
0
0
0
 
 
 
 
0
0


0
0
#HDR
-1
-1
#GR
nm
%R
1.0
0.0
2500,000000
-1,000000
2251
8
48,614900
4,728300
#DATA
2482.000000	6.662103
2481.000000	6.644562
2480.000000	6.671156
2479.000000	6.726382
2478.000000	6.660293
2477.000000	6.671043
2476.000000	6.703296
2475.000000	6.641281
2474.000000	6.593298
2473.000000	6.629624
2472.000000	6.630643
2471.000000	6.637207
2470.000000	6.639923
2469.000000	6.642865
2468.000000	6.624079
2467.000000	6.627587
2466.000000	6.654521
2465.000000	6.684284
2464.000000	6.677720
2463.000000	6.648750
2462.000000	6.657916
2461.000000	6.643770
2460.000000	6.638451
2459.000000	6.643318
2458.000000	6.661651
2457.000000	6.680436
2456.000000	6.724345
2455.000000	6.702956
2454.000000	6.721063
2453.000000	6.706578
2452.000000	6.740075
2451.000000	6.749920
2450.000000	6.800279
2449.000000	6.796884
2448.000000	6.822686
2447.000000	6.834456
2446.000000	6.827326
2445.000000	6.865916
2444.000000	6.853128
2443.000000	6.918085
2442.000000	6.909145
2441.000000	6.950677
2440.000000	6.983835
2439.000000	7.002734
2438.000000	6.999905
2437.000000	7.033402
2436.000000	7.042568
2435.000000	7.050716
2434.000000	7.069163
2433.000000	7.093720
2432.000000	7.098699
2431.000000	7.123369
2430.000000	7.140684
2429.000000	7.166825
2428.000000	7.166712
2427.000000	7.181310
2426.000000	7.204057
2425.000000	7.208244
2424.000000	7.238573
2423.000000	7.261885
2422.000000	7.266638
2421.000000	7.294477
2420.000000	7.298324
2419.000000	7.311565
2418.000000	7.306359
2417.000000	7.325484
2416.000000	7.347891
2415.000000	7.368488
2414.000000	7.369959
2413.000000	7.375730
2412.000000	7.381389
2411.000000	7.415791
2410.000000	7.430163
2409.000000	7.416923
2408.000000	7.440348
2407.000000	7.459926
2406.000000	7.462076
2405.000000	7.480975
2404.000000	7.490481
2403.000000	7.488670
2402.000000	7.499761
2401.000000	7.511303
2400.000000	7.531673
2399.000000	7.560531
2398.000000	7.559739
2397.000000	7.563700
2396.000000	7.594707
2395.000000	7.597649
2394.000000	7.593123
2393.000000	7.608400
2392.000000	7.617001
2391.000000	7.632505
2390.000000	7.635786
2389.000000	7.649932
2388.000000	7.654685
2387.000000	7.667699
2386.000000	7.671434
2385.000000	7.649253
2384.000000	7.655704
2383.000000	7.680600
2382.000000	7.691691
2381.000000	7.690219
2380.000000	7.693614
2379.000000	7.686146
2378.000000	7.686485
2377.000000	7.686598
2376.000000	7.689427
2375.000000	7.690559
2374.000000	7.678224
2373.000000	7.670302
2372.000000	7.674037
2371.000000	7.679129
2370.000000	7.672679
2369.000000	7.654459
2368.000000	7.633976
2367.000000	7.635786
2366.000000	7.641218
2365.000000	7.633749
2364.000000	7.616548
2363.000000	7.601044
2362.000000	7.594028
2361.000000	7.582711
2360.000000	7.570150
2359.000000	7.552157
2358.000000	7.539142
2357.000000	7.541179
2356.000000	7.532239
2355.000000	7.514585
2354.000000	7.502703
2353.000000	7.493536
2352.000000	7.492065
2351.000000	7.481654
2350.000000	7.481088
2349.000000	7.493876
2348.000000	7.495008
2347.000000	7.499761
2346.000000	7.535182
2345.000000	7.551930
2344.000000	7.549893
2343.000000	7.565058
2342.000000	7.563700
2341.000000	7.563134
2340.000000	7.584522
2339.000000	7.604439
2338.000000	7.610211
2337.000000	7.623904
2336.000000	7.635221
2335.000000	7.615756
2334.000000	7.608513
2333.000000	7.621414
2332.000000	7.614172
2331.000000	7.593802
2330.000000	7.596518
2329.000000	7.594028
2328.000000	7.574111
2327.000000	7.557589
2326.000000	7.551138
2325.000000	7.525336
2324.000000	7.519565
2323.000000	7.503721
2322.000000	7.473619
2321.000000	7.450646
2320.000000	7.428466
2319.000000	7.395195
2318.000000	7.362829
2317.000000	7.324353
2316.000000	7.313489
2315.000000	7.277049
2314.000000	7.238120
2313.000000	7.192061
2312.000000	7.183461
2311.000000	7.164335
2310.000000	7.135818
2309.000000	7.111600
2308.000000	7.081837
2307.000000	7.050264
2306.000000	7.051169
2305.000000	7.060562
2304.000000	7.049132
2303.000000	7.050377
2302.000000	7.062712
2301.000000	7.069615
2300.000000	7.081271
2299.000000	7.091004
2298.000000	7.120087
2297.000000	7.139778
2296.000000	7.154490
2295.000000	7.195343
2294.000000	7.233027
2293.000000	7.241175
2292.000000	7.251474
2291.000000	7.268335
2290.000000	7.283613
2289.000000	7.298098
2288.000000	7.312470
2287.000000	7.323900
2286.000000	7.319600
2285.000000	7.306925
2284.000000	7.304775
2283.000000	7.315073
2282.000000	7.293006
2281.000000	7.279426
2280.000000	7.252718
2279.000000	7.247400
2278.000000	7.237215
2277.000000	7.219900
2276.000000	7.205868
2275.000000	7.209602
2274.000000	7.191609
2273.000000	7.175086
2272.000000	7.182103
2271.000000	7.186290
2270.000000	7.172823
2269.000000	7.175878
2268.000000	7.189685
2267.000000	7.224200
2266.000000	7.224653
2265.000000	7.234046
2264.000000	7.279652
2263.000000	7.313715
2262.000000	7.366111
2261.000000	7.413188
2260.000000	7.457436
2259.000000	7.533597
2258.000000	7.605571
2257.000000	7.683882
2256.000000	7.757327
2255.000000	7.818097
2254.000000	7.896409
2253.000000	7.990676
2252.000000	8.049183
2251.000000	8.158615
2250.000000	8.233531
2249.000000	8.292378
2248.000000	8.375442
2247.000000	8.430780
2246.000000	8.521540
2245.000000	8.579028
2244.000000	8.625653
2243.000000	8.673975
2242.000000	8.728181
2241.000000	8.772882
2240.000000	8.803776
2239.000000	8.853570
2238.000000	8.889217
2237.000000	8.915811
2236.000000	8.975450
2235.000000	8.995141
2234.000000	9.031354
2233.000000	9.030109
2232.000000	9.054779
2231.000000	9.050366
2230.000000	9.091445
2229.000000	9.090314
2228.000000	9.100725
2227.000000	9.101743
2226.000000	9.112834
2225.000000	9.115210
2224.000000	9.098122
2223.000000	9.105365
2222.000000	9.098348
2221.000000	9.074357
2220.000000	9.068925
2219.000000	9.072094
2218.000000	9.056477
2217.000000	9.066662
2216.000000	9.028185
2215.000000	9.009852
2214.000000	8.986993
2213.000000	8.991633
2212.000000	8.983032
2211.000000	8.974544
2210.000000	8.957909
2209.000000	8.939802
2208.000000	8.921696
2207.000000	8.909926
2206.000000	8.925996
2205.000000	8.925996
2204.000000	8.922375
2203.000000	8.892272
2202.000000	8.886275
2201.000000	8.888538
2200.000000	8.884804
2199.000000	8.881748
2198.000000	8.860360
2197.000000	8.844743
2196.000000	8.862057
2195.000000	8.847232
2194.000000	8.837274
2193.000000	8.826070
2192.000000	8.823241
2191.000000	8.834218
2190.000000	8.833765
2189.000000	8.823581
2188.000000	8.821770
2187.000000	8.816791
2186.000000	8.809208
2185.000000	8.797779
2184.000000	8.799137
2183.000000	8.804116
2182.000000	8.796647
2181.000000	8.773108
2180.000000	8.759415
2179.000000	8.768469
2178.000000	8.744817
2177.000000	8.761679
2176.000000	8.753644
2175.000000	8.753531
2174.000000	8.770958
2173.000000	8.756926
2172.000000	8.732482
2171.000000	8.764508
2170.000000	8.757152
2169.000000	8.764508
2168.000000	8.751380
2167.000000	8.776164
2166.000000	8.763829
2165.000000	8.758849
2164.000000	8.776503
2163.000000	8.782162
2162.000000	8.799929
2161.000000	8.832407
2160.000000	8.827994
2159.000000	8.849609
2158.000000	8.844856
2157.000000	8.864999
2156.000000	8.895781
2155.000000	8.896912
2154.000000	8.906758
2153.000000	8.922375
2152.000000	8.964812
2151.000000	8.964812
2150.000000	8.986766
2149.000000	8.991293
2148.000000	9.020829
2147.000000	9.036446
2146.000000	9.046858
2145.000000	9.067341
2144.000000	9.083524
2143.000000	9.089408
2142.000000	9.110570
2141.000000	9.131053
2140.000000	9.141804
2139.000000	9.126753
2138.000000	9.147802
2137.000000	9.167040
2136.000000	9.199519
2135.000000	9.213212
2134.000000	9.217965
2133.000000	9.215928
2132.000000	9.217513
2131.000000	9.228603
2130.000000	9.240825
2129.000000	9.226679
2128.000000	9.229395
2127.000000	9.227698
2126.000000	9.213665
2125.000000	9.212420
2124.000000	9.214683
2123.000000	9.241504
2122.000000	9.231885
2121.000000	9.215476
2120.000000	9.203819
2119.000000	9.210270
2118.000000	9.210609
2117.000000	9.184808
2116.000000	9.187410
2115.000000	9.184468
2114.000000	9.167040
2113.000000	9.144973
2112.000000	9.137278
2111.000000	9.111928
2110.000000	9.104459
2109.000000	9.115323
2108.000000	9.093595
2107.000000	9.086013
2106.000000	9.079336
2105.000000	9.059759
2104.000000	9.034409
2103.000000	9.029656
2102.000000	9.025696
2101.000000	9.002610
2100.000000	8.995480
2099.000000	8.999781
2098.000000	8.974658
2097.000000	8.951798
2096.000000	8.944782
2095.000000	8.948969
2094.000000	8.941726
2093.000000	8.914114
2092.000000	8.913661
2091.000000	8.901439
2090.000000	8.906758
2089.000000	8.897365
2088.000000	8.881069
2087.000000	8.879824
2086.000000	8.869866
2085.000000	8.851646
2084.000000	8.826070
2083.000000	8.815885
2082.000000	8.818262
2081.000000	8.816904
2080.000000	8.805021
2079.000000	8.780011
2078.000000	8.766545
2077.000000	8.766205
2076.000000	8.754096
2075.000000	8.750475
2074.000000	8.724220
2073.000000	8.681330
2072.000000	8.674314
2071.000000	8.656660
2070.000000	8.637196
2069.000000	8.617618
2068.000000	8.592382
2067.000000	8.578575
2066.000000	8.575746
2065.000000	8.549039
2064.000000	8.515089
2063.000000	8.490192
2062.000000	8.483968
2061.000000	8.485326
2060.000000	8.473557
2059.000000	8.454771
2058.000000	8.442776
2057.000000	8.431572
2056.000000	8.421500
2055.000000	8.411202
2054.000000	8.419124
2053.000000	8.425348
2052.000000	8.432930
2051.000000	8.422972
2050.000000	8.421614
2049.000000	8.441191
2048.000000	8.463033
2047.000000	8.500943
2046.000000	8.524142
2045.000000	8.526066
2044.000000	8.536477
2043.000000	8.565448
2042.000000	8.615128
2041.000000	8.625879
2040.000000	8.645457
2039.000000	8.668995
2038.000000	8.694458
2037.000000	8.701587
2036.000000	8.715846
2035.000000	8.743459
2034.000000	8.765639
2033.000000	8.779446
2032.000000	8.786915
2031.000000	8.802305
2030.000000	8.807398
2029.000000	8.810566
2028.000000	8.819733
2027.000000	8.815093
2026.000000	8.803663
2025.000000	8.832860
2024.000000	8.830370
2023.000000	8.836029
2022.000000	8.828107
2021.000000	8.819054
2020.000000	8.820186
2019.000000	8.822223
2018.000000	8.831615
2017.000000	8.825278
2016.000000	8.828447
2015.000000	8.809887
2014.000000	8.807964
2013.000000	8.801966
2012.000000	8.782048
2011.000000	8.754662
2010.000000	8.770166
2009.000000	8.748438
2008.000000	8.714714
2007.000000	8.698419
2006.000000	8.691742
2005.000000	8.669787
2004.000000	8.656321
2003.000000	8.628821
2002.000000	8.614449
2001.000000	8.585365
2000.000000	8.575746
1999.000000	8.549718
1998.000000	8.542928
1997.000000	8.499812
1996.000000	8.484308
1995.000000	8.470615
1994.000000	8.444473
1993.000000	8.402941
1992.000000	8.360843
1991.000000	8.363107
1990.000000	8.327799
1989.000000	8.285927
1988.000000	8.273366
1987.000000	8.236360
1986.000000	8.208974
1985.000000	8.186907
1984.000000	8.159407
1983.000000	8.106898
1982.000000	8.077927
1981.000000	8.058915
1980.000000	8.046467
1979.000000	8.016025
1978.000000	7.970646
1977.000000	7.957632
1976.000000	7.921984
1975.000000	7.919042
1974.000000	7.887355
1973.000000	7.819003
1972.000000	7.818663
1971.000000	7.792975
1970.000000	7.758119
1969.000000	7.747029
1968.000000	7.716700
1967.000000	7.700404
1966.000000	7.657854
1965.000000	7.644387
1964.000000	7.622207
1963.000000	7.610211
1962.000000	7.607269
1961.000000	7.577053
1960.000000	7.551025
1959.000000	7.537898
1958.000000	7.508474
1957.000000	7.478712
1956.000000	7.472940
1955.000000	7.467848
1954.000000	7.427334
1953.000000	7.432087
1952.000000	7.418507
1951.000000	7.387726
1950.000000	7.376296
1949.000000	7.345288
1948.000000	7.347665
1947.000000	7.324126
1946.000000	7.309528
1945.000000	7.289271
1944.000000	7.290176
1943.000000	7.285084
1942.000000	7.263922
1941.000000	7.238120
1940.000000	7.252605
1939.000000	7.230425
1938.000000	7.265167
1937.000000	7.239931
1936.000000	7.281010
1935.000000	7.290176
1934.000000	7.258716
1933.000000	7.248192
1932.000000	7.282368
1931.000000	7.291421
1930.000000	7.290629
1929.000000	7.312470
1928.000000	7.320958
1927.000000	7.345175
1926.000000	7.349249
1925.000000	7.410585
1924.000000	7.437859
1923.000000	7.436727
1922.000000	7.463660
1921.000000	7.499195
1920.000000	7.555665
1919.000000	7.631147
1918.000000	7.669510
1917.000000	7.685127
1916.000000	7.731525
1915.000000	7.771699
1914.000000	7.801462
1913.000000	7.873436
1912.000000	7.951634
1911.000000	8.053483
1910.000000	8.077814
1909.000000	8.121723
1908.000000	8.193923
1907.000000	8.222780
1906.000000	8.304034
1905.000000	8.413013
1904.000000	8.546889
1903.000000	8.636630
1902.000000	8.732482
1901.000000	8.829691
1900.000000	8.915472
1899.000000	9.067341
1898.000000	9.243767
1897.000000	9.369835
1896.000000	9.473721
1895.000000	9.585530
1894.000000	9.716010
1893.000000	9.855997
1892.000000	10.020428
1891.000000	10.244384
1890.000000	10.456910
1889.000000	10.676114
1888.000000	10.902446
1887.000000	11.141680
1886.000000	11.385554
1885.000000	11.639273
1884.000000	11.943351
1883.000000	12.291903
1882.000000	12.641021
1881.000000	12.973617
1880.000000	13.329865
1879.000000	13.686112
1878.000000	14.010108
1877.000000	14.355265
1876.000000	14.717058
1875.000000	15.098089
1874.000000	15.429553
1873.000000	15.776521
1872.000000	16.135711
1871.000000	16.477926
1870.000000	16.817991
1869.000000	17.140855
1868.000000	17.445725
1867.000000	17.676132
1866.000000	17.897485
1865.000000	18.065198
1864.000000	18.242077
1863.000000	18.401188
1862.000000	18.525785
1861.000000	18.684217
1860.000000	18.870263
1859.000000	19.017719
1858.000000	19.148313
1857.000000	19.273588
1856.000000	19.364913
1855.000000	19.438924
1854.000000	19.509879
1853.000000	19.588417
1852.000000	19.618972
1851.000000	19.660617
1850.000000	19.694680
1849.000000	19.737457
1848.000000	19.765069
1847.000000	19.805470
1846.000000	19.822105
1845.000000	19.813618
1844.000000	19.786118
1843.000000	19.764730
1842.000000	19.762127
1841.000000	19.800377
1840.000000	19.803772
1839.000000	19.801962
1838.000000	19.781252
1837.000000	19.776499
1836.000000	19.767898
1835.000000	19.753300
1834.000000	19.715955
1833.000000	19.670689
1832.000000	19.612521
1831.000000	19.570763
1830.000000	19.548808
1829.000000	19.515538
1828.000000	19.464047
1827.000000	19.409953
1826.000000	19.373627
1825.000000	19.328700
1824.000000	19.287055
1823.000000	19.246428
1822.000000	19.208744
1821.000000	19.196182
1820.000000	19.195277
1819.000000	19.168909
1818.000000	19.140504
1817.000000	19.109610
1816.000000	19.080639
1815.000000	19.081318
1814.000000	19.074076
1813.000000	19.053366
1812.000000	19.040805
1811.000000	19.024509
1810.000000	18.999952
1809.000000	18.968605
1808.000000	18.943708
1807.000000	18.895839
1806.000000	18.873545
1805.000000	18.849440
1804.000000	18.798855
1803.000000	18.766263
1802.000000	18.741932
1801.000000	18.707869
1800.000000	18.645741
1799.000000	18.589497
1798.000000	18.560640
1797.000000	18.538572
1796.000000	18.508696
1795.000000	18.463430
1794.000000	18.411600
1793.000000	18.381158
1792.000000	18.346416
1791.000000	18.301149
1790.000000	18.270594
1789.000000	18.236758
1788.000000	18.190812
1787.000000	18.152901
1786.000000	18.118838
1785.000000	18.073685
1784.000000	18.017781
1783.000000	17.978625
1782.000000	17.936754
1781.000000	17.885150
1780.000000	17.835017
1779.000000	17.790543
1778.000000	17.740750
1777.000000	17.688240
1776.000000	17.634260
1775.000000	17.578243
1774.000000	17.511588
1773.000000	17.452968
1772.000000	17.386086
1771.000000	17.311962
1770.000000	17.246213
1769.000000	17.175936
1768.000000	17.098417
1767.000000	17.035497
1766.000000	16.970426
1765.000000	16.906035
1764.000000	16.866992
1763.000000	16.835645
1762.000000	16.814596
1761.000000	16.825234
1760.000000	16.851602
1759.000000	16.877856
1758.000000	16.933534
1757.000000	16.987288
1756.000000	17.039458
1755.000000	17.078500
1754.000000	17.116750
1753.000000	17.185669
1752.000000	17.216676
1751.000000	17.236480
1750.000000	17.268280
1749.000000	17.252776
1748.000000	17.233199
1747.000000	17.218826
1746.000000	17.175710
1745.000000	17.126369
1744.000000	17.076010
1743.000000	16.994531
1742.000000	16.908751
1741.000000	16.811541
1740.000000	16.689547
1739.000000	16.550579
1738.000000	16.432547
1737.000000	16.301839
1736.000000	16.178488
1735.000000	16.081278
1734.000000	15.993574
1733.000000	15.926127
1732.000000	15.912321
1731.000000	15.919337
1730.000000	15.966075
1729.000000	16.018471
1728.000000	16.065095
1727.000000	16.139898
1726.000000	16.216965
1725.000000	16.277961
1724.000000	16.357744
1723.000000	16.421456
1722.000000	16.473286
1721.000000	16.496712
1720.000000	16.541073
1719.000000	16.579097
1718.000000	16.629682
1717.000000	16.672007
1716.000000	16.743075
1715.000000	16.796037
1714.000000	16.832250
1713.000000	16.912485
1712.000000	16.987854
1711.000000	17.028367
1710.000000	17.087101
1709.000000	17.102378
1708.000000	17.133838
1707.000000	17.128633
1706.000000	17.113242
1705.000000	17.085516
1704.000000	17.056885
1703.000000	17.009129
1702.000000	16.940890
1701.000000	16.890757
1700.000000	16.824781
1699.000000	16.698035
1698.000000	16.602070
1697.000000	16.488564
1696.000000	16.397465
1695.000000	16.317683
1694.000000	16.284638
1693.000000	16.281356
1692.000000	16.357178
1691.000000	16.436621
1690.000000	16.545487
1689.000000	16.662274
1688.000000	16.742170
1687.000000	16.854431
1686.000000	16.903884
1685.000000	16.968276
1684.000000	17.028367
1683.000000	17.090043
1682.000000	17.213734
1681.000000	17.404759
1680.000000	17.663457
1679.000000	17.975683
1678.000000	18.337363
1677.000000	18.730389
1676.000000	19.101235
1675.000000	19.461783
1674.000000	19.754205
1673.000000	20.051041
1672.000000	20.287672
1671.000000	20.537882
1670.000000	20.686922
1669.000000	20.873986
1668.000000	21.018613
1667.000000	21.157129
1666.000000	21.261694
1665.000000	21.378822
1664.000000	21.453511
1663.000000	21.536575
1662.000000	21.610473
1661.000000	21.690482
1660.000000	21.738351
1659.000000	21.778525
1658.000000	21.792105
1657.000000	21.858760
1656.000000	21.868605
1655.000000	21.860910
1654.000000	21.888636
1653.000000	21.899839
1652.000000	21.896105
1651.000000	21.873698
1650.000000	21.849820
1649.000000	21.815191
1648.000000	21.798895
1647.000000	21.741746
1646.000000	21.706551
1645.000000	21.685729
1644.000000	21.654268
1643.000000	21.605267
1642.000000	21.559888
1641.000000	21.502286
1640.000000	21.453398
1639.000000	21.425672
1638.000000	21.351888
1637.000000	21.306169
1636.000000	21.271879
1635.000000	21.198095
1634.000000	21.133137
1633.000000	21.063314
1632.000000	21.022913
1631.000000	20.979684
1630.000000	20.884737
1629.000000	20.851353
1628.000000	20.788319
1627.000000	20.678322
1626.000000	20.645051
1625.000000	20.574548
1624.000000	20.502688
1623.000000	20.428903
1622.000000	20.380355
1621.000000	20.313247
1620.000000	20.250666
1619.000000	20.187180
1618.000000	20.129125
1617.000000	20.060094
1616.000000	20.020033
1615.000000	19.957565
1614.000000	19.884120
1613.000000	19.832064
1612.000000	19.765975
1611.000000	19.741644
1610.000000	19.651224
1609.000000	19.625762
1608.000000	19.550280
1607.000000	19.489057
1606.000000	19.425683
1605.000000	19.353144
1604.000000	19.312291
1603.000000	19.242014
1602.000000	19.181697
1601.000000	19.110968
1600.000000	19.052348
1599.000000	18.984787
1598.000000	18.925375
1597.000000	18.853741
1596.000000	18.798742
1595.000000	18.768187
1594.000000	18.688518
1593.000000	18.636688
1592.000000	18.588931
1591.000000	18.540836
1590.000000	18.467164
1589.000000	18.437628
1588.000000	18.382629
1587.000000	18.349924
1586.000000	18.301715
1585.000000	18.238342
1584.000000	18.193528
1583.000000	18.159465
1582.000000	18.116801
1581.000000	18.058973
1580.000000	18.029211
