PE UV       SUBTECH     SPECTRUM    ASCII       PEDS        4.00        
   -1
CICIMAUCR0104-2.Sample.ASC
24/04/19
16:46:40.00
24/04/19
16:46:40.00
Vinicio Soto Monge
C. resplendens
250,000000
1
Lambda 1050
1050L1511233
PerkinElmer UV WinLab 6.3.2.0749 / 2.02.05 Lambda 900 UV/VIS/NIR, Aug  7 2015 09:38:08

0
0
3350/servo 860,8/2
0
0
UV/VIS
1
1
1
DoubleDePol,CommonBeamDepol,RBeamAtt,SBeamAtt,60mm sphere, WB InGaAs Detector
0
0
0
0
Program
Program
3350/servo 860,8/2
3350/0,2 860,8/0,2
3350/0,2 860,8/0,2
0
15.00
 
 
 
0
 
860,8
319,2
860,8
Front
100
on
S:100 R:100
0
0
0
0
 
0
 
 
 
0
 
 
0
0
0
0
0
 
 
 
 
0
0


0
0
#HDR
-1
-1
#GR
nm
%R
1.0
0.0
2500,000000
-1,000000
2251
8
93,269700
5,938000
#DATA
2482.000000	10.553044
2481.000000	10.533264
2480.000000	10.611170
2479.000000	10.499780
2478.000000	10.510389
2477.000000	10.549508
2476.000000	10.506411
2475.000000	10.496465
2474.000000	10.468949
2473.000000	10.531938
2472.000000	10.490609
2471.000000	10.485525
2470.000000	10.507958
2469.000000	10.497570
2468.000000	10.523650
2467.000000	10.523981
2466.000000	10.575256
2465.000000	10.578018
2464.000000	10.601666
2463.000000	10.643216
2462.000000	10.687750
2461.000000	10.732615
2460.000000	10.793172
2459.000000	10.820578
2458.000000	10.882571
2457.000000	10.924895
2456.000000	11.025234
2455.000000	11.112864
2454.000000	11.165907
2453.000000	11.270887
2452.000000	11.338848
2451.000000	11.426147
2450.000000	11.513225
2449.000000	11.603398
2448.000000	11.693791
2447.000000	11.759873
2446.000000	11.845294
2445.000000	11.959557
2444.000000	12.040115
2443.000000	12.116474
2442.000000	12.197475
2441.000000	12.299803
2440.000000	12.355387
2439.000000	12.432409
2438.000000	12.494845
2437.000000	12.561590
2436.000000	12.619937
2435.000000	12.690329
2434.000000	12.766578
2433.000000	12.839953
2432.000000	12.891228
2431.000000	12.945265
2430.000000	12.993114
2429.000000	13.030796
2428.000000	13.091021
2427.000000	13.134229
2426.000000	13.183293
2425.000000	13.223186
2424.000000	13.244845
2423.000000	13.281864
2422.000000	13.331481
2421.000000	13.360655
2420.000000	13.397784
2419.000000	13.432152
2418.000000	13.451932
2417.000000	13.488067
2416.000000	13.501659
2415.000000	13.530280
2414.000000	13.570504
2413.000000	13.590837
2412.000000	13.628520
2411.000000	13.658135
2410.000000	13.680678
2409.000000	13.705210
2408.000000	13.732395
2407.000000	13.759248
2406.000000	13.810633
2405.000000	13.845663
2404.000000	13.877267
2403.000000	13.913955
2402.000000	13.921690
2401.000000	13.949980
2400.000000	13.993850
2399.000000	14.023576
2398.000000	14.054407
2397.000000	14.081039
2396.000000	14.115075
2395.000000	14.157398
2394.000000	14.202374
2393.000000	14.231106
2392.000000	14.262489
2391.000000	14.282491
2390.000000	14.301829
2389.000000	14.326140
2388.000000	14.365480
2387.000000	14.366585
2386.000000	14.364928
2385.000000	14.385261
2384.000000	14.387139
2383.000000	14.369016
2382.000000	14.359071
2381.000000	14.355424
2380.000000	14.334981
2379.000000	14.308017
2378.000000	14.296635
2377.000000	14.270003
2376.000000	14.244698
2375.000000	14.228122
2374.000000	14.201048
2373.000000	14.152536
2372.000000	14.114522
2371.000000	14.077724
2370.000000	14.008769
2369.000000	13.943129
2368.000000	13.900473
2367.000000	13.836270
2366.000000	13.751181
2365.000000	13.671727
2364.000000	13.581776
2363.000000	13.478343
2362.000000	13.378777
2361.000000	13.282306
2360.000000	13.194123
2359.000000	13.096768
2358.000000	13.023171
2357.000000	12.964714
2356.000000	12.900289
2355.000000	12.864706
2354.000000	12.854761
2353.000000	12.842163
2352.000000	12.850893
2351.000000	12.864154
2350.000000	12.905925
2349.000000	12.966482
2348.000000	13.019414
2347.000000	13.091795
2346.000000	13.167270
2345.000000	13.245397
2344.000000	13.307170
2343.000000	13.374799
2342.000000	13.444307
2341.000000	13.490167
2340.000000	13.537242
2339.000000	13.568626
2338.000000	13.598020
2337.000000	13.586528
2336.000000	13.582439
2335.000000	13.545972
2334.000000	13.520887
2333.000000	13.475028
2332.000000	13.434251
2331.000000	13.375020
2330.000000	13.299766
2329.000000	13.228490
2328.000000	13.132792
2327.000000	13.034332
2326.000000	12.924711
2325.000000	12.827135
2324.000000	12.703369
2323.000000	12.560927
2322.000000	12.431636
2321.000000	12.285437
2320.000000	12.143769
2319.000000	12.009947
2318.000000	11.852919
2317.000000	11.692244
2316.000000	11.552676
2315.000000	11.388575
2314.000000	11.248676
2313.000000	11.118611
2312.000000	10.978600
2311.000000	10.880030
2310.000000	10.800576
2309.000000	10.759247
2308.000000	10.736925
2307.000000	10.724548
2306.000000	10.729632
2305.000000	10.760684
2304.000000	10.820578
2303.000000	10.930199
2302.000000	11.042472
2301.000000	11.149773
2300.000000	11.296856
2299.000000	11.440181
2298.000000	11.551018
2297.000000	11.683072
2296.000000	11.837117
2295.000000	11.941765
2294.000000	12.030833
2293.000000	12.121779
2292.000000	12.198359
2291.000000	12.237146
2290.000000	12.279359
2289.000000	12.299471
2288.000000	12.294167
2287.000000	12.259910
2286.000000	12.212172
2285.000000	12.168301
2284.000000	12.152057
2283.000000	12.094152
2282.000000	12.041662
2281.000000	11.969613
2280.000000	11.908172
2279.000000	11.819988
2278.000000	11.783964
2277.000000	11.730921
2276.000000	11.688487
2275.000000	11.657214
2274.000000	11.656882
2273.000000	11.657545
2272.000000	11.667491
2271.000000	11.670364
2270.000000	11.717550
2269.000000	11.797777
2268.000000	11.884413
2267.000000	12.008953
2266.000000	12.161450
2265.000000	12.354503
2264.000000	12.556286
2263.000000	12.768898
2262.000000	13.034995
2261.000000	13.290594
2260.000000	13.624210
2259.000000	13.922132
2258.000000	14.238288
2257.000000	14.581629
2256.000000	14.934362
2255.000000	15.267646
2254.000000	15.590211
2253.000000	15.900069
2252.000000	16.188156
2251.000000	16.522987
2250.000000	16.768862
2249.000000	17.033854
2248.000000	17.265252
2247.000000	17.518199
2246.000000	17.752802
2245.000000	17.951601
2244.000000	18.131062
2243.000000	18.297815
2242.000000	18.454401
2241.000000	18.640934
2240.000000	18.777076
2239.000000	18.915650
2238.000000	19.016873
2237.000000	19.174564
2236.000000	19.278439
2235.000000	19.366954
2234.000000	19.478454
2233.000000	19.543542
2232.000000	19.608188
2231.000000	19.680127
2230.000000	19.709079
2229.000000	19.759911
2228.000000	19.801019
2227.000000	19.839807
2226.000000	19.844006
2225.000000	19.842348
2224.000000	19.865113
2223.000000	19.877379
2222.000000	19.848316
2221.000000	19.834724
2220.000000	19.829419
2219.000000	19.797704
2218.000000	19.762232
2217.000000	19.733611
2216.000000	19.710405
2215.000000	19.682779
2214.000000	19.647748
2213.000000	19.611282
2212.000000	19.601999
2211.000000	19.540558
2210.000000	19.518899
2209.000000	19.487295
2208.000000	19.485527
2207.000000	19.452043
2206.000000	19.442871
2205.000000	19.437236
2204.000000	19.415577
2203.000000	19.386624
2202.000000	19.373143
2201.000000	19.345406
2200.000000	19.330598
2199.000000	19.300430
2198.000000	19.338444
2197.000000	19.297336
2196.000000	19.269046
2195.000000	19.263632
2194.000000	19.256559
2193.000000	19.239984
2192.000000	19.200202
2191.000000	19.196113
2190.000000	19.186941
2189.000000	19.163182
2188.000000	19.144949
2187.000000	19.120969
2186.000000	19.082734
2185.000000	19.068148
2184.000000	19.046710
2183.000000	19.035659
2182.000000	19.003170
2181.000000	18.975323
2180.000000	18.973555
2179.000000	18.944603
2178.000000	18.908799
2177.000000	18.902390
2176.000000	18.907252
2175.000000	18.896643
2174.000000	18.894433
2173.000000	18.902942
2172.000000	18.908246
2171.000000	18.918413
2170.000000	18.912004
2169.000000	18.938746
2168.000000	18.955653
2167.000000	18.976428
2166.000000	18.978086
2165.000000	19.009911
2164.000000	19.034665
2163.000000	19.075662
2162.000000	19.088149
2161.000000	19.129036
2160.000000	19.153458
2159.000000	19.210810
2158.000000	19.215230
2157.000000	19.255233
2156.000000	19.319326
2155.000000	19.370269
2154.000000	19.402758
2153.000000	19.457348
2152.000000	19.503870
2151.000000	19.546083
2150.000000	19.607193
2149.000000	19.649296
2148.000000	19.667750
2147.000000	19.712394
2146.000000	19.776598
2145.000000	19.818148
2144.000000	19.861687
2143.000000	19.881688
2142.000000	19.908431
2141.000000	19.959374
2140.000000	20.003023
2139.000000	20.031865
2138.000000	20.065901
2137.000000	20.087449
2136.000000	20.113087
2135.000000	20.137066
2134.000000	20.147012
2133.000000	20.171434
2132.000000	20.195524
2131.000000	20.206243
2130.000000	20.205690
2129.000000	20.225250
2128.000000	20.240610
2127.000000	20.231659
2126.000000	20.231217
2125.000000	20.225139
2124.000000	20.210994
2123.000000	20.196297
2122.000000	20.180495
2121.000000	20.157399
2120.000000	20.141487
2119.000000	20.116512
2118.000000	20.099937
2117.000000	20.070432
2116.000000	20.045899
2115.000000	20.035733
2114.000000	20.007112
2113.000000	19.975728
2112.000000	19.955174
2111.000000	19.906000
2110.000000	19.879920
2109.000000	19.861134
2108.000000	19.849200
2107.000000	19.821242
2106.000000	19.782786
2105.000000	19.754055
2104.000000	19.731622
2103.000000	19.702338
2102.000000	19.673386
2101.000000	19.649406
2100.000000	19.624542
2099.000000	19.604541
2098.000000	19.565422
2097.000000	19.534591
2096.000000	19.522546
2095.000000	19.520667
2094.000000	19.511716
2093.000000	19.475250
2092.000000	19.465194
2091.000000	19.459889
2090.000000	19.468619
2089.000000	19.475250
2088.000000	19.462983
2087.000000	19.446629
2086.000000	19.416350
2085.000000	19.400879
2084.000000	19.399885
2083.000000	19.389497
2082.000000	19.372037
2081.000000	19.360434
2080.000000	19.333803
2079.000000	19.318442
2078.000000	19.300872
2077.000000	19.286948
2076.000000	19.271588
2075.000000	19.242083
2074.000000	19.226060
2073.000000	19.210037
2072.000000	19.180200
2071.000000	19.178101
2070.000000	19.168929
2069.000000	19.137877
2068.000000	19.108593
2067.000000	19.096548
2066.000000	19.085608
2065.000000	19.097321
2064.000000	19.084060
2063.000000	19.061628
2062.000000	19.058644
2061.000000	19.058313
2060.000000	19.066048
2059.000000	19.095774
2058.000000	19.112681
2057.000000	19.149259
2056.000000	19.195450
2055.000000	19.245951
2054.000000	19.327946
2053.000000	19.410162
2052.000000	19.493151
2051.000000	19.596584
2050.000000	19.720129
2049.000000	19.850194
2048.000000	19.996724
2047.000000	20.147343
2046.000000	20.295310
2045.000000	20.446260
2044.000000	20.609145
2043.000000	20.774572
2042.000000	20.961879
2041.000000	21.136919
2040.000000	21.291295
2039.000000	21.454733
2038.000000	21.619496
2037.000000	21.748677
2036.000000	21.923497
2035.000000	22.061960
2034.000000	22.199539
2033.000000	22.328941
2032.000000	22.437678
2031.000000	22.565312
2030.000000	22.705543
2029.000000	22.806103
2028.000000	22.903900
2027.000000	23.000261
2026.000000	23.103694
2025.000000	23.199392
2024.000000	23.290559
2023.000000	23.360509
2022.000000	23.448471
2021.000000	23.511238
2020.000000	23.602184
2019.000000	23.681195
2018.000000	23.733796
2017.000000	23.796452
2016.000000	23.829273
2015.000000	23.908173
2014.000000	23.950497
2013.000000	23.990500
2012.000000	23.993705
2011.000000	24.006744
2010.000000	24.032050
2009.000000	24.064649
2008.000000	24.053598
2007.000000	24.044206
2006.000000	24.061776
2005.000000	24.057798
2004.000000	24.022104
2003.000000	23.991273
2002.000000	23.973040
2001.000000	23.944088
2000.000000	23.892150
1999.000000	23.825847
1998.000000	23.771699
1997.000000	23.726724
1996.000000	23.673902
1995.000000	23.600084
1994.000000	23.545937
1993.000000	23.465489
1992.000000	23.375427
1991.000000	23.290227
1990.000000	23.231991
1989.000000	23.113640
1988.000000	23.021478
1987.000000	22.935284
1986.000000	22.815717
1985.000000	22.718141
1984.000000	22.620012
1983.000000	22.540227
1982.000000	22.437678
1981.000000	22.324631
1980.000000	22.212800
1979.000000	22.100968
1978.000000	21.999414
1977.000000	21.889682
1976.000000	21.764811
1975.000000	21.674196
1974.000000	21.587229
1973.000000	21.473408
1972.000000	21.363234
1971.000000	21.268752
1970.000000	21.184878
1969.000000	21.109514
1968.000000	21.019010
1967.000000	20.924749
1966.000000	20.823194
1965.000000	20.744625
1964.000000	20.654895
1963.000000	20.593785
1962.000000	20.494330
1961.000000	20.373658
1960.000000	20.298846
1959.000000	20.222045
1958.000000	20.122148
1957.000000	20.031976
1956.000000	19.954622
1955.000000	19.895502
1954.000000	19.812844
1953.000000	19.733722
1952.000000	19.652832
1951.000000	19.564759
1950.000000	19.525529
1949.000000	19.445413
1948.000000	19.398006
1947.000000	19.334687
1946.000000	19.302309
1945.000000	19.263190
1944.000000	19.199207
1943.000000	19.193792
1942.000000	19.181858
1941.000000	19.170918
1940.000000	19.155557
1939.000000	19.188599
1938.000000	19.210589
1937.000000	19.236668
1936.000000	19.287501
1935.000000	19.339991
1934.000000	19.401321
1933.000000	19.469945
1932.000000	19.569400
1931.000000	19.655705
1930.000000	19.782676
1929.000000	19.900143
1928.000000	20.052309
1927.000000	20.226355
1926.000000	20.369901
1925.000000	20.534775
1924.000000	20.702522
1923.000000	20.879000
1922.000000	21.106309
1921.000000	21.359698
1920.000000	21.610766
1919.000000	21.829898
1918.000000	22.100305
1917.000000	22.315128
1916.000000	22.556692
1915.000000	22.805109
1914.000000	23.148228
1913.000000	23.502729
1912.000000	23.839329
1911.000000	24.115813
1910.000000	24.430864
1909.000000	24.708011
1908.000000	24.993447
1907.000000	25.351816
1906.000000	25.738916
1905.000000	26.151875
1904.000000	26.528146
1903.000000	26.893035
1902.000000	27.240795
1901.000000	27.596954
1900.000000	28.010134
1899.000000	28.409832
1898.000000	28.813508
1897.000000	29.218400
1896.000000	29.549363
1895.000000	29.869939
1894.000000	30.239801
1893.000000	30.617066
1892.000000	31.027373
1891.000000	31.442542
1890.000000	31.821023
1889.000000	32.177071
1888.000000	32.577322
1887.000000	32.981882
1886.000000	33.459155
1885.000000	33.995437
1884.000000	34.597581
1883.000000	35.187238
1882.000000	35.811041
1881.000000	36.453188
1880.000000	37.007593
1879.000000	37.569292
1878.000000	38.150661
1877.000000	38.676556
1876.000000	39.122335
1875.000000	39.565462
1874.000000	39.974995
1873.000000	40.362979
1872.000000	40.683003
1871.000000	40.967886
1870.000000	41.188565
1869.000000	41.395431
1868.000000	41.575886
1867.000000	41.700315
1866.000000	41.767834
1865.000000	41.838005
1864.000000	41.895799
1863.000000	41.951494
1862.000000	42.014261
1861.000000	42.051943
1860.000000	42.084874
1859.000000	42.070619
1858.000000	42.030616
1857.000000	42.001774
1856.000000	41.937128
1855.000000	41.878118
1854.000000	41.797892
1853.000000	41.678214
1852.000000	41.580196
1851.000000	41.530579
1850.000000	41.484167
1849.000000	41.402503
1848.000000	41.280616
1847.000000	41.139832
1846.000000	40.995070
1845.000000	40.876719
1844.000000	40.790414
1843.000000	40.777043
1842.000000	40.757594
1841.000000	40.692175
1840.000000	40.608522
1839.000000	40.528848
1838.000000	40.458456
1837.000000	40.366847
1836.000000	40.246948
1835.000000	40.102849
1834.000000	39.957203
1833.000000	39.843935
1832.000000	39.744591
1831.000000	39.624582
1830.000000	39.501147
1829.000000	39.365557
1828.000000	39.229194
1827.000000	39.112500
1826.000000	39.005420
1825.000000	38.898451
1824.000000	38.814025
1823.000000	38.780210
1822.000000	38.781868
1821.000000	38.755236
1820.000000	38.678435
1819.000000	38.608816
1818.000000	38.566382
1817.000000	38.545939
1816.000000	38.532789
1815.000000	38.511572
1814.000000	38.498200
1813.000000	38.484498
1812.000000	38.450794
1811.000000	38.391563
1810.000000	38.316530
1809.000000	38.236745
1808.000000	38.182708
1807.000000	38.144804
1806.000000	38.073528
1805.000000	37.994296
1804.000000	37.927551
1803.000000	37.872629
1802.000000	37.804448
1801.000000	37.728420
1800.000000	37.652613
1799.000000	37.583437
1798.000000	37.524537
1797.000000	37.459008
1796.000000	37.393920
1795.000000	37.338004
1794.000000	37.265623
1793.000000	37.193684
1792.000000	37.123182
1791.000000	37.057100
1790.000000	36.972453
1789.000000	36.887253
1788.000000	36.801611
1787.000000	36.733540
1786.000000	36.639500
1785.000000	36.519270
1784.000000	36.408765
1783.000000	36.285661
1782.000000	36.184328
1781.000000	36.087636
1780.000000	35.990502
1779.000000	35.874360
1778.000000	35.734350
1777.000000	35.591246
1776.000000	35.446042
1775.000000	35.286030
1774.000000	35.110326
1773.000000	34.920809
1772.000000	34.734718
1771.000000	34.558020
1770.000000	34.387068
1769.000000	34.216669
1768.000000	34.061630
1767.000000	33.915873
1766.000000	33.810893
1765.000000	33.710665
1764.000000	33.668120
1763.000000	33.645246
1762.000000	33.691437
1761.000000	33.772216
1760.000000	33.885153
1759.000000	33.978088
1758.000000	34.085057
1757.000000	34.170588
1756.000000	34.262971
1755.000000	34.307062
1754.000000	34.322754
1753.000000	34.310930
1752.000000	34.297117
1751.000000	34.250373
1750.000000	34.173351
1749.000000	34.077985
1748.000000	33.964275
1747.000000	33.835315
1746.000000	33.668673
1745.000000	33.453629
1744.000000	33.211512
1743.000000	32.926408
1742.000000	32.613899
1741.000000	32.275752
1740.000000	31.936611
1739.000000	31.592055
1738.000000	31.298222
1737.000000	31.021406
1736.000000	30.838077
1735.000000	30.718289
1734.000000	30.671545
1733.000000	30.701492
1732.000000	30.788239
1731.000000	30.921619
1730.000000	31.052900
1729.000000	31.255677
1728.000000	31.399887
1727.000000	31.558793
1726.000000	31.704439
1725.000000	31.811409
1724.000000	31.846549
1723.000000	31.896719
1722.000000	31.929318
1721.000000	31.932523
1720.000000	31.930312
1719.000000	31.940810
1718.000000	31.946115
1717.000000	32.015402
1716.000000	32.086125
1715.000000	32.166794
1714.000000	32.240280
1713.000000	32.293986
1712.000000	32.354874
1711.000000	32.362278
1710.000000	32.371560
1709.000000	32.346918
1708.000000	32.297411
1707.000000	32.229672
1706.000000	32.182707
1705.000000	32.083583
1704.000000	32.007887
1703.000000	31.851854
1702.000000	31.688085
1701.000000	31.471715
1700.000000	31.218105
1699.000000	30.966153
1698.000000	30.722709
1697.000000	30.563029
1696.000000	30.440368
1695.000000	30.427992
1694.000000	30.531646
1693.000000	30.719063
1692.000000	30.920293
1691.000000	31.160421
1690.000000	31.374139
1689.000000	31.536692
1688.000000	31.595371
1687.000000	31.628191
1686.000000	31.600233
1685.000000	31.619350
1684.000000	31.755382
1683.000000	32.057725
1682.000000	32.559420
1681.000000	33.226099
1680.000000	34.020190
1679.000000	34.872187
1678.000000	35.601854
1677.000000	36.339588
1676.000000	36.982619
1675.000000	37.537467
1674.000000	38.023469
1673.000000	38.406149
1672.000000	38.769491
1671.000000	39.063215
1670.000000	39.343125
1669.000000	39.558610
1668.000000	39.776969
1667.000000	39.943501
1666.000000	40.105722
1665.000000	40.250816
1664.000000	40.364195
1663.000000	40.430719
1662.000000	40.523985
1661.000000	40.614379
1660.000000	40.672836
1659.000000	40.695379
1658.000000	40.744775
1657.000000	40.771517
1656.000000	40.792845
1655.000000	40.800580
1654.000000	40.801022
1653.000000	40.789751
1652.000000	40.751737
1651.000000	40.748974
1650.000000	40.717922
1649.000000	40.690627
1648.000000	40.636590
1647.000000	40.575370
1646.000000	40.526195
1645.000000	40.462434
1644.000000	40.394805
1643.000000	40.342093
1642.000000	40.261093
1641.000000	40.177661
1640.000000	40.113458
1639.000000	40.030137
1638.000000	39.962949
1637.000000	39.885154
1636.000000	39.808021
1635.000000	39.715749
1634.000000	39.630439
1633.000000	39.543692
1632.000000	39.442690
1631.000000	39.344672
1630.000000	39.233393
1629.000000	39.120014
1628.000000	39.027853
1627.000000	38.935581
1626.000000	38.830932
1625.000000	38.729930
1624.000000	38.633238
1623.000000	38.520412
1622.000000	38.410128
1621.000000	38.321944
1620.000000	38.244591
1619.000000	38.140495
1618.000000	38.027558
1617.000000	37.922025
1616.000000	37.814614
1615.000000	37.730962
1614.000000	37.647972
1613.000000	37.548075
1612.000000	37.450057
1611.000000	37.369388
1610.000000	37.290598
1609.000000	37.192800
1608.000000	37.101854
1607.000000	37.016876
1606.000000	36.908912
