PE UV       SUBTECH     SPECTRUM    ASCII       PEDS        4.00        
   -1
CICIMAUCR0213-1.Sample.ASC
24/06/13
12:18:31.00
24/06/13
12:18:31.00
Vinicio Soto Monge
C. resplendens. Sex M. Ventral
250,000000
1
Lambda 1050
1050L1511233
PerkinElmer UV WinLab 6.3.2.0749 / 2.02.05 Lambda 900 UV/VIS/NIR, Aug  7 2015 09:38:08

0
0
3350/servo 860,8/2
0
0
UV/VIS
1
1
1
DoubleDePol,CommonBeamDepol,RBeamAtt,SBeamAtt,60mm sphere, WB InGaAs Detector
0
0
0
0
Program
Program
3350/servo 860,8/2
3350/0,2 860,8/0,2
3350/0,2 860,8/0,2
0
15.00
 
 
 
0
 
860,8
319,2
860,8
Front
100
on
S:100 R:100
0
0
0
0
 
0
 
 
 
0
 
 
0
0
0
0
0
 
 
 
 
0
0


0
0
#HDR
-1
-1
#GR
nm
%R
1.0
0.0
2500,000000
-1,000000
2251
8
55,438000
4,312800
#DATA
2482.000000	5.090488
2481.000000	5.110933
2480.000000	5.135309
2479.000000	5.092285
2478.000000	5.122054
2477.000000	5.082288
2476.000000	5.085882
2475.000000	5.061169
2474.000000	5.086893
2473.000000	5.140813
2472.000000	5.088915
2471.000000	5.033311
2470.000000	5.015000
2469.000000	5.056676
2468.000000	5.091274
2467.000000	5.113292
2466.000000	5.077233
2465.000000	5.056339
2464.000000	5.072739
2463.000000	5.101834
2462.000000	5.064539
2461.000000	5.068696
2460.000000	5.107787
2459.000000	5.131040
2458.000000	5.110483
2457.000000	5.086332
2456.000000	5.113629
2455.000000	5.104530
2454.000000	5.101609
2453.000000	5.145419
2452.000000	5.147778
2451.000000	5.178670
2450.000000	5.193385
2449.000000	5.197991
2448.000000	5.219559
2447.000000	5.210797
2446.000000	5.227085
2445.000000	5.230905
2444.000000	5.214616
2443.000000	5.245845
2442.000000	5.263818
2441.000000	5.298192
2440.000000	5.285498
2439.000000	5.307516
2438.000000	5.322231
2437.000000	5.343687
2436.000000	5.360312
2435.000000	5.364019
2434.000000	5.367951
2433.000000	5.383116
2432.000000	5.411761
2431.000000	5.424118
2430.000000	5.426140
2429.000000	5.422657
2428.000000	5.441417
2427.000000	5.465231
2426.000000	5.488709
2425.000000	5.481632
2424.000000	5.495561
2423.000000	5.506458
2422.000000	5.513085
2421.000000	5.516680
2420.000000	5.521286
2419.000000	5.531845
2418.000000	5.529261
2417.000000	5.554761
2416.000000	5.583855
2415.000000	5.566219
2414.000000	5.570263
2413.000000	5.580935
2412.000000	5.597335
2411.000000	5.599694
2410.000000	5.627328
2409.000000	5.645863
2408.000000	5.619690
2407.000000	5.626766
2406.000000	5.638898
2405.000000	5.659118
2404.000000	5.645975
2403.000000	5.663387
2402.000000	5.680462
2401.000000	5.676530
2400.000000	5.692032
2399.000000	5.698547
2398.000000	5.714611
2397.000000	5.736628
2396.000000	5.739100
2395.000000	5.739774
2394.000000	5.751681
2393.000000	5.746514
2392.000000	5.750558
2391.000000	5.763701
2390.000000	5.773024
2389.000000	5.793357
2388.000000	5.800995
2387.000000	5.810543
2386.000000	5.806500
2385.000000	5.792907
2384.000000	5.795154
2383.000000	5.805039
2382.000000	5.810206
2381.000000	5.826719
2380.000000	5.824922
2379.000000	5.813464
2378.000000	5.815598
2377.000000	5.813801
2376.000000	5.808971
2375.000000	5.818407
2374.000000	5.818294
2373.000000	5.814026
2372.000000	5.814026
2371.000000	5.812790
2370.000000	5.799423
2369.000000	5.799647
2368.000000	5.792346
2367.000000	5.766621
2366.000000	5.774822
2365.000000	5.784033
2364.000000	5.756399
2363.000000	5.751232
2362.000000	5.758870
2361.000000	5.738313
2360.000000	5.720565
2359.000000	5.710567
2358.000000	5.702479
2357.000000	5.701468
2356.000000	5.689561
2355.000000	5.685180
2354.000000	5.678103
2353.000000	5.673497
2352.000000	5.673834
2351.000000	5.676305
2350.000000	5.672261
2349.000000	5.664847
2348.000000	5.678777
2347.000000	5.679900
2346.000000	5.679563
2345.000000	5.695627
2344.000000	5.720565
2343.000000	5.723598
2342.000000	5.704501
2341.000000	5.723935
2340.000000	5.753703
2339.000000	5.747974
2338.000000	5.747525
2337.000000	5.765161
2336.000000	5.767632
2335.000000	5.761791
2334.000000	5.753928
2333.000000	5.756399
2332.000000	5.757410
2331.000000	5.738538
2330.000000	5.727529
2329.000000	5.717981
2328.000000	5.714049
2327.000000	5.712477
2326.000000	5.704389
2325.000000	5.675294
2324.000000	5.667319
2323.000000	5.668554
2322.000000	5.641257
2321.000000	5.599245
2320.000000	5.593404
2319.000000	5.589697
2318.000000	5.569589
2317.000000	5.546561
2316.000000	5.509041
2315.000000	5.498819
2314.000000	5.474555
2313.000000	5.448831
2312.000000	5.432543
2311.000000	5.415019
2310.000000	5.403898
2309.000000	5.372557
2308.000000	5.362447
2307.000000	5.358515
2306.000000	5.330207
2305.000000	5.356268
2304.000000	5.345372
2303.000000	5.337396
2302.000000	5.339081
2301.000000	5.359863
2300.000000	5.390193
2299.000000	5.401426
2298.000000	5.386037
2297.000000	5.432430
2296.000000	5.455009
2295.000000	5.439732
2294.000000	5.464557
2293.000000	5.473993
2292.000000	5.490506
2291.000000	5.509491
2290.000000	5.519151
2289.000000	5.512861
2288.000000	5.532070
2287.000000	5.536114
2286.000000	5.517242
2285.000000	5.512861
2284.000000	5.517916
2283.000000	5.527464
2282.000000	5.523645
2281.000000	5.495337
2280.000000	5.486687
2279.000000	5.499044
2278.000000	5.480509
2277.000000	5.460513
2276.000000	5.453773
2275.000000	5.451976
2274.000000	5.442652
2273.000000	5.426140
2272.000000	5.440518
2271.000000	5.428948
2270.000000	5.441417
2269.000000	5.432093
2268.000000	5.443439
2267.000000	5.460626
2266.000000	5.479610
2265.000000	5.507918
2264.000000	5.547347
2263.000000	5.546673
2262.000000	5.585877
2261.000000	5.613399
2260.000000	5.668442
2259.000000	5.742694
2258.000000	5.786841
2257.000000	5.859970
2256.000000	5.883560
2255.000000	5.950848
2254.000000	6.025324
2253.000000	6.088456
2252.000000	6.164168
2251.000000	6.225839
2250.000000	6.280882
2249.000000	6.342666
2248.000000	6.412312
2247.000000	6.478589
2246.000000	6.526780
2245.000000	6.565759
2244.000000	6.634956
2243.000000	6.683372
2242.000000	6.701795
2241.000000	6.741785
2240.000000	6.787505
2239.000000	6.830865
2238.000000	6.858387
2237.000000	6.882314
2236.000000	6.917586
2235.000000	6.947242
2234.000000	6.955780
2233.000000	6.989929
2232.000000	7.007790
2231.000000	7.025876
2230.000000	7.021045
2229.000000	7.050814
2228.000000	7.055981
2227.000000	7.063732
2226.000000	7.082379
2225.000000	7.087322
2224.000000	7.071820
2223.000000	7.047219
2222.000000	7.046994
2221.000000	7.092152
2220.000000	7.068225
2219.000000	7.027561
2218.000000	7.034750
2217.000000	7.031717
2216.000000	7.015990
2215.000000	7.018911
2214.000000	7.029021
2213.000000	7.006667
2212.000000	6.963868
2211.000000	6.965103
2210.000000	6.974764
2209.000000	6.972180
2208.000000	6.949938
2207.000000	6.955106
2206.000000	6.935223
2205.000000	6.932077
2204.000000	6.922978
2203.000000	6.932639
2202.000000	6.907477
2201.000000	6.906690
2200.000000	6.918710
2199.000000	6.913880
2198.000000	6.911184
2197.000000	6.873777
2196.000000	6.903096
2195.000000	6.891188
2194.000000	6.899052
2193.000000	6.875125
2192.000000	6.888717
2191.000000	6.891076
2190.000000	6.867486
2189.000000	6.867374
2188.000000	6.872316
2187.000000	6.869059
2186.000000	6.860184
2185.000000	6.853894
2184.000000	6.845469
2183.000000	6.836594
2182.000000	6.842436
2181.000000	6.835808
2180.000000	6.835920
2179.000000	6.824912
2178.000000	6.815700
2177.000000	6.822216
2176.000000	6.828843
2175.000000	6.812443
2174.000000	6.809410
2173.000000	6.826709
2172.000000	6.829967
2171.000000	6.824125
2170.000000	6.833898
2169.000000	6.848277
2168.000000	6.823002
2167.000000	6.833000
2166.000000	6.843896
2165.000000	6.881303
2164.000000	6.868385
2163.000000	6.862880
2162.000000	6.865689
2161.000000	6.889166
2160.000000	6.883550
2159.000000	6.908151
2158.000000	6.903882
2157.000000	6.916576
2156.000000	6.935560
2155.000000	6.938143
2154.000000	6.966451
2153.000000	6.973865
2152.000000	6.990715
2151.000000	6.995321
2150.000000	7.008913
2149.000000	7.022955
2148.000000	7.063620
2147.000000	7.069910
2146.000000	7.074853
2145.000000	7.092602
2144.000000	7.113832
2143.000000	7.133154
2142.000000	7.135962
2141.000000	7.146521
2140.000000	7.159777
2139.000000	7.179660
2138.000000	7.168988
2137.000000	7.170448
2136.000000	7.189320
2135.000000	7.187635
2134.000000	7.183479
2133.000000	7.188646
2132.000000	7.197970
2131.000000	7.204598
2130.000000	7.214483
2129.000000	7.225716
2128.000000	7.231558
2127.000000	7.224593
2126.000000	7.227289
2125.000000	7.247397
2124.000000	7.237287
2123.000000	7.217067
2122.000000	7.218527
2121.000000	7.221560
2120.000000	7.215606
2119.000000	7.193701
2118.000000	7.204598
2117.000000	7.188197
2116.000000	7.161237
2115.000000	7.159889
2114.000000	7.167752
2113.000000	7.147532
2112.000000	7.137535
2111.000000	7.138883
2110.000000	7.137422
2109.000000	7.119449
2108.000000	7.102936
2107.000000	7.101139
2106.000000	7.089007
2105.000000	7.069798
2104.000000	7.056767
2103.000000	7.042950
2102.000000	7.020484
2101.000000	7.012171
2100.000000	7.012957
2099.000000	7.009138
2098.000000	6.997568
2097.000000	6.991839
2096.000000	6.983077
2095.000000	6.970495
2094.000000	6.969372
2093.000000	6.952971
2092.000000	6.949601
2091.000000	6.943760
2090.000000	6.934324
2089.000000	6.925899
2088.000000	6.917362
2087.000000	6.917474
2086.000000	6.908712
2085.000000	6.899052
2084.000000	6.884785
2083.000000	6.873552
2082.000000	6.875012
2081.000000	6.861645
2080.000000	6.850861
2079.000000	6.843110
2078.000000	6.829068
2077.000000	6.814577
2076.000000	6.805703
2075.000000	6.798513
2074.000000	6.776721
2073.000000	6.766049
2072.000000	6.745380
2071.000000	6.723475
2070.000000	6.707524
2069.000000	6.686293
2068.000000	6.674498
2067.000000	6.672026
2066.000000	6.654615
2065.000000	6.622600
2064.000000	6.616421
2063.000000	6.618443
2062.000000	6.593168
2061.000000	6.569466
2060.000000	6.572724
2059.000000	6.555986
2058.000000	6.528914
2057.000000	6.530936
2056.000000	6.536103
2055.000000	6.535766
2054.000000	6.530487
2053.000000	6.527791
2052.000000	6.538350
2051.000000	6.553290
2050.000000	6.572724
2049.000000	6.585754
2048.000000	6.595415
2047.000000	6.604739
2046.000000	6.633608
2045.000000	6.674947
2044.000000	6.694942
2043.000000	6.711568
2042.000000	6.738864
2041.000000	6.759084
2040.000000	6.782225
2039.000000	6.807388
2038.000000	6.836707
2037.000000	6.849850
2036.000000	6.875349
2035.000000	6.886470
2034.000000	6.907477
2033.000000	6.940390
2032.000000	6.926798
2031.000000	6.945333
2030.000000	6.961509
2029.000000	6.969260
2028.000000	6.978696
2027.000000	6.984312
2026.000000	6.992850
2025.000000	7.008913
2024.000000	7.027111
2023.000000	7.013744
2022.000000	7.031155
2021.000000	7.029470
2020.000000	7.023966
2019.000000	7.045534
2018.000000	7.044972
2017.000000	7.022169
2016.000000	7.033402
2015.000000	7.030594
2014.000000	7.015541
2013.000000	7.013070
2012.000000	7.016777
2011.000000	7.004757
2010.000000	6.993074
2009.000000	6.999814
2008.000000	7.000264
2007.000000	6.971843
2006.000000	6.953533
2005.000000	6.943985
2004.000000	6.931853
2003.000000	6.910285
2002.000000	6.880966
2001.000000	6.882314
2000.000000	6.876697
1999.000000	6.863554
1998.000000	6.827720
1997.000000	6.783461
1996.000000	6.792223
1995.000000	6.769756
1994.000000	6.741897
1993.000000	6.699436
1992.000000	6.701008
1991.000000	6.681912
1990.000000	6.636192
1989.000000	6.645740
1988.000000	6.601818
1987.000000	6.582497
1986.000000	6.530711
1985.000000	6.526780
1984.000000	6.499033
1983.000000	6.461739
1982.000000	6.455111
1981.000000	6.435116
1980.000000	6.400966
1979.000000	6.394676
1978.000000	6.365469
1977.000000	6.338172
1976.000000	6.316043
1975.000000	6.290094
1974.000000	6.269424
1973.000000	6.245834
1972.000000	6.230669
1971.000000	6.204046
1970.000000	6.186859
1969.000000	6.167426
1968.000000	6.146869
1967.000000	6.114405
1966.000000	6.103733
1965.000000	6.089354
1964.000000	6.085984
1963.000000	6.055879
1962.000000	6.031503
1961.000000	6.028357
1960.000000	6.001510
1959.000000	5.995219
1958.000000	5.982301
1957.000000	5.979043
1956.000000	5.956015
1955.000000	5.929392
1954.000000	5.927370
1953.000000	5.900859
1952.000000	5.880639
1951.000000	5.890749
1950.000000	5.867609
1949.000000	5.823799
1948.000000	5.837728
1947.000000	5.825708
1946.000000	5.815598
1945.000000	5.805826
1944.000000	5.818519
1943.000000	5.823911
1942.000000	5.775833
1941.000000	5.782236
1940.000000	5.799310
1939.000000	5.781899
1938.000000	5.771002
1937.000000	5.788414
1936.000000	5.751232
1935.000000	5.781449
1934.000000	5.781786
1933.000000	5.795828
1932.000000	5.797738
1931.000000	5.793469
1930.000000	5.818631
1929.000000	5.819193
1928.000000	5.842895
1927.000000	5.839076
1926.000000	5.847726
1925.000000	5.872551
1924.000000	5.909397
1923.000000	5.920068
1922.000000	5.933661
1921.000000	5.956127
1920.000000	5.994882
1919.000000	6.052397
1918.000000	6.088006
1917.000000	6.115640
1916.000000	6.164168
1915.000000	6.149902
1914.000000	6.201126
1913.000000	6.265380
1912.000000	6.336263
1911.000000	6.363559
1910.000000	6.422759
1909.000000	6.466457
1908.000000	6.558233
1907.000000	6.590585
1906.000000	6.639450
1905.000000	6.740100
1904.000000	6.830079
1903.000000	6.905792
1902.000000	6.986110
1901.000000	7.075639
1900.000000	7.165169
1899.000000	7.276603
1898.000000	7.376580
1897.000000	7.501606
1896.000000	7.590574
1895.000000	7.705042
1894.000000	7.846694
1893.000000	7.962060
1892.000000	8.103150
1891.000000	8.265022
1890.000000	8.460482
1889.000000	8.634261
1888.000000	8.807479
1887.000000	8.986650
1886.000000	9.184918
1885.000000	9.454855
1884.000000	9.675927
1883.000000	9.978103
1882.000000	10.274100
1881.000000	10.544486
1880.000000	10.846662
1879.000000	11.138055
1878.000000	11.463821
1877.000000	11.788463
1876.000000	12.073565
1875.000000	12.419214
1874.000000	12.723300
1873.000000	13.042550
1872.000000	13.385054
1871.000000	13.675772
1870.000000	13.960200
1869.000000	14.263724
1868.000000	14.516698
1867.000000	14.731591
1866.000000	14.930533
1865.000000	15.074994
1864.000000	15.218892
1863.000000	15.363802
1862.000000	15.500849
1861.000000	15.660699
1860.000000	15.790443
1859.000000	15.928389
1858.000000	16.069367
1857.000000	16.159907
1856.000000	16.234833
1855.000000	16.297515
1854.000000	16.382102
1853.000000	16.425463
1852.000000	16.426923
1851.000000	16.442537
1850.000000	16.449502
1849.000000	16.477361
1848.000000	16.509263
1847.000000	16.537459
1846.000000	16.518137
1845.000000	16.484550
1844.000000	16.468936
1843.000000	16.431753
1842.000000	16.442313
1841.000000	16.464442
1840.000000	16.457927
1839.000000	16.455905
1838.000000	16.436921
1837.000000	16.397716
1836.000000	16.376822
1835.000000	16.352895
1834.000000	16.311220
1833.000000	16.256514
1832.000000	16.201358
1831.000000	16.159458
1830.000000	16.128342
1829.000000	16.087228
1828.000000	16.025444
1827.000000	15.975007
1826.000000	15.920301
1825.000000	15.864583
1824.000000	15.806395
1823.000000	15.770111
1822.000000	15.746297
1821.000000	15.725964
1820.000000	15.706306
1819.000000	15.691253
1818.000000	15.661260
1817.000000	15.626999
1816.000000	15.607340
1815.000000	15.588019
1814.000000	15.573865
1813.000000	15.550500
1812.000000	15.525225
1811.000000	15.514104
1810.000000	15.485010
1809.000000	15.459173
1808.000000	15.421092
1807.000000	15.385707
1806.000000	15.363241
1805.000000	15.346054
1804.000000	15.289101
1803.000000	15.231249
1802.000000	15.202043
1801.000000	15.165647
1800.000000	15.117568
1799.000000	15.072859
1798.000000	15.028263
1797.000000	14.974680
1796.000000	14.932668
1795.000000	14.899417
1794.000000	14.852799
1793.000000	14.817863
1792.000000	14.776300
1791.000000	14.718336
1790.000000	14.686546
1789.000000	14.643185
1788.000000	14.600948
1787.000000	14.552645
1786.000000	14.511643
1785.000000	14.472551
1784.000000	14.419418
1783.000000	14.376619
1782.000000	14.326406
1781.000000	14.265521
1780.000000	14.201716
1779.000000	14.159479
1778.000000	14.109828
1777.000000	14.043663
1776.000000	13.973230
1775.000000	13.906842
1774.000000	13.843373
1773.000000	13.788330
1772.000000	13.712955
1771.000000	13.620504
1770.000000	13.556475
1769.000000	13.468293
1768.000000	13.380898
1767.000000	13.342255
1766.000000	13.274406
1765.000000	13.212173
1764.000000	13.186000
1763.000000	13.159489
1762.000000	13.149379
1761.000000	13.167465
1760.000000	13.195436
1759.000000	13.226103
1758.000000	13.274855
1757.000000	13.319564
1756.000000	13.374719
1755.000000	13.425943
1754.000000	13.486716
1753.000000	13.519742
1752.000000	13.537490
1751.000000	13.544680
1750.000000	13.541085
1749.000000	13.517270
1748.000000	13.512328
1747.000000	13.483346
1746.000000	13.431785
1745.000000	13.386402
1744.000000	13.314284
1743.000000	13.220711
1742.000000	13.123543
1741.000000	12.996719
1740.000000	12.864839
1739.000000	12.742846
1738.000000	12.610293
1737.000000	12.479200
1736.000000	12.347208
1735.000000	12.261274
1734.000000	12.183314
1733.000000	12.155231
1732.000000	12.162870
1731.000000	12.173991
1730.000000	12.204882
1729.000000	12.257904
1728.000000	12.313845
1727.000000	12.387873
1726.000000	12.457744
1725.000000	12.538624
1724.000000	12.589736
1723.000000	12.632422
1722.000000	12.672188
1721.000000	12.718245
1720.000000	12.735544
1719.000000	12.785083
1718.000000	12.811594
1717.000000	12.854729
1716.000000	12.893260
1715.000000	12.944708
1714.000000	13.007952
1713.000000	13.068724
1712.000000	13.103884
1711.000000	13.157243
1710.000000	13.189257
1709.000000	13.204198
1708.000000	13.209702
1707.000000	13.202513
1706.000000	13.189819
1705.000000	13.161624
1704.000000	13.120060
1703.000000	13.085574
1702.000000	13.003795
1701.000000	12.933475
1700.000000	12.849450
1699.000000	12.750035
1698.000000	12.626806
1697.000000	12.545813
1696.000000	12.484592
1695.000000	12.419776
1694.000000	12.381470
1693.000000	12.415732
1692.000000	12.489534
1691.000000	12.566483
1690.000000	12.661629
1689.000000	12.745092
1688.000000	12.818109
1687.000000	12.893709
1686.000000	12.946618
1685.000000	12.974814
1684.000000	13.014467
1683.000000	13.101638
1682.000000	13.217902
1681.000000	13.449196
1680.000000	13.732276
1679.000000	14.038271
1678.000000	14.398299
1677.000000	14.781692
1676.000000	15.158570
1675.000000	15.506465
1674.000000	15.781906
1673.000000	16.072849
1672.000000	16.319083
1671.000000	16.490953
1670.000000	16.705284
1669.000000	16.861203
1668.000000	16.998362
1667.000000	17.117547
1666.000000	17.234711
1665.000000	17.317837
1664.000000	17.404221
1663.000000	17.469936
1662.000000	17.526889
1661.000000	17.576091
1660.000000	17.634392
1659.000000	17.676629
1658.000000	17.694939
1657.000000	17.712576
1656.000000	17.715384
1655.000000	17.721562
1654.000000	17.742906
1653.000000	17.725382
1652.000000	17.722349
1651.000000	17.668204
1650.000000	17.667193
1649.000000	17.635515
1648.000000	17.610465
1647.000000	17.560589
1646.000000	17.502063
1645.000000	17.476114
1644.000000	17.426463
1643.000000	17.390404
1642.000000	17.354345
1641.000000	17.297280
1640.000000	17.229768
1639.000000	17.168097
1638.000000	17.123164
1637.000000	17.047114
1636.000000	17.003978
1635.000000	16.955675
1634.000000	16.888724
1633.000000	16.814023
1632.000000	16.744713
1631.000000	16.677426
1630.000000	16.618788
1629.000000	16.569249
1628.000000	16.508140
1627.000000	16.439504
1626.000000	16.347728
1625.000000	16.281227
1624.000000	16.203043
1623.000000	16.145191
1622.000000	16.080937
1621.000000	16.018929
1620.000000	15.934342
1619.000000	15.885365
1618.000000	15.814707
1617.000000	15.733940
1616.000000	15.697319
1615.000000	15.645871
1614.000000	15.570271
1613.000000	15.506915
1612.000000	15.468946
1611.000000	15.419295
1610.000000	15.337067
1609.000000	15.282698
1608.000000	15.197886
1607.000000	15.158345
1606.000000	15.114086
1605.000000	15.058593
1604.000000	14.992991
1603.000000	14.936824
1602.000000	14.865380
1601.000000	14.814830
1600.000000	14.768886
1599.000000	14.700812
1598.000000	14.624201
1597.000000	14.579605
1596.000000	14.520405
1595.000000	14.465250
1594.000000	14.415598
1593.000000	14.358421
1592.000000	14.324047
1591.000000	14.282933
1590.000000	14.240808
1589.000000	14.192617
1588.000000	14.152626
1587.000000	14.107806
1586.000000	14.053998
1585.000000	14.024230
1584.000000	13.973343
1583.000000	13.972219
1582.000000	13.919872
1581.000000	13.867076
1580.000000	13.841576
