PE UV       SUBTECH     SPECTRUM    ASCII       PEDS        4.00        
   -1
INBUCR0145-2.Sample.ASC
24/04/29
15:04:26.00
24/04/29
15:04:26.00
Vinicio Soto Monge
C. kalinini
250,000000
1
Lambda 1050
1050L1511233
PerkinElmer UV WinLab 6.3.2.0749 / 2.02.05 Lambda 900 UV/VIS/NIR, Aug  7 2015 09:38:08

0
0
3350/servo 860,8/2
0
0
UV/VIS
1
1
1
DoubleDePol,CommonBeamDepol,RBeamAtt,SBeamAtt,60mm sphere, WB InGaAs Detector
0
0
0
0
Program
Program
3350/servo 860,8/2
3350/0,2 860,8/0,2
3350/0,2 860,8/0,2
0
15.00
 
 
 
0
 
860,8
319,2
860,8
Front
100
on
S:100 R:100
0
0
0
0
 
0
 
 
 
0
 
 
0
0
0
0
0
 
 
 
 
0
0


0
0
#HDR
-1
-1
#GR
nm
%R
1.0
0.0
2500,000000
-1,000000
2251
8
86,290300
5,575000
#DATA
2482.000000	14.211576
2481.000000	14.217076
2480.000000	14.236094
2479.000000	14.237240
2478.000000	14.228991
2477.000000	14.342987
2476.000000	14.366244
2475.000000	14.347799
2474.000000	14.373233
2473.000000	14.394199
2472.000000	14.397063
2471.000000	14.499259
2470.000000	14.536265
2469.000000	14.595497
2468.000000	14.680965
2467.000000	14.655302
2466.000000	14.749019
2465.000000	14.846173
2464.000000	14.906322
2463.000000	14.882721
2462.000000	14.979760
2461.000000	15.090663
2460.000000	15.163414
2459.000000	15.232614
2458.000000	15.271911
2457.000000	15.389688
2456.000000	15.412143
2455.000000	15.532555
2454.000000	15.647468
2453.000000	15.732134
2452.000000	15.837766
2451.000000	15.913267
2450.000000	16.010193
2449.000000	16.128428
2448.000000	16.225467
2447.000000	16.334193
2446.000000	16.446356
2445.000000	16.546031
2444.000000	16.662433
2443.000000	16.746756
2442.000000	16.869115
2441.000000	16.997890
2440.000000	17.102034
2439.000000	17.210530
2438.000000	17.319485
2437.000000	17.419962
2436.000000	17.525022
2435.000000	17.628592
2434.000000	17.754503
2433.000000	17.842721
2432.000000	17.947093
2431.000000	18.053413
2430.000000	18.162483
2429.000000	18.251159
2428.000000	18.360114
2427.000000	18.453144
2426.000000	18.540331
2425.000000	18.638287
2424.000000	18.707257
2423.000000	18.788945
2422.000000	18.885985
2421.000000	18.960798
2420.000000	19.040195
2419.000000	19.120622
2418.000000	19.160606
2417.000000	19.202653
2416.000000	19.263260
2415.000000	19.316076
2414.000000	19.390317
2413.000000	19.455736
2412.000000	19.497782
2411.000000	19.538684
2410.000000	19.582334
2409.000000	19.622204
2408.000000	19.644087
2407.000000	19.680176
2406.000000	19.723139
2405.000000	19.751323
2404.000000	19.806316
2403.000000	19.840572
2402.000000	19.861195
2401.000000	19.910803
2400.000000	19.973129
2399.000000	20.054358
2398.000000	20.123557
2397.000000	20.158157
2396.000000	20.183248
2395.000000	20.189893
2394.000000	20.195277
2393.000000	20.208109
2392.000000	20.244428
2391.000000	20.315231
2390.000000	20.334135
2389.000000	20.334822
2388.000000	20.350518
2387.000000	20.369193
2386.000000	20.384316
2385.000000	20.391763
2384.000000	20.392450
2383.000000	20.399095
2382.000000	20.404824
2381.000000	20.401960
2380.000000	20.407574
2379.000000	20.388784
2378.000000	20.379848
2377.000000	20.379275
2376.000000	20.371484
2375.000000	20.367016
2374.000000	20.364610
2373.000000	20.344790
2372.000000	20.338603
2371.000000	20.338374
2370.000000	20.320272
2369.000000	20.312596
2368.000000	20.318668
2367.000000	20.343530
2366.000000	20.343873
2365.000000	20.335051
2364.000000	20.334020
2363.000000	20.311336
2362.000000	20.323824
2361.000000	20.329094
2360.000000	20.308128
2359.000000	20.309617
2358.000000	20.317752
2357.000000	20.316950
2356.000000	20.330125
2355.000000	20.318554
2354.000000	20.287849
2353.000000	20.266425
2352.000000	20.250271
2351.000000	20.232512
2350.000000	20.261040
2349.000000	20.260353
2348.000000	20.222201
2347.000000	20.211890
2346.000000	20.204901
2345.000000	20.192986
2344.000000	20.205360
2343.000000	20.186570
2342.000000	20.175457
2341.000000	20.184852
2340.000000	20.182102
2339.000000	20.182560
2338.000000	20.195507
2337.000000	20.203297
2336.000000	20.199631
2335.000000	20.213150
2334.000000	20.238928
2333.000000	20.248094
2332.000000	20.264477
2331.000000	20.278798
2330.000000	20.309961
2329.000000	20.353268
2328.000000	20.361288
2327.000000	20.379390
2326.000000	20.431862
2325.000000	20.487772
2324.000000	20.495906
2323.000000	20.533485
2322.000000	20.553534
2321.000000	20.568657
2320.000000	20.583437
2319.000000	20.608298
2318.000000	20.618495
2317.000000	20.601997
2316.000000	20.600851
2315.000000	20.597300
2314.000000	20.571865
2313.000000	20.576448
2312.000000	20.571063
2311.000000	20.526152
2310.000000	20.525350
2309.000000	20.487657
2308.000000	20.449047
2307.000000	20.421780
2306.000000	20.414791
2305.000000	20.397033
2304.000000	20.372974
2303.000000	20.357965
2302.000000	20.342842
2301.000000	20.323136
2300.000000	20.331729
2299.000000	20.338718
2298.000000	20.331500
2297.000000	20.347769
2296.000000	20.349831
2295.000000	20.348571
2294.000000	20.368964
2293.000000	20.414791
2292.000000	20.417426
2291.000000	20.428654
2290.000000	20.478263
2289.000000	20.497854
2288.000000	20.534172
2287.000000	20.586072
2286.000000	20.624452
2285.000000	20.657792
2284.000000	20.709462
2283.000000	20.754144
2282.000000	20.799170
2281.000000	20.838925
2280.000000	20.878222
2279.000000	20.943297
2278.000000	20.974689
2277.000000	20.992104
2276.000000	21.025902
2275.000000	21.072416
2274.000000	21.118817
2273.000000	21.140470
2272.000000	21.187558
2271.000000	21.268673
2270.000000	21.287691
2269.000000	21.311063
2268.000000	21.390803
2267.000000	21.451066
2266.000000	21.519808
2265.000000	21.590955
2264.000000	21.662561
2263.000000	21.768308
2262.000000	21.869243
2261.000000	21.974875
2260.000000	22.099068
2259.000000	22.218105
2258.000000	22.399467
2257.000000	22.514609
2256.000000	22.666756
2255.000000	22.809280
2254.000000	22.976207
2253.000000	23.167537
2252.000000	23.329079
2251.000000	23.488100
2250.000000	23.626385
2249.000000	23.809122
2248.000000	23.946605
2247.000000	24.095430
2246.000000	24.216071
2245.000000	24.342326
2244.000000	24.485193
2243.000000	24.599876
2242.000000	24.683855
2241.000000	24.770355
2240.000000	24.832680
2239.000000	24.922731
2238.000000	24.961456
2237.000000	25.038904
2236.000000	25.065942
2235.000000	25.085992
2234.000000	25.166419
2233.000000	25.142818
2232.000000	25.155535
2231.000000	25.126778
2230.000000	25.118529
2229.000000	25.092522
2228.000000	25.069609
2227.000000	25.016219
2226.000000	24.994337
2225.000000	24.951603
2224.000000	24.889392
2223.000000	24.829129
2222.000000	24.754888
2221.000000	24.685116
2220.000000	24.610188
2219.000000	24.541904
2218.000000	24.474080
2217.000000	24.389299
2216.000000	24.318954
2215.000000	24.254795
2214.000000	24.163484
2213.000000	24.108949
2212.000000	24.049029
2211.000000	23.942709
2210.000000	23.907422
2209.000000	23.838566
2208.000000	23.811414
2207.000000	23.726289
2206.000000	23.663276
2205.000000	23.630853
2204.000000	23.579068
2203.000000	23.553748
2202.000000	23.518461
2201.000000	23.468853
2200.000000	23.424515
2199.000000	23.406184
2198.000000	23.358752
2197.000000	23.327131
2196.000000	23.291386
2195.000000	23.274315
2194.000000	23.251974
2193.000000	23.257244
2192.000000	23.238455
2191.000000	23.220009
2190.000000	23.177275
2189.000000	23.170401
2188.000000	23.147029
2187.000000	23.139353
2186.000000	23.104409
2185.000000	23.073361
2184.000000	23.077715
2183.000000	23.062019
2182.000000	23.021920
2181.000000	22.997746
2180.000000	23.000495
2179.000000	22.955928
2178.000000	22.951918
2177.000000	22.968416
2176.000000	22.950543
2175.000000	22.968531
2174.000000	22.978727
2173.000000	22.947679
2172.000000	22.949169
2171.000000	22.984799
2170.000000	23.012067
2169.000000	23.033606
2168.000000	23.059269
2167.000000	23.083672
2166.000000	23.126750
2165.000000	23.164558
2164.000000	23.219666
2163.000000	23.266181
2162.000000	23.338473
2161.000000	23.402288
2160.000000	23.451897
2159.000000	23.546416
2158.000000	23.617678
2157.000000	23.716551
2156.000000	23.802592
2155.000000	23.895622
2154.000000	23.989110
2153.000000	24.106887
2152.000000	24.211259
2151.000000	24.316204
2150.000000	24.449677
2149.000000	24.569401
2148.000000	24.680304
2147.000000	24.815037
2146.000000	24.908525
2145.000000	25.014386
2144.000000	25.134913
2143.000000	25.240774
2142.000000	25.340335
2141.000000	25.451008
2140.000000	25.562942
2139.000000	25.679458
2138.000000	25.785664
2137.000000	25.898056
2136.000000	25.999678
2135.000000	26.072430
2134.000000	26.169584
2133.000000	26.281976
2132.000000	26.341208
2131.000000	26.428509
2130.000000	26.521768
2129.000000	26.591541
2128.000000	26.652492
2127.000000	26.731544
2126.000000	26.794328
2125.000000	26.849894
2124.000000	26.916916
2123.000000	26.941778
2122.000000	26.977982
2121.000000	27.025986
2120.000000	27.095529
2119.000000	27.139065
2118.000000	27.143877
2117.000000	27.162208
2116.000000	27.197266
2115.000000	27.241604
2114.000000	27.265206
2113.000000	27.267726
2112.000000	27.279985
2111.000000	27.296712
2110.000000	27.309888
2109.000000	27.328791
2108.000000	27.332343
2107.000000	27.311950
2106.000000	27.311721
2105.000000	27.342654
2104.000000	27.359381
2103.000000	27.351476
2102.000000	27.337384
2101.000000	27.342769
2100.000000	27.340592
2099.000000	27.344602
2098.000000	27.358121
2097.000000	27.373244
2096.000000	27.404636
2095.000000	27.415405
2094.000000	27.406584
2093.000000	27.429383
2092.000000	27.466961
2091.000000	27.479908
2090.000000	27.486667
2089.000000	27.505686
2088.000000	27.530433
2087.000000	27.552201
2086.000000	27.538452
2085.000000	27.524819
2084.000000	27.520236
2083.000000	27.508321
2082.000000	27.492625
2081.000000	27.468336
2080.000000	27.415749
2079.000000	27.365797
2078.000000	27.310231
2077.000000	27.251916
2076.000000	27.192684
2075.000000	27.121422
2074.000000	27.037672
2073.000000	26.937310
2072.000000	26.847946
2071.000000	26.743574
2070.000000	26.647680
2069.000000	26.541933
2068.000000	26.425416
2067.000000	26.293662
2066.000000	26.171761
2065.000000	26.061545
2064.000000	25.942852
2063.000000	25.820836
2062.000000	25.712454
2061.000000	25.625611
2060.000000	25.526738
2059.000000	25.447915
2058.000000	25.366456
2057.000000	25.299892
2056.000000	25.266323
2055.000000	25.249482
2054.000000	25.241920
2053.000000	25.263344
2052.000000	25.290956
2051.000000	25.358666
2050.000000	25.447571
2049.000000	25.542090
2048.000000	25.671782
2047.000000	25.806401
2046.000000	25.942508
2045.000000	26.119288
2044.000000	26.253677
2043.000000	26.420833
2042.000000	26.601394
2041.000000	26.761561
2040.000000	26.937424
2039.000000	27.068606
2038.000000	27.218003
2037.000000	27.401657
2036.000000	27.537307
2035.000000	27.660124
2034.000000	27.793139
2033.000000	27.931423
2032.000000	28.079217
2031.000000	28.177059
2030.000000	28.283493
2029.000000	28.398177
2028.000000	28.471501
2027.000000	28.593860
2026.000000	28.671194
2025.000000	28.755517
2024.000000	28.828039
2023.000000	28.894833
2022.000000	28.989123
2021.000000	29.046178
2020.000000	29.099796
2019.000000	29.148832
2018.000000	29.202565
2017.000000	29.228686
2016.000000	29.273368
2015.000000	29.291241
2014.000000	29.321258
2013.000000	29.344057
2012.000000	29.321602
2011.000000	29.335694
2010.000000	29.340047
2009.000000	29.340506
2008.000000	29.336610
2007.000000	29.303500
2006.000000	29.272337
2005.000000	29.253548
2004.000000	29.209324
2003.000000	29.156737
2002.000000	29.105525
2001.000000	29.056948
2000.000000	28.991529
1999.000000	28.919694
1998.000000	28.831247
1997.000000	28.778545
1996.000000	28.710606
1995.000000	28.629033
1994.000000	28.555365
1993.000000	28.452712
1992.000000	28.374690
1991.000000	28.288076
1990.000000	28.202608
1989.000000	28.094684
1988.000000	27.986989
1987.000000	27.897740
1986.000000	27.783515
1985.000000	27.682580
1984.000000	27.594247
1983.000000	27.476471
1982.000000	27.365797
1981.000000	27.280558
1980.000000	27.164041
1979.000000	27.065168
1978.000000	26.951172
1977.000000	26.860892
1976.000000	26.773476
1975.000000	26.687664
1974.000000	26.552358
1973.000000	26.474795
1972.000000	26.385088
1971.000000	26.276820
1970.000000	26.185280
1969.000000	26.098208
1968.000000	26.020301
1967.000000	25.927844
1966.000000	25.801703
1965.000000	25.738118
1964.000000	25.656201
1963.000000	25.551943
1962.000000	25.435083
1961.000000	25.344115
1960.000000	25.251200
1959.000000	25.154733
1958.000000	25.063193
1957.000000	24.970850
1956.000000	24.862812
1955.000000	24.752367
1954.000000	24.659338
1953.000000	24.547404
1952.000000	24.475798
1951.000000	24.365468
1950.000000	24.303601
1949.000000	24.225809
1948.000000	24.131175
1947.000000	24.052466
1946.000000	23.970550
1945.000000	23.924035
1944.000000	23.835702
1943.000000	23.806258
1942.000000	23.777501
1941.000000	23.753671
1940.000000	23.688481
1939.000000	23.688940
1938.000000	23.655256
1937.000000	23.644258
1936.000000	23.645518
1935.000000	23.664651
1934.000000	23.678972
1933.000000	23.728122
1932.000000	23.799155
1931.000000	23.881071
1930.000000	23.919567
1929.000000	24.002973
1928.000000	24.105054
1927.000000	24.190866
1926.000000	24.332587
1925.000000	24.458384
1924.000000	24.610073
1923.000000	24.775281
1922.000000	24.952519
1921.000000	25.138464
1920.000000	25.356947
1919.000000	25.565119
1918.000000	25.815566
1917.000000	26.063837
1916.000000	26.324596
1915.000000	26.597957
1914.000000	26.924134
1913.000000	27.267268
1912.000000	27.616130
1911.000000	27.945057
1910.000000	28.319354
1909.000000	28.682651
1908.000000	29.090058
1907.000000	29.527826
1906.000000	30.036397
1905.000000	30.554821
1904.000000	31.064881
1903.000000	31.568067
1902.000000	32.076295
1901.000000	32.649941
1900.000000	33.241689
1899.000000	33.859100
1898.000000	34.443058
1897.000000	35.011090
1896.000000	35.560104
1895.000000	36.115763
1894.000000	36.679212
1893.000000	37.262826
1892.000000	37.890434
1891.000000	38.516209
1890.000000	39.058463
1889.000000	39.560618
1888.000000	40.104247
1887.000000	40.602049
1886.000000	41.096986
1885.000000	41.547586
1884.000000	42.013537
1883.000000	42.404446
1882.000000	42.796157
1881.000000	43.178244
1880.000000	43.524471
1879.000000	43.868521
1878.000000	44.205926
1877.000000	44.495785
1876.000000	44.784613
1875.000000	45.063016
1874.000000	45.327555
1873.000000	45.557495
1872.000000	45.759251
1871.000000	45.931906
1870.000000	46.075575
1869.000000	46.216380
1868.000000	46.309754
1867.000000	46.404044
1866.000000	46.508874
1865.000000	46.612674
1864.000000	46.721972
1863.000000	46.831959
1862.000000	46.941372
1861.000000	47.034631
1860.000000	47.128119
1859.000000	47.191590
1858.000000	47.253228
1857.000000	47.297337
1856.000000	47.339155
1855.000000	47.385670
1854.000000	47.398501
1853.000000	47.399189
1852.000000	47.442610
1851.000000	47.516736
1850.000000	47.577802
1849.000000	47.595674
1848.000000	47.579291
1847.000000	47.487636
1846.000000	47.423363
1845.000000	47.449370
1844.000000	47.483053
1843.000000	47.526475
1842.000000	47.533463
1841.000000	47.490729
1840.000000	47.447308
1839.000000	47.416603
1838.000000	47.369630
1837.000000	47.310742
1836.000000	47.262966
1835.000000	47.192048
1834.000000	47.149772
1833.000000	47.132473
1832.000000	47.115287
1831.000000	47.089280
1830.000000	47.064533
1829.000000	47.031652
1828.000000	46.971503
1827.000000	46.932435
1826.000000	46.903449
1825.000000	46.887868
1824.000000	46.907459
1823.000000	46.979638
1822.000000	47.014008
1821.000000	46.978950
1820.000000	46.943205
1819.000000	46.888097
1818.000000	46.874005
1817.000000	46.900356
1816.000000	46.894513
1815.000000	46.877442
1814.000000	46.884431
1813.000000	46.867131
1812.000000	46.845707
1811.000000	46.807097
1810.000000	46.773185
1809.000000	46.753823
1808.000000	46.733200
1807.000000	46.715557
1806.000000	46.687831
1805.000000	46.655866
1804.000000	46.639368
1803.000000	46.640399
1802.000000	46.616111
1801.000000	46.582313
1800.000000	46.550348
1799.000000	46.518727
1798.000000	46.501771
1797.000000	46.477024
1796.000000	46.463620
1795.000000	46.448497
1794.000000	46.437498
1793.000000	46.412980
1792.000000	46.407366
1791.000000	46.396253
1790.000000	46.377349
1789.000000	46.383651
1788.000000	46.408398
1787.000000	46.403242
1786.000000	46.402440
1785.000000	46.402440
1784.000000	46.402325
1783.000000	46.388463
1782.000000	46.383192
1781.000000	46.373110
1780.000000	46.353175
1779.000000	46.322471
1778.000000	46.308150
1777.000000	46.271946
1776.000000	46.220505
1775.000000	46.187280
1774.000000	46.146608
1773.000000	46.105707
1772.000000	46.062858
1771.000000	46.026310
1770.000000	45.988846
1769.000000	45.935343
1768.000000	45.906471
1767.000000	45.858123
1766.000000	45.828450
1765.000000	45.797631
1764.000000	45.751002
1763.000000	45.751002
1762.000000	45.728088
1761.000000	45.720641
1760.000000	45.727286
1759.000000	45.717662
1758.000000	45.721672
1757.000000	45.699216
1756.000000	45.694863
1755.000000	45.693946
1754.000000	45.686270
1753.000000	45.685697
1752.000000	45.660950
1751.000000	45.623486
1750.000000	45.607791
1749.000000	45.563911
1748.000000	45.491961
1747.000000	45.473974
1746.000000	45.394807
1745.000000	45.322400
1744.000000	45.250679
1743.000000	45.188125
1742.000000	45.129466
1741.000000	45.048236
1740.000000	44.961508
1739.000000	44.883830
1738.000000	44.830556
1737.000000	44.777625
1736.000000	44.717132
1735.000000	44.671076
1734.000000	44.637736
1733.000000	44.596950
1732.000000	44.556736
1731.000000	44.515491
1730.000000	44.462560
1729.000000	44.447094
1728.000000	44.408026
1727.000000	44.382706
1726.000000	44.349825
1725.000000	44.352116
1724.000000	44.366094
1723.000000	44.403558
1722.000000	44.495327
1721.000000	44.629831
1720.000000	44.801111
1719.000000	45.021427
1718.000000	45.236244
1717.000000	45.451633
1716.000000	45.672636
1715.000000	45.900972
1714.000000	46.092646
1713.000000	46.262895
1712.000000	46.442997
1711.000000	46.564326
1710.000000	46.701465
1709.000000	46.814888
1708.000000	46.908949
1707.000000	47.022372
1706.000000	47.075188
1705.000000	47.136941
1704.000000	47.185976
1703.000000	47.234439
1702.000000	47.239022
1701.000000	47.266518
1700.000000	47.311429
1699.000000	47.304784
1698.000000	47.302149
1697.000000	47.304784
1696.000000	47.276027
1695.000000	47.241313
1694.000000	47.204766
1693.000000	47.145419
1692.000000	47.072897
1691.000000	46.992813
1690.000000	46.994532
1689.000000	47.000948
1688.000000	47.067741
1687.000000	47.145533
1686.000000	47.281412
1685.000000	47.438371
1684.000000	47.632222
1683.000000	47.845091
1682.000000	48.071364
1681.000000	48.326967
1680.000000	48.518755
1679.000000	48.743081
1678.000000	48.930974
1677.000000	49.122419
1676.000000	49.299084
1675.000000	49.470479
1674.000000	49.644623
1673.000000	49.836755
1672.000000	50.002422
1671.000000	50.193637
1670.000000	50.354606
1669.000000	50.509389
1668.000000	50.689949
1667.000000	50.823422
1666.000000	50.960676
1665.000000	51.109386
1664.000000	51.234266
1663.000000	51.371405
1662.000000	51.507971
1661.000000	51.626893
1660.000000	51.702165
1659.000000	51.792904
1658.000000	51.901400
1657.000000	51.964413
1656.000000	52.021354
1655.000000	52.072910
1654.000000	52.109114
1653.000000	52.153681
1652.000000	52.171897
1651.000000	52.183812
1650.000000	52.216235
1649.000000	52.200769
1648.000000	52.209705
1647.000000	52.196186
1646.000000	52.200196
1645.000000	52.185531
1644.000000	52.180490
1643.000000	52.175907
1642.000000	52.157691
1641.000000	52.151962
1640.000000	52.136610
1639.000000	52.137412
1638.000000	52.130653
1637.000000	52.127674
1636.000000	52.093991
1635.000000	52.067869
1634.000000	52.055381
1633.000000	52.012647
1632.000000	51.982057
1631.000000	51.960403
1630.000000	51.924199
1629.000000	51.876883
1628.000000	51.839189
1627.000000	51.811349
1626.000000	51.762657
1625.000000	51.731953
1624.000000	51.699645
1623.000000	51.651067
1622.000000	51.616582
1621.000000	51.588284
1620.000000	51.563193
1619.000000	51.544748
1618.000000	51.506482
1617.000000	51.469934
1616.000000	51.436824
1615.000000	51.405432
1614.000000	51.370947
1613.000000	51.333483
1612.000000	51.305299
1611.000000	51.266804
1610.000000	51.224528
1609.000000	51.169993
1608.000000	51.111448
1607.000000	51.055882
1606.000000	50.995505
