PE UV       SUBTECH     SPECTRUM    ASCII       PEDS        4.00        
   -1
CICIMAUCR0104-1.Sample.ASC
24/04/19
14:56:09.00
24/04/19
14:56:09.00
Vinicio Soto Monge
C. resplendens
250,000000
1
Lambda 1050
1050L1511233
PerkinElmer UV WinLab 6.3.2.0749 / 2.02.05 Lambda 900 UV/VIS/NIR, Aug  7 2015 09:38:08

0
0
3350/servo 860,8/2
0
0
UV/VIS
1
1
1
DoubleDePol,CommonBeamDepol,RBeamAtt,SBeamAtt,60mm sphere, WB InGaAs Detector
0
0
0
0
Program
Program
3350/servo 860,8/2
3350/0,2 860,8/0,2
3350/0,2 860,8/0,2
0
15.00
 
 
 
0
 
860,8
319,2
860,8
Front
100
on
S:100 R:100
0
0
0
0
 
0
 
 
 
0
 
 
0
0
0
0
0
 
 
 
 
0
0


0
0
#HDR
-1
-1
#GR
nm
%R
1.0
0.0
2500,000000
-1,000000
2251
8
97,476600
6,046400
#DATA
2482.000000	7.843092
2481.000000	7.757150
2480.000000	7.690545
2479.000000	7.756935
2478.000000	7.761662
2477.000000	7.751349
2476.000000	7.724599
2475.000000	7.702899
2474.000000	7.721269
2473.000000	7.729111
2472.000000	7.694519
2471.000000	7.756290
2470.000000	7.754572
2469.000000	7.733731
2468.000000	7.721806
2467.000000	7.726103
2466.000000	7.699354
2465.000000	7.764885
2464.000000	7.776917
2463.000000	7.798080
2462.000000	7.793998
2461.000000	7.865115
2460.000000	7.872635
2459.000000	7.926456
2458.000000	7.934298
2457.000000	7.952024
2456.000000	7.985004
2455.000000	8.060741
2454.000000	8.119934
2453.000000	8.129280
2452.000000	8.190406
2451.000000	8.248310
2450.000000	8.288810
2449.000000	8.379479
2448.000000	8.406659
2447.000000	8.442754
2446.000000	8.496039
2445.000000	8.554372
2444.000000	8.596376
2443.000000	8.658792
2442.000000	8.725505
2441.000000	8.755155
2440.000000	8.801563
2439.000000	8.845824
2438.000000	8.891266
2437.000000	8.932625
2436.000000	8.996545
2435.000000	9.035756
2434.000000	9.060250
2433.000000	9.112245
2432.000000	9.156290
2431.000000	9.181321
2430.000000	9.213334
2429.000000	9.229878
2428.000000	9.255339
2427.000000	9.286600
2426.000000	9.301210
2425.000000	9.332579
2424.000000	9.392309
2423.000000	9.438718
2422.000000	9.500167
2421.000000	9.540345
2420.000000	9.561078
2419.000000	9.575688
2418.000000	9.598463
2417.000000	9.604049
2416.000000	9.635418
2415.000000	9.666465
2414.000000	9.681612
2413.000000	9.702990
2412.000000	9.714056
2411.000000	9.733930
2410.000000	9.772604
2409.000000	9.774967
2408.000000	9.783991
2407.000000	9.820194
2406.000000	9.842002
2405.000000	9.865207
2404.000000	9.884758
2403.000000	9.902484
2402.000000	9.933960
2401.000000	9.948141
2400.000000	9.968767
2399.000000	10.008086
2398.000000	10.033009
2397.000000	10.064593
2396.000000	10.088334
2395.000000	10.105630
2394.000000	10.131305
2393.000000	10.162782
2392.000000	10.193613
2391.000000	10.194151
2390.000000	10.216925
2389.000000	10.237337
2388.000000	10.240667
2387.000000	10.251839
2386.000000	10.258607
2385.000000	10.254310
2384.000000	10.266020
2383.000000	10.283638
2382.000000	10.280200
2381.000000	10.269458
2380.000000	10.254203
2379.000000	10.248294
2378.000000	10.233469
2377.000000	10.219181
2376.000000	10.200489
2375.000000	10.188887
2374.000000	10.172772
2373.000000	10.142478
2372.000000	10.113902
2371.000000	10.087690
2370.000000	10.070716
2369.000000	10.036661
2368.000000	10.000028
2367.000000	9.964577
2366.000000	9.903451
2365.000000	9.838672
2364.000000	9.779372
2363.000000	9.713733
2362.000000	9.637674
2361.000000	9.569995
2360.000000	9.526916
2359.000000	9.477177
2358.000000	9.420992
2357.000000	9.368245
2356.000000	9.329894
2355.000000	9.300029
2354.000000	9.280047
2353.000000	9.280906
2352.000000	9.285741
2351.000000	9.283162
2350.000000	9.307226
2349.000000	9.359544
2348.000000	9.397251
2347.000000	9.436462
2346.000000	9.495332
2345.000000	9.546683
2344.000000	9.586539
2343.000000	9.652714
2342.000000	9.709436
2341.000000	9.741772
2340.000000	9.767877
2339.000000	9.798172
2338.000000	9.806229
2337.000000	9.820409
2336.000000	9.804510
2335.000000	9.792478
2334.000000	9.784528
2333.000000	9.769381
2332.000000	9.741342
2331.000000	9.700627
2330.000000	9.652714
2329.000000	9.602868
2328.000000	9.549798
2327.000000	9.474169
2326.000000	9.406382
2325.000000	9.337414
2324.000000	9.273924
2323.000000	9.197542
2322.000000	9.101287
2321.000000	9.020931
2320.000000	8.932303
2319.000000	8.841956
2318.000000	8.757948
2317.000000	8.659329
2316.000000	8.554265
2315.000000	8.462414
2314.000000	8.374860
2313.000000	8.302239
2312.000000	8.230692
2311.000000	8.154740
2310.000000	8.103390
2309.000000	8.073740
2308.000000	8.063427
2307.000000	8.046990
2306.000000	8.055584
2305.000000	8.080937
2304.000000	8.128206
2303.000000	8.187076
2302.000000	8.233700
2301.000000	8.326195
2300.000000	8.409452
2299.000000	8.506996
2298.000000	8.590038
2297.000000	8.676303
2296.000000	8.749998
2295.000000	8.840023
2294.000000	8.913611
2293.000000	8.981075
2292.000000	9.016419
2291.000000	9.063473
2290.000000	9.075934
2289.000000	9.084314
2288.000000	9.078620
2287.000000	9.086892
2286.000000	9.063902
2285.000000	9.045962
2284.000000	9.017601
2283.000000	8.967862
2282.000000	8.941542
2281.000000	8.897389
2280.000000	8.850873
2279.000000	8.817892
2278.000000	8.772021
2277.000000	8.756981
2276.000000	8.735495
2275.000000	8.710894
2274.000000	8.689731
2273.000000	8.700366
2272.000000	8.700904
2271.000000	8.720670
2270.000000	8.738503
2269.000000	8.774277
2268.000000	8.832503
2267.000000	8.919197
2266.000000	9.009544
2265.000000	9.138242
2264.000000	9.283055
2263.000000	9.412076
2262.000000	9.565268
2261.000000	9.737045
2260.000000	9.952116
2259.000000	10.153328
2258.000000	10.363242
2257.000000	10.593567
2256.000000	10.856228
2255.000000	11.040575
2254.000000	11.257257
2253.000000	11.479632
2252.000000	11.674399
2251.000000	11.890973
2250.000000	12.074030
2249.000000	12.260310
2248.000000	12.438318
2247.000000	12.609881
2246.000000	12.767585
2245.000000	12.893490
2244.000000	13.046467
2243.000000	13.164423
2242.000000	13.318582
2241.000000	13.402591
2240.000000	13.515605
2239.000000	13.612934
2238.000000	13.714561
2237.000000	13.812858
2236.000000	13.892784
2235.000000	13.980552
2234.000000	14.079601
2233.000000	14.123754
2232.000000	14.169088
2231.000000	14.237842
2230.000000	14.291771
2229.000000	14.334635
2228.000000	14.370730
2227.000000	14.416602
2226.000000	14.425733
2225.000000	14.456350
2224.000000	14.450979
2223.000000	14.476332
2222.000000	14.485463
2221.000000	14.472035
2220.000000	14.480737
2219.000000	14.494058
2218.000000	14.462474
2217.000000	14.456350
2216.000000	14.447434
2215.000000	14.428419
2214.000000	14.439807
2213.000000	14.413916
2212.000000	14.403174
2211.000000	14.417676
2210.000000	14.396083
2209.000000	14.367293
2208.000000	14.365789
2207.000000	14.360632
2206.000000	14.349030
2205.000000	14.351823
2204.000000	14.333775
2203.000000	14.320347
2202.000000	14.327759
2201.000000	14.300258
2200.000000	14.307993
2199.000000	14.298217
2198.000000	14.297250
2197.000000	14.302406
2196.000000	14.289408
2195.000000	14.262873
2194.000000	14.265666
2193.000000	14.269104
2192.000000	14.252452
2191.000000	14.236338
2190.000000	14.245470
2189.000000	14.217431
2188.000000	14.210770
2187.000000	14.201209
2186.000000	14.173493
2185.000000	14.155015
2184.000000	14.144165
2183.000000	14.138257
2182.000000	14.103450
2181.000000	14.102376
2180.000000	14.089914
2179.000000	14.094319
2178.000000	14.058653
2177.000000	14.049306
2176.000000	14.048769
2175.000000	14.040390
2174.000000	14.053174
2173.000000	14.046513
2172.000000	14.052314
2171.000000	14.045331
2170.000000	14.038456
2169.000000	14.058545
2168.000000	14.074874
2167.000000	14.085939
2166.000000	14.078312
2165.000000	14.100227
2164.000000	14.118812
2163.000000	14.136430
2162.000000	14.126869
2161.000000	14.153404
2160.000000	14.178542
2159.000000	14.192722
2158.000000	14.209803
2157.000000	14.213563
2156.000000	14.243106
2155.000000	14.279417
2154.000000	14.286077
2153.000000	14.307885
2152.000000	14.316802
2151.000000	14.343229
2150.000000	14.358269
2149.000000	14.369119
2148.000000	14.401777
2147.000000	14.419073
2146.000000	14.453987
2145.000000	14.462366
2144.000000	14.457640
2143.000000	14.473002
2142.000000	14.490835
2141.000000	14.509312
2140.000000	14.517799
2139.000000	14.527575
2138.000000	14.533484
2137.000000	14.538962
2136.000000	14.548738
2135.000000	14.560878
2134.000000	14.572480
2133.000000	14.565819
2132.000000	14.560985
2131.000000	14.555936
2130.000000	14.559481
2129.000000	14.557440
2128.000000	14.541004
2127.000000	14.528005
2126.000000	14.508345
2125.000000	14.498032
2124.000000	14.497603
2123.000000	14.484067
2122.000000	14.460003
2121.000000	14.434113
2120.000000	14.407363
2119.000000	14.372557
2118.000000	14.351179
2117.000000	14.335494
2116.000000	14.312290
2115.000000	14.282317
2114.000000	14.250948
2113.000000	14.220546
2112.000000	14.196160
2111.000000	14.178435
2110.000000	14.154371
2109.000000	14.123217
2108.000000	14.101301
2107.000000	14.078097
2106.000000	14.045224
2105.000000	14.017400
2104.000000	13.996881
2103.000000	13.980123
2102.000000	13.954340
2101.000000	13.924153
2100.000000	13.907609
2099.000000	13.894180
2098.000000	13.877314
2097.000000	13.848416
2096.000000	13.824352
2095.000000	13.803834
2094.000000	13.777621
2093.000000	13.770853
2092.000000	13.770531
2091.000000	13.753772
2090.000000	13.734220
2089.000000	13.736799
2088.000000	13.731212
2087.000000	13.708223
2086.000000	13.704678
2085.000000	13.708115
2084.000000	13.696621
2083.000000	13.682118
2082.000000	13.663318
2081.000000	13.654402
2080.000000	13.660632
2079.000000	13.671053
2078.000000	13.659021
2077.000000	13.644411
2076.000000	13.630982
2075.000000	13.633883
2074.000000	13.638395
2073.000000	13.633023
2072.000000	13.621529
2071.000000	13.624537
2070.000000	13.622710
2069.000000	13.616157
2068.000000	13.619810
2067.000000	13.627759
2066.000000	13.637858
2065.000000	13.645270
2064.000000	13.654939
2063.000000	13.663640
2062.000000	13.659665
2061.000000	13.679003
2060.000000	13.686737
2059.000000	13.705107
2058.000000	13.740559
2057.000000	13.792339
2056.000000	13.842508
2055.000000	13.876455
2054.000000	13.928450
2053.000000	13.986676
2052.000000	14.054785
2051.000000	14.151255
2050.000000	14.236660
2049.000000	14.309711
2048.000000	14.398769
2047.000000	14.501470
2046.000000	14.612228
2045.000000	14.707302
2044.000000	14.816986
2043.000000	14.922695
2042.000000	15.048385
2041.000000	15.173216
2040.000000	15.289024
2039.000000	15.406120
2038.000000	15.519456
2037.000000	15.618075
2036.000000	15.710141
2035.000000	15.805752
2034.000000	15.897495
2033.000000	15.986660
2032.000000	16.067446
2031.000000	16.151347
2030.000000	16.231166
2029.000000	16.313456
2028.000000	16.382317
2027.000000	16.438394
2026.000000	16.512519
2025.000000	16.568274
2024.000000	16.640359
2023.000000	16.687197
2022.000000	16.748538
2021.000000	16.802682
2020.000000	16.838348
2019.000000	16.881856
2018.000000	16.938256
2017.000000	16.983053
2016.000000	17.003357
2015.000000	17.053096
2014.000000	17.061905
2013.000000	17.093274
2012.000000	17.121743
2011.000000	17.143551
2010.000000	17.160094
2009.000000	17.175564
2008.000000	17.171589
2007.000000	17.162780
2006.000000	17.170945
2005.000000	17.149781
2004.000000	17.146236
2003.000000	17.128725
2002.000000	17.088118
2001.000000	17.089514
2000.000000	17.083928
1999.000000	17.029462
1998.000000	16.993796
1997.000000	16.950932
1996.000000	16.919134
1995.000000	16.876915
1994.000000	16.840497
1993.000000	16.794088
1992.000000	16.727590
1991.000000	16.676132
1990.000000	16.631872
1989.000000	16.553235
1988.000000	16.489852
1987.000000	16.417016
1986.000000	16.361691
1985.000000	16.288532
1984.000000	16.236430
1983.000000	16.177022
1982.000000	16.089254
1981.000000	16.022648
1980.000000	15.954754
1979.000000	15.870423
1978.000000	15.811982
1977.000000	15.741617
1976.000000	15.671359
1975.000000	15.606151
1974.000000	15.530844
1973.000000	15.472510
1972.000000	15.402575
1971.000000	15.322971
1970.000000	15.256258
1969.000000	15.226178
1968.000000	15.135509
1967.000000	15.080291
1966.000000	15.032808
1965.000000	14.937520
1964.000000	14.887351
1963.000000	14.832885
1962.000000	14.769395
1961.000000	14.707302
1960.000000	14.647357
1959.000000	14.589131
1958.000000	14.553143
1957.000000	14.475258
1956.000000	14.435832
1955.000000	14.372449
1954.000000	14.312505
1953.000000	14.238057
1952.000000	14.220869
1951.000000	14.147173
1950.000000	14.120638
1949.000000	14.066280
1948.000000	14.033729
1947.000000	13.999030
1946.000000	13.970562
1945.000000	13.931136
1944.000000	13.928557
1943.000000	13.896329
1942.000000	13.891817
1941.000000	13.898478
1940.000000	13.884405
1939.000000	13.912443
1938.000000	13.897940
1937.000000	13.902345
1936.000000	13.920178
1935.000000	13.971958
1934.000000	14.016863
1933.000000	14.048877
1932.000000	14.109144
1931.000000	14.195730
1930.000000	14.237842
1929.000000	14.317016
1928.000000	14.415528
1927.000000	14.498784
1926.000000	14.604708
1925.000000	14.725779
1924.000000	14.833315
1923.000000	14.948048
1922.000000	15.096620
1921.000000	15.251102
1920.000000	15.385601
1919.000000	15.523109
1918.000000	15.699183
1917.000000	15.852912
1916.000000	16.028020
1915.000000	16.209680
1914.000000	16.405736
1913.000000	16.607915
1912.000000	16.808161
1911.000000	16.984772
1910.000000	17.200058
1909.000000	17.393320
1908.000000	17.623431
1907.000000	17.867077
1906.000000	18.111905
1905.000000	18.343520
1904.000000	18.582439
1903.000000	18.815128
1902.000000	19.082838
1901.000000	19.370422
1900.000000	19.649950
1899.000000	19.890158
1898.000000	20.154431
1897.000000	20.419563
1896.000000	20.674167
1895.000000	20.958528
1894.000000	21.235799
1893.000000	21.538961
1892.000000	21.830090
1891.000000	22.101775
1890.000000	22.369163
1889.000000	22.642782
1888.000000	22.976453
1887.000000	23.309694
1886.000000	23.712226
1885.000000	24.145698
1884.000000	24.631486
1883.000000	25.137364
1882.000000	25.640986
1881.000000	26.184678
1880.000000	26.727833
1879.000000	27.254552
1878.000000	27.759570
1877.000000	28.241384
1876.000000	28.693226
1875.000000	29.118103
1874.000000	29.490985
1873.000000	29.829490
1872.000000	30.144254
1871.000000	30.405196
1870.000000	30.602541
1869.000000	30.808695
1868.000000	30.960276
1867.000000	31.048904
1866.000000	31.149241
1865.000000	31.245496
1864.000000	31.325638
1863.000000	31.404597
1862.000000	31.482482
1861.000000	31.533081
1860.000000	31.550269
1859.000000	31.543179
1858.000000	31.516322
1857.000000	31.505257
1856.000000	31.478722
1855.000000	31.410935
1854.000000	31.320589
1853.000000	31.214450
1852.000000	31.124425
1851.000000	31.100361
1850.000000	31.098213
1849.000000	31.055886
1848.000000	30.900761
1847.000000	30.736718
1846.000000	30.609309
1845.000000	30.527126
1844.000000	30.517028
1843.000000	30.533357
1842.000000	30.497799
1841.000000	30.413575
1840.000000	30.338268
1839.000000	30.279828
1838.000000	30.236212
1837.000000	30.156930
1836.000000	30.050254
1835.000000	29.936166
1834.000000	29.826804
1833.000000	29.730656
1832.000000	29.643747
1831.000000	29.554260
1830.000000	29.427602
1829.000000	29.304168
1828.000000	29.188576
1827.000000	29.075024
1826.000000	28.963084
1825.000000	28.864573
1824.000000	28.807207
1823.000000	28.808711
1822.000000	28.799902
1821.000000	28.722124
1820.000000	28.637148
1819.000000	28.575485
1818.000000	28.547016
1817.000000	28.544223
1816.000000	28.521019
1815.000000	28.486857
1814.000000	28.474073
1813.000000	28.473858
1812.000000	28.437870
1811.000000	28.367827
1810.000000	28.301221
1809.000000	28.259539
1808.000000	28.219791
1807.000000	28.158020
1806.000000	28.072293
1805.000000	27.990755
1804.000000	27.937363
1803.000000	27.882145
1802.000000	27.816937
1801.000000	27.733895
1800.000000	27.631301
1799.000000	27.564804
1798.000000	27.517750
1797.000000	27.461351
1796.000000	27.392274
1795.000000	27.317934
1794.000000	27.256378
1793.000000	27.180856
1792.000000	27.110706
1791.000000	27.045068
1790.000000	26.948490
1789.000000	26.868993
1788.000000	26.775746
1787.000000	26.674764
1786.000000	26.583450
1785.000000	26.481609
1784.000000	26.376759
1783.000000	26.275347
1782.000000	26.175869
1781.000000	26.072953
1780.000000	25.974764
1779.000000	25.857023
1778.000000	25.741860
1777.000000	25.618104
1776.000000	25.472646
1775.000000	25.323107
1774.000000	25.175501
1773.000000	25.017904
1772.000000	24.847094
1771.000000	24.703463
1770.000000	24.546726
1769.000000	24.389881
1768.000000	24.269777
1767.000000	24.137103
1766.000000	24.034510
1765.000000	23.969086
1764.000000	23.932883
1763.000000	23.945559
1762.000000	23.972631
1761.000000	24.023230
1760.000000	24.102082
1759.000000	24.205965
1758.000000	24.310277
1757.000000	24.404062
1756.000000	24.466047
1755.000000	24.520191
1754.000000	24.549089
1753.000000	24.554675
1752.000000	24.542966
1751.000000	24.502573
1750.000000	24.445206
1749.000000	24.386766
1748.000000	24.299534
1747.000000	24.191032
1746.000000	24.045145
1745.000000	23.904629
1744.000000	23.715879
1743.000000	23.461919
1742.000000	23.225041
1741.000000	22.956901
1740.000000	22.696496
1739.000000	22.424811
1738.000000	22.185891
1737.000000	22.005627
1736.000000	21.837073
1735.000000	21.755535
1734.000000	21.735554
1733.000000	21.785830
1732.000000	21.855766
1731.000000	21.976622
1730.000000	22.139053
1729.000000	22.298368
1728.000000	22.456824
1727.000000	22.599918
1726.000000	22.740434
1725.000000	22.850977
1724.000000	22.908129
1723.000000	22.949596
1722.000000	22.970329
1721.000000	22.986551
1720.000000	22.981395
1719.000000	22.976775
1718.000000	22.981287
1717.000000	23.015342
1716.000000	23.086781
1715.000000	23.135446
1714.000000	23.207100
1713.000000	23.233957
1712.000000	23.278003
1711.000000	23.299059
1710.000000	23.311091
1709.000000	23.290679
1708.000000	23.268549
1707.000000	23.251576
1706.000000	23.166922
1705.000000	23.105044
1704.000000	23.051223
1703.000000	22.948092
1702.000000	22.793181
1701.000000	22.621082
1700.000000	22.444578
1699.000000	22.221128
1698.000000	22.056011
1697.000000	21.920545
1696.000000	21.845990
1695.000000	21.849642
1694.000000	21.913562
1693.000000	22.070729
1692.000000	22.255397
1691.000000	22.483252
1690.000000	22.669746
1689.000000	22.785768
1688.000000	22.828095
1687.000000	22.838730
1686.000000	22.818641
1685.000000	22.830673
1684.000000	22.911137
1683.000000	23.148337
1682.000000	23.561827
1681.000000	24.094347
1680.000000	24.728494
1679.000000	25.415387
1678.000000	26.072201
1677.000000	26.707207
1676.000000	27.264006
1675.000000	27.725301
1674.000000	28.159309
1673.000000	28.482023
1672.000000	28.777771
1671.000000	29.018732
1670.000000	29.205334
1669.000000	29.401605
1668.000000	29.558450
1667.000000	29.691338
1666.000000	29.783941
1665.000000	29.877403
1664.000000	29.954214
1663.000000	30.005135
1662.000000	30.056592
1661.000000	30.092903
1660.000000	30.116967
1659.000000	30.122446
1658.000000	30.157575
1657.000000	30.163376
1656.000000	30.139742
1655.000000	30.110306
1654.000000	30.095696
1653.000000	30.079260
1652.000000	30.051221
1651.000000	30.000300
1650.000000	29.959693
1649.000000	29.913713
1648.000000	29.853769
1647.000000	29.771479
1646.000000	29.708526
1645.000000	29.643962
1644.000000	29.582943
1643.000000	29.491844
1642.000000	29.430288
1641.000000	29.335967
1640.000000	29.260122
1639.000000	29.196310
1638.000000	29.116599
1637.000000	29.031623
1636.000000	28.935905
1635.000000	28.853723
1634.000000	28.782176
1633.000000	28.693870
1632.000000	28.591492
1631.000000	28.513714
1630.000000	28.443778
1629.000000	28.346449
1628.000000	28.249334
1627.000000	28.152541
1626.000000	28.061980
1625.000000	27.967228
1624.000000	27.890417
1623.000000	27.799856
1622.000000	27.711980
1621.000000	27.624104
1620.000000	27.550193
1619.000000	27.467581
1618.000000	27.381961
1617.000000	27.299564
1616.000000	27.239512
1615.000000	27.157115
1614.000000	27.083527
1613.000000	27.024656
1612.000000	26.953539
1611.000000	26.889082
1610.000000	26.809156
1609.000000	26.736427
1608.000000	26.680887
1607.000000	26.626744
1606.000000	26.568625
1605.000000	26.491922
1604.000000	26.436596
1603.000000	26.384924
1602.000000	26.316922
1601.000000	26.261596
1600.000000	26.205519
1599.000000	26.152557
1598.000000	26.110983
