PE UV       SUBTECH     SPECTRUM    ASCII       PEDS        4.00        
   -1
INBUCR0423-4.Sample.ASC
24/02/09
13:54:31.00
24/02/09
13:54:31.00
Vinicio Soto Monge
Chrysina aurora. Det: A. Solís. R. San Lorencito, 900 m. R. F. San Ramón, 5 km N de Colonia Palmareña. Prov Alajuela. COSTA RICA. 13-18 Jun 1993. I Curso Scarabaeidae. L-N-244500, 470700. INBIOCRI00139214
250,000000
1
Lambda 1050
1050L1511233
PerkinElmer UV WinLab 6.3.2.0749 / 2.02.05 Lambda 900 UV/VIS/NIR, Aug  7 2015 09:38:08

0
0
3350/servo 860,8/2
0
0
UV/VIS
1
1
1
DoubleDePol,CommonBeamDepol,RBeamAtt,SBeamAtt,60mm sphere, WB InGaAs Detector
0
0
0
0
Program
Program
3350/servo 860,8/2
3350/0,2 860,8/0,2
3350/0,2 860,8/0,2
0
15.00
 
 
 
0
 
860,8
319,2
860,8
Front
100
on
S:100 R:100
0
0
0
0
 
0
 
 
 
0
 
 
0
0
0
0
0
 
 
 
 
0
0


0
0
#HDR
-1
-1
#GR
nm
%R
1.0
0.0
2500,000000
-1,000000
2251
8
17,588500
1,073600
#DATA

250.000000	5.286412
251.000000	5.286212
252.000000	5.283619
253.000000	5.288276
254.000000	5.295518
255.000000	5.284778
256.000000	5.287025
257.000000	5.292570
258.000000	5.293132
259.000000	5.295255
260.000000	5.291716
261.000000	5.292537
262.000000	5.288824
263.000000	5.297578
264.000000	5.295367
265.000000	5.302564
266.000000	5.307393
267.000000	5.310347
268.000000	5.311733
269.000000	5.306232
270.000000	5.306963
271.000000	5.306843
272.000000	5.316402
273.000000	5.310687
274.000000	5.310816
275.000000	5.321798
276.000000	5.315942
277.000000	5.319468
278.000000	5.321315
279.000000	5.310979
280.000000	5.321344
281.000000	5.318946
282.000000	5.317139
283.000000	5.317299
284.000000	5.322161
285.000000	5.322342
286.000000	5.318459
287.000000	5.318807
288.000000	5.312955
289.000000	5.320040
290.000000	5.310218
291.000000	5.308245
292.000000	5.302973
293.000000	5.312221
294.000000	5.304859
295.000000	5.307479
296.000000	5.304008
297.000000	5.299782
298.000000	5.297738
299.000000	5.297031
300.000000	5.297707
301.000000	5.293062
302.000000	5.289446
303.000000	5.287209
304.000000	5.288723
305.000000	5.288811
306.000000	5.280595
307.000000	5.283914
308.000000	5.277495
309.000000	5.283992
310.000000	5.278279
311.000000	5.273174
312.000000	5.263310
313.000000	5.280711
314.000000	5.263857
315.000000	5.272533
316.000000	5.258531
317.000000	5.179330
318.000000	5.204313
319.000000	5.216969
320.000000	5.209641
321.000000	5.199082
322.000000	5.211855
323.000000	5.184810
324.000000	5.197769
325.000000	5.211791
326.000000	5.200101
327.000000	5.198456
328.000000	5.215070
329.000000	5.197258
330.000000	5.195027
331.000000	5.194451
332.000000	5.201834
333.000000	5.223089
334.000000	5.196083
335.000000	5.200511
336.000000	5.204807
337.000000	5.201684
338.000000	5.203102
339.000000	5.197802
340.000000	5.195065
341.000000	5.196208
342.000000	5.199287
343.000000	5.203898
344.000000	5.204090
345.000000	5.203000
346.000000	5.199976
347.000000	5.792936
348.000000	5.787133
349.000000	5.780685
350.000000	5.785181
351.000000	5.786670
352.000000	5.779455
353.000000	5.775020
354.000000	5.769096
355.000000	5.770149
356.000000	5.776202
357.000000	5.773381
358.000000	5.767776
359.000000	5.765843
360.000000	5.762867
361.000000	5.762424
362.000000	5.770484
363.000000	5.779887
364.000000	5.768414
365.000000	5.761620
366.000000	6.358873
367.000000	6.346116
368.000000	6.343094
369.000000	6.352189
370.000000	6.353978
371.000000	6.355592
372.000000	6.354175
373.000000	6.357985
374.000000	6.359285
375.000000	6.941566
376.000000	6.954639
377.000000	6.996270
378.000000	6.992580
379.000000	6.989811
380.000000	7.578685
381.000000	7.579679
382.000000	7.573232
383.000000	7.573341
384.000000	7.574404
385.000000	7.571431
386.000000	8.157720
387.000000	8.155380
388.000000	8.152244
389.000000	8.151436
390.000000	8.150738
391.000000	8.738593
392.000000	8.736071
393.000000	8.734674
394.000000	8.732221
395.000000	8.729859
396.000000	8.726455
397.000000	8.724850
398.000000	9.314717
399.000000	9.311617
400.000000	9.309089
401.000000	9.307292
402.000000	9.307042
403.000000	9.307094
404.000000	9.304144
405.000000	9.299265
406.000000	9.296908
407.000000	9.297603
408.000000	9.297034
409.000000	9.292419
410.000000	9.289951
411.000000	9.289725
412.000000	9.878778
413.000000	9.875625
414.000000	9.872530
415.000000	9.871056
416.000000	9.869541
417.000000	9.867085
418.000000	9.274291
419.000000	9.273812
420.000000	9.272183
421.000000	9.268971
422.000000	9.265743
423.000000	9.263753
424.000000	9.262622
425.000000	9.258258
426.000000	9.254951
427.000000	9.253609
428.000000	9.252481
429.000000	9.250991
430.000000	9.246862
431.000000	9.243029
432.000000	9.241068
433.000000	9.237497
434.000000	8.643801
435.000000	8.642263
436.000000	8.640721
437.000000	8.636691
438.000000	8.633068
439.000000	8.630684
440.000000	8.628784
441.000000	8.626484
442.000000	8.032848
443.000000	8.030326
444.000000	8.029618
445.000000	8.026632
446.000000	8.020110
447.000000	8.015884
448.000000	8.013596
449.000000	8.011057
450.000000	7.417642
451.000000	7.413923
452.000000	7.410604
453.000000	7.407591
454.000000	7.404387
455.000000	7.401563
456.000000	7.397970
457.000000	7.394104
458.000000	7.391575
459.000000	7.389090
460.000000	7.384573
461.000000	7.381048
462.000000	7.378051
463.000000	7.374316
464.000000	7.369486
465.000000	7.364868
466.000000	7.362307
467.000000	7.358939
468.000000	7.354700
469.000000	7.351221
470.000000	7.348883
471.000000	7.347155
472.000000	7.343119
473.000000	7.338993
474.000000	7.337223
475.000000	7.334478
476.000000	7.331349
477.000000	7.327930
478.000000	7.324503
479.000000	7.323498
480.000000	7.914071
481.000000	7.914189
482.000000	7.914134
483.000000	7.911892
484.000000	7.907706
485.000000	7.901295
486.000000	7.894226
487.000000	7.888202
488.000000	7.882667
489.000000	7.875019
490.000000	7.865921
491.000000	8.446882
492.000000	8.441905
493.000000	8.434730
494.000000	8.425869
495.000000	8.417372
496.000000	8.409431
497.000000	8.402837
498.000000	8.394138
499.000000	8.975791
500.000000	8.965953
501.000000	8.960734
502.000000	8.952452
503.000000	8.942602
504.000000	8.934157
505.000000	9.516573
506.000000	9.509082
507.000000	9.500433
508.000000	9.492473
509.000000	9.486921
510.000000	10.069679
511.000000	10.062128
512.000000	10.056116
513.000000	10.639695
514.000000	10.634778
515.000000	10.628381
516.000000	10.621864
517.000000	11.207054
518.000000	11.201449
519.000000	11.195481
520.000000	11.188614
521.000000	11.772218
522.000000	11.765244
523.000000	11.758337
524.000000	11.752061
525.000000	12.333737
526.000000	12.324179
527.000000	12.317987
528.000000	12.309920
529.000000	12.300976
530.000000	12.292994
531.000000	12.284260
532.000000	12.274271
533.000000	12.266067
534.000000	12.848219
535.000000	12.840001
536.000000	12.831254
537.000000	12.821728
538.000000	12.812129
539.000000	12.803866
540.000000	12.794385
541.000000	12.785142
542.000000	12.776449
543.000000	12.767119
544.000000	12.759019
545.000000	12.751845
546.000000	12.742801
547.000000	12.733614
548.000000	12.726370
549.000000	12.718028
550.000000	12.708816
551.000000	12.699101
552.000000	12.692185
553.000000	12.684985
554.000000	12.677696
555.000000	12.670475
556.000000	12.663427
557.000000	12.654977
558.000000	12.648084
559.000000	12.640057
560.000000	12.661415
561.000000	12.661806
562.000000	12.654883
563.000000	12.059182
564.000000	12.052107
565.000000	12.045000
566.000000	12.040150
567.000000	12.032467
568.000000	12.025940
569.000000	12.018183
570.000000	12.014791
571.000000	12.007334
572.000000	11.409419
573.000000	11.401804
574.000000	11.396637
575.000000	11.388502
576.000000	11.381460
577.000000	10.784904
578.000000	10.778305
579.000000	10.771991
580.000000	10.765611
581.000000	10.757619
582.000000	10.160379
583.000000	10.154041
584.000000	10.149478
585.000000	10.139936
586.000000	10.131622
587.000000	9.536398
588.000000	9.529294
589.000000	9.520379
590.000000	9.514240
591.000000	9.507885
592.000000	9.499334
593.000000	9.493423
594.000000	9.485513
595.000000	9.478764
596.000000	9.474377
597.000000	9.464060
598.000000	9.457443
599.000000	8.860977
600.000000	8.853119
601.000000	8.849149
602.000000	8.840278
603.000000	8.832850
604.000000	8.824251
605.000000	8.817138
606.000000	8.812003
607.000000	8.804594
608.000000	8.797438
609.000000	8.790332
610.000000	8.782924
611.000000	8.185725
612.000000	8.179601
613.000000	8.174626
614.000000	8.167019
615.000000	8.158305
616.000000	8.152264
617.000000	8.144411
618.000000	8.138784
619.000000	8.130272
620.000000	8.123010
621.000000	8.116558
622.000000	8.107959
623.000000	8.101703
624.000000	8.092922
625.000000	8.089190
626.000000	8.669665
627.000000	8.658949
628.000000	8.649611
629.000000	8.642311
630.000000	8.636170
631.000000	8.626480
632.000000	8.618020
633.000000	8.608596
634.000000	8.598379
635.000000	8.589946
636.000000	8.580771
637.000000	8.571227
638.000000	8.564310
639.000000	8.555015
640.000000	8.543721
641.000000	8.534424
642.000000	8.525369
643.000000	8.517391
644.000000	8.506659
645.000000	8.493290
646.000000	8.484646
647.000000	8.476351
648.000000	8.464533
649.000000	8.455120
650.000000	9.029564
651.000000	9.022826
652.000000	9.008899
653.000000	8.997510
654.000000	8.984343
655.000000	8.975566
656.000000	8.966205
657.000000	8.952623
658.000000	9.529140
659.000000	9.519283
660.000000	9.510318
661.000000	9.498804
662.000000	9.485506
663.000000	9.474619
664.000000	9.464049
665.000000	10.040002
666.000000	10.032117
667.000000	10.019594
668.000000	10.009273
669.000000	10.000000
670.000000	9.985021
671.000000	10.562301
672.000000	10.554161
673.000000	10.543880
674.000000	10.532138
675.000000	10.519795
676.000000	10.509839
677.000000	11.087083
678.000000	11.076806
679.000000	11.066208
680.000000	11.053835
681.000000	11.041176
682.000000	11.618053
683.000000	11.608379
684.000000	11.599187
685.000000	11.590615
686.000000	11.577778
687.000000	12.154717
688.000000	12.142096
689.000000	12.129895
690.000000	12.122616
691.000000	12.700122
692.000000	12.692427
693.000000	12.679290
694.000000	12.664910
695.000000	13.244336
696.000000	13.232833
697.000000	13.219128
698.000000	13.206902
699.000000	13.790009
700.000000	13.776932
701.000000	13.765195
702.000000	13.757772
703.000000	14.330362
704.000000	14.317006
705.000000	14.306210
706.000000	14.294679
707.000000	14.877411
708.000000	14.870054
709.000000	14.856283
710.000000	14.843167
711.000000	15.422032
712.000000	15.412197
713.000000	15.399617
714.000000	15.383211
715.000000	15.375145
716.000000	15.953002
717.000000	15.941411
718.000000	15.929361
719.000000	15.920822
720.000000	15.909152
721.000000	16.485312
722.000000	16.473556
723.000000	16.463319
724.000000	16.451873
725.000000	16.439525
726.000000	16.426532
727.000000	17.002613
728.000000	16.992437
729.000000	16.980823
730.000000	16.969215
731.000000	16.954128
732.000000	16.939661
733.000000	17.519907
734.000000	17.511352
735.000000	17.499045
736.000000	17.482644
737.000000	17.469459
738.000000	17.462040
739.000000	17.449667
740.000000	17.434452
741.000000	18.012554
742.000000	17.999187
743.000000	17.984845
744.000000	17.977650
745.000000	17.964604
746.000000	17.948934
747.000000	17.935764
748.000000	17.922931
749.000000	17.910124
750.000000	17.895720
751.000000	17.881686
752.000000	18.456996
753.000000	18.448696
754.000000	18.439267
755.000000	18.422981
756.000000	18.410458
757.000000	18.401416
758.000000	18.389139
759.000000	18.373800
760.000000	18.357247
761.000000	18.344827
762.000000	18.334320
763.000000	18.321329
764.000000	18.307334
765.000000	18.881634
766.000000	18.866667
767.000000	18.854683
768.000000	18.842259
769.000000	18.826635
770.000000	18.816744
771.000000	18.806775
772.000000	18.787391
773.000000	18.770466
774.000000	18.752696
775.000000	18.741794
776.000000	18.727944
777.000000	18.711338
778.000000	18.704464
779.000000	18.691913
780.000000	18.678509
781.000000	18.669290
782.000000	18.654559
783.000000	18.636126
784.000000	18.614301
785.000000	18.604566
786.000000	18.595110
787.000000	18.582566
788.000000	18.561468
789.000000	18.545638
790.000000	18.536437
791.000000	19.111759
792.000000	19.099145
793.000000	19.084400
794.000000	19.068023
795.000000	19.047225
796.000000	19.034027
797.000000	19.018876
798.000000	19.005296
799.000000	18.991905
800.000000	18.982921
801.000000	18.966478
802.000000	18.942615
803.000000	18.928039
804.000000	18.923329
805.000000	18.910257
806.000000	18.900597
807.000000	18.887928
808.000000	18.861306
809.000000	18.247934
810.000000	18.833522
811.000000	18.808485
812.000000	18.792946
813.000000	18.787323
814.000000	18.768771
815.000000	18.760609
816.000000	18.752427
817.000000	18.727794
818.000000	18.719799
819.000000	18.701890
820.000000	18.687977
821.000000	18.677211
822.000000	18.678555
823.000000	18.660244
824.000000	18.651872
825.000000	18.631282
826.000000	18.624327
827.000000	18.614717
828.000000	18.604783
829.000000	18.603299
830.000000	18.585355
831.000000	18.574781
832.000000	18.579807
833.000000	18.558865
834.000000	18.548438
835.000000	18.544625
836.000000	18.537947
837.000000	18.534353
838.000000	18.503115
839.000000	18.499928
840.000000	18.508893
841.000000	18.484364
842.000000	18.469719
843.000000	18.473707
844.000000	18.474011
845.000000	18.433687
846.000000	18.427783
847.000000	18.443054
848.000000	18.432947
849.000000	18.437926
850.000000	18.429770
851.000000	18.399373
852.000000	18.389749
853.000000	18.413792
854.000000	18.404386
855.000000	18.414130
856.000000	18.397000
857.000000	18.365047
858.000000	22.396510
859.000000	18.737088
860.000000	18.706295
861.000000	18.192331
862.000000	18.176960
863.000000	18.163186
864.000000	18.143097
865.000000	18.128988
866.000000	18.117405
867.000000	17.614709
868.000000	17.600738
869.000000	17.590442
870.000000	17.587200
871.000000	17.579776
872.000000	17.569235
873.000000	17.054909
874.000000	17.553342
875.000000	17.545385
876.000000	17.038044
877.000000	17.525497
878.000000	17.020849
879.000000	17.508786
880.000000	17.009103
881.000000	16.999549
882.000000	16.985848
883.000000	16.980877
884.000000	16.979706
885.000000	16.472245
886.000000	16.966530
887.000000	16.960769
888.000000	16.950295
889.000000	16.449212
890.000000	16.449311
891.000000	16.446727
892.000000	16.435869
893.000000	16.438859
894.000000	16.424913
895.000000	16.420602
896.000000	16.419821
897.000000	16.404839
898.000000	16.402340
899.000000	16.396966
900.000000	16.388047
901.000000	16.381071
902.000000	16.367705
903.000000	16.357066
904.000000	16.361181
905.000000	16.347248
906.000000	16.338364
907.000000	16.337061
908.000000	16.330512
909.000000	16.312939
910.000000	15.814847
911.000000	15.805936
912.000000	16.285443
913.000000	15.786336
914.000000	15.776181
915.000000	15.768465
916.000000	15.755640
917.000000	15.754636
918.000000	15.739381
919.000000	15.729235
920.000000	15.720976
921.000000	15.713434
922.000000	15.703132
923.000000	15.697082
924.000000	15.691868
925.000000	15.679354
926.000000	15.672876
927.000000	15.670690
928.000000	15.663951
929.000000	15.655656
930.000000	15.656262
931.000000	15.643245
932.000000	15.627128
933.000000	15.614317
934.000000	15.606121
935.000000	15.596313
936.000000	15.583340
937.000000	15.579782
938.000000	15.571475
939.000000	15.566119
940.000000	15.566168
941.000000	15.561044
942.000000	15.553184
943.000000	15.538960
944.000000	15.534063
945.000000	15.532567
946.000000	15.520557
947.000000	15.508762
948.000000	15.494146
949.000000	15.491654
950.000000	15.491641
951.000000	15.480519
952.000000	15.472388
953.000000	15.458598
954.000000	15.457277
955.000000	15.447778
956.000000	15.440245
957.000000	15.432999
958.000000	15.426119
959.000000	15.414402
960.000000	15.410530
961.000000	15.401187
962.000000	15.392186
963.000000	15.387796
964.000000	15.375939
965.000000	15.374355
966.000000	15.364446
967.000000	15.357654
968.000000	15.355039
969.000000	15.346255
970.000000	15.340176
971.000000	15.338725
972.000000	15.332107
973.000000	15.325052
974.000000	15.316010
975.000000	15.306132
976.000000	15.307112
977.000000	15.296513
978.000000	15.297984
979.000000	15.290150
980.000000	15.283184
981.000000	15.274947
982.000000	15.266207
983.000000	15.260144
984.000000	15.255636
985.000000	15.252736
986.000000	15.246088
987.000000	15.236119
988.000000	15.233111
989.000000	15.224614
990.000000	15.222556
991.000000	15.218670
992.000000	15.209041
993.000000	15.200494
994.000000	15.193693
995.000000	15.191663
996.000000	15.187054
997.000000	15.180078
998.000000	15.175303
999.000000	15.174091
1000.000000	15.169396
1001.000000	15.157379
1002.000000	15.151989
1003.000000	15.146920
1004.000000	15.145548
1005.000000	15.143006
1006.000000	15.135371
1007.000000	15.133224
1008.000000	15.125141
1009.000000	15.120701
1010.000000	15.117839
1011.000000	15.109952
1012.000000	15.102815
1013.000000	15.094691
1014.000000	15.093011
1015.000000	15.089794
1016.000000	15.086108
1017.000000	15.084668
1018.000000	15.077686
1019.000000	15.068563
1020.000000	15.060729
1021.000000	15.057982
1022.000000	15.054835
1023.000000	15.045342
1024.000000	15.040887
1025.000000	15.041537
1026.000000	15.036962
1027.000000	15.030486
1028.000000	15.020017
1029.000000	15.014037
1030.000000	15.008741
1031.000000	15.001566
1032.000000	15.000203
1033.000000	14.992695
1034.000000	14.984382
1035.000000	14.983371
1036.000000	14.977781
1037.000000	14.968511
1038.000000	14.962979
1039.000000	14.959758
1040.000000	14.957318
1041.000000	14.949107
1042.000000	14.944511
1043.000000	14.943766
1044.000000	14.935945
1045.000000	14.926455
1046.000000	14.923519
1047.000000	14.919962
1048.000000	15.399584
1049.000000	15.395736
1050.000000	15.391154
1051.000000	15.387429
1052.000000	15.386113
1053.000000	15.376584
1054.000000	15.365820
1055.000000	15.360166
1056.000000	15.360371
1057.000000	15.350370
1058.000000	15.344324
1059.000000	15.341879
1060.000000	15.335323
1061.000000	15.326569
1062.000000	15.323543
1063.000000	15.320178
1064.000000	15.315644
1065.000000	15.310682
1066.000000	15.300490
1067.000000	15.294662
1068.000000	15.287712
1069.000000	15.280521
1070.000000	15.272899
1071.000000	15.267758
1072.000000	15.267443
1073.000000	15.259034
1074.000000	15.250544
1075.000000	15.244518
1076.000000	15.239604
1077.000000	15.236103
1078.000000	15.232025
1079.000000	15.229482
1080.000000	15.220574
1081.000000	15.212857
1082.000000	15.213879
1083.000000	15.208752
1084.000000	15.205519
1085.000000	15.199902
1086.000000	15.190601
1087.000000	15.180599
1088.000000	15.179752
1089.000000	15.178103
1090.000000	15.169759
1091.000000	15.163731
1092.000000	15.159632
1093.000000	15.158178
1094.000000	15.153118
1095.000000	15.148312
1096.000000	15.142697
1097.000000	15.142409
1098.000000	15.146124
1099.000000	15.131327
1100.000000	15.122681
1101.000000	15.121243
1102.000000	15.614468
1103.000000	15.607788
1104.000000	15.606510
1105.000000	15.605656
1106.000000	15.598393
1107.000000	15.594203
1108.000000	15.592199
1109.000000	15.586986
1110.000000	15.585798
1111.000000	15.586475
1112.000000	15.580146
1113.000000	15.576227
1114.000000	15.579998
1115.000000	15.582894
1116.000000	15.577495
1117.000000	15.575068
1118.000000	15.574884
1119.000000	15.569177
1120.000000	15.573030
1121.000000	15.568796
1122.000000	15.569014
1123.000000	15.566342
1124.000000	15.567191
1125.000000	15.563398
1126.000000	15.076557
1127.000000	15.080196
1128.000000	15.082321
1129.000000	15.086737
1130.000000	15.089669
1131.000000	15.108272
1132.000000	15.120122
1133.000000	15.113798
1134.000000	15.101783
1135.000000	15.108645
1136.000000	15.115380
1137.000000	15.130464
1138.000000	15.130781
1139.000000	15.136494
1140.000000	15.138600
1141.000000	15.146029
1142.000000	15.151844
1143.000000	15.149341
1144.000000	15.142320
1145.000000	15.144960
1146.000000	15.144402
1147.000000	14.656376
1148.000000	14.664568
1149.000000	14.664299
1150.000000	14.659939
1151.000000	14.662738
1152.000000	14.671499
1153.000000	14.657990
1154.000000	14.664084
1155.000000	14.668191
1156.000000	14.679493
1157.000000	14.692617
1158.000000	14.698797
1159.000000	14.710166
1160.000000	14.712453
1161.000000	14.723220
1162.000000	14.733400
1163.000000	14.253961
1164.000000	14.263333
1165.000000	14.272221
1166.000000	14.278772
1167.000000	14.287338
