PE UV       SUBTECH     SPECTRUM    ASCII       PEDS        4.00        
   -1
INBUCR0432-4.Sample.ASC
24/02/09
15:05:02.00
24/02/09
15:05:02.00
Vinicio Soto Monge
Chrysina aurigans. Det: A. Solís. COSTA RICA. Prov. Guanacaste.  Liberia, P. N. Guanacaste, Estación Mengo, Bosque Primario. 1000 m. 18 JUN 1987. Janzen. Manual (red, libre) L_N_322740_375198 #52599. INB0003355003
250,000000
1
Lambda 1050
1050L1511233
PerkinElmer UV WinLab 6.3.2.0749 / 2.02.05 Lambda 900 UV/VIS/NIR, Aug  7 2015 09:38:08

0
0
3350/servo 860,8/2
0
0
UV/VIS
1
1
1
DoubleDePol,CommonBeamDepol,RBeamAtt,SBeamAtt,60mm sphere, WB InGaAs Detector
0
0
0
0
Program
Program
3350/servo 860,8/2
3350/0,2 860,8/0,2
3350/0,2 860,8/0,2
0
15.00
 
 
 
0
 
860,8
319,2
860,8
Front
100
on
S:100 R:100
0
0
0
0
 
0
 
 
 
0
 
 
0
0
0
0
0
 
 
 
 
0
0


0
0
#HDR
-1
-1
#GR
nm
%R
1.0
0.0
2500,000000
-1,000000
2251
8
18,449200
0,896100
#DATA

250.000000	4.787145
251.000000	4.778073
252.000000	4.788825
253.000000	4.791954
254.000000	4.788688
255.000000	4.791488
256.000000	4.790625
257.000000	4.787506
258.000000	4.789419
259.000000	4.791483
260.000000	4.787078
261.000000	4.789735
262.000000	4.793538
263.000000	4.796118
264.000000	4.796102
265.000000	4.793048
266.000000	4.797200
267.000000	4.794772
268.000000	4.796185
269.000000	4.806778
270.000000	4.809540
271.000000	4.805897
272.000000	4.806213
273.000000	4.804408
274.000000	4.805471
275.000000	4.800319
276.000000	4.802944
277.000000	4.790283
278.000000	4.803321
279.000000	4.804789
280.000000	4.803390
281.000000	4.802552
282.000000	4.788082
283.000000	4.801112
284.000000	4.794669
285.000000	4.781827
286.000000	4.775467
287.000000	4.777244
288.000000	4.769631
289.000000	4.775526
290.000000	4.771519
291.000000	4.757088
292.000000	4.759690
293.000000	4.753836
294.000000	4.759735
295.000000	4.749477
296.000000	4.740301
297.000000	5.401818
298.000000	5.399722
299.000000	5.388605
300.000000	5.381828
301.000000	5.386097
302.000000	5.379051
303.000000	5.379909
304.000000	5.374940
305.000000	5.373481
306.000000	5.366632
307.000000	5.369839
308.000000	5.367508
309.000000	5.365385
310.000000	5.358177
311.000000	5.352701
312.000000	5.351123
313.000000	5.344465
314.000000	5.348162
315.000000	5.350219
316.000000	5.342105
317.000000	5.226675
318.000000	5.278877
319.000000	5.233673
320.000000	5.240984
321.000000	5.221190
322.000000	5.301071
323.000000	5.271107
324.000000	5.257386
325.000000	5.269978
326.000000	5.258090
327.000000	5.274100
328.000000	5.244272
329.000000	5.963196
330.000000	5.253709
331.000000	5.239484
332.000000	5.902378
333.000000	5.905476
334.000000	5.946994
335.000000	5.947530
336.000000	5.939750
337.000000	5.943983
338.000000	5.939011
339.000000	5.931761
340.000000	5.944758
341.000000	5.935184
342.000000	5.913522
343.000000	5.904928
344.000000	5.919843
345.000000	5.924905
346.000000	5.930470
347.000000	5.923535
348.000000	5.914357
349.000000	5.906624
350.000000	5.907533
351.000000	5.898881
352.000000	5.903060
353.000000	5.913317
354.000000	5.906619
355.000000	5.911496
356.000000	5.918332
357.000000	5.917080
358.000000	5.905660
359.000000	5.911110
360.000000	5.911335
361.000000	5.901764
362.000000	5.898884
363.000000	5.908911
364.000000	5.911026
365.000000	5.900631
366.000000	5.894369
367.000000	5.918248
368.000000	5.899294
369.000000	5.878836
370.000000	5.899754
371.000000	5.899926
372.000000	5.901453
373.000000	5.920066
374.000000	5.916879
375.000000	5.935875
376.000000	5.920787
377.000000	5.945637
378.000000	5.941367
379.000000	5.940843
380.000000	5.939504
381.000000	5.933973
382.000000	5.930205
383.000000	5.929215
384.000000	5.927434
385.000000	5.924965
386.000000	5.919144
387.000000	5.914886
388.000000	5.909639
389.000000	5.908375
390.000000	5.905761
391.000000	5.902506
392.000000	5.897667
393.000000	5.895272
394.000000	5.890827
395.000000	5.890146
396.000000	5.888367
397.000000	5.884643
398.000000	5.879502
399.000000	5.876553
400.000000	5.875155
401.000000	6.533233
402.000000	6.529098
403.000000	6.525662
404.000000	6.522088
405.000000	6.518698
406.000000	6.517848
407.000000	6.514278
408.000000	6.511337
409.000000	6.508288
410.000000	6.503230
411.000000	6.499281
412.000000	6.496877
413.000000	6.493169
414.000000	6.489355
415.000000	6.486205
416.000000	6.482272
417.000000	6.480221
418.000000	6.477456
419.000000	6.473071
420.000000	6.470814
421.000000	6.466167
422.000000	6.461719
423.000000	6.458885
424.000000	6.455595
425.000000	6.450420
426.000000	6.448276
427.000000	6.444049
428.000000	6.438445
429.000000	6.436169
430.000000	6.432552
431.000000	6.428071
432.000000	6.425188
433.000000	6.421801
434.000000	6.417908
435.000000	6.414851
436.000000	6.411870
437.000000	6.405153
438.000000	6.401176
439.000000	6.399084
440.000000	6.393890
441.000000	6.389015
442.000000	6.386196
443.000000	6.382895
444.000000	6.377624
445.000000	6.372738
446.000000	6.368857
447.000000	6.364432
448.000000	6.359493
449.000000	6.355850
450.000000	6.351110
451.000000	6.346239
452.000000	6.342166
453.000000	6.338982
454.000000	6.996409
455.000000	6.992187
456.000000	6.987866
457.000000	6.981903
458.000000	6.977465
459.000000	6.973279
460.000000	6.968034
461.000000	6.963187
462.000000	6.958131
463.000000	6.953393
464.000000	6.947701
465.000000	6.941815
466.000000	6.937636
467.000000	6.932662
468.000000	6.927203
469.000000	6.922510
470.000000	6.918506
471.000000	6.912678
472.000000	6.908249
473.000000	6.904109
474.000000	6.899554
475.000000	6.895620
476.000000	6.892720
477.000000	6.888442
478.000000	6.883541
479.000000	6.881046
480.000000	6.879827
481.000000	6.879760
482.000000	6.879253
483.000000	6.874512
484.000000	6.867317
485.000000	6.858759
486.000000	6.850818
487.000000	6.843278
488.000000	6.835078
489.000000	6.827791
490.000000	6.818821
491.000000	6.809179
492.000000	6.798886
493.000000	6.791459
494.000000	7.447681
495.000000	7.437426
496.000000	7.426979
497.000000	7.417088
498.000000	7.409780
499.000000	7.401169
500.000000	7.388938
501.000000	7.378973
502.000000	7.371236
503.000000	7.361912
504.000000	7.351314
505.000000	7.340135
506.000000	7.330981
507.000000	7.321392
508.000000	7.313217
509.000000	7.302159
510.000000	7.292207
511.000000	7.281623
512.000000	7.270597
513.000000	7.259174
514.000000	7.246947
515.000000	7.234651
516.000000	7.221568
517.000000	7.209700
518.000000	7.198746
519.000000	7.189230
520.000000	7.179562
521.000000	7.171499
522.000000	7.163435
523.000000	7.155872
524.000000	7.150951
525.000000	7.804039
526.000000	7.797788
527.000000	7.792628
528.000000	7.785687
529.000000	7.779724
530.000000	7.773199
531.000000	7.765727
532.000000	7.759483
533.000000	7.750542
534.000000	7.745003
535.000000	7.736996
536.000000	7.729612
537.000000	7.723179
538.000000	7.717454
539.000000	7.710404
540.000000	7.704296
541.000000	7.695749
542.000000	7.687426
543.000000	7.680452
544.000000	7.672930
545.000000	7.667545
546.000000	7.660896
547.000000	7.652946
548.000000	7.645109
549.000000	7.639675
550.000000	7.632066
551.000000	7.624090
552.000000	7.616425
553.000000	7.610605
554.000000	7.603250
555.000000	7.596660
556.000000	7.588255
557.000000	7.583007
558.000000	7.578430
559.000000	7.569833
560.000000	7.599970
561.000000	7.599776
562.000000	7.593122
563.000000	7.588566
564.000000	8.241457
565.000000	8.235327
566.000000	8.228895
567.000000	8.225644
568.000000	8.217874
569.000000	8.212043
570.000000	8.207297
571.000000	8.201592
572.000000	8.193694
573.000000	8.188130
574.000000	8.182489
575.000000	8.178347
576.000000	8.175046
577.000000	8.168246
578.000000	8.164225
579.000000	8.158257
580.000000	8.149718
581.000000	8.141399
582.000000	8.133917
583.000000	8.126622
584.000000	8.121052
585.000000	8.114846
586.000000	8.109123
587.000000	8.101073
588.000000	8.098003
589.000000	8.091703
590.000000	8.086258
591.000000	8.082608
592.000000	8.078476
593.000000	8.072741
594.000000	8.064832
595.000000	8.055971
596.000000	8.049910
597.000000	8.041526
598.000000	8.034744
599.000000	8.027448
600.000000	8.017431
601.000000	8.012250
602.000000	8.006347
603.000000	8.002652
604.000000	7.998473
605.000000	7.995386
606.000000	7.988695
607.000000	7.984521
608.000000	7.980519
609.000000	7.971255
610.000000	7.963638
611.000000	7.952923
612.000000	7.944584
613.000000	7.936735
614.000000	8.593100
615.000000	8.581413
616.000000	8.575481
617.000000	8.567578
618.000000	8.564905
619.000000	8.554714
620.000000	8.551157
621.000000	8.549622
622.000000	8.542765
623.000000	8.537798
624.000000	8.529094
625.000000	8.518006
626.000000	8.509431
627.000000	8.501968
628.000000	8.492906
629.000000	8.482151
630.000000	8.471267
631.000000	8.463729
632.000000	8.457599
633.000000	8.449769
634.000000	8.441489
635.000000	8.439649
636.000000	8.430875
637.000000	8.422361
638.000000	8.415592
639.000000	8.409097
640.000000	8.395696
641.000000	8.387268
642.000000	8.374580
643.000000	8.363130
644.000000	8.350036
645.000000	8.339985
646.000000	8.331501
647.000000	8.322107
648.000000	8.975538
649.000000	8.967555
650.000000	8.962562
651.000000	8.952167
652.000000	8.945792
653.000000	8.939058
654.000000	8.928327
655.000000	8.918270
656.000000	8.905815
657.000000	8.893906
658.000000	8.877250
659.000000	8.867632
660.000000	8.857805
661.000000	8.849153
662.000000	8.836155
663.000000	8.826124
664.000000	8.818738
665.000000	8.811402
666.000000	8.804875
667.000000	8.793660
668.000000	8.782875
669.000000	8.774942
670.000000	8.764629
671.000000	8.756443
672.000000	8.742460
673.000000	8.731532
674.000000	8.720343
675.000000	9.370248
676.000000	9.359173
677.000000	9.349582
678.000000	9.342676
679.000000	9.327714
680.000000	9.320434
681.000000	9.312239
682.000000	9.302286
683.000000	9.294873
684.000000	9.288000
685.000000	9.277042
686.000000	9.265133
687.000000	9.253643
688.000000	9.243967
689.000000	9.232893
690.000000	9.222282
691.000000	9.209244
692.000000	9.200350
693.000000	9.189765
694.000000	9.177532
695.000000	9.164470
696.000000	9.153925
697.000000	9.147642
698.000000	9.137757
699.000000	9.793031
700.000000	9.783152
701.000000	9.772757
702.000000	9.761213
703.000000	9.751512
704.000000	9.742735
705.000000	9.729673
706.000000	9.718578
707.000000	9.710676
708.000000	9.699933
709.000000	9.689211
710.000000	9.680444
711.000000	9.670827
712.000000	9.655592
713.000000	9.646856
714.000000	9.641246
715.000000	9.629132
716.000000	9.615213
717.000000	9.604689
718.000000	9.595297
719.000000	10.241912
720.000000	10.232629
721.000000	10.222600
722.000000	10.215089
723.000000	10.200317
724.000000	10.189352
725.000000	10.176728
726.000000	10.166449
727.000000	10.156500
728.000000	10.145111
729.000000	10.134448
730.000000	10.124938
731.000000	10.116538
732.000000	10.105053
733.000000	10.088973
734.000000	10.075727
735.000000	10.066417
736.000000	10.058344
737.000000	10.043973
738.000000	10.031037
739.000000	10.683444
740.000000	10.672824
741.000000	10.660764
742.000000	10.648342
743.000000	10.634182
744.000000	10.625387
745.000000	10.618806
746.000000	10.609252
747.000000	10.596742
748.000000	10.582345
749.000000	10.571955
750.000000	10.560654
751.000000	10.550129
752.000000	10.535309
753.000000	10.522075
754.000000	10.510909
755.000000	10.498391
756.000000	10.491377
757.000000	11.138198
758.000000	11.127470
759.000000	11.121884
760.000000	11.104442
761.000000	11.090514
762.000000	11.078537
763.000000	11.062491
764.000000	11.054937
765.000000	11.045314
766.000000	11.030725
767.000000	11.020000
768.000000	11.007789
769.000000	10.995180
770.000000	10.982982
771.000000	10.975588
772.000000	10.962543
773.000000	10.943330
774.000000	11.591708
775.000000	11.585038
776.000000	11.577965
777.000000	11.563038
778.000000	11.546443
779.000000	11.533619
780.000000	11.522930
781.000000	11.511382
782.000000	11.500606
783.000000	11.487341
784.000000	11.475255
785.000000	11.474543
786.000000	11.464836
787.000000	11.447455
788.000000	11.429395
789.000000	11.413782
790.000000	11.403239
791.000000	12.055777
792.000000	12.035246
793.000000	12.012434
794.000000	11.999933
795.000000	11.996210
796.000000	11.985799
797.000000	11.972161
798.000000	11.964072
799.000000	11.949711
800.000000	11.924841
801.000000	11.919013
802.000000	11.918714
803.000000	11.899014
804.000000	11.876566
805.000000	11.862059
806.000000	11.863108
807.000000	11.839236
808.000000	12.466707
809.000000	12.457713
810.000000	12.454891
811.000000	12.448616
812.000000	12.431332
813.000000	12.420177
814.000000	12.416727
815.000000	12.394815
816.000000	12.376548
817.000000	12.359308
818.000000	12.359402
819.000000	12.354785
820.000000	12.343946
821.000000	12.316938
822.000000	12.311063
823.000000	12.317703
824.000000	12.315998
825.000000	12.962175
826.000000	12.948156
827.000000	12.941073
828.000000	12.934071
829.000000	12.927156
830.000000	12.902822
831.000000	12.880543
832.000000	12.891994
833.000000	12.888894
834.000000	12.874975
835.000000	12.870152
836.000000	12.866606
837.000000	12.852959
838.000000	12.852010
839.000000	12.827721
840.000000	12.829207
841.000000	12.810913
842.000000	12.812826
843.000000	12.818511
844.000000	12.797060
845.000000	12.807117
846.000000	12.813047
847.000000	12.797435
848.000000	13.448899
849.000000	13.451375
850.000000	12.750018
851.000000	13.410408
852.000000	13.409219
853.000000	13.407085
854.000000	13.394016
855.000000	13.409768
856.000000	13.413805
857.000000	13.351048
858.000000	19.118637
859.000000	13.333929
860.000000	13.804821
861.000000	13.286059
862.000000	13.758911
863.000000	13.240235
864.000000	13.723934
865.000000	13.709607
866.000000	13.190328
867.000000	13.180398
868.000000	12.671920
869.000000	13.149541
870.000000	12.636514
871.000000	12.128648
872.000000	12.119294
873.000000	12.598523
874.000000	12.585501
875.000000	12.082097
876.000000	12.072259
877.000000	12.555553
878.000000	12.542932
879.000000	12.032223
880.000000	12.014937
881.000000	12.013858
882.000000	12.001081
883.000000	11.987326
884.000000	11.479478
885.000000	11.965765
886.000000	11.463289
887.000000	11.941495
888.000000	11.438805
889.000000	11.928458
890.000000	11.912536
891.000000	11.406397
892.000000	11.401215
893.000000	11.385291
894.000000	11.373655
895.000000	11.363500
896.000000	11.359259
897.000000	11.342786
898.000000	11.338312
899.000000	11.317643
900.000000	10.815223
901.000000	11.300617
902.000000	11.291928
903.000000	11.274937
904.000000	11.260795
905.000000	10.756273
906.000000	11.237510
907.000000	10.731942
908.000000	11.208168
909.000000	10.702543
910.000000	10.697087
911.000000	10.672835
912.000000	10.663196
913.000000	10.650447
914.000000	10.645517
915.000000	10.634032
916.000000	10.611711
917.000000	10.597995
918.000000	10.584956
919.000000	10.586352
920.000000	10.564574
921.000000	10.556061
922.000000	10.539122
923.000000	10.535032
924.000000	10.519265
925.000000	10.518189
926.000000	10.504220
927.000000	10.501863
928.000000	10.485535
929.000000	10.479637
930.000000	10.471021
931.000000	10.462974
932.000000	10.457951
933.000000	10.439212
934.000000	10.421567
935.000000	10.405249
936.000000	10.398200
937.000000	10.391466
938.000000	10.379725
939.000000	10.374782
940.000000	10.374194
941.000000	10.366180
942.000000	10.359930
943.000000	10.352168
944.000000	10.340992
945.000000	10.327094
946.000000	10.317587
947.000000	10.306906
948.000000	10.296987
949.000000	10.285908
950.000000	10.276028
951.000000	10.275300
952.000000	10.268147
953.000000	10.258845
954.000000	10.250510
955.000000	10.241187
956.000000	10.233005
957.000000	10.220908
958.000000	10.216050
959.000000	10.208541
960.000000	10.202331
961.000000	10.198227
962.000000	10.188817
963.000000	10.179939
964.000000	10.175403
965.000000	10.171327
966.000000	10.157400
967.000000	10.145791
968.000000	10.145741
969.000000	10.637701
970.000000	10.135154
971.000000	10.127903
972.000000	10.117573
973.000000	10.104027
974.000000	10.590766
975.000000	10.589232
976.000000	10.588203
977.000000	10.576942
978.000000	10.574176
979.000000	10.562753
980.000000	10.550752
981.000000	10.543065
982.000000	10.541912
983.000000	10.536603
984.000000	10.529898
985.000000	10.520038
986.000000	10.512894
987.000000	10.508937
988.000000	10.501267
989.000000	10.495257
990.000000	10.490263
991.000000	10.484082
992.000000	10.481993
993.000000	10.471612
994.000000	10.464253
995.000000	10.457830
996.000000	10.449385
997.000000	10.440072
998.000000	10.436771
999.000000	10.427401
1000.000000	10.426533
1001.000000	10.426345
1002.000000	10.415682
1003.000000	10.408600
1004.000000	10.403307
1005.000000	10.399346
1006.000000	10.395254
1007.000000	10.392614
1008.000000	10.387749
1009.000000	10.376620
1010.000000	10.367952
1011.000000	10.365202
1012.000000	10.360654
1013.000000	10.350208
1014.000000	10.343477
1015.000000	10.345315
1016.000000	10.338736
1017.000000	10.327753
1018.000000	10.323568
1019.000000	10.319789
1020.000000	10.313773
1021.000000	10.303355
1022.000000	10.296551
1023.000000	10.295893
1024.000000	10.290510
1025.000000	10.283338
1026.000000	10.280214
1027.000000	10.274984
1028.000000	10.267152
1029.000000	10.257198
1030.000000	10.255234
1031.000000	10.253721
1032.000000	10.243488
1033.000000	10.726229
1034.000000	10.719784
1035.000000	10.716600
1036.000000	10.710030
1037.000000	10.703190
1038.000000	10.697178
1039.000000	10.686297
1040.000000	10.676211
1041.000000	10.672136
1042.000000	10.674347
1043.000000	10.671700
1044.000000	10.661928
1045.000000	10.654330
1046.000000	10.648148
1047.000000	10.643552
1048.000000	10.640612
1049.000000	10.633351
1050.000000	10.623784
1051.000000	10.619385
1052.000000	10.614086
1053.000000	10.609207
1054.000000	10.608692
1055.000000	10.597476
1056.000000	10.588009
1057.000000	10.588302
1058.000000	10.582800
1059.000000	10.574267
1060.000000	10.568716
1061.000000	10.563324
1062.000000	10.555330
1063.000000	10.551701
1064.000000	10.546793
1065.000000	10.537060
1066.000000	10.530963
1067.000000	10.529486
1068.000000	10.524798
1069.000000	10.515782
1070.000000	10.509056
1071.000000	10.505098
1072.000000	10.497818
1073.000000	10.978293
1074.000000	10.474428
1075.000000	10.959251
1076.000000	10.957628
1077.000000	10.944932
1078.000000	10.943308
1079.000000	10.936695
1080.000000	10.928627
1081.000000	10.925617
1082.000000	10.917108
1083.000000	10.918327
1084.000000	10.913943
1085.000000	10.909113
1086.000000	10.899106
1087.000000	10.897218
1088.000000	10.888338
1089.000000	10.879437
1090.000000	10.879529
1091.000000	10.875113
1092.000000	10.875609
1093.000000	10.870537
1094.000000	10.867676
1095.000000	10.861611
1096.000000	10.859297
1097.000000	10.852195
1098.000000	10.852247
1099.000000	10.842222
1100.000000	10.839596
1101.000000	10.833159
1102.000000	10.823410
1103.000000	10.822208
1104.000000	10.818346
1105.000000	10.809413
1106.000000	10.806497
1107.000000	10.802249
1108.000000	10.799405
1109.000000	10.793890
1110.000000	10.791645
1111.000000	10.789581
1112.000000	10.785886
1113.000000	10.787840
1114.000000	10.783759
1115.000000	10.775542
1116.000000	10.770677
1117.000000	10.767521
1118.000000	10.768365
1119.000000	10.764395
1120.000000	10.760687
1121.000000	10.761484
1122.000000	10.755484
1123.000000	10.746241
1124.000000	10.744613
1125.000000	10.748080
1126.000000	10.739923
1127.000000	10.746910
1128.000000	10.740979
1129.000000	10.736585
1130.000000	10.743042
1131.000000	10.748305
1132.000000	10.769998
1133.000000	10.767897
1134.000000	10.753935
1135.000000	10.743493
1136.000000	10.747523
1137.000000	10.763281
1138.000000	10.765900
1139.000000	10.768771
1140.000000	10.767472
1141.000000	10.764989
1142.000000	10.778142
1143.000000	10.774515
1144.000000	10.775569
1145.000000	10.780347
1146.000000	10.776459
1147.000000	10.775062
1148.000000	10.779543
1149.000000	10.783473
1150.000000	10.780703
1151.000000	10.780325
1152.000000	10.778948
1153.000000	10.775102
1154.000000	10.772174
1155.000000	10.788783
1156.000000	10.777193
1157.000000	10.788524
1158.000000	10.797909
1159.000000	10.804910
1160.000000	10.816841
1161.000000	10.818901
1162.000000	10.836875
1163.000000	10.838075
1164.000000	10.848047
1165.000000	10.863488
1166.000000	10.864887
1167.000000	10.869509
1168.000000	10.878135
1169.000000	10.889061
1170.000000	10.895753
1171.000000	10.897950
1172.000000	10.901023
