PE UV       SUBTECH     SPECTRUM    ASCII       PEDS        4.00        
   -1
INBUCR0416-4.Sample.ASC
24/02/09
12:25:27.00
24/02/09
12:25:27.00
Vinicio Soto Monge
COSTA RICA. Prov . Alajuela. San Ramón. Reserva Biol. Alberto Brenes. Río San Lorencito. 850 m. 30 JUN DE 1999. W. Porras. Manual ( red, libre) L_N_245500_470800 #53846. Sin élitros. INB0003049590 
250,000000
1
Lambda 1050
1050L1511233
PerkinElmer UV WinLab 6.3.2.0749 / 2.02.05 Lambda 900 UV/VIS/NIR, Aug  7 2015 09:38:08

0
0
3350/servo 860,8/2
0
0
UV/VIS
1
1
1
DoubleDePol,CommonBeamDepol,RBeamAtt,SBeamAtt,60mm sphere, WB InGaAs Detector
0
0
0
0
Program
Program
3350/servo 860,8/2
3350/0,2 860,8/0,2
3350/0,2 860,8/0,2
0
15.00
 
 
 
0
 
860,8
319,2
860,8
Front
100
on
S:100 R:100
0
0
0
0
 
0
 
 
 
0
 
 
0
0
0
0
0
 
 
 
 
0
0


0
0
#HDR
-1
-1
#GR
nm
%R
1.0
0.0
2500,000000
-1,000000
2251
8
16,962900
1,529600
#DATA

250.000000	4.539278
251.000000	4.534189
252.000000	4.539390
253.000000	4.538865
254.000000	4.548197
255.000000	4.548628
256.000000	4.541763
257.000000	4.545249
258.000000	4.540924
259.000000	4.546978
260.000000	4.542583
261.000000	4.548579
262.000000	4.550621
263.000000	4.553638
264.000000	4.554242
265.000000	4.557843
266.000000	4.560040
267.000000	4.563918
268.000000	4.565843
269.000000	4.573007
270.000000	4.573584
271.000000	4.572319
272.000000	4.576677
273.000000	4.576383
274.000000	4.578846
275.000000	4.586247
276.000000	4.587075
277.000000	4.587919
278.000000	4.585563
279.000000	4.594515
280.000000	4.589384
281.000000	4.592200
282.000000	4.596032
283.000000	4.591334
284.000000	4.590272
285.000000	4.590668
286.000000	4.585279
287.000000	4.585777
288.000000	4.583291
289.000000	4.585701
290.000000	4.580023
291.000000	4.572107
292.000000	4.572407
293.000000	4.571131
294.000000	4.564104
295.000000	4.561175
296.000000	4.557096
297.000000	4.557118
298.000000	4.546589
299.000000	4.550914
300.000000	4.541223
301.000000	4.534791
302.000000	4.540279
303.000000	4.530565
304.000000	4.535699
305.000000	4.524425
306.000000	5.178772
307.000000	5.180431
308.000000	5.167675
309.000000	5.167920
310.000000	5.167006
311.000000	5.164714
312.000000	5.157825
313.000000	5.803437
314.000000	5.805213
315.000000	5.801611
316.000000	5.793939
317.000000	6.356722
318.000000	6.351942
319.000000	6.410110
320.000000	6.364020
321.000000	6.357954
322.000000	6.397783
323.000000	7.035617
324.000000	7.025629
325.000000	7.035867
326.000000	7.016410
327.000000	7.016333
328.000000	7.021138
329.000000	7.028415
330.000000	7.016012
331.000000	7.037696
332.000000	7.019552
333.000000	7.017871
334.000000	7.019913
335.000000	7.027292
336.000000	7.672156
337.000000	7.668493
338.000000	7.662867
339.000000	7.675475
340.000000	7.669788
341.000000	7.675461
342.000000	7.665790
343.000000	7.669523
344.000000	7.667721
345.000000	7.655265
346.000000	7.671007
347.000000	7.669802
348.000000	7.672762
349.000000	7.651151
350.000000	7.651794
351.000000	7.652539
352.000000	7.647007
353.000000	7.660055
354.000000	8.304465
355.000000	7.649849
356.000000	8.296507
357.000000	8.297252
358.000000	8.292532
359.000000	8.286374
360.000000	8.289805
361.000000	8.295057
362.000000	8.280613
363.000000	8.280508
364.000000	8.289418
365.000000	8.288966
366.000000	8.277915
367.000000	8.270920
368.000000	8.278146
369.000000	8.282766
370.000000	8.273791
371.000000	8.278417
372.000000	8.278344
373.000000	8.275815
374.000000	8.268704
375.000000	8.270489
376.000000	8.284444
377.000000	8.328066
378.000000	8.327370
379.000000	8.325446
380.000000	8.322145
381.000000	8.317279
382.000000	8.314801
383.000000	8.312630
384.000000	8.310212
385.000000	8.306607
386.000000	8.303713
387.000000	8.302371
388.000000	8.300159
389.000000	8.297862
390.000000	8.291816
391.000000	8.291787
392.000000	8.288490
393.000000	8.284956
394.000000	8.281133
395.000000	8.279227
396.000000	8.278438
397.000000	8.274476
398.000000	8.274255
399.000000	8.270054
400.000000	8.265343
401.000000	8.264120
402.000000	8.262517
403.000000	8.259926
404.000000	8.257859
405.000000	8.255357
406.000000	8.252915
407.000000	8.248193
408.000000	8.246622
409.000000	8.245216
410.000000	8.240901
411.000000	8.239809
412.000000	8.238370
413.000000	8.234953
414.000000	8.232012
415.000000	8.228661
416.000000	8.226220
417.000000	8.223228
418.000000	8.220452
419.000000	8.217353
420.000000	8.214988
421.000000	8.213030
422.000000	8.209060
423.000000	8.204596
424.000000	8.201663
425.000000	8.198706
426.000000	8.195241
427.000000	8.191523
428.000000	8.189479
429.000000	8.186462
430.000000	8.182455
431.000000	8.833328
432.000000	8.828880
433.000000	8.824546
434.000000	8.821641
435.000000	8.817700
436.000000	8.812204
437.000000	8.809277
438.000000	8.806865
439.000000	8.802007
440.000000	8.797512
441.000000	8.793535
442.000000	8.789732
443.000000	8.786561
444.000000	8.782441
445.000000	8.777141
446.000000	8.770816
447.000000	8.766134
448.000000	8.763095
449.000000	8.759512
450.000000	8.755243
451.000000	8.750373
452.000000	8.746058
453.000000	8.741427
454.000000	8.736624
455.000000	8.733403
456.000000	8.729701
457.000000	8.724221
458.000000	8.719686
459.000000	8.715026
460.000000	8.710470
461.000000	8.705809
462.000000	8.701279
463.000000	8.696401
464.000000	8.691545
465.000000	8.685964
466.000000	8.681140
467.000000	8.677584
468.000000	8.672959
469.000000	8.668613
470.000000	8.663893
471.000000	8.658788
472.000000	8.654577
473.000000	8.651326
474.000000	8.647229
475.000000	8.642379
476.000000	8.639033
477.000000	8.635507
478.000000	8.630976
479.000000	8.627520
480.000000	8.626642
481.000000	8.627346
482.000000	8.627321
483.000000	8.623933
484.000000	8.617682
485.000000	8.610208
486.000000	8.602580
487.000000	8.592863
488.000000	8.583616
489.000000	8.575658
490.000000	8.566278
491.000000	8.557228
492.000000	9.201298
493.000000	9.191221
494.000000	9.181045
495.000000	9.170488
496.000000	9.159744
497.000000	9.149928
498.000000	9.141833
499.000000	9.131923
500.000000	9.120826
501.000000	9.110300
502.000000	9.102351
503.000000	9.093049
504.000000	9.083364
505.000000	9.073055
506.000000	9.062398
507.000000	9.054252
508.000000	9.046468
509.000000	9.036997
510.000000	9.030163
511.000000	9.022364
512.000000	9.015554
513.000000	9.007044
514.000000	8.999735
515.000000	8.993414
516.000000	8.987358
517.000000	8.980459
518.000000	8.973716
519.000000	8.967264
520.000000	8.961786
521.000000	8.954723
522.000000	8.946869
523.000000	9.592825
524.000000	9.586313
525.000000	9.578020
526.000000	9.568954
527.000000	9.560603
528.000000	9.551613
529.000000	9.543677
530.000000	9.532861
531.000000	9.523124
532.000000	9.513307
533.000000	9.503702
534.000000	9.492385
535.000000	9.482750
536.000000	9.473954
537.000000	9.464872
538.000000	9.453472
539.000000	9.443107
540.000000	9.433837
541.000000	9.424133
542.000000	9.413660
543.000000	9.402631
544.000000	9.393157
545.000000	9.383407
546.000000	9.373497
547.000000	9.361831
548.000000	9.354121
549.000000	9.346145
550.000000	9.338243
551.000000	9.328298
552.000000	9.318536
553.000000	9.310252
554.000000	9.301774
555.000000	9.292888
556.000000	9.282250
557.000000	9.273697
558.000000	9.266526
559.000000	9.260827
560.000000	9.299748
561.000000	9.297345
562.000000	9.943088
563.000000	9.935716
564.000000	9.928816
565.000000	9.920553
566.000000	9.914881
567.000000	9.908027
568.000000	9.900982
569.000000	9.892963
570.000000	9.885529
571.000000	9.878203
572.000000	9.870776
573.000000	9.864734
574.000000	9.856968
575.000000	9.851535
576.000000	9.844884
577.000000	9.835994
578.000000	9.830053
579.000000	9.822524
580.000000	9.813964
581.000000	9.807992
582.000000	9.797467
583.000000	9.791572
584.000000	9.783883
585.000000	9.778610
586.000000	9.770527
587.000000	9.762899
588.000000	9.755750
589.000000	9.750298
590.000000	9.743569
591.000000	9.736121
592.000000	9.727582
593.000000	9.722464
594.000000	9.714057
595.000000	9.709330
596.000000	9.701011
597.000000	9.699062
598.000000	9.690689
599.000000	9.680319
600.000000	9.672019
601.000000	9.666323
602.000000	9.661452
603.000000	9.655784
604.000000	9.645142
605.000000	9.640947
606.000000	9.633946
607.000000	9.625273
608.000000	9.620873
609.000000	9.614783
610.000000	9.610639
611.000000	9.599652
612.000000	9.595291
613.000000	9.590957
614.000000	9.583089
615.000000	9.577265
616.000000	9.571334
617.000000	9.565281
618.000000	9.558772
619.000000	9.554179
620.000000	9.550925
621.000000	9.542768
622.000000	9.534931
623.000000	9.529692
624.000000	9.523910
625.000000	9.519298
626.000000	9.510066
627.000000	9.506295
628.000000	9.501664
629.000000	9.490709
630.000000	9.484596
631.000000	9.477757
632.000000	9.472118
633.000000	9.463938
634.000000	9.458106
635.000000	9.448668
636.000000	9.442345
637.000000	9.434095
638.000000	9.424615
639.000000	9.419254
640.000000	9.410954
641.000000	9.403973
642.000000	9.394293
643.000000	9.382552
644.000000	9.378696
645.000000	9.369389
646.000000	9.360446
647.000000	9.355142
648.000000	9.344647
649.000000	9.335360
650.000000	9.326869
651.000000	9.314708
652.000000	9.308167
653.000000	9.298815
654.000000	9.290149
655.000000	9.282779
656.000000	9.926890
657.000000	9.917771
658.000000	9.907391
659.000000	9.900180
660.000000	9.894468
661.000000	9.886080
662.000000	9.877418
663.000000	9.870682
664.000000	9.858567
665.000000	9.850970
666.000000	9.842419
667.000000	9.832262
668.000000	9.825107
669.000000	9.819047
670.000000	9.810501
671.000000	9.803910
672.000000	9.792365
673.000000	9.784799
674.000000	9.778343
675.000000	9.772601
676.000000	9.762692
677.000000	9.757567
678.000000	9.748548
679.000000	9.743631
680.000000	9.733889
681.000000	9.726871
682.000000	9.718548
683.000000	9.711294
684.000000	9.704647
685.000000	9.698368
686.000000	9.690982
687.000000	9.686135
688.000000	9.678228
689.000000	9.669840
690.000000	9.661719
691.000000	9.657338
692.000000	9.648207
693.000000	9.638983
694.000000	9.631986
695.000000	9.626253
696.000000	10.275637
697.000000	10.269100
698.000000	10.262721
699.000000	10.253470
700.000000	10.249493
701.000000	10.238028
702.000000	10.229942
703.000000	10.226654
704.000000	10.221617
705.000000	10.215224
706.000000	10.210041
707.000000	10.197319
708.000000	10.188344
709.000000	10.188668
710.000000	10.183290
711.000000	10.172635
712.000000	10.165584
713.000000	10.159275
714.000000	10.151386
715.000000	10.142490
716.000000	10.136829
717.000000	10.134296
718.000000	10.127497
719.000000	10.119012
720.000000	10.112440
721.000000	10.108423
722.000000	10.102576
723.000000	10.093119
724.000000	10.083236
725.000000	10.079654
726.000000	10.075506
727.000000	10.067547
728.000000	10.059099
729.000000	10.053865
730.000000	10.050337
731.000000	10.696442
732.000000	10.686979
733.000000	10.677163
734.000000	10.674290
735.000000	10.669531
736.000000	10.662825
737.000000	10.654534
738.000000	10.646459
739.000000	10.640223
740.000000	10.637712
741.000000	10.631557
742.000000	10.621485
743.000000	10.614989
744.000000	10.608461
745.000000	10.600554
746.000000	10.591013
747.000000	10.584242
748.000000	10.582669
749.000000	10.572789
750.000000	10.561386
751.000000	10.555297
752.000000	10.552101
753.000000	10.550438
754.000000	10.541658
755.000000	10.529248
756.000000	10.523690
757.000000	10.518950
758.000000	10.511569
759.000000	10.507086
760.000000	10.499030
761.000000	11.142395
762.000000	11.139573
763.000000	11.132884
764.000000	11.125951
765.000000	11.119359
766.000000	11.109980
767.000000	11.101671
768.000000	11.097458
769.000000	11.092328
770.000000	11.083084
771.000000	11.076782
772.000000	11.069612
773.000000	11.062286
774.000000	11.053641
775.000000	11.047236
776.000000	11.038035
777.000000	11.029817
778.000000	11.019013
779.000000	11.009485
780.000000	11.002020
781.000000	10.994106
782.000000	10.989629
783.000000	10.986281
784.000000	10.975934
785.000000	10.967241
786.000000	10.967051
787.000000	10.963361
788.000000	10.947348
789.000000	10.938103
790.000000	10.925570
791.000000	11.572964
792.000000	11.561559
793.000000	11.549557
794.000000	11.549641
795.000000	11.546428
796.000000	11.537284
797.000000	11.529954
798.000000	11.521227
799.000000	11.512582
800.000000	11.496934
801.000000	11.491875
802.000000	11.491741
803.000000	11.476760
804.000000	11.475714
805.000000	11.466517
806.000000	11.453416
807.000000	11.445473
808.000000	11.434378
809.000000	11.420734
810.000000	11.415529
811.000000	11.413884
812.000000	11.404402
813.000000	11.391702
814.000000	11.384845
815.000000	11.388386
816.000000	11.384474
817.000000	11.379109
818.000000	11.358836
819.000000	11.352895
820.000000	11.354025
821.000000	11.351536
822.000000	11.341612
823.000000	11.329119
824.000000	11.330240
825.000000	11.321970
826.000000	11.308373
827.000000	11.306937
828.000000	11.295661
829.000000	11.306275
830.000000	11.301918
831.000000	11.287100
832.000000	11.288348
833.000000	11.293095
834.000000	11.274110
835.000000	11.266463
836.000000	11.265721
837.000000	11.915141
838.000000	11.924003
839.000000	11.262509
840.000000	11.908555
841.000000	11.252116
842.000000	11.911330
843.000000	11.276766
844.000000	11.264329
845.000000	11.229536
846.000000	11.237927
847.000000	11.237657
848.000000	11.889278
849.000000	11.880270
850.000000	11.881525
851.000000	11.218398
852.000000	11.894497
853.000000	11.894453
854.000000	11.896668
855.000000	11.891631
856.000000	11.852947
857.000000	11.874384
858.000000	16.408058
859.000000	12.620300
860.000000	12.107621
861.000000	11.586206
862.000000	11.562312
863.000000	11.040947
864.000000	11.020076
865.000000	11.500237
866.000000	10.989613
867.000000	10.966162
868.000000	10.946673
869.000000	10.928771
870.000000	10.422060
871.000000	10.900833
872.000000	10.387482
873.000000	10.372297
874.000000	10.355684
875.000000	10.351427
876.000000	9.828186
877.000000	10.316695
878.000000	10.300780
879.000000	10.283452
880.000000	9.774356
881.000000	9.754519
882.000000	9.747240
883.000000	9.731420
884.000000	9.713851
885.000000	9.200900
886.000000	9.193978
887.000000	9.185491
888.000000	9.167638
889.000000	8.663242
890.000000	8.642736
891.000000	9.133484
892.000000	9.118610
893.000000	8.618050
894.000000	8.604130
895.000000	8.586828
896.000000	8.577553
897.000000	8.563906
898.000000	8.551384
899.000000	8.542726
900.000000	8.531984
901.000000	8.523971
902.000000	8.512559
903.000000	8.501438
904.000000	7.989255
905.000000	7.982176
906.000000	7.969420
907.000000	8.459266
908.000000	7.945453
909.000000	7.928704
910.000000	7.915761
911.000000	7.912483
912.000000	7.903230
913.000000	7.882082
914.000000	7.870347
915.000000	7.858667
916.000000	7.853769
917.000000	7.840653
918.000000	7.838996
919.000000	7.821880
920.000000	7.806478
921.000000	7.797727
922.000000	7.776944
923.000000	7.771049
924.000000	7.763231
925.000000	7.755241
926.000000	7.259741
927.000000	7.248165
928.000000	7.242857
929.000000	7.232640
930.000000	7.230908
931.000000	7.225587
932.000000	7.208468
933.000000	7.198176
934.000000	7.183936
935.000000	7.180158
936.000000	7.167993
937.000000	7.156885
938.000000	7.149138
939.000000	7.143844
940.000000	7.146616
941.000000	7.139997
942.000000	7.128608
943.000000	7.115015
944.000000	7.111443
945.000000	7.103980
946.000000	7.095952
947.000000	7.090677
948.000000	7.079044
949.000000	7.072606
950.000000	7.073615
951.000000	7.064468
952.000000	7.055688
953.000000	7.044428
954.000000	7.040129
955.000000	6.547584
956.000000	6.540850
957.000000	6.537989
958.000000	6.534172
959.000000	7.011100
960.000000	6.519104
961.000000	6.515365
962.000000	6.507029
963.000000	6.499852
964.000000	6.494538
965.000000	6.491944
966.000000	6.482056
967.000000	6.483736
968.000000	6.472996
969.000000	6.463274
970.000000	6.460529
971.000000	6.464577
972.000000	6.454193
973.000000	6.445388
974.000000	6.439164
975.000000	6.432716
976.000000	6.431419
977.000000	6.424966
978.000000	6.417881
979.000000	6.408229
980.000000	6.406964
981.000000	6.404246
982.000000	6.398175
983.000000	6.395036
984.000000	6.392391
985.000000	6.382686
986.000000	6.380413
987.000000	6.372029
988.000000	6.369024
989.000000	6.368881
990.000000	6.363414
991.000000	6.359443
992.000000	6.355367
993.000000	6.351225
994.000000	6.344635
995.000000	6.343765
996.000000	6.343926
997.000000	6.335372
998.000000	6.326248
999.000000	6.319747
1000.000000	6.314660
1001.000000	6.315878
1002.000000	6.312246
1003.000000	6.310157
1004.000000	6.302480
1005.000000	6.296356
1006.000000	6.291720
1007.000000	6.289167
1008.000000	6.288611
1009.000000	6.285043
1010.000000	6.277378
1011.000000	6.275206
1012.000000	6.271672
1013.000000	6.269178
1014.000000	6.266105
1015.000000	6.263223
1016.000000	6.258379
1017.000000	6.253672
1018.000000	6.251286
1019.000000	6.246436
1020.000000	6.245443
1021.000000	6.238259
1022.000000	6.229047
1023.000000	6.223059
1024.000000	6.219758
1025.000000	6.218871
1026.000000	6.216173
1027.000000	6.214508
1028.000000	6.212420
1029.000000	6.208239
1030.000000	6.201541
1031.000000	6.197365
1032.000000	6.195491
1033.000000	6.193699
1034.000000	6.191014
1035.000000	6.184725
1036.000000	6.179721
1037.000000	6.176162
1038.000000	6.173012
1039.000000	6.170735
1040.000000	6.166078
1041.000000	6.163300
1042.000000	6.165257
1043.000000	6.162865
1044.000000	6.155586
1045.000000	6.149829
1046.000000	6.150870
1047.000000	6.146535
1048.000000	6.142766
1049.000000	6.144790
1050.000000	6.139198
1051.000000	6.135434
1052.000000	6.132478
1053.000000	6.126868
1054.000000	6.123789
1055.000000	6.120142
1056.000000	6.116066
1057.000000	6.113351
1058.000000	6.110662
1059.000000	6.105154
1060.000000	6.102381
1061.000000	6.097251
1062.000000	6.092700
1063.000000	6.088431
1064.000000	6.087395
1065.000000	6.086035
1066.000000	6.089508
1067.000000	6.082952
1068.000000	6.074382
1069.000000	6.072300
1070.000000	6.072200
1071.000000	6.068599
1072.000000	6.064907
1073.000000	6.057118
1074.000000	6.057028
1075.000000	6.050927
1076.000000	6.047110
1077.000000	6.048056
1078.000000	6.046749
1079.000000	6.038257
1080.000000	6.035291
1081.000000	6.036459
1082.000000	6.033482
1083.000000	6.034951
1084.000000	6.024467
1085.000000	6.023539
1086.000000	6.016747
1087.000000	6.015840
1088.000000	6.007862
1089.000000	6.009322
1090.000000	6.012292
1091.000000	6.003402
1092.000000	6.002010
1093.000000	6.000588
1094.000000	6.000697
1095.000000	5.996861
1096.000000	5.991497
1097.000000	5.992516
1098.000000	5.985775
1099.000000	5.985328
1100.000000	5.977111
1101.000000	5.977124
1102.000000	5.980205
1103.000000	5.973961
1104.000000	5.972031
1105.000000	5.977636
1106.000000	5.966802
1107.000000	5.962723
1108.000000	5.964960
1109.000000	5.960166
1110.000000	5.964870
1111.000000	5.957654
1112.000000	5.956120
1113.000000	5.954622
1114.000000	5.950913
1115.000000	5.946649
1116.000000	5.943185
1117.000000	5.950673
1118.000000	5.941895
1119.000000	5.941799
1120.000000	5.934084
1121.000000	5.936775
1122.000000	5.931787
1123.000000	5.924931
1124.000000	5.930296
1125.000000	5.937203
1126.000000	5.923958
1127.000000	5.928239
1128.000000	5.921471
1129.000000	5.924518
1130.000000	5.931165
1131.000000	5.931154
1132.000000	5.932258
1133.000000	5.921332
1134.000000	5.917818
1135.000000	5.908573
1136.000000	5.912241
1137.000000	5.923247
1138.000000	5.920552
1139.000000	5.923703
1140.000000	5.918611
1141.000000	5.930642
1142.000000	5.925166
1143.000000	5.923165
1144.000000	5.918980
1145.000000	5.918624
1146.000000	5.913712
1147.000000	5.914597
1148.000000	5.913675
1149.000000	5.910874
1150.000000	5.911282
1151.000000	5.910438
1152.000000	5.914064
1153.000000	5.894810
1154.000000	5.906619
1155.000000	5.907225
1156.000000	5.905249
1157.000000	5.914014
1158.000000	5.908635
1159.000000	5.913480
1160.000000	5.918523
1161.000000	5.921145
1162.000000	5.923016
1163.000000	5.925798
1164.000000	5.928431
1165.000000	5.928767
1166.000000	5.932732
1167.000000	5.936792
1168.000000	5.941308
1169.000000	5.939863
1170.000000	5.946031
1171.000000	5.941554
1172.000000	5.935149
1173.000000	5.941264
1174.000000	5.937405
1175.000000	5.943296
1176.000000	5.937786
1177.000000	5.944295
1178.000000	5.941121
1179.000000	5.945349
1180.000000	5.945344
1181.000000	5.948693
1182.000000	5.949885
1183.000000	5.943074
1184.000000	5.942151
1185.000000	5.940797
1186.000000	5.939351
