PE UV       SUBTECH     SPECTRUM    ASCII       PEDS        4.00        
   -1
INBUCR0435-4.Sample.ASC
24/02/09
16:00:33.00
24/02/09
16:00:33.00
Vinicio Soto Monge
Chrysina limbata. COSTA RICA. Prov. Cartago. Tayutic, Platanillo. 980-1000 m. 15 de Nov 2002, Rocío Vives. Manual (Aplastado sobre la calle). L. N. 199600 585500 #72176. INB0003554368 INBIOCRI COSTA RICA. Falta élitro izquierdo
250,000000
1
Lambda 1050
1050L1511233
PerkinElmer UV WinLab 6.3.2.0749 / 2.02.05 Lambda 900 UV/VIS/NIR, Aug  7 2015 09:38:08

0
0
3350/servo 860,8/2
0
0
UV/VIS
1
1
1
DoubleDePol,CommonBeamDepol,RBeamAtt,SBeamAtt,60mm sphere, WB InGaAs Detector
0
0
0
0
Program
Program
3350/servo 860,8/2
3350/0,2 860,8/0,2
3350/0,2 860,8/0,2
0
15.00
 
 
 
0
 
860,8
319,2
860,8
Front
100
on
S:100 R:100
0
0
0
0
 
0
 
 
 
0
 
 
0
0
0
0
0
 
 
 
 
0
0


0
0
#HDR
-1
-1
#GR
nm
%R
1.0
0.0
2500,000000
-1,000000
2251
8
19,611200
1,781400
#DATA

250.000000	4.702038
251.000000	4.711500
252.000000	4.704686
253.000000	4.703152
254.000000	4.706487
255.000000	4.717040
256.000000	4.718183
257.000000	4.715331
258.000000	4.707699
259.000000	4.713138
260.000000	4.723082
261.000000	4.717295
262.000000	4.723294
263.000000	4.727978
264.000000	4.729732
265.000000	4.719089
266.000000	4.720737
267.000000	4.735361
268.000000	4.735301
269.000000	4.736008
270.000000	4.738977
271.000000	4.738111
272.000000	4.739784
273.000000	4.741426
274.000000	4.739701
275.000000	4.749703
276.000000	4.746176
277.000000	4.748227
278.000000	4.746978
279.000000	4.746579
280.000000	4.744480
281.000000	4.739253
282.000000	4.751028
283.000000	4.750330
284.000000	4.747785
285.000000	4.737607
286.000000	4.750851
287.000000	4.755762
288.000000	4.741229
289.000000	4.755907
290.000000	4.749234
291.000000	4.758756
292.000000	4.745202
293.000000	4.755431
294.000000	4.757310
295.000000	4.755231
296.000000	4.756481
297.000000	4.765362
298.000000	4.750770
299.000000	4.753680
300.000000	4.752915
301.000000	4.763647
302.000000	4.747461
303.000000	4.751284
304.000000	4.755788
305.000000	4.764718
306.000000	4.776255
307.000000	4.757315
308.000000	4.763125
309.000000	4.753033
310.000000	4.768278
311.000000	4.760155
312.000000	4.766608
313.000000	4.756743
314.000000	4.753818
315.000000	4.762388
316.000000	4.744592
317.000000	4.576099
318.000000	4.599328
319.000000	4.581649
320.000000	4.667592
321.000000	4.628566
322.000000	4.599167
323.000000	4.634421
324.000000	4.599572
325.000000	4.645848
326.000000	4.589300
327.000000	4.606076
328.000000	4.653909
329.000000	4.623361
330.000000	4.633165
331.000000	4.658205
332.000000	4.686064
333.000000	4.604949
334.000000	4.604038
335.000000	4.583421
336.000000	5.138440
337.000000	5.111673
338.000000	5.089094
339.000000	5.074593
340.000000	5.072622
341.000000	5.039944
342.000000	5.005496
343.000000	4.994385
344.000000	4.956869
345.000000	5.477169
346.000000	5.431216
347.000000	5.382374
348.000000	5.346460
349.000000	5.285240
350.000000	5.791997
351.000000	5.700719
352.000000	5.643766
353.000000	6.091671
354.000000	6.020176
355.000000	5.949612
356.000000	5.880928
357.000000	6.351025
358.000000	6.268087
359.000000	6.691948
360.000000	6.606468
361.000000	6.512181
362.000000	6.967981
363.000000	6.856899
364.000000	6.751474
365.000000	7.240917
366.000000	7.141375
367.000000	7.019046
368.000000	7.479307
369.000000	7.382654
370.000000	7.859945
371.000000	7.790526
372.000000	7.743942
373.000000	7.668092
374.000000	8.126690
375.000000	8.047910
376.000000	8.577680
377.000000	8.723792
378.000000	8.665307
379.000000	9.162512
380.000000	9.108154
381.000000	9.053620
382.000000	9.001954
383.000000	9.512062
384.000000	9.468348
385.000000	9.432776
386.000000	9.394386
387.000000	9.360632
388.000000	9.337834
389.000000	9.311740
390.000000	9.289383
391.000000	9.823933
392.000000	9.803714
393.000000	9.790445
394.000000	9.775905
395.000000	9.768334
396.000000	9.764804
397.000000	9.762893
398.000000	9.758321
399.000000	9.761863
400.000000	9.762063
401.000000	9.774237
402.000000	9.789682
403.000000	9.801001
404.000000	9.817598
405.000000	9.282915
406.000000	9.305993
407.000000	9.329221
408.000000	9.354594
409.000000	9.384544
410.000000	9.413855
411.000000	9.448983
412.000000	9.478864
413.000000	8.949614
414.000000	8.978036
415.000000	9.004932
416.000000	9.020643
417.000000	9.030762
418.000000	9.036585
419.000000	9.031320
420.000000	9.022285
421.000000	9.005205
422.000000	8.982795
423.000000	9.505151
424.000000	9.471333
425.000000	9.439590
426.000000	9.401536
427.000000	9.365399
428.000000	9.328708
429.000000	9.291925
430.000000	9.817800
431.000000	9.792646
432.000000	9.771333
433.000000	9.751841
434.000000	9.740648
435.000000	9.737887
436.000000	9.741457
437.000000	9.753122
438.000000	9.770487
439.000000	9.792755
440.000000	9.817180
441.000000	9.849079
442.000000	9.889054
443.000000	9.378738
444.000000	9.419835
445.000000	9.450830
446.000000	9.476756
447.000000	9.498655
448.000000	9.511938
449.000000	9.519644
450.000000	9.521380
451.000000	9.517844
452.000000	9.506636
453.000000	9.489663
454.000000	9.464519
455.000000	9.435090
456.000000	9.406542
457.000000	9.377185
458.000000	9.346234
459.000000	9.866096
460.000000	9.833903
461.000000	9.805038
462.000000	9.783456
463.000000	9.765150
464.000000	9.754155
465.000000	10.304793
466.000000	10.303519
467.000000	10.308189
468.000000	10.320729
469.000000	10.337431
470.000000	10.356017
471.000000	9.822715
472.000000	9.836768
473.000000	9.846946
474.000000	9.853712
475.000000	9.852526
476.000000	9.851475
477.000000	9.846999
478.000000	9.832138
479.000000	9.816411
480.000000	9.806484
481.000000	10.352124
482.000000	10.344902
483.000000	10.324867
484.000000	10.291855
485.000000	10.252025
486.000000	10.766799
487.000000	10.730532
488.000000	10.694519
489.000000	10.663738
490.000000	10.636012
491.000000	10.603595
492.000000	10.572475
493.000000	10.548914
494.000000	10.525786
495.000000	10.504745
496.000000	10.485149
497.000000	10.467395
498.000000	10.446398
499.000000	10.421263
500.000000	10.395198
501.000000	10.370755
502.000000	10.343279
503.000000	10.319410
504.000000	10.292294
505.000000	10.816508
506.000000	10.788651
507.000000	10.762463
508.000000	10.735872
509.000000	10.711432
510.000000	10.687832
511.000000	11.221389
512.000000	11.200282
513.000000	11.181103
514.000000	11.162273
515.000000	11.149381
516.000000	11.139468
517.000000	11.129995
518.000000	11.673846
519.000000	11.663908
520.000000	11.658969
521.000000	11.651896
522.000000	11.645675
523.000000	11.638939
524.000000	11.629338
525.000000	11.617469
526.000000	11.609337
527.000000	11.600870
528.000000	11.594988
529.000000	11.585719
530.000000	11.576635
531.000000	11.568931
532.000000	11.560784
533.000000	12.102021
534.000000	12.091253
535.000000	12.082200
536.000000	12.072025
537.000000	12.066812
538.000000	12.055375
539.000000	12.045752
540.000000	12.037457
541.000000	12.024890
542.000000	12.015051
543.000000	12.006038
544.000000	11.999733
545.000000	11.993887
546.000000	11.989205
547.000000	11.985817
548.000000	11.981982
549.000000	11.983339
550.000000	11.977328
551.000000	11.972611
552.000000	11.976521
553.000000	11.973494
554.000000	11.973730
555.000000	11.970024
556.000000	11.966650
557.000000	11.969005
558.000000	11.966406
559.000000	11.960320
560.000000	12.083623
561.000000	12.106147
562.000000	12.111064
563.000000	12.114343
564.000000	12.113048
565.000000	12.117983
566.000000	12.118049
567.000000	12.126303
568.000000	12.129009
569.000000	12.133109
570.000000	12.141851
571.000000	12.150928
572.000000	12.163457
573.000000	12.171524
574.000000	12.185464
575.000000	12.194319
576.000000	11.649048
577.000000	11.653141
578.000000	11.660974
579.000000	11.668135
580.000000	11.670445
581.000000	11.678243
582.000000	11.687815
583.000000	11.699529
584.000000	11.709460
585.000000	11.727386
586.000000	11.734193
587.000000	11.750466
588.000000	11.766885
589.000000	11.784904
590.000000	11.801139
591.000000	11.810684
592.000000	11.833760
593.000000	11.851734
594.000000	11.865188
595.000000	11.877586
596.000000	11.336622
597.000000	11.345940
598.000000	11.350204
599.000000	11.361601
600.000000	11.366092
601.000000	11.377513
602.000000	11.379343
603.000000	11.384048
604.000000	11.388952
605.000000	11.401756
606.000000	11.413284
607.000000	11.427329
608.000000	11.441088
609.000000	11.452971
610.000000	11.467146
611.000000	11.474112
612.000000	11.489857
613.000000	11.497397
614.000000	11.499455
615.000000	11.504864
616.000000	11.504811
617.000000	11.501421
618.000000	11.501605
619.000000	11.498636
620.000000	11.499340
621.000000	11.492178
622.000000	11.489504
623.000000	11.489174
624.000000	11.494362
625.000000	11.502484
626.000000	11.506982
627.000000	11.509903
628.000000	11.512036
629.000000	11.515265
630.000000	11.522990
631.000000	11.521950
632.000000	11.519062
633.000000	11.511853
634.000000	11.501121
635.000000	11.489438
636.000000	11.472579
637.000000	11.457541
638.000000	11.441424
639.000000	11.425146
640.000000	11.410214
641.000000	11.399824
642.000000	11.385757
643.000000	11.383063
644.000000	11.375913
645.000000	11.371719
646.000000	11.370908
647.000000	11.371883
648.000000	11.375226
649.000000	11.371009
650.000000	11.365977
651.000000	11.904818
652.000000	11.898150
653.000000	11.885194
654.000000	11.866647
655.000000	11.851994
656.000000	11.832528
657.000000	11.812420
658.000000	11.792688
659.000000	11.779599
660.000000	11.762690
661.000000	11.748824
662.000000	11.740229
663.000000	11.731346
664.000000	11.721276
665.000000	11.709101
666.000000	12.246914
667.000000	12.240779
668.000000	12.230017
669.000000	12.212995
670.000000	12.205671
671.000000	12.182949
672.000000	12.164965
673.000000	12.146003
674.000000	12.123225
675.000000	12.101732
676.000000	12.069287
677.000000	12.601321
678.000000	12.576825
679.000000	12.555088
680.000000	12.534752
681.000000	12.515970
682.000000	12.501581
683.000000	12.482967
684.000000	12.474003
685.000000	12.456890
686.000000	12.445120
687.000000	12.434201
688.000000	12.420875
689.000000	12.958822
690.000000	12.940053
691.000000	12.927111
692.000000	12.911892
693.000000	12.892983
694.000000	12.871521
695.000000	12.848066
696.000000	12.828116
697.000000	12.805451
698.000000	12.784451
699.000000	12.770407
700.000000	13.306321
701.000000	13.288262
702.000000	13.273552
703.000000	13.261064
704.000000	13.246333
705.000000	13.235694
706.000000	13.225062
707.000000	13.210229
708.000000	13.197116
709.000000	13.187811
710.000000	13.175560
711.000000	13.161995
712.000000	13.151687
713.000000	13.138904
714.000000	13.681672
715.000000	13.662693
716.000000	13.646630
717.000000	13.637622
718.000000	13.618859
719.000000	13.603326
720.000000	13.590313
721.000000	13.574339
722.000000	13.565197
723.000000	13.555138
724.000000	13.544484
725.000000	13.539363
726.000000	13.528230
727.000000	13.513807
728.000000	13.500654
729.000000	13.495379
730.000000	14.043872
731.000000	14.031339
732.000000	14.024036
733.000000	14.012656
734.000000	14.001906
735.000000	13.994221
736.000000	13.977441
737.000000	13.969061
738.000000	13.971116
739.000000	13.968185
740.000000	13.948968
741.000000	13.935998
742.000000	13.931102
743.000000	13.918121
744.000000	13.903203
745.000000	13.890561
746.000000	14.439946
747.000000	14.430478
748.000000	14.413880
749.000000	14.402622
750.000000	14.394420
751.000000	14.377194
752.000000	14.363363
753.000000	14.355915
754.000000	14.340969
755.000000	14.328090
756.000000	14.315589
757.000000	14.305631
758.000000	14.300897
759.000000	14.300564
760.000000	14.283781
761.000000	14.265308
762.000000	14.264230
763.000000	14.255862
764.000000	14.244417
765.000000	14.787945
766.000000	14.778260
767.000000	14.773665
768.000000	14.760908
769.000000	14.738608
770.000000	14.732929
771.000000	14.733525
772.000000	14.717186
773.000000	14.702144
774.000000	14.698291
775.000000	14.692510
776.000000	14.680902
777.000000	14.663224
778.000000	14.657391
779.000000	14.648783
780.000000	14.640683
781.000000	14.645381
782.000000	14.638905
783.000000	14.620499
784.000000	14.609247
785.000000	14.597749
786.000000	15.136949
787.000000	15.120092
788.000000	15.106951
789.000000	15.099924
790.000000	15.087261
791.000000	15.082547
792.000000	15.063931
793.000000	15.049851
794.000000	15.039925
795.000000	15.013261
796.000000	15.016897
797.000000	15.024305
798.000000	15.008763
799.000000	15.002982
800.000000	14.985907
801.000000	14.977465
802.000000	15.513845
803.000000	15.502803
804.000000	15.493944
805.000000	15.475872
806.000000	15.454319
807.000000	15.449432
808.000000	15.428919
809.000000	15.387379
810.000000	15.382094
811.000000	15.371051
812.000000	15.353842
813.000000	15.348080
814.000000	15.344475
815.000000	15.334061
816.000000	15.310495
817.000000	15.308080
818.000000	15.291805
819.000000	15.287792
820.000000	15.280304
821.000000	15.283684
822.000000	15.276676
823.000000	15.252858
824.000000	15.259921
825.000000	15.240710
826.000000	15.233314
827.000000	15.776475
828.000000	15.767484
829.000000	15.798712
830.000000	15.777325
831.000000	15.754351
832.000000	15.760427
833.000000	15.747732
834.000000	15.744690
835.000000	15.742626
836.000000	15.727626
837.000000	15.758564
838.000000	15.762421
839.000000	15.748934
840.000000	15.744119
841.000000	15.758615
842.000000	15.727251
843.000000	15.751026
844.000000	15.695140
845.000000	15.706692
846.000000	15.707837
847.000000	15.196489
848.000000	15.759321
849.000000	15.733050
850.000000	15.755649
851.000000	15.813284
852.000000	15.842067
853.000000	15.871057
854.000000	15.796246
855.000000	15.801198
856.000000	15.777248
857.000000	15.671281
858.000000	18.252923
859.000000	15.698326
860.000000	16.178631
861.000000	15.668871
862.000000	15.645639
863.000000	15.634560
864.000000	15.116298
865.000000	15.110458
866.000000	15.102584
867.000000	14.598673
868.000000	15.093557
869.000000	14.592800
870.000000	15.084269
871.000000	15.080376
872.000000	14.584334
873.000000	14.585140
874.000000	14.591469
875.000000	14.584425
876.000000	14.094500
877.000000	14.092707
878.000000	14.097543
879.000000	14.096694
880.000000	13.615577
881.000000	13.610476
882.000000	13.615614
883.000000	13.625871
884.000000	13.631464
885.000000	13.635678
886.000000	13.149432
887.000000	13.153819
888.000000	13.162549
889.000000	12.677008
890.000000	12.692732
891.000000	12.703221
892.000000	12.711037
893.000000	12.714509
894.000000	12.723809
895.000000	12.739548
896.000000	12.755011
897.000000	12.757995
898.000000	12.279248
899.000000	12.294081
900.000000	12.311189
901.000000	12.321342
902.000000	12.328407
903.000000	11.851064
904.000000	11.869054
905.000000	11.872869
906.000000	11.886515
907.000000	11.906377
908.000000	11.917699
909.000000	11.439319
910.000000	11.942651
911.000000	11.460428
912.000000	11.468812
913.000000	11.484657
914.000000	11.496362
915.000000	11.504828
916.000000	11.509586
917.000000	11.049566
918.000000	11.067978
919.000000	11.072564
920.000000	11.085367
921.000000	11.100156
922.000000	11.117476
923.000000	10.648599
924.000000	10.661003
925.000000	10.681617
926.000000	10.691009
927.000000	10.710187
928.000000	10.730284
929.000000	10.739863
930.000000	10.756835
931.000000	10.293825
932.000000	10.304302
933.000000	10.320627
934.000000	10.323184
935.000000	10.333053
936.000000	10.350506
937.000000	10.360353
938.000000	10.379999
939.000000	10.394161
940.000000	9.934330
941.000000	9.952234
942.000000	9.964999
943.000000	9.983372
944.000000	9.991006
945.000000	10.001090
946.000000	10.005002
947.000000	10.015993
948.000000	10.027228
949.000000	10.034156
950.000000	10.043355
951.000000	10.050587
952.000000	9.582828
953.000000	9.590387
954.000000	9.598656
955.000000	9.611328
956.000000	9.620565
957.000000	9.623535
958.000000	9.634288
959.000000	9.643472
960.000000	9.657733
961.000000	9.667462
962.000000	9.677130
963.000000	9.682472
964.000000	9.693547
965.000000	9.703336
966.000000	9.705087
967.000000	9.710322
968.000000	9.720977
969.000000	9.251501
970.000000	9.257123
971.000000	9.261513
972.000000	9.262606
973.000000	9.267786
974.000000	9.270235
975.000000	9.267080
976.000000	9.270637
977.000000	9.274701
978.000000	9.276644
979.000000	9.281772
980.000000	9.286827
981.000000	9.298131
982.000000	9.304824
983.000000	9.306924
984.000000	9.313151
985.000000	9.320460
986.000000	9.323271
987.000000	9.330501
988.000000	9.323103
989.000000	9.324543
990.000000	9.326521
991.000000	9.322319
992.000000	9.324140
993.000000	9.327247
994.000000	9.322187
995.000000	9.320301
996.000000	9.319938
997.000000	9.319364
998.000000	9.313004
999.000000	9.314069
1000.000000	9.320236
1001.000000	9.319459
1002.000000	9.321800
1003.000000	9.323139
1004.000000	9.319431
1005.000000	9.321611
1006.000000	8.862415
1007.000000	9.323744
1008.000000	9.326877
1009.000000	9.328244
1010.000000	9.333505
1011.000000	8.875566
1012.000000	8.872662
1013.000000	8.869294
1014.000000	8.871589
1015.000000	8.875064
1016.000000	9.331150
1017.000000	9.331802
1018.000000	9.332042
1019.000000	9.324232
1020.000000	8.859104
1021.000000	8.862144
1022.000000	8.857589
1023.000000	8.852918
1024.000000	8.856084
1025.000000	8.852496
1026.000000	8.850213
1027.000000	8.850921
1028.000000	8.848003
1029.000000	9.302427
1030.000000	9.301662
1031.000000	8.843657
1032.000000	8.839444
1033.000000	8.840062
1034.000000	8.841222
1035.000000	8.839054
1036.000000	9.295356
1037.000000	9.293865
1038.000000	9.292029
1039.000000	9.288605
1040.000000	9.286149
1041.000000	9.287321
1042.000000	9.283425
1043.000000	9.277181
1044.000000	9.277879
1045.000000	9.276742
1046.000000	9.271253
1047.000000	9.265964
1048.000000	9.263359
1049.000000	9.263688
1050.000000	9.261099
1051.000000	9.255049
1052.000000	9.249070
1053.000000	9.246728
1054.000000	9.245991
1055.000000	9.243545
1056.000000	9.240515
1057.000000	9.235169
1058.000000	9.231753
1059.000000	9.231204
1060.000000	9.232345
1061.000000	9.230933
1062.000000	9.225560
1063.000000	9.223951
1064.000000	9.221414
1065.000000	9.215864
1066.000000	9.215785
1067.000000	9.211819
1068.000000	9.201528
1069.000000	9.198236
1070.000000	9.199761
1071.000000	9.191529
1072.000000	9.188279
1073.000000	9.181030
1074.000000	9.176230
1075.000000	9.172593
1076.000000	9.172259
1077.000000	9.171650
1078.000000	9.163190
1079.000000	9.162466
1080.000000	9.156002
1081.000000	9.150959
1082.000000	9.157524
1083.000000	9.160722
1084.000000	9.152472
1085.000000	9.147569
1086.000000	9.150651
1087.000000	9.151058
1088.000000	9.150696
1089.000000	9.147996
1090.000000	9.144885
1091.000000	9.136341
1092.000000	9.131870
1093.000000	9.136616
1094.000000	9.134666
1095.000000	9.133584
1096.000000	9.131132
1097.000000	9.120639
1098.000000	9.122253
1099.000000	9.120955
1100.000000	9.120988
1101.000000	9.122175
1102.000000	9.117375
1103.000000	9.109712
1104.000000	9.106764
1105.000000	9.100410
1106.000000	9.104687
1107.000000	9.107907
1108.000000	9.097951
1109.000000	9.103745
1110.000000	9.106351
1111.000000	9.104997
1112.000000	9.108333
1113.000000	9.102697
1114.000000	9.097173
1115.000000	9.094820
1116.000000	9.095893
1117.000000	9.094713
1118.000000	9.097307
1119.000000	9.096281
1120.000000	9.100644
1121.000000	9.103560
1122.000000	9.100148
1123.000000	9.097529
1124.000000	9.100416
1125.000000	9.106154
1126.000000	9.107146
1127.000000	9.105321
1128.000000	9.104657
1129.000000	9.102341
1130.000000	9.114645
1131.000000	9.123501
1132.000000	9.126916
1133.000000	9.135709
1134.000000	9.123256
1135.000000	9.116084
1136.000000	9.123536
1137.000000	9.129036
1138.000000	9.131776
1139.000000	9.136967
1140.000000	9.138378
1141.000000	9.148829
1142.000000	9.146502
1143.000000	9.147046
1144.000000	9.155674
1145.000000	9.147340
1146.000000	9.148188
1147.000000	9.151334
1148.000000	9.155972
1149.000000	9.166138
1150.000000	9.156903
1151.000000	9.170268
1152.000000	9.161631
1153.000000	9.166579
1154.000000	9.165308
1155.000000	9.172828
1156.000000	9.184553
1157.000000	9.190017
1158.000000	9.198513
1159.000000	9.203981
1160.000000	9.213820
1161.000000	8.767473
1162.000000	8.778782
1163.000000	8.792349
1164.000000	8.797314
1165.000000	8.803577
1166.000000	8.814865
1167.000000	8.814547
1168.000000	8.817073
1169.000000	8.833133
1170.000000	8.830869
1171.000000	8.841059
