PE UV       SUBTECH     SPECTRUM    ASCII       PEDS        4.00        
   -1
INBUCR0224-4.Sample.ASC
24/02/08
10:57:45.00
24/02/08
10:57:45.00
Vinicio Soto Monge
Sin élitros ni cabeza. C. Aurigans (M.H.)
250,000000
1
Lambda 1050
1050L1511233
PerkinElmer UV WinLab 6.3.2.0749 / 2.02.05 Lambda 900 UV/VIS/NIR, Aug  7 2015 09:38:08

0
0
3350/servo 860,8/2
0
0
UV/VIS
1
1
1
DoubleDePol,CommonBeamDepol,RBeamAtt,SBeamAtt,60mm sphere, WB InGaAs Detector
0
0
0
0
Program
Program
3350/servo 860,8/2
3350/0,2 860,8/0,2
3350/0,2 860,8/0,2
0
15.00
 
 
 
0
 
860,8
319,2
860,8
Front
100
on
S:100 R:100
0
0
0
0
 
0
 
 
 
0
 
 
0
0
0
0
0
 
 
 
 
0
0


0
0
#HDR
-1
-1
#GR
nm
%R
1.0
0.0
2500,000000
-1,000000
2251
8
12,227400
0,892200
#DATA

250.000000	1.047707
251.000000	1.077155
252.000000	1.091333
253.000000	1.067559
254.000000	1.080414
255.000000	1.056723
256.000000	1.060828
257.000000	1.069070
258.000000	1.050584
259.000000	1.078980
260.000000	1.057116
261.000000	1.068133
262.000000	1.042836
263.000000	1.032140
264.000000	1.032477
265.000000	1.030005
266.000000	1.017782
267.000000	1.028745
268.000000	1.006664
269.000000	1.012530
270.000000	0.998006
271.000000	1.009615
272.000000	0.983457
273.000000	1.009206
274.000000	1.013359
275.000000	0.997028
276.000000	0.983153
277.000000	1.005867
278.000000	0.964009
279.000000	0.973319
280.000000	0.994459
281.000000	1.017044
282.000000	0.988800
283.000000	0.988488
284.000000	0.986930
285.000000	0.983840
286.000000	0.961629
287.000000	0.966606
288.000000	0.989021
289.000000	0.997941
290.000000	0.991572
291.000000	1.001641
292.000000	0.996420
293.000000	1.002472
294.000000	1.030673
295.000000	1.008021
296.000000	1.024056
297.000000	1.026228
298.000000	1.047029
299.000000	1.035126
300.000000	1.016556
301.000000	1.023386
302.000000	1.050810
303.000000	1.020902
304.000000	1.045166
305.000000	1.036934
306.000000	1.067252
307.000000	1.121692
308.000000	1.086201
309.000000	1.088382
310.000000	1.055358
311.000000	1.037622
312.000000	1.080378
313.000000	1.079791
314.000000	1.084713
315.000000	1.056276
316.000000	1.130887
317.000000	1.351344
318.000000	1.397423
319.000000	1.375457
320.000000	1.327454
321.000000	1.388485
322.000000	1.468468
323.000000	1.404642
324.000000	1.422398
325.000000	1.322156
326.000000	1.389427
327.000000	1.351495
328.000000	1.326354
329.000000	1.378205
330.000000	1.353000
331.000000	1.316169
332.000000	1.363469
333.000000	1.316160
334.000000	1.379881
335.000000	1.350704
336.000000	1.364783
337.000000	1.393369
338.000000	1.343935
339.000000	1.317061
340.000000	1.358897
341.000000	1.314662
342.000000	1.354787
343.000000	1.360792
344.000000	1.348666
345.000000	1.333622
346.000000	1.333213
347.000000	1.336023
348.000000	1.295388
349.000000	1.320608
350.000000	1.361751
351.000000	1.354808
352.000000	1.329214
353.000000	1.356836
354.000000	1.396568
355.000000	1.398932
356.000000	1.377286
357.000000	1.407118
358.000000	1.380567
359.000000	1.434215
360.000000	1.406376
361.000000	1.477926
362.000000	1.439633
363.000000	1.448472
364.000000	1.461287
365.000000	1.437500
366.000000	1.451270
367.000000	1.495520
368.000000	1.504295
369.000000	1.544288
370.000000	1.529970
371.000000	1.512930
372.000000	1.531732
373.000000	1.544518
374.000000	1.538295
375.000000	1.586778
376.000000	1.675510
377.000000	1.626526
378.000000	1.643201
379.000000	1.658152
380.000000	1.668191
381.000000	1.687844
382.000000	1.694268
383.000000	1.703281
384.000000	1.718169
385.000000	1.730929
386.000000	1.735366
387.000000	1.749612
388.000000	1.756686
389.000000	1.772189
390.000000	1.782841
391.000000	1.792751
392.000000	1.804234
393.000000	1.810118
394.000000	1.823057
395.000000	1.836314
396.000000	1.846212
397.000000	1.856822
398.000000	1.857171
399.000000	1.866059
400.000000	1.883078
401.000000	1.887739
402.000000	1.899266
403.000000	1.911814
404.000000	1.920526
405.000000	1.931813
406.000000	1.937469
407.000000	1.943864
408.000000	1.952654
409.000000	1.963734
410.000000	1.973171
411.000000	1.985103
412.000000	1.996297
413.000000	2.012696
414.000000	2.018680
415.000000	2.025852
416.000000	2.034196
417.000000	2.042744
418.000000	2.056840
419.000000	2.066922
420.000000	2.077966
421.000000	2.094373
422.000000	2.100760
423.000000	2.112732
424.000000	2.121646
425.000000	2.135571
426.000000	2.149419
427.000000	2.156374
428.000000	2.170213
429.000000	2.186667
430.000000	2.200225
431.000000	2.209454
432.000000	2.219563
433.000000	2.236129
434.000000	2.247969
435.000000	2.263606
436.000000	2.281693
437.000000	2.293003
438.000000	2.308935
439.000000	2.321528
440.000000	2.334512
441.000000	2.348851
442.000000	2.364771
443.000000	2.380520
444.000000	2.397838
445.000000	2.411594
446.000000	2.419219
447.000000	2.435986
448.000000	2.451829
449.000000	2.463385
450.000000	2.476418
451.000000	2.490639
452.000000	2.507814
453.000000	2.519686
454.000000	2.531286
455.000000	2.547243
456.000000	2.560167
457.000000	2.571051
458.000000	2.584689
459.000000	2.597871
460.000000	2.612495
461.000000	2.628503
462.000000	2.646133
463.000000	2.662779
464.000000	2.675691
465.000000	2.687671
466.000000	2.697290
467.000000	2.712175
468.000000	2.732335
469.000000	2.745867
470.000000	2.758844
471.000000	2.778482
472.000000	2.796656
473.000000	2.811727
474.000000	2.830386
475.000000	2.848525
476.000000	2.868792
477.000000	2.887391
478.000000	2.902832
479.000000	2.922383
480.000000	2.941111
481.000000	2.959529
482.000000	2.975731
483.000000	2.995784
484.000000	3.011861
485.000000	3.024084
486.000000	3.040436
487.000000	3.053872
488.000000	3.064349
489.000000	3.078526
490.000000	3.091068
491.000000	3.106493
492.000000	3.124510
493.000000	3.140420
494.000000	3.152651
495.000000	3.167774
496.000000	3.183317
497.000000	3.197204
498.000000	3.211328
499.000000	3.229606
500.000000	3.246000
501.000000	3.260376
502.000000	3.274927
503.000000	3.296430
504.000000	3.311799
505.000000	3.324513
506.000000	3.338203
507.000000	3.357497
508.000000	3.372073
509.000000	3.391460
510.000000	3.413470
511.000000	3.437511
512.000000	3.457795
513.000000	3.478649
514.000000	3.497186
515.000000	3.522705
516.000000	3.544080
517.000000	3.566400
518.000000	3.593071
519.000000	3.616213
520.000000	3.643986
521.000000	3.669826
522.000000	3.693797
523.000000	3.717807
524.000000	3.746941
525.000000	3.770470
526.000000	3.791468
527.000000	3.820016
528.000000	3.844751
529.000000	3.873086
530.000000	3.898980
531.000000	3.919438
532.000000	3.941002
533.000000	3.963774
534.000000	3.989843
535.000000	4.013093
536.000000	4.039872
537.000000	4.066594
538.000000	4.085683
539.000000	4.106041
540.000000	4.131395
541.000000	4.155430
542.000000	4.176287
543.000000	4.197610
544.000000	4.219093
545.000000	4.243828
546.000000	4.270407
547.000000	4.287497
548.000000	4.315228
549.000000	4.334542
550.000000	4.356153
551.000000	4.383858
552.000000	4.406793
553.000000	4.427226
554.000000	4.453662
555.000000	4.474926
556.000000	4.495723
557.000000	4.521253
558.000000	4.548101
559.000000	4.566732
560.000000	4.601116
561.000000	4.626704
562.000000	4.646879
563.000000	4.674907
564.000000	4.697492
565.000000	4.721498
566.000000	4.743078
567.000000	4.772069
568.000000	4.792206
569.000000	4.813587
570.000000	4.839840
571.000000	4.871141
572.000000	4.891062
573.000000	4.916039
574.000000	4.934979
575.000000	4.971505
576.000000	4.989097
577.000000	5.012416
578.000000	5.036993
579.000000	5.062891
580.000000	5.093260
581.000000	5.124017
582.000000	5.149196
583.000000	5.173368
584.000000	5.199319
585.000000	5.226749
586.000000	5.252849
587.000000	5.283054
588.000000	5.309898
589.000000	5.329728
590.000000	5.363426
591.000000	5.390757
592.000000	5.415083
593.000000	5.451928
594.000000	5.473478
595.000000	5.498696
596.000000	5.527185
597.000000	5.559953
598.000000	5.587922
599.000000	5.612223
600.000000	5.643718
601.000000	5.674346
602.000000	5.701495
603.000000	5.732630
604.000000	5.760362
605.000000	5.799760
606.000000	5.824187
607.000000	5.845448
608.000000	5.881204
609.000000	5.912929
610.000000	5.944438
611.000000	5.975876
612.000000	6.012571
613.000000	6.036266
614.000000	6.067027
615.000000	6.107752
616.000000	6.125595
617.000000	6.160846
618.000000	6.191660
619.000000	6.225197
620.000000	6.251963
621.000000	6.289387
622.000000	6.321493
623.000000	6.352496
624.000000	6.393553
625.000000	6.422005
626.000000	6.447370
627.000000	6.480649
628.000000	6.521889
629.000000	6.553052
630.000000	6.593609
631.000000	6.622264
632.000000	6.666973
633.000000	6.690703
634.000000	6.736707
635.000000	6.767533
636.000000	6.798297
637.000000	6.839098
638.000000	6.878215
639.000000	6.922600
640.000000	6.968190
641.000000	7.010702
642.000000	7.037234
643.000000	7.082204
644.000000	7.126491
645.000000	7.159383
646.000000	7.201267
647.000000	7.250858
648.000000	7.289562
649.000000	7.330727
650.000000	7.369731
651.000000	7.423482
652.000000	7.459524
653.000000	7.504153
654.000000	7.543152
655.000000	7.591326
656.000000	7.632699
657.000000	7.675506
658.000000	7.714488
659.000000	7.760763
660.000000	7.808733
661.000000	7.860420
662.000000	7.904873
663.000000	7.945251
664.000000	7.993330
665.000000	8.026231
666.000000	8.076618
667.000000	8.116222
668.000000	8.160588
669.000000	8.208858
670.000000	8.258596
671.000000	8.294228
672.000000	8.340215
673.000000	8.389580
674.000000	8.435375
675.000000	8.472202
676.000000	8.518606
677.000000	8.565796
678.000000	8.620683
679.000000	8.673906
680.000000	8.717144
681.000000	8.754973
682.000000	8.792488
683.000000	8.849010
684.000000	8.892256
685.000000	8.930069
686.000000	8.985580
687.000000	9.050056
688.000000	9.104919
689.000000	9.132239
690.000000	9.177663
691.000000	9.239597
692.000000	9.293997
693.000000	9.343262
694.000000	9.402084
695.000000	9.440557
696.000000	9.480780
697.000000	9.523447
698.000000	9.569847
699.000000	9.621860
700.000000	9.677599
701.000000	9.737888
702.000000	9.778938
703.000000	9.842431
704.000000	9.884542
705.000000	9.940767
706.000000	10.002346
707.000000	10.034993
708.000000	10.066000
709.000000	10.134801
710.000000	10.183296
711.000000	10.244470
712.000000	10.298658
713.000000	10.328083
714.000000	10.398598
715.000000	10.450703
716.000000	10.502010
717.000000	10.551292
718.000000	10.592777
719.000000	10.651554
720.000000	10.710986
721.000000	10.750514
722.000000	10.804949
723.000000	10.861090
724.000000	10.924547
725.000000	10.974118
726.000000	11.019203
727.000000	11.075544
728.000000	11.139056
729.000000	11.186145
730.000000	11.233015
731.000000	11.299549
732.000000	11.361121
733.000000	11.403206
734.000000	11.455599
735.000000	11.514843
736.000000	11.566170
737.000000	11.622231
738.000000	11.676943
739.000000	11.736696
740.000000	11.809501
741.000000	11.872987
742.000000	11.933971
743.000000	11.976720
744.000000	12.027650
745.000000	12.097290
746.000000	12.142545
747.000000	12.198199
748.000000	12.252374
749.000000	12.295170
750.000000	12.358803
751.000000	12.416914
752.000000	12.476128
753.000000	12.544092
754.000000	12.596391
755.000000	12.648600
756.000000	12.705950
757.000000	12.763974
758.000000	12.826106
759.000000	12.889126
760.000000	12.956391
761.000000	13.027174
762.000000	13.080543
763.000000	13.115794
764.000000	13.197782
765.000000	13.272685
766.000000	13.320420
767.000000	13.376038
768.000000	13.438960
769.000000	13.490926
770.000000	13.534641
771.000000	13.586860
772.000000	13.673309
773.000000	13.754704
774.000000	13.812673
775.000000	13.891285
776.000000	13.928957
777.000000	13.969947
778.000000	14.046236
779.000000	14.107569
780.000000	14.168256
781.000000	14.223903
782.000000	14.294145
783.000000	14.356263
784.000000	14.404843
785.000000	14.473469
786.000000	14.527556
787.000000	14.555668
788.000000	14.621199
789.000000	14.708475
790.000000	14.772831
791.000000	14.845161
792.000000	14.904916
793.000000	14.978758
794.000000	15.028552
795.000000	15.082736
796.000000	15.139610
797.000000	15.208700
798.000000	15.266076
799.000000	15.305903
800.000000	15.398789
801.000000	15.476914
802.000000	15.564305
803.000000	15.607704
804.000000	15.624509
805.000000	15.647495
806.000000	15.743149
807.000000	15.809050
808.000000	15.892418
809.000000	15.934340
810.000000	15.981839
811.000000	16.033544
812.000000	16.101047
813.000000	16.153769
814.000000	16.229851
815.000000	16.304720
816.000000	16.347127
817.000000	16.339586
818.000000	16.396102
819.000000	16.507257
820.000000	16.569543
821.000000	16.624628
822.000000	16.679560
823.000000	16.706540
824.000000	16.754525
825.000000	16.821328
826.000000	16.859892
827.000000	16.850606
828.000000	16.958944
829.000000	17.007434
830.000000	17.070539
831.000000	17.132884
832.000000	17.198201
833.000000	17.259530
834.000000	17.311798
835.000000	17.340124
836.000000	17.424499
837.000000	17.452545
838.000000	17.491905
839.000000	17.546156
840.000000	17.482819
841.000000	17.557113
842.000000	17.589492
843.000000	17.697559
844.000000	17.749333
845.000000	17.731657
846.000000	17.785793
847.000000	17.999277
848.000000	17.904588
849.000000	17.845406
850.000000	17.976790
851.000000	18.065573
852.000000	18.063619
853.000000	18.212459
854.000000	18.129947
855.000000	18.189129
856.000000	18.133332
857.000000	18.149368
858.000000	18.610746
859.000000	18.534874
860.000000	18.549791
861.000000	18.570118
862.000000	18.598506
863.000000	18.609989
864.000000	18.641840
865.000000	18.677357
866.000000	18.688861
867.000000	18.731415
868.000000	18.760044
869.000000	18.777005
870.000000	18.815848
871.000000	18.845603
872.000000	18.869683
873.000000	18.906983
874.000000	18.940490
875.000000	18.974043
876.000000	19.014137
877.000000	19.043127
878.000000	19.067227
879.000000	19.100440
880.000000	19.124913
881.000000	19.158527
882.000000	19.185171
883.000000	19.206608
884.000000	19.230105
885.000000	19.265697
886.000000	19.295825
887.000000	19.335160
888.000000	19.343742
889.000000	19.385249
890.000000	19.390109
891.000000	19.414162
892.000000	19.453690
893.000000	19.466375
894.000000	19.485979
895.000000	19.519618
896.000000	19.519364
897.000000	19.565807
898.000000	19.576480
899.000000	19.588727
900.000000	19.623447
901.000000	19.649131
902.000000	19.645816
903.000000	19.678768
904.000000	19.704035
905.000000	19.720426
906.000000	19.740739
907.000000	19.755239
908.000000	19.800981
909.000000	19.774982
910.000000	19.807929
911.000000	19.829994
912.000000	19.850954
913.000000	19.858737
914.000000	19.852251
915.000000	19.895387
916.000000	19.908061
917.000000	19.924437
918.000000	19.949946
919.000000	19.951579
920.000000	19.971273
921.000000	19.984629
922.000000	19.985865
923.000000	20.001434
924.000000	20.021758
925.000000	20.025554
926.000000	20.054017
927.000000	20.064027
928.000000	20.082084
929.000000	20.107132
930.000000	20.135504
931.000000	20.132858
932.000000	20.145711
933.000000	20.154431
934.000000	20.164104
935.000000	20.166229
936.000000	20.179241
937.000000	20.190512
938.000000	20.171896
939.000000	20.185941
940.000000	20.200089
941.000000	20.214547
942.000000	20.217378
943.000000	20.234501
944.000000	20.238355
945.000000	20.245829
946.000000	20.261672
947.000000	20.279933
948.000000	20.306900
949.000000	20.310798
950.000000	20.327806
951.000000	20.338659
952.000000	20.359116
953.000000	20.359329
954.000000	20.364351
955.000000	20.374572
956.000000	20.399824
957.000000	20.400040
958.000000	20.415031
959.000000	20.433226
960.000000	20.433921
961.000000	20.431786
962.000000	20.446266
963.000000	20.463389
964.000000	20.477268
965.000000	20.495579
966.000000	20.494327
967.000000	20.512281
968.000000	20.516645
969.000000	20.522457
970.000000	20.546028
971.000000	20.551491
972.000000	20.553684
973.000000	20.553777
974.000000	20.570622
975.000000	20.589718
976.000000	20.594460
977.000000	20.601804
978.000000	20.617145
979.000000	20.613595
980.000000	20.613411
981.000000	20.637830
982.000000	20.647253
983.000000	20.650217
984.000000	20.667030
985.000000	20.677457
986.000000	20.682992
987.000000	20.683613
988.000000	20.691860
989.000000	20.700925
990.000000	20.724817
991.000000	20.730867
992.000000	20.743321
993.000000	20.744601
994.000000	20.741693
995.000000	20.749188
996.000000	20.772651
997.000000	20.765329
998.000000	20.782839
999.000000	20.797630
1000.000000	20.802606
1001.000000	20.809035
1002.000000	20.831343
1003.000000	20.838106
1004.000000	20.836917
1005.000000	20.841313
1006.000000	20.860975
1007.000000	20.863258
1008.000000	20.864310
1009.000000	20.876996
1010.000000	20.876636
1011.000000	20.884431
1012.000000	20.901071
1013.000000	20.910967
1014.000000	20.925976
1015.000000	20.932412
1016.000000	20.934619
1017.000000	20.945136
1018.000000	20.958741
1019.000000	20.969807
1020.000000	20.990419
1021.000000	21.001526
1022.000000	21.003922
1023.000000	21.017725
1024.000000	21.037732
1025.000000	21.051593
1026.000000	21.069705
1027.000000	21.084280
1028.000000	21.095788
1029.000000	21.111015
1030.000000	21.126005
1031.000000	21.133117
1032.000000	21.139831
1033.000000	21.143551
1034.000000	21.158110
1035.000000	21.177879
1036.000000	21.188031
1037.000000	21.200515
1038.000000	21.210464
1039.000000	21.222462
1040.000000	21.237396
1041.000000	21.249175
1042.000000	21.261054
1043.000000	21.263812
1044.000000	21.263130
1045.000000	21.279913
1046.000000	21.297693
1047.000000	21.307966
1048.000000	21.315848
1049.000000	21.327773
1050.000000	21.338863
1051.000000	21.336558
1052.000000	21.348509
1053.000000	21.373048
1054.000000	21.384690
1055.000000	21.395616
1056.000000	21.403192
1057.000000	21.418954
1058.000000	21.437210
1059.000000	21.447523
1060.000000	21.453558
1061.000000	21.463906
1062.000000	21.474199
1063.000000	21.489099
1064.000000	21.505818
1065.000000	21.516164
1066.000000	21.518370
1067.000000	21.535430
1068.000000	21.544242
1069.000000	21.557132
1070.000000	21.563210
1071.000000	21.565407
1072.000000	21.570931
1073.000000	21.579070
1074.000000	21.584159
1075.000000	21.600155
1076.000000	21.613750
1077.000000	21.621523
1078.000000	21.638322
1079.000000	21.649600
1080.000000	21.662837
1081.000000	21.670122
1082.000000	21.680540
1083.000000	21.688561
1084.000000	21.698548
1085.000000	21.702024
1086.000000	21.711614
1087.000000	21.725536
1088.000000	21.720174
1089.000000	21.729202
1090.000000	21.724396
1091.000000	21.734333
1092.000000	21.754651
1093.000000	21.761734
1094.000000	21.767835
1095.000000	21.772285
1096.000000	21.773405
1097.000000	21.779426
1098.000000	21.790777
1099.000000	21.794808
1100.000000	21.805398
1101.000000	21.818055
1102.000000	21.809466
1103.000000	21.811560
1104.000000	21.823949
1105.000000	21.827631
1106.000000	21.836971
1107.000000	21.838260
1108.000000	21.838540
1109.000000	21.840853
1110.000000	21.838524
1111.000000	21.837947
1112.000000	21.843000
1113.000000	21.831525
1114.000000	21.829312
1115.000000	21.834395
1116.000000	21.847973
1117.000000	21.852115
1118.000000	21.859369
1119.000000	21.852447
1120.000000	21.847182
1121.000000	21.860089
1122.000000	21.859594
1123.000000	21.855950
1124.000000	21.847330
1125.000000	21.835873
1126.000000	21.821239
1127.000000	21.812373
1128.000000	21.802555
1129.000000	21.788877
1130.000000	21.758936
1131.000000	21.755174
1132.000000	21.737178
1133.000000	21.735485
1134.000000	21.706452
1135.000000	21.688103
1136.000000	21.655680
1137.000000	21.626654
1138.000000	21.607223
1139.000000	21.603510
1140.000000	21.586898
1141.000000	21.576063
1142.000000	21.558069
1143.000000	21.559163
1144.000000	21.554404
1145.000000	21.533627
1146.000000	21.530132
1147.000000	21.510289
1148.000000	21.507975
1149.000000	21.478531
1150.000000	21.470375
1151.000000	21.474302
1152.000000	21.459132
1153.000000	21.436979
1154.000000	21.398625
1155.000000	21.388519
1156.000000	21.349642
1157.000000	21.309049
1158.000000	21.277702
1159.000000	21.276120
1160.000000	21.246704
1161.000000	21.200483
1162.000000	21.173789
1163.000000	21.140926
1164.000000	21.111842
1165.000000	21.080198
1166.000000	21.041679
1167.000000	21.019513
1168.000000	20.998202
1169.000000	20.968867
1170.000000	20.955509
1171.000000	20.923171
1172.000000	20.917585
1173.000000	20.892723
1174.000000	20.883601
1175.000000	20.881353
1176.000000	20.867036
1177.000000	20.856657
1178.000000	20.844213
1179.000000	20.836866
