PE UV       SUBTECH     SPECTRUM    ASCII       PEDS        4.00        
   -1
INBUCR0136-4.Sample.ASC
24/02/07
14:46:10.00
24/02/07
14:46:10.00
Vinicio Soto Monge
Pelidnota parallela. Color café con ambos élitros. Pelidnota parallela. Det: A. Solís. COSTA RICA, Prov. Puntarenas. Estación Altamira. 1 km. S del Cerro Biolley. 1450 m. 7 ABR - 10 MAY 1997 #46227. INBIOCRI002538670
250,000000
1
Lambda 1050
1050L1511233
PerkinElmer UV WinLab 6.3.2.0749 / 2.02.05 Lambda 900 UV/VIS/NIR, Aug  7 2015 09:38:08

0
0
3350/servo 860,8/2
0
0
UV/VIS
1
1
1
DoubleDePol,CommonBeamDepol,RBeamAtt,SBeamAtt,60mm sphere, WB InGaAs Detector
0
0
0
0
Program
Program
3350/servo 860,8/2
3350/0,2 860,8/0,2
3350/0,2 860,8/0,2
0
15.00
 
 
 
0
 
860,8
319,2
860,8
Front
100
on
S:100 R:100
0
0
0
0
 
0
 
 
 
0
 
 
0
0
0
0
0
 
 
 
 
0
0


0
0
#HDR
-1
-1
#GR
nm
%R
1.0
0.0
2500,000000
-1,000000
2251
8
15,055700
0,974600
#DATA

250.000000	2.999762
251.000000	2.987753
252.000000	3.006253
253.000000	2.973791
254.000000	2.965177
255.000000	2.941133
256.000000	2.936189
257.000000	2.954580
258.000000	2.932285
259.000000	2.924842
260.000000	2.904131
261.000000	2.881474
262.000000	2.853380
263.000000	2.865112
264.000000	2.855824
265.000000	2.847731
266.000000	2.817450
267.000000	2.808058
268.000000	2.791918
269.000000	2.792346
270.000000	2.784145
271.000000	2.778357
272.000000	2.766887
273.000000	2.762225
274.000000	2.751174
275.000000	2.715965
276.000000	2.746384
277.000000	2.733698
278.000000	2.708863
279.000000	2.732051
280.000000	2.718333
281.000000	2.703603
282.000000	2.705330
283.000000	2.735469
284.000000	2.689426
285.000000	2.697747
286.000000	2.691657
287.000000	2.690867
288.000000	2.678383
289.000000	2.724210
290.000000	2.670596
291.000000	2.688778
292.000000	2.701148
293.000000	2.689251
294.000000	2.687952
295.000000	2.679722
296.000000	2.694422
297.000000	2.691306
298.000000	2.688631
299.000000	2.693274
300.000000	2.653608
301.000000	2.676876
302.000000	2.655680
303.000000	2.709838
304.000000	2.662386
305.000000	2.646827
306.000000	2.631877
307.000000	2.669528
308.000000	2.633730
309.000000	2.648897
310.000000	2.651330
311.000000	2.662270
312.000000	2.654084
313.000000	2.646665
314.000000	2.616261
315.000000	2.628229
316.000000	2.625038
317.000000	2.344324
318.000000	2.554125
319.000000	2.526663
320.000000	2.421386
321.000000	2.409166
322.000000	2.525092
323.000000	2.484122
324.000000	2.345940
325.000000	2.430950
326.000000	2.467460
327.000000	2.495955
328.000000	2.503606
329.000000	2.546806
330.000000	2.477698
331.000000	2.508851
332.000000	2.499128
333.000000	2.591926
334.000000	2.518537
335.000000	2.565731
336.000000	2.531401
337.000000	2.573502
338.000000	2.539324
339.000000	2.547556
340.000000	2.561971
341.000000	2.579842
342.000000	2.596058
343.000000	2.569288
344.000000	2.555486
345.000000	2.558676
346.000000	2.600196
347.000000	2.566748
348.000000	2.528035
349.000000	2.544100
350.000000	2.552431
351.000000	2.516923
352.000000	2.586597
353.000000	2.560014
354.000000	2.553349
355.000000	2.544764
356.000000	2.576017
357.000000	2.506079
358.000000	2.550992
359.000000	2.593761
360.000000	2.578285
361.000000	2.537459
362.000000	2.554637
363.000000	2.573389
364.000000	2.576145
365.000000	2.606729
366.000000	2.586276
367.000000	2.613517
368.000000	2.570840
369.000000	2.614570
370.000000	2.628455
371.000000	2.630109
372.000000	2.623055
373.000000	2.656214
374.000000	2.664950
375.000000	2.684895
376.000000	2.621944
377.000000	2.613802
378.000000	2.615034
379.000000	2.612788
380.000000	2.609893
381.000000	2.606065
382.000000	2.606846
383.000000	2.606898
384.000000	2.606106
385.000000	2.604633
386.000000	2.610044
387.000000	2.605426
388.000000	2.602278
389.000000	2.610502
390.000000	2.608035
391.000000	2.605040
392.000000	2.607622
393.000000	2.606236
394.000000	2.603798
395.000000	2.602547
396.000000	2.600308
397.000000	2.597353
398.000000	2.596158
399.000000	2.594825
400.000000	2.600848
401.000000	2.598997
402.000000	2.601677
403.000000	2.595008
404.000000	2.597310
405.000000	2.599724
406.000000	2.600001
407.000000	2.599509
408.000000	2.598501
409.000000	2.599323
410.000000	2.607314
411.000000	2.608515
412.000000	2.610325
413.000000	2.615816
414.000000	2.622090
415.000000	2.627204
416.000000	2.630640
417.000000	2.642679
418.000000	2.654460
419.000000	2.660236
420.000000	2.664367
421.000000	2.674626
422.000000	2.689567
423.000000	2.698942
424.000000	2.709882
425.000000	2.723592
426.000000	2.739529
427.000000	2.752796
428.000000	2.763741
429.000000	2.777750
430.000000	2.789247
431.000000	2.805209
432.000000	2.823401
433.000000	2.841929
434.000000	2.858519
435.000000	2.872511
436.000000	2.888340
437.000000	2.906470
438.000000	2.925759
439.000000	2.946430
440.000000	2.966324
441.000000	2.985972
442.000000	3.006294
443.000000	3.029834
444.000000	3.055839
445.000000	3.075223
446.000000	3.095160
447.000000	3.114596
448.000000	3.138438
449.000000	3.162736
450.000000	3.180320
451.000000	3.208091
452.000000	3.238181
453.000000	3.260896
454.000000	3.284091
455.000000	3.310558
456.000000	3.338466
457.000000	3.366701
458.000000	3.389485
459.000000	3.413995
460.000000	3.445489
461.000000	3.475218
462.000000	3.499267
463.000000	3.527379
464.000000	3.556291
465.000000	3.584448
466.000000	3.612759
467.000000	3.641393
468.000000	3.677275
469.000000	3.708089
470.000000	3.738044
471.000000	3.767437
472.000000	3.799065
473.000000	3.834107
474.000000	3.872106
475.000000	3.904590
476.000000	3.938587
477.000000	3.972498
478.000000	4.006932
479.000000	4.041004
480.000000	4.078218
481.000000	4.123148
482.000000	4.161301
483.000000	4.197597
484.000000	4.236644
485.000000	4.269805
486.000000	4.300179
487.000000	4.332660
488.000000	4.363704
489.000000	4.396444
490.000000	4.431108
491.000000	4.466907
492.000000	4.501593
493.000000	4.536194
494.000000	4.571157
495.000000	4.605053
496.000000	4.638894
497.000000	4.677251
498.000000	4.716373
499.000000	4.750850
500.000000	4.790630
501.000000	4.832598
502.000000	4.875029
503.000000	4.919264
504.000000	4.956749
505.000000	4.991281
506.000000	5.035398
507.000000	5.083870
508.000000	5.132887
509.000000	5.175190
510.000000	5.219192
511.000000	5.271268
512.000000	5.319907
513.000000	5.368844
514.000000	5.425131
515.000000	5.475751
516.000000	5.531552
517.000000	5.584271
518.000000	5.644406
519.000000	5.694492
520.000000	5.753065
521.000000	5.817033
522.000000	5.872281
523.000000	5.928588
524.000000	5.988645
525.000000	6.044684
526.000000	6.107669
527.000000	6.162994
528.000000	6.225952
529.000000	6.286222
530.000000	6.343024
531.000000	6.408448
532.000000	6.469745
533.000000	6.532368
534.000000	6.593150
535.000000	6.653959
536.000000	6.720582
537.000000	6.784278
538.000000	6.848449
539.000000	6.914567
540.000000	6.973491
541.000000	7.042166
542.000000	7.107848
543.000000	7.173216
544.000000	7.245765
545.000000	7.311632
546.000000	7.378463
547.000000	7.447884
548.000000	7.520238
549.000000	7.583142
550.000000	7.654197
551.000000	7.722218
552.000000	7.786728
553.000000	7.861130
554.000000	7.940253
555.000000	8.007398
556.000000	8.083411
557.000000	8.154246
558.000000	8.226953
559.000000	8.292382
560.000000	8.430995
561.000000	8.514960
562.000000	8.589526
563.000000	8.670872
564.000000	8.748315
565.000000	8.827086
566.000000	8.900404
567.000000	8.978821
568.000000	9.052124
569.000000	9.131863
570.000000	9.204744
571.000000	9.294005
572.000000	9.378447
573.000000	9.455328
574.000000	9.530135
575.000000	9.611961
576.000000	9.696737
577.000000	9.772118
578.000000	9.850060
579.000000	9.934211
580.000000	10.022723
581.000000	10.103098
582.000000	10.187136
583.000000	10.268313
584.000000	10.356107
585.000000	10.446479
586.000000	10.525936
587.000000	10.613441
588.000000	10.686128
589.000000	10.781176
590.000000	10.862296
591.000000	10.940708
592.000000	11.037252
593.000000	11.131643
594.000000	11.222876
595.000000	11.300649
596.000000	11.389728
597.000000	11.477347
598.000000	11.564535
599.000000	11.645394
600.000000	11.740890
601.000000	11.835517
602.000000	11.910254
603.000000	12.021250
604.000000	12.096411
605.000000	12.194646
606.000000	12.288701
607.000000	12.386926
608.000000	12.477716
609.000000	12.553020
610.000000	12.653448
611.000000	12.751843
612.000000	12.837093
613.000000	12.936902
614.000000	13.025644
615.000000	13.124294
616.000000	13.210721
617.000000	13.306684
618.000000	13.402744
619.000000	13.494966
620.000000	13.594199
621.000000	13.684119
622.000000	13.787431
623.000000	13.874624
624.000000	13.971408
625.000000	14.059374
626.000000	14.169482
627.000000	14.260019
628.000000	14.353834
629.000000	14.445302
630.000000	14.551576
631.000000	14.637466
632.000000	14.748651
633.000000	14.858697
634.000000	14.946868
635.000000	15.048230
636.000000	15.146895
637.000000	15.246542
638.000000	15.343308
639.000000	15.440960
640.000000	15.559487
641.000000	15.658619
642.000000	15.762888
643.000000	15.868221
644.000000	15.983675
645.000000	16.079121
646.000000	16.183257
647.000000	16.278584
648.000000	16.388685
649.000000	16.505912
650.000000	16.608591
651.000000	16.711949
652.000000	16.813652
653.000000	16.936342
654.000000	17.046557
655.000000	17.145332
656.000000	17.256512
657.000000	17.358210
658.000000	17.466360
659.000000	17.566846
660.000000	17.672223
661.000000	17.789600
662.000000	17.902952
663.000000	18.011942
664.000000	18.120377
665.000000	18.219566
666.000000	18.313098
667.000000	18.424277
668.000000	18.536511
669.000000	18.645224
670.000000	18.746277
671.000000	18.849414
672.000000	18.955559
673.000000	19.071339
674.000000	19.175033
675.000000	19.267910
676.000000	19.374411
677.000000	19.484429
678.000000	19.588923
679.000000	19.690222
680.000000	19.773832
681.000000	19.891878
682.000000	20.008046
683.000000	20.116743
684.000000	20.224457
685.000000	20.317726
686.000000	20.408935
687.000000	20.510976
688.000000	20.611408
689.000000	20.703630
690.000000	20.790712
691.000000	20.911376
692.000000	21.038137
693.000000	21.123325
694.000000	21.216057
695.000000	21.313665
696.000000	21.417165
697.000000	21.520965
698.000000	21.614151
699.000000	21.707058
700.000000	21.805964
701.000000	21.903824
702.000000	21.999848
703.000000	22.115632
704.000000	22.215451
705.000000	22.306198
706.000000	22.391657
707.000000	22.482233
708.000000	22.585424
709.000000	22.678379
710.000000	22.771225
711.000000	22.871377
712.000000	22.958975
713.000000	23.058508
714.000000	23.167058
715.000000	23.261126
716.000000	23.351521
717.000000	23.439496
718.000000	23.540486
719.000000	23.651718
720.000000	23.738577
721.000000	23.824310
722.000000	23.915570
723.000000	24.019329
724.000000	24.125967
725.000000	24.229712
726.000000	24.316805
727.000000	24.399873
728.000000	24.520944
729.000000	24.614183
730.000000	24.675023
731.000000	24.757880
732.000000	24.863833
733.000000	24.972000
734.000000	25.081784
735.000000	25.174493
736.000000	25.259439
737.000000	25.348363
738.000000	25.446904
739.000000	25.541977
740.000000	25.637009
741.000000	25.733938
742.000000	25.829650
743.000000	25.923678
744.000000	26.006249
745.000000	26.098193
746.000000	26.199242
747.000000	26.294190
748.000000	26.386613
749.000000	26.470838
750.000000	26.578953
751.000000	26.686827
752.000000	26.764565
753.000000	26.858513
754.000000	26.948933
755.000000	27.033402
756.000000	27.128734
757.000000	27.214881
758.000000	27.329171
759.000000	27.437819
760.000000	27.512374
761.000000	27.628105
762.000000	27.730347
763.000000	27.816181
764.000000	27.891451
765.000000	27.968850
766.000000	28.071160
767.000000	28.149355
768.000000	28.255830
769.000000	28.368564
770.000000	28.472194
771.000000	28.563361
772.000000	28.655622
773.000000	28.765575
774.000000	28.811303
775.000000	28.916562
776.000000	29.024998
777.000000	29.126906
778.000000	29.223139
779.000000	29.322167
780.000000	29.408896
781.000000	29.515586
782.000000	29.561494
783.000000	29.696819
784.000000	29.791656
785.000000	29.864788
786.000000	29.980337
787.000000	30.034704
788.000000	30.117506
789.000000	30.202275
790.000000	30.311370
791.000000	30.429689
792.000000	30.502274
793.000000	30.583509
794.000000	30.664265
795.000000	30.768941
796.000000	30.877103
797.000000	30.926147
798.000000	31.019332
799.000000	31.114147
800.000000	31.206005
801.000000	31.250042
802.000000	31.393930
803.000000	31.515189
804.000000	31.547985
805.000000	31.682513
806.000000	31.747885
807.000000	31.828071
808.000000	31.874905
809.000000	31.936138
810.000000	32.046945
811.000000	32.129997
812.000000	32.257557
813.000000	32.325476
814.000000	32.335091
815.000000	32.452469
816.000000	32.547884
817.000000	32.617349
818.000000	32.668301
819.000000	32.804365
820.000000	32.856198
821.000000	32.980882
822.000000	33.026117
823.000000	33.092886
824.000000	33.180722
825.000000	33.299681
826.000000	33.350147
827.000000	33.425308
828.000000	33.509012
829.000000	33.604169
830.000000	33.670532
831.000000	33.677729
832.000000	33.739694
833.000000	33.816224
834.000000	33.880911
835.000000	34.072766
836.000000	34.090273
837.000000	34.108907
838.000000	34.126064
839.000000	34.228340
840.000000	34.403758
841.000000	34.325824
842.000000	34.410525
843.000000	34.374168
844.000000	34.409758
845.000000	34.574407
846.000000	34.621359
847.000000	34.740324
848.000000	34.701543
849.000000	34.961938
850.000000	35.011399
851.000000	34.839699
852.000000	34.982033
853.000000	35.161865
854.000000	35.071456
855.000000	35.091472
856.000000	35.328931
857.000000	34.998037
858.000000	36.258129
859.000000	35.477080
860.000000	35.796416
861.000000	35.814180
862.000000	35.565059
863.000000	35.786072
864.000000	35.632008
865.000000	35.599202
866.000000	35.558831
867.000000	35.551264
868.000000	35.660956
869.000000	35.700573
870.000000	35.633893
871.000000	35.612661
872.000000	35.509099
873.000000	35.578460
874.000000	35.624726
875.000000	35.478740
876.000000	35.548901
877.000000	35.606205
878.000000	35.572318
879.000000	35.598883
880.000000	35.645213
881.000000	35.508912
882.000000	35.577365
883.000000	35.512486
884.000000	35.565009
885.000000	35.534769
886.000000	35.579696
887.000000	35.559461
888.000000	35.591936
889.000000	35.537353
890.000000	35.669912
891.000000	35.573752
892.000000	35.507986
893.000000	35.399829
894.000000	35.518670
895.000000	35.484063
896.000000	35.557553
897.000000	35.513859
898.000000	35.475502
899.000000	35.413819
900.000000	35.399808
901.000000	35.467417
902.000000	35.447401
903.000000	35.457201
904.000000	35.419576
905.000000	35.399473
906.000000	35.344649
907.000000	35.410435
908.000000	35.347780
909.000000	35.414811
910.000000	35.388806
911.000000	35.473779
912.000000	35.432392
913.000000	35.395921
914.000000	35.398055
915.000000	35.472201
916.000000	35.426516
917.000000	35.405694
918.000000	35.402334
919.000000	35.398849
920.000000	35.346157
921.000000	35.362419
922.000000	35.380091
923.000000	35.383832
924.000000	35.368833
925.000000	35.396504
926.000000	35.439763
927.000000	35.437566
928.000000	35.421571
929.000000	35.409678
930.000000	35.422809
931.000000	35.433852
932.000000	35.413660
933.000000	35.424742
934.000000	35.425970
935.000000	35.365221
936.000000	35.352087
937.000000	35.347637
938.000000	35.363771
939.000000	35.350432
940.000000	35.370229
941.000000	35.393059
942.000000	35.379642
943.000000	35.352125
944.000000	35.372677
945.000000	35.338883
946.000000	35.335997
947.000000	35.350103
948.000000	35.353619
949.000000	35.340201
950.000000	35.306315
951.000000	35.319085
952.000000	35.310571
953.000000	35.319232
954.000000	35.309254
955.000000	35.299895
956.000000	35.276657
957.000000	35.292383
958.000000	35.290798
959.000000	35.264875
960.000000	35.251842
961.000000	35.262470
962.000000	35.270755
963.000000	35.237696
964.000000	35.219346
965.000000	35.219451
966.000000	35.211426
967.000000	35.207774
968.000000	35.214199
969.000000	35.224978
970.000000	35.190034
971.000000	35.192932
972.000000	35.190130
973.000000	35.177295
974.000000	35.167910
975.000000	35.154094
976.000000	35.153139
977.000000	35.151059
978.000000	35.147386
979.000000	35.132483
980.000000	35.117446
981.000000	35.104642
982.000000	35.091713
983.000000	35.087971
984.000000	35.089154
985.000000	35.078230
986.000000	35.058629
987.000000	35.071976
988.000000	35.073213
989.000000	35.074455
990.000000	35.068507
991.000000	35.074160
992.000000	35.074809
993.000000	35.054133
994.000000	35.040425
995.000000	35.033152
996.000000	35.037040
997.000000	35.054499
998.000000	35.042591
999.000000	35.032537
1000.000000	35.026352
1001.000000	35.007898
1002.000000	35.004231
1003.000000	34.993422
1004.000000	35.000439
1005.000000	34.996968
1006.000000	34.978812
1007.000000	34.980611
1008.000000	34.977683
1009.000000	34.958571
1010.000000	34.959254
1011.000000	34.974934
1012.000000	34.970826
1013.000000	34.966964
1014.000000	34.971971
1015.000000	34.974760
1016.000000	34.969509
1017.000000	34.973629
1018.000000	34.987257
1019.000000	34.979412
1020.000000	34.974784
1021.000000	34.991481
1022.000000	34.996059
1023.000000	34.999046
1024.000000	35.013065
1025.000000	35.013980
1026.000000	35.023268
1027.000000	35.036567
1028.000000	35.042597
1029.000000	35.052462
1030.000000	35.064954
1031.000000	35.074393
1032.000000	35.079783
1033.000000	35.081917
1034.000000	35.086942
1035.000000	35.104605
1036.000000	35.116622
1037.000000	35.132348
1038.000000	35.126277
1039.000000	35.115229
1040.000000	35.133721
1041.000000	35.157733
1042.000000	35.163145
1043.000000	35.155728
1044.000000	35.160543
1045.000000	35.181422
1046.000000	35.200440
1047.000000	35.208607
1048.000000	35.214973
1049.000000	35.221806
1050.000000	35.232426
1051.000000	35.240767
1052.000000	35.247712
1053.000000	35.265576
1054.000000	35.275934
1055.000000	35.296334
1056.000000	35.304279
1057.000000	35.313377
1058.000000	35.329574
1059.000000	35.355741
1060.000000	35.370162
1061.000000	35.368382
1062.000000	35.386841
1063.000000	35.405842
1064.000000	35.430417
1065.000000	35.432053
1066.000000	35.443295
1067.000000	35.461264
1068.000000	35.468523
1069.000000	35.462714
1070.000000	35.462514
1071.000000	35.466184
1072.000000	35.472618
1073.000000	35.496364
1074.000000	35.509777
1075.000000	35.533636
1076.000000	35.527445
1077.000000	35.546170
1078.000000	35.553628
1079.000000	35.554381
1080.000000	35.558424
1081.000000	35.549321
1082.000000	35.574910
1083.000000	35.587015
1084.000000	35.581447
1085.000000	35.582830
1086.000000	35.603067
1087.000000	35.616488
1088.000000	35.612031
1089.000000	35.633823
1090.000000	35.624262
1091.000000	35.622726
1092.000000	35.627134
1093.000000	35.635104
1094.000000	35.639779
1095.000000	35.638083
1096.000000	35.641493
1097.000000	35.642014
1098.000000	35.651652
1099.000000	35.637424
1100.000000	35.625383
1101.000000	35.644261
1102.000000	35.628469
1103.000000	35.636667
1104.000000	35.636677
1105.000000	35.632887
1106.000000	35.631968
1107.000000	35.620966
1108.000000	35.619897
1109.000000	35.619797
1110.000000	35.626351
1111.000000	35.620297
1112.000000	35.597151
1113.000000	35.596536
1114.000000	35.575443
1115.000000	35.570334
1116.000000	35.552538
1117.000000	35.534515
1118.000000	35.505671
1119.000000	35.504700
1120.000000	35.494422
1121.000000	35.455731
1122.000000	35.407326
1123.000000	35.375430
1124.000000	35.341469
1125.000000	35.308484
1126.000000	35.246214
1127.000000	35.189907
1128.000000	35.117139
1129.000000	35.052301
1130.000000	34.999130
1131.000000	34.957329
1132.000000	34.894161
1133.000000	34.825914
1134.000000	34.736771
1135.000000	34.647988
1136.000000	34.584402
1137.000000	34.497082
1138.000000	34.436520
1139.000000	34.377744
1140.000000	34.302408
1141.000000	34.250039
1142.000000	34.179804
1143.000000	34.111067
1144.000000	34.059512
1145.000000	33.988194
1146.000000	33.917557
1147.000000	33.847259
1148.000000	33.789663
1149.000000	33.722860
1150.000000	33.661423
1151.000000	33.604164
1152.000000	33.516002
1153.000000	33.448171
1154.000000	33.365502
1155.000000	33.276478
1156.000000	33.187587
1157.000000	33.117934
1158.000000	33.015604
1159.000000	32.935786
1160.000000	32.846423
1161.000000	32.745911
1162.000000	32.651174
1163.000000	32.557890
1164.000000	32.485413
1165.000000	32.402688
1166.000000	32.319710
