PE UV       SUBTECH     SPECTRUM    ASCII       PEDS        4.00        
   -1
INBUCR0412-4.Sample.ASC
24/02/09
11:02:18.00
24/02/09
11:02:18.00
Vinicio Soto Monge
R. B Hitoy Cerere, Valle La Estrella. Prov. Limón. COSTA RICA. 100m. 19 a 29 Abr 1992. E. López. L_N 643400_184600 #1443. INBIOCRI001716561. (Aparentemente Phanaeus pyrois). Sin cabeza
250,000000
1
Lambda 1050
1050L1511233
PerkinElmer UV WinLab 6.3.2.0749 / 2.02.05 Lambda 900 UV/VIS/NIR, Aug  7 2015 09:38:08

0
0
3350/servo 860,8/2
0
0
UV/VIS
1
1
1
DoubleDePol,CommonBeamDepol,RBeamAtt,SBeamAtt,60mm sphere, WB InGaAs Detector
0
0
0
0
Program
Program
3350/servo 860,8/2
3350/0,2 860,8/0,2
3350/0,2 860,8/0,2
0
15.00
 
 
 
0
 
860,8
319,2
860,8
Front
100
on
S:100 R:100
0
0
0
0
 
0
 
 
 
0
 
 
0
0
0
0
0
 
 
 
 
0
0


0
0
#HDR
-1
-1
#GR
nm
%R
1.0
0.0
2500,000000
-1,000000
2251
8
16,828800
1,141000
#DATA

250.000000	6.443736
251.000000	6.441211
252.000000	6.446762
253.000000	6.447123
254.000000	6.459869
255.000000	6.454932
256.000000	6.456250
257.000000	6.450202
258.000000	6.442507
259.000000	6.446019
260.000000	6.448699
261.000000	6.448303
262.000000	6.442746
263.000000	6.444829
264.000000	5.805590
265.000000	6.459910
266.000000	5.809116
267.000000	5.813876
268.000000	5.810209
269.000000	5.825429
270.000000	5.819276
271.000000	5.809991
272.000000	5.811714
273.000000	5.823728
274.000000	5.836100
275.000000	5.827266
276.000000	5.830044
277.000000	5.816336
278.000000	5.830365
279.000000	5.851069
280.000000	5.832568
281.000000	5.844932
282.000000	5.827188
283.000000	5.836247
284.000000	5.833033
285.000000	5.847088
286.000000	5.847919
287.000000	5.832970
288.000000	5.832177
289.000000	5.844000
290.000000	5.853085
291.000000	5.845739
292.000000	5.833366
293.000000	5.843963
294.000000	5.841461
295.000000	5.854640
296.000000	5.846475
297.000000	5.854351
298.000000	5.834830
299.000000	5.843901
300.000000	5.841915
301.000000	5.843031
302.000000	5.862059
303.000000	5.855956
304.000000	5.851063
305.000000	5.848053
306.000000	5.856759
307.000000	6.518029
308.000000	6.507875
309.000000	6.524615
310.000000	6.507019
311.000000	6.515914
312.000000	7.173013
313.000000	7.175032
314.000000	7.155426
315.000000	7.156313
316.000000	7.140653
317.000000	7.577438
318.000000	7.355084
319.000000	7.352496
320.000000	7.431513
321.000000	7.536778
322.000000	7.538305
323.000000	7.666759
324.000000	7.663710
325.000000	7.628917
326.000000	7.632172
327.000000	7.669015
328.000000	7.685065
329.000000	7.775822
330.000000	7.690405
331.000000	7.703530
332.000000	7.646447
333.000000	7.580597
334.000000	7.699169
335.000000	7.761723
336.000000	7.706157
337.000000	7.800796
338.000000	7.765469
339.000000	7.714075
340.000000	7.719744
341.000000	7.702164
342.000000	8.402494
343.000000	8.445766
344.000000	8.428520
345.000000	8.403336
346.000000	8.410775
347.000000	8.396127
348.000000	8.346149
349.000000	8.422903
350.000000	8.399755
351.000000	8.445608
352.000000	8.446749
353.000000	9.073353
354.000000	9.087367
355.000000	9.058901
356.000000	9.072886
357.000000	9.068360
358.000000	9.072692
359.000000	9.765101
360.000000	9.758611
361.000000	9.797630
362.000000	9.778517
363.000000	9.757231
364.000000	9.754382
365.000000	10.398073
366.000000	10.411106
367.000000	10.434323
368.000000	10.456079
369.000000	10.489167
370.000000	10.509632
371.000000	11.129988
372.000000	11.155927
373.000000	11.187444
374.000000	11.169765
375.000000	11.158078
376.000000	11.116203
377.000000	11.124210
378.000000	11.124872
379.000000	11.128877
380.000000	11.131933
381.000000	11.133102
382.000000	11.130381
383.000000	11.130125
384.000000	11.131739
385.000000	11.131879
386.000000	11.132444
387.000000	11.778402
388.000000	11.780298
389.000000	11.783478
390.000000	11.783509
391.000000	11.784001
392.000000	11.785781
393.000000	11.785952
394.000000	11.786405
395.000000	11.785458
396.000000	11.783013
397.000000	11.784701
398.000000	11.786004
399.000000	11.786169
400.000000	11.785155
401.000000	11.787142
402.000000	12.436049
403.000000	12.435237
404.000000	12.434796
405.000000	12.435409
406.000000	12.436623
407.000000	12.436506
408.000000	12.436820
409.000000	12.437631
410.000000	12.439102
411.000000	13.086177
412.000000	13.084835
413.000000	13.085231
414.000000	13.087227
415.000000	13.086336
416.000000	13.086479
417.000000	13.088233
418.000000	13.089464
419.000000	13.089653
420.000000	13.737538
421.000000	13.737192
422.000000	13.737329
423.000000	13.737848
424.000000	13.736104
425.000000	13.735942
426.000000	13.737646
427.000000	13.738823
428.000000	13.738014
429.000000	13.737330
430.000000	13.737865
431.000000	13.738156
432.000000	13.739640
433.000000	13.739670
434.000000	13.739438
435.000000	13.740195
436.000000	13.740744
437.000000	13.740187
438.000000	13.740863
439.000000	13.740040
440.000000	14.387220
441.000000	14.387854
442.000000	14.387044
443.000000	14.388222
444.000000	14.388953
445.000000	14.388203
446.000000	14.387494
447.000000	14.388147
448.000000	14.387573
449.000000	14.387811
450.000000	14.387292
451.000000	14.386006
452.000000	14.387505
453.000000	14.388137
454.000000	14.387690
455.000000	14.387018
456.000000	14.386914
457.000000	14.387991
458.000000	14.387849
459.000000	14.387224
460.000000	14.386996
461.000000	14.385952
462.000000	14.385060
463.000000	14.385035
464.000000	14.384573
465.000000	14.384408
466.000000	14.384410
467.000000	14.383496
468.000000	14.382640
469.000000	14.382324
470.000000	14.382877
471.000000	14.383314
472.000000	14.383151
473.000000	14.383540
474.000000	14.383829
475.000000	14.383982
476.000000	14.383144
477.000000	14.383117
478.000000	14.383935
479.000000	14.384815
480.000000	14.386758
481.000000	14.388815
482.000000	14.390431
483.000000	14.391342
484.000000	14.389939
485.000000	14.388796
486.000000	14.387963
487.000000	14.386836
488.000000	14.384262
489.000000	14.382277
490.000000	14.380190
491.000000	14.377784
492.000000	14.376483
493.000000	14.375669
494.000000	14.373205
495.000000	14.371022
496.000000	14.369520
497.000000	14.367350
498.000000	14.365478
499.000000	14.364327
500.000000	14.363654
501.000000	14.361507
502.000000	14.359697
503.000000	14.357859
504.000000	14.358091
505.000000	14.358471
506.000000	14.356988
507.000000	14.356310
508.000000	14.356193
509.000000	14.355959
510.000000	14.355535
511.000000	14.355782
512.000000	14.356817
513.000000	14.358404
514.000000	15.005318
515.000000	15.005775
516.000000	15.006752
517.000000	15.009400
518.000000	15.010141
519.000000	15.010934
520.000000	15.012797
521.000000	15.015281
522.000000	15.015547
523.000000	15.015823
524.000000	15.015267
525.000000	15.017188
526.000000	15.018218
527.000000	15.018798
528.000000	15.018941
529.000000	15.019684
530.000000	15.020082
531.000000	15.020073
532.000000	15.019595
533.000000	15.020553
534.000000	15.021928
535.000000	15.022102
536.000000	15.021879
537.000000	15.021954
538.000000	15.022306
539.000000	15.022590
540.000000	15.023537
541.000000	15.023850
542.000000	15.024138
543.000000	15.024202
544.000000	15.024343
545.000000	15.023729
546.000000	15.024236
547.000000	15.024932
548.000000	15.025055
549.000000	15.024896
550.000000	15.024514
551.000000	15.674074
552.000000	15.674984
553.000000	15.676184
554.000000	15.675646
555.000000	15.675763
556.000000	15.676407
557.000000	15.677870
558.000000	15.678228
559.000000	15.679073
560.000000	15.690221
561.000000	15.692217
562.000000	15.692358
563.000000	15.692561
564.000000	15.693776
565.000000	15.695007
566.000000	15.696163
567.000000	15.696026
568.000000	15.696721
569.000000	15.697644
570.000000	15.696455
571.000000	15.697165
572.000000	15.697658
573.000000	15.699170
574.000000	15.701110
575.000000	15.699753
576.000000	15.701082
577.000000	15.702315
578.000000	15.702684
579.000000	15.702958
580.000000	15.702273
581.000000	15.702085
582.000000	15.703665
583.000000	15.703651
584.000000	15.704071
585.000000	15.706205
586.000000	15.707093
587.000000	15.706589
588.000000	15.705967
589.000000	15.706229
590.000000	15.707217
591.000000	15.707571
592.000000	15.708565
593.000000	15.708006
594.000000	15.708829
595.000000	15.710075
596.000000	15.708604
597.000000	15.708784
598.000000	15.710060
599.000000	15.709427
600.000000	15.710678
601.000000	15.710806
602.000000	15.711282
603.000000	15.710659
604.000000	15.710048
605.000000	15.710949
606.000000	15.710770
607.000000	15.713587
608.000000	15.712684
609.000000	15.712345
610.000000	15.710790
611.000000	15.711126
612.000000	15.713988
613.000000	15.713861
614.000000	15.713342
615.000000	15.713643
616.000000	15.712610
617.000000	15.713114
618.000000	15.712225
619.000000	15.713745
620.000000	15.713690
621.000000	15.715109
622.000000	15.713608
623.000000	15.714839
624.000000	15.713995
625.000000	15.715634
626.000000	15.714979
627.000000	15.713056
628.000000	15.713537
629.000000	15.713858
630.000000	15.712401
631.000000	15.712404
632.000000	15.713498
633.000000	15.713559
634.000000	15.715107
635.000000	15.714290
636.000000	15.712584
637.000000	15.713643
638.000000	15.713643
639.000000	15.713643
640.000000	15.711422
641.000000	15.712298
642.000000	15.713033
643.000000	15.713145
644.000000	15.712049
645.000000	15.711973
646.000000	15.711162
647.000000	15.710637
648.000000	15.708025
649.000000	15.709165
650.000000	15.708628
651.000000	15.708800
652.000000	15.707497
653.000000	15.706933
654.000000	15.706681
655.000000	15.706106
656.000000	15.705197
657.000000	15.703947
658.000000	15.703300
659.000000	15.704122
660.000000	15.702458
661.000000	15.702359
662.000000	15.701609
663.000000	15.701955
664.000000	15.700461
665.000000	15.699577
666.000000	15.696189
667.000000	15.697870
668.000000	15.697157
669.000000	15.695613
670.000000	15.693550
671.000000	15.691758
672.000000	15.692391
673.000000	15.693140
674.000000	15.690070
675.000000	15.690381
676.000000	15.688144
677.000000	15.687446
678.000000	15.686824
679.000000	16.332239
680.000000	16.330494
681.000000	16.329603
682.000000	16.328847
683.000000	16.323927
684.000000	16.324169
685.000000	16.322729
686.000000	16.322342
687.000000	16.320662
688.000000	16.316163
689.000000	16.316269
690.000000	16.316108
691.000000	16.312786
692.000000	16.309458
693.000000	16.309097
694.000000	16.309738
695.000000	16.305391
696.000000	16.300966
697.000000	16.299658
698.000000	16.300008
699.000000	16.296215
700.000000	16.291976
701.000000	16.293942
702.000000	16.293993
703.000000	16.289113
704.000000	16.284253
705.000000	16.281044
706.000000	16.281836
707.000000	16.280356
708.000000	16.274752
709.000000	16.270981
710.000000	16.268682
711.000000	16.267399
712.000000	16.263710
713.000000	16.261114
714.000000	16.259180
715.000000	16.254800
716.000000	16.250230
717.000000	16.248169
718.000000	16.244957
719.000000	16.240443
720.000000	16.237340
721.000000	16.234873
722.000000	16.229841
723.000000	16.224496
724.000000	16.221039
725.000000	16.219319
726.000000	16.214313
727.000000	16.210283
728.000000	16.208733
729.000000	16.204583
730.000000	16.196447
731.000000	16.193104
732.000000	16.191313
733.000000	16.186443
734.000000	16.182220
735.000000	16.175903
736.000000	16.172450
737.000000	16.168898
738.000000	16.162443
739.000000	16.158027
740.000000	16.155585
741.000000	16.151952
742.000000	16.141252
743.000000	16.132803
744.000000	16.132888
745.000000	16.127163
746.000000	16.767280
747.000000	16.766027
748.000000	16.757679
749.000000	16.748909
750.000000	16.745610
751.000000	16.742087
752.000000	16.736271
753.000000	16.729372
754.000000	16.722953
755.000000	16.715878
756.000000	16.710361
757.000000	16.706794
758.000000	16.701866
759.000000	16.691318
760.000000	16.682430
761.000000	16.680006
762.000000	16.675685
763.000000	16.665559
764.000000	16.660727
765.000000	16.653762
766.000000	16.642487
767.000000	16.637399
768.000000	16.638784
769.000000	16.629289
770.000000	16.614727
771.000000	16.610531
772.000000	16.602165
773.000000	16.589834
774.000000	16.583877
775.000000	16.577524
776.000000	16.571941
777.000000	16.565313
778.000000	16.556035
779.000000	16.547985
780.000000	16.542417
781.000000	16.535619
782.000000	16.525846
783.000000	16.505869
784.000000	16.502055
785.000000	16.498420
786.000000	16.485431
787.000000	16.483695
788.000000	16.469853
789.000000	16.454437
790.000000	16.451302
791.000000	17.089149
792.000000	17.084504
793.000000	17.070436
794.000000	17.060989
795.000000	17.062227
796.000000	17.044345
797.000000	17.029680
798.000000	17.024692
799.000000	17.009471
800.000000	16.999916
801.000000	16.992196
802.000000	16.978616
803.000000	16.967777
804.000000	16.966708
805.000000	16.958142
806.000000	16.935430
807.000000	16.924848
808.000000	16.913885
809.000000	16.908078
810.000000	16.891913
811.000000	16.885370
812.000000	16.876258
813.000000	16.859096
814.000000	16.853195
815.000000	16.855660
816.000000	16.833392
817.000000	16.834720
818.000000	16.834647
819.000000	16.798923
820.000000	16.796054
821.000000	16.775003
822.000000	16.765046
823.000000	16.764742
824.000000	16.745316
825.000000	16.736049
826.000000	16.743532
827.000000	16.734332
828.000000	16.711845
829.000000	16.726082
830.000000	16.696344
831.000000	16.692758
832.000000	16.679699
833.000000	16.658626
834.000000	16.659421
835.000000	16.679128
836.000000	16.664815
837.000000	16.670801
838.000000	16.689556
839.000000	16.626066
840.000000	16.632927
841.000000	16.633074
842.000000	16.587582
843.000000	16.639003
844.000000	16.657591
845.000000	16.612025
846.000000	16.581631
847.000000	16.617110
848.000000	16.644557
849.000000	16.629420
850.000000	16.566187
851.000000	16.636221
852.000000	16.663059
853.000000	16.669593
854.000000	16.720477
855.000000	16.621788
856.000000	16.644973
857.000000	16.338867
858.000000	22.033030
859.000000	16.682281
860.000000	16.662074
861.000000	17.153311
862.000000	16.637403
863.000000	16.619587
864.000000	16.600349
865.000000	16.586223
866.000000	16.570515
867.000000	16.052204
868.000000	16.038135
869.000000	16.026454
870.000000	15.505189
871.000000	15.495855
872.000000	15.483840
873.000000	15.468930
874.000000	15.458887
875.000000	15.437037
876.000000	15.421359
877.000000	15.408807
878.000000	15.396569
879.000000	15.385977
880.000000	14.862338
881.000000	14.350366
882.000000	14.334225
883.000000	14.321990
884.000000	14.807305
885.000000	14.787771
886.000000	14.278871
887.000000	14.765805
888.000000	14.746096
889.000000	14.226815
890.000000	14.220149
891.000000	14.202389
892.000000	13.686186
893.000000	13.674574
894.000000	13.655685
895.000000	13.644608
896.000000	13.626481
897.000000	13.613188
898.000000	13.598445
899.000000	13.576596
900.000000	13.560472
901.000000	13.552895
902.000000	13.533649
903.000000	13.522533
904.000000	13.003986
905.000000	12.990058
906.000000	12.966833
907.000000	12.954290
908.000000	12.940384
909.000000	12.918264
910.000000	12.905842
911.000000	12.889131
912.000000	12.877963
913.000000	12.855635
914.000000	12.840051
915.000000	12.819043
916.000000	12.809304
917.000000	12.288918
918.000000	12.771148
919.000000	12.756376
920.000000	12.740506
921.000000	12.729070
922.000000	12.711495
923.000000	12.197110
924.000000	12.676042
925.000000	12.160521
926.000000	12.151401
927.000000	12.134913
928.000000	12.116498
929.000000	12.115169
930.000000	12.094339
931.000000	12.079199
932.000000	12.066062
933.000000	12.049489
934.000000	12.025980
935.000000	12.016353
936.000000	11.992633
937.000000	11.977867
938.000000	11.964489
939.000000	11.953557
940.000000	11.941610
941.000000	11.926504
942.000000	11.907953
943.000000	11.891442
944.000000	11.877306
945.000000	11.861012
946.000000	11.847218
947.000000	11.829122
948.000000	11.814423
949.000000	11.805920
950.000000	11.794679
951.000000	11.277815
952.000000	11.758305
953.000000	11.248303
954.000000	11.727984
955.000000	11.717975
956.000000	11.199987
957.000000	11.187186
958.000000	11.173618
959.000000	11.161168
960.000000	11.149143
961.000000	11.133955
962.000000	11.125279
963.000000	11.108499
964.000000	11.087789
965.000000	11.070339
966.000000	11.057830
967.000000	11.044848
968.000000	11.032864
969.000000	11.016203
970.000000	11.005159
971.000000	10.993255
972.000000	10.979610
973.000000	10.959936
974.000000	10.950289
975.000000	10.938480
976.000000	10.919171
977.000000	10.903242
978.000000	10.894772
979.000000	10.878625
980.000000	10.868064
981.000000	10.851174
982.000000	10.837280
983.000000	10.819893
984.000000	10.809063
985.000000	10.800955
986.000000	10.785156
987.000000	10.766722
988.000000	10.753117
989.000000	10.738744
990.000000	10.728409
991.000000	10.715069
992.000000	10.699553
993.000000	10.683486
994.000000	10.669566
995.000000	10.659793
996.000000	10.650226
997.000000	10.637580
998.000000	10.621634
999.000000	10.609213
1000.000000	10.599569
1001.000000	10.586201
1002.000000	10.568571
1003.000000	10.552470
1004.000000	10.542535
1005.000000	10.531322
1006.000000	10.517551
1007.000000	10.504152
1008.000000	10.489746
1009.000000	10.475069
1010.000000	10.462270
1011.000000	10.447527
1012.000000	10.436363
1013.000000	10.424996
1014.000000	10.415760
1015.000000	10.400052
1016.000000	10.388814
1017.000000	10.376456
1018.000000	10.361699
1019.000000	10.350442
1020.000000	10.333072
1021.000000	10.314960
1022.000000	10.306112
1023.000000	10.295666
1024.000000	10.283266
1025.000000	10.267895
1026.000000	10.253690
1027.000000	10.243636
1028.000000	10.233019
1029.000000	10.218876
1030.000000	10.204163
1031.000000	10.192054
1032.000000	10.179181
1033.000000	10.168239
1034.000000	10.156871
1035.000000	10.142740
1036.000000	10.126901
1037.000000	10.113777
1038.000000	10.107031
1039.000000	10.093783
1040.000000	10.078430
1041.000000	10.065183
1042.000000	10.052905
1043.000000	10.043443
1044.000000	10.029277
1045.000000	10.013004
1046.000000	10.000236
1047.000000	9.993427
1048.000000	9.982219
1049.000000	9.967313
1050.000000	9.953486
1051.000000	9.937098
1052.000000	9.929165
1053.000000	9.920926
1054.000000	9.907089
1055.000000	9.893491
1056.000000	9.881807
1057.000000	9.870961
1058.000000	9.856084
1059.000000	9.846010
1060.000000	9.832259
1061.000000	9.822992
1062.000000	9.812226
1063.000000	9.795477
1064.000000	9.786885
1065.000000	9.777810
1066.000000	9.763576
1067.000000	9.751503
1068.000000	9.739047
1069.000000	9.726462
1070.000000	9.715867
1071.000000	9.702756
1072.000000	9.689403
1073.000000	9.675437
1074.000000	9.666072
1075.000000	9.653191
1076.000000	9.640186
1077.000000	9.628813
1078.000000	9.617542
1079.000000	9.604261
1080.000000	9.594500
1081.000000	9.586421
1082.000000	9.572069
1083.000000	9.560717
1084.000000	9.553661
1085.000000	9.547387
1086.000000	9.532929
1087.000000	9.521894
1088.000000	9.512756
1089.000000	9.499654
1090.000000	9.490108
1091.000000	9.478593
1092.000000	9.467402
1093.000000	9.456555
1094.000000	9.445750
1095.000000	9.434482
1096.000000	9.431236
1097.000000	9.417381
1098.000000	9.400838
1099.000000	9.388814
1100.000000	9.380956
1101.000000	9.374518
1102.000000	9.368567
1103.000000	9.354719
1104.000000	9.348049
1105.000000	9.332055
1106.000000	9.319765
1107.000000	9.309914
1108.000000	9.302596
1109.000000	9.295320
1110.000000	9.285292
1111.000000	9.281102
1112.000000	9.273251
1113.000000	9.262657
1114.000000	9.253125
1115.000000	9.246887
1116.000000	9.235605
1117.000000	9.224462
1118.000000	9.221467
1119.000000	9.214840
1120.000000	9.210233
1121.000000	9.195383
1122.000000	9.186512
1123.000000	9.174519
1124.000000	9.170364
1125.000000	9.165051
1126.000000	9.162196
1127.000000	9.154253
1128.000000	9.146642
1129.000000	9.139775
1130.000000	9.134391
1131.000000	9.135312
1132.000000	9.134922
1133.000000	9.126795
1134.000000	9.114175
1135.000000	9.095191
1136.000000	9.089504
1137.000000	9.093227
1138.000000	9.091314
1139.000000	9.085230
1140.000000	9.089509
1141.000000	9.081309
1142.000000	9.080206
1143.000000	9.074774
1144.000000	9.074878
1145.000000	9.060446
1146.000000	9.053722
1147.000000	9.045923
1148.000000	9.044843
1149.000000	9.035610
1150.000000	9.033064
1151.000000	9.030373
1152.000000	9.011669
1153.000000	9.014336
1154.000000	9.013193
1155.000000	9.006843
1156.000000	9.002224
1157.000000	9.005841
1158.000000	9.003833
1159.000000	8.996430
1160.000000	9.007303
1161.000000	8.997932
1162.000000	9.001980
1163.000000	9.003126
