PE UV       SUBTECH     SPECTRUM    ASCII       PEDS        4.00        
   -1
INBUCR0225-4.Sample.ASC
24/02/08
11:12:46.00
24/02/08
11:12:46.00
Vinicio Soto Monge
C. chrysopedila Det: A. Solís COSTA RICA  Prov Puntarenas Coto Brus. Z. P  Las Tablas Estación Biol. Las Alturas. 1500 m. 15-24 Mar 1999. R. barton de luz L_S_322700_591400 #52438 INB0003120139 INBIOCRI Costa Rica. Sin élitros
250,000000
1
Lambda 1050
1050L1511233
PerkinElmer UV WinLab 6.3.2.0749 / 2.02.05 Lambda 900 UV/VIS/NIR, Aug  7 2015 09:38:08

0
0
3350/servo 860,8/2
0
0
UV/VIS
1
1
1
DoubleDePol,CommonBeamDepol,RBeamAtt,SBeamAtt,60mm sphere, WB InGaAs Detector
0
0
0
0
Program
Program
3350/servo 860,8/2
3350/0,2 860,8/0,2
3350/0,2 860,8/0,2
0
15.00
 
 
 
0
 
860,8
319,2
860,8
Front
100
on
S:100 R:100
0
0
0
0
 
0
 
 
 
0
 
 
0
0
0
0
0
 
 
 
 
0
0


0
0
#HDR
-1
-1
#GR
nm
%R
1.0
0.0
2500,000000
-1,000000
2251
8
13,302700
0,951000
#DATA

250.000000	3.226546
251.000000	3.221590
252.000000	3.237374
253.000000	3.237825
254.000000	3.188782
255.000000	3.184877
256.000000	3.144556
257.000000	3.125043
258.000000	3.140178
259.000000	3.098058
260.000000	3.056425
261.000000	3.025348
262.000000	3.008660
263.000000	2.988912
264.000000	2.922771
265.000000	2.888804
266.000000	2.863085
267.000000	2.854438
268.000000	2.814832
269.000000	2.810722
270.000000	2.792934
271.000000	2.756689
272.000000	2.732148
273.000000	2.735303
274.000000	2.709455
275.000000	2.694704
276.000000	2.689200
277.000000	2.685221
278.000000	2.645944
279.000000	2.683431
280.000000	2.633567
281.000000	2.626502
282.000000	2.660622
283.000000	2.629498
284.000000	2.616853
285.000000	2.653278
286.000000	2.624982
287.000000	2.634697
288.000000	2.641525
289.000000	2.643270
290.000000	2.656200
291.000000	2.705495
292.000000	2.715942
293.000000	2.703054
294.000000	2.717792
295.000000	2.712212
296.000000	2.727127
297.000000	2.751312
298.000000	2.778820
299.000000	2.802733
300.000000	2.791095
301.000000	2.769398
302.000000	2.814958
303.000000	2.803633
304.000000	2.825793
305.000000	2.796664
306.000000	2.810418
307.000000	2.801860
308.000000	2.837674
309.000000	2.814326
310.000000	2.877372
311.000000	2.849134
312.000000	2.842861
313.000000	2.897039
314.000000	2.842806
315.000000	2.884287
316.000000	2.856602
317.000000	3.252898
318.000000	3.262896
319.000000	3.178646
320.000000	3.042336
321.000000	3.114356
322.000000	3.185838
323.000000	3.158752
324.000000	3.154313
325.000000	3.086861
326.000000	3.038144
327.000000	2.988827
328.000000	3.155262
329.000000	3.169909
330.000000	3.066243
331.000000	3.138004
332.000000	3.076962
333.000000	3.040152
334.000000	3.082230
335.000000	3.004272
336.000000	3.057802
337.000000	3.016756
338.000000	3.104288
339.000000	3.150851
340.000000	3.112618
341.000000	3.122938
342.000000	3.123254
343.000000	3.070964
344.000000	3.023930
345.000000	3.067537
346.000000	3.099733
347.000000	3.099509
348.000000	3.135142
349.000000	3.113049
350.000000	3.111277
351.000000	3.117776
352.000000	3.161061
353.000000	3.130130
354.000000	3.174106
355.000000	3.139537
356.000000	3.174085
357.000000	3.181147
358.000000	3.188199
359.000000	3.228972
360.000000	3.191848
361.000000	3.195726
362.000000	3.254610
363.000000	3.246190
364.000000	3.283944
365.000000	3.280536
366.000000	3.252290
367.000000	3.255956
368.000000	3.267934
369.000000	3.277477
370.000000	3.291656
371.000000	3.272721
372.000000	3.238324
373.000000	3.250177
374.000000	3.263892
375.000000	3.320512
376.000000	3.433223
377.000000	3.335403
378.000000	3.331387
379.000000	3.343811
380.000000	3.350181
381.000000	3.347167
382.000000	3.353240
383.000000	3.352790
384.000000	3.364722
385.000000	3.367699
386.000000	3.372910
387.000000	3.376177
388.000000	3.374836
389.000000	3.384128
390.000000	3.395773
391.000000	3.388303
392.000000	3.397426
393.000000	3.399178
394.000000	3.403924
395.000000	3.405190
396.000000	3.408342
397.000000	3.418584
398.000000	3.418930
399.000000	3.417035
400.000000	3.419379
401.000000	3.427330
402.000000	3.429871
403.000000	3.437915
404.000000	3.435933
405.000000	3.438217
406.000000	3.445919
407.000000	3.449167
408.000000	3.450641
409.000000	3.458240
410.000000	3.462741
411.000000	3.470038
412.000000	3.479381
413.000000	3.473118
414.000000	3.482258
415.000000	3.485702
416.000000	3.494651
417.000000	3.500505
418.000000	3.497581
419.000000	3.506717
420.000000	3.517589
421.000000	3.514628
422.000000	3.517552
423.000000	3.528689
424.000000	3.536099
425.000000	3.532026
426.000000	3.536320
427.000000	3.549991
428.000000	3.559548
429.000000	3.561329
430.000000	3.562483
431.000000	3.572699
432.000000	3.577237
433.000000	3.578649
434.000000	3.589499
435.000000	3.595721
436.000000	3.598859
437.000000	3.609875
438.000000	3.615454
439.000000	3.617293
440.000000	3.622866
441.000000	3.633979
442.000000	3.643554
443.000000	3.655567
444.000000	3.665547
445.000000	3.666837
446.000000	3.671436
447.000000	3.671350
448.000000	3.671004
449.000000	3.678501
450.000000	3.686647
451.000000	3.690808
452.000000	3.691909
453.000000	3.697545
454.000000	3.704397
455.000000	3.712648
456.000000	3.719321
457.000000	3.722180
458.000000	3.728039
459.000000	3.731820
460.000000	3.741489
461.000000	3.746365
462.000000	3.750569
463.000000	3.762225
464.000000	3.765730
465.000000	3.773366
466.000000	3.779974
467.000000	3.782708
468.000000	3.789922
469.000000	3.795390
470.000000	3.804625
471.000000	3.817735
472.000000	3.828613
473.000000	3.840028
474.000000	3.851307
475.000000	3.861800
476.000000	3.871124
477.000000	3.880452
478.000000	3.894064
479.000000	3.913194
480.000000	3.935966
481.000000	3.956800
482.000000	3.976783
483.000000	3.995482
484.000000	4.006232
485.000000	4.013222
486.000000	4.015985
487.000000	4.022033
488.000000	4.031148
489.000000	4.035187
490.000000	4.033868
491.000000	4.034337
492.000000	4.042156
493.000000	4.048997
494.000000	4.058133
495.000000	4.060442
496.000000	4.064532
497.000000	4.072723
498.000000	4.079470
499.000000	4.083961
500.000000	4.091816
501.000000	4.098952
502.000000	4.105007
503.000000	4.117235
504.000000	4.125289
505.000000	4.135534
506.000000	4.147769
507.000000	4.159478
508.000000	4.172484
509.000000	4.185960
510.000000	4.200744
511.000000	4.214263
512.000000	4.232695
513.000000	4.251643
514.000000	4.272368
515.000000	4.294801
516.000000	4.318032
517.000000	4.337204
518.000000	4.360925
519.000000	4.386075
520.000000	4.411391
521.000000	4.435528
522.000000	4.458543
523.000000	4.484056
524.000000	4.507111
525.000000	4.532093
526.000000	4.557595
527.000000	4.578576
528.000000	4.598993
529.000000	4.623130
530.000000	4.644329
531.000000	4.670504
532.000000	4.691678
533.000000	4.710428
534.000000	4.734156
535.000000	4.754923
536.000000	4.770233
537.000000	4.788967
538.000000	4.812439
539.000000	4.832082
540.000000	4.849566
541.000000	4.872719
542.000000	4.892156
543.000000	4.912322
544.000000	4.936407
545.000000	4.944811
546.000000	4.964232
547.000000	4.983479
548.000000	5.007389
549.000000	5.019110
550.000000	5.044995
551.000000	5.057376
552.000000	5.078729
553.000000	5.094106
554.000000	5.111777
555.000000	5.131212
556.000000	5.151291
557.000000	5.168838
558.000000	5.188670
559.000000	5.199012
560.000000	5.246788
561.000000	5.273427
562.000000	5.292929
563.000000	5.309922
564.000000	5.329164
565.000000	5.350288
566.000000	5.373510
567.000000	5.396221
568.000000	5.412076
569.000000	5.428790
570.000000	5.458376
571.000000	5.474766
572.000000	5.494590
573.000000	5.512000
574.000000	5.532851
575.000000	5.551057
576.000000	5.573599
577.000000	5.588890
578.000000	5.612305
579.000000	5.632900
580.000000	5.649317
581.000000	5.671619
582.000000	5.691868
583.000000	5.707253
584.000000	5.727936
585.000000	5.745435
586.000000	5.771123
587.000000	5.794055
588.000000	5.817380
589.000000	5.835800
590.000000	5.843885
591.000000	5.878569
592.000000	5.894143
593.000000	5.907245
594.000000	5.940159
595.000000	5.968469
596.000000	5.974485
597.000000	6.000420
598.000000	6.022241
599.000000	6.046527
600.000000	6.074571
601.000000	6.083642
602.000000	6.103520
603.000000	6.124688
604.000000	6.155643
605.000000	6.168499
606.000000	6.195121
607.000000	6.214133
608.000000	6.244579
609.000000	6.261482
610.000000	6.285092
611.000000	6.302132
612.000000	6.331777
613.000000	6.355947
614.000000	6.362897
615.000000	6.391427
616.000000	6.417243
617.000000	6.435020
618.000000	6.462908
619.000000	6.487344
620.000000	6.501626
621.000000	6.526738
622.000000	6.548924
623.000000	6.563941
624.000000	6.591507
625.000000	6.628155
626.000000	6.655824
627.000000	6.668282
628.000000	6.702707
629.000000	6.731826
630.000000	6.766960
631.000000	6.785923
632.000000	6.821483
633.000000	6.840063
634.000000	6.883583
635.000000	6.909858
636.000000	6.952307
637.000000	6.977450
638.000000	7.009770
639.000000	7.042056
640.000000	7.073239
641.000000	7.116640
642.000000	7.153437
643.000000	7.192721
644.000000	7.225370
645.000000	7.266269
646.000000	7.306749
647.000000	7.345578
648.000000	7.381197
649.000000	7.424845
650.000000	7.467629
651.000000	7.494413
652.000000	7.547309
653.000000	7.581380
654.000000	7.628343
655.000000	7.673225
656.000000	7.697622
657.000000	7.743622
658.000000	7.781396
659.000000	7.824397
660.000000	7.858977
661.000000	7.905497
662.000000	7.941242
663.000000	7.989061
664.000000	8.022499
665.000000	8.065754
666.000000	8.104011
667.000000	8.139447
668.000000	8.178385
669.000000	8.229962
670.000000	8.264103
671.000000	8.301963
672.000000	8.342787
673.000000	8.376726
674.000000	8.413902
675.000000	8.449231
676.000000	8.481442
677.000000	8.528734
678.000000	8.565947
679.000000	8.595345
680.000000	8.627231
681.000000	8.675264
682.000000	8.703010
683.000000	8.751792
684.000000	8.799252
685.000000	8.832057
686.000000	8.876282
687.000000	8.902652
688.000000	8.932765
689.000000	8.975763
690.000000	9.017724
691.000000	9.050272
692.000000	9.086612
693.000000	9.124488
694.000000	9.155369
695.000000	9.218767
696.000000	9.259248
697.000000	9.306716
698.000000	9.336197
699.000000	9.375927
700.000000	9.412815
701.000000	9.450933
702.000000	9.490730
703.000000	9.532425
704.000000	9.578646
705.000000	9.616666
706.000000	9.641897
707.000000	9.690027
708.000000	9.738702
709.000000	9.787823
710.000000	9.832748
711.000000	9.866529
712.000000	9.903727
713.000000	9.945230
714.000000	9.989452
715.000000	10.029604
716.000000	10.095196
717.000000	10.122754
718.000000	10.136394
719.000000	10.190296
720.000000	10.231997
721.000000	10.291459
722.000000	10.338538
723.000000	10.383961
724.000000	10.432776
725.000000	10.479013
726.000000	10.506583
727.000000	10.559392
728.000000	10.609544
729.000000	10.658196
730.000000	10.705266
731.000000	10.761197
732.000000	10.819874
733.000000	10.854084
734.000000	10.891726
735.000000	10.930056
736.000000	10.988596
737.000000	11.025806
738.000000	11.048435
739.000000	11.116725
740.000000	11.187103
741.000000	11.213917
742.000000	11.254930
743.000000	11.306779
744.000000	11.360231
745.000000	11.403721
746.000000	11.437068
747.000000	11.502070
748.000000	11.553284
749.000000	11.591531
750.000000	11.653327
751.000000	11.724125
752.000000	11.762546
753.000000	11.800451
754.000000	11.847153
755.000000	11.891258
756.000000	11.957524
757.000000	12.027305
758.000000	12.068193
759.000000	12.119428
760.000000	12.176574
761.000000	12.191346
762.000000	12.230092
763.000000	12.273457
764.000000	12.348301
765.000000	12.416377
766.000000	12.458523
767.000000	12.519247
768.000000	12.557695
769.000000	12.563048
770.000000	12.625306
771.000000	12.708563
772.000000	12.760112
773.000000	12.809103
774.000000	12.871876
775.000000	12.918571
776.000000	12.963536
777.000000	13.002858
778.000000	13.052417
779.000000	13.078272
780.000000	13.119951
781.000000	13.182113
782.000000	13.233232
783.000000	13.286163
784.000000	13.360216
785.000000	13.413795
786.000000	13.449971
787.000000	13.484360
788.000000	13.547574
789.000000	13.624987
790.000000	13.678835
791.000000	13.749289
792.000000	13.797281
793.000000	13.836188
794.000000	13.877236
795.000000	13.943245
796.000000	13.960151
797.000000	14.000481
798.000000	14.060551
799.000000	14.113789
800.000000	14.210159
801.000000	14.228912
802.000000	14.270494
803.000000	14.336556
804.000000	14.375670
805.000000	14.467917
806.000000	14.491278
807.000000	14.525238
808.000000	14.578322
809.000000	14.635489
810.000000	14.693659
811.000000	14.722376
812.000000	14.798872
813.000000	14.826720
814.000000	14.845046
815.000000	14.923100
816.000000	14.984466
817.000000	15.022141
818.000000	15.119317
819.000000	15.149678
820.000000	15.259319
821.000000	15.292469
822.000000	15.334196
823.000000	15.377263
824.000000	15.402465
825.000000	15.465655
826.000000	15.544736
827.000000	15.570452
828.000000	15.635547
829.000000	15.729972
830.000000	15.751107
831.000000	15.775030
832.000000	15.925603
833.000000	15.883083
834.000000	15.908900
835.000000	15.914825
836.000000	16.003073
837.000000	16.060519
838.000000	16.097071
839.000000	16.144945
840.000000	16.084979
841.000000	16.269819
842.000000	16.315310
843.000000	16.372060
844.000000	16.374894
845.000000	16.425378
846.000000	16.527236
847.000000	16.482266
848.000000	16.448881
849.000000	16.448333
850.000000	16.509008
851.000000	16.598579
852.000000	16.742551
853.000000	16.624354
854.000000	17.015048
855.000000	16.713857
856.000000	16.926890
857.000000	17.147888
858.000000	16.900874
859.000000	17.474906
860.000000	17.509933
861.000000	17.541843
862.000000	17.571635
863.000000	17.581087
864.000000	17.613321
865.000000	17.631298
866.000000	17.655720
867.000000	17.703499
868.000000	17.720005
869.000000	17.742019
870.000000	17.754180
871.000000	17.781648
872.000000	17.818559
873.000000	17.842242
874.000000	17.844650
875.000000	17.880779
876.000000	17.911317
877.000000	17.907660
878.000000	17.924317
879.000000	17.952523
880.000000	17.984605
881.000000	17.991663
882.000000	18.020606
883.000000	18.028048
884.000000	18.037247
885.000000	18.045702
886.000000	18.064537
887.000000	18.078999
888.000000	18.093368
889.000000	18.119143
890.000000	18.122799
891.000000	18.130363
892.000000	18.158852
893.000000	18.163035
894.000000	18.166129
895.000000	18.169271
896.000000	18.190997
897.000000	18.196557
898.000000	18.211605
899.000000	18.207642
900.000000	18.212508
901.000000	18.227301
902.000000	18.247335
903.000000	18.256328
904.000000	18.252285
905.000000	18.255975
906.000000	18.269061
907.000000	18.271501
908.000000	18.286840
909.000000	18.286205
910.000000	18.293332
911.000000	18.298781
912.000000	18.319382
913.000000	18.315519
914.000000	18.320926
915.000000	18.327343
916.000000	18.339217
917.000000	18.360660
918.000000	18.358654
919.000000	18.371044
920.000000	18.378421
921.000000	18.369482
922.000000	18.380107
923.000000	18.389247
924.000000	18.394878
925.000000	18.399391
926.000000	18.428525
927.000000	18.449118
928.000000	18.450931
929.000000	18.452723
930.000000	18.468979
931.000000	18.480080
932.000000	18.487453
933.000000	18.484476
934.000000	18.472260
935.000000	18.479527
936.000000	18.467815
937.000000	18.477489
938.000000	18.480515
939.000000	18.483681
940.000000	18.496637
941.000000	18.517806
942.000000	18.512732
943.000000	18.513013
944.000000	18.521150
945.000000	18.525647
946.000000	18.530993
947.000000	18.551747
948.000000	18.557146
949.000000	18.562478
950.000000	18.570737
951.000000	18.583651
952.000000	18.586922
953.000000	18.600550
954.000000	18.617817
955.000000	18.620486
956.000000	18.631250
957.000000	18.622424
958.000000	18.638054
959.000000	18.644942
960.000000	18.647804
961.000000	18.658700
962.000000	18.657011
963.000000	18.647858
964.000000	18.659801
965.000000	18.683652
966.000000	18.693572
967.000000	18.692295
968.000000	18.701200
969.000000	18.726787
970.000000	18.739793
971.000000	18.737260
972.000000	18.743557
973.000000	18.750458
974.000000	18.753260
975.000000	18.768015
976.000000	18.776350
977.000000	18.777169
978.000000	18.782836
979.000000	18.800743
980.000000	18.802107
981.000000	18.807551
982.000000	18.817509
983.000000	18.809072
984.000000	18.816874
985.000000	18.824619
986.000000	18.836642
987.000000	18.853862
988.000000	18.873985
989.000000	18.871053
990.000000	18.868921
991.000000	18.871071
992.000000	18.878132
993.000000	18.895058
994.000000	18.903833
995.000000	18.916301
996.000000	18.927108
997.000000	18.950847
998.000000	18.966231
999.000000	18.969042
1000.000000	18.977998
1001.000000	18.978487
1002.000000	18.980666
1003.000000	19.002366
1004.000000	19.020860
1005.000000	19.023792
1006.000000	19.022321
1007.000000	19.030954
1008.000000	19.040167
1009.000000	19.043346
1010.000000	19.049761
1011.000000	19.063944
1012.000000	19.073901
1013.000000	19.085339
1014.000000	19.097844
1015.000000	19.108851
1016.000000	19.122260
1017.000000	19.134460
1018.000000	19.145550
1019.000000	19.159557
1020.000000	19.177397
1021.000000	19.192923
1022.000000	19.204786
1023.000000	19.220575
1024.000000	19.233180
1025.000000	19.242339
1026.000000	19.258284
1027.000000	19.275140
1028.000000	19.288780
1029.000000	19.295364
1030.000000	19.305527
1031.000000	19.317825
1032.000000	19.326550
1033.000000	19.341473
1034.000000	19.356770
1035.000000	19.375430
1036.000000	19.390885
1037.000000	19.403237
1038.000000	19.416494
1039.000000	19.435274
1040.000000	19.454499
1041.000000	19.464303
1042.000000	19.483267
1043.000000	19.495544
1044.000000	19.500013
1045.000000	19.512757
1046.000000	19.524837
1047.000000	19.537764
1048.000000	19.559390
1049.000000	19.581119
1050.000000	19.596617
1051.000000	19.607001
1052.000000	19.619308
1053.000000	19.639671
1054.000000	19.660507
1055.000000	19.673778
1056.000000	19.686188
1057.000000	19.698225
1058.000000	19.718359
1059.000000	19.738981
1060.000000	19.754613
1061.000000	19.776281
1062.000000	19.793766
1063.000000	19.810831
1064.000000	19.831136
1065.000000	19.840099
1066.000000	19.845347
1067.000000	19.861661
1068.000000	19.881544
1069.000000	19.901732
1070.000000	19.907617
1071.000000	19.919468
1072.000000	19.944062
1073.000000	19.962253
1074.000000	19.975954
1075.000000	19.993838
1076.000000	19.999104
1077.000000	20.009336
1078.000000	20.040319
1079.000000	20.054477
1080.000000	20.072836
1081.000000	20.082845
1082.000000	20.090063
1083.000000	20.107771
1084.000000	20.120642
1085.000000	20.142597
1086.000000	20.154453
1087.000000	20.160095
1088.000000	20.173066
1089.000000	20.189562
1090.000000	20.118274
1091.000000	20.089376
1092.000000	20.102584
1093.000000	20.113701
1094.000000	20.128252
1095.000000	20.148930
1096.000000	20.160543
1097.000000	20.159343
1098.000000	20.177788
1099.000000	20.206872
1100.000000	20.217172
1101.000000	20.221605
1102.000000	20.234542
1103.000000	20.251085
1104.000000	20.253398
1105.000000	20.273603
1106.000000	20.294040
1107.000000	20.297521
1108.000000	20.310865
1109.000000	20.319131
1110.000000	20.329578
1111.000000	20.349440
1112.000000	20.364613
1113.000000	20.370633
1114.000000	20.397424
1115.000000	20.395887
1116.000000	20.415714
1117.000000	20.417691
1118.000000	20.436005
1119.000000	20.447203
1120.000000	20.454953
1121.000000	20.463735
1122.000000	20.453142
1123.000000	20.450908
1124.000000	20.461988
1125.000000	20.458842
1126.000000	20.465135
1127.000000	20.458402
1128.000000	20.455047
1129.000000	20.432494
1130.000000	20.437657
1131.000000	20.450032
1132.000000	20.468827
1133.000000	20.462443
1134.000000	20.412205
1135.000000	20.389005
1136.000000	20.373724
1137.000000	20.363988
1138.000000	20.348474
1139.000000	20.355511
1140.000000	20.322046
1141.000000	20.332061
1142.000000	20.327245
1143.000000	20.314476
1144.000000	20.307243
1145.000000	20.295373
1146.000000	20.283867
1147.000000	20.283344
1148.000000	20.260692
1149.000000	20.263470
1150.000000	20.269313
1151.000000	20.256046
1152.000000	20.249672
1153.000000	20.229022
1154.000000	20.226889
1155.000000	20.227710
1156.000000	20.181459
1157.000000	20.189959
1158.000000	20.188500
1159.000000	20.157343
1160.000000	20.131175
1161.000000	20.117312
1162.000000	20.100587
1163.000000	20.093372
1164.000000	20.063585
1165.000000	20.036723
1166.000000	20.036625
1167.000000	19.987551
1168.000000	19.987602
1169.000000	19.958242
1170.000000	19.939189
1171.000000	19.921726
