PE UV       SUBTECH     SPECTRUM    ASCII       PEDS        4.00        
   -1
CICIMAUCR0225-1.Sample.ASC
24/05/27
14:30:23.00
24/05/27
14:30:23.00
Vinicio Soto Monge
C. resplendens, F
250,000000
1
Lambda 1050
1050L1511233
PerkinElmer UV WinLab 6.3.2.0749 / 2.02.05 Lambda 900 UV/VIS/NIR, Aug  7 2015 09:38:08

0
0
3350/servo 860,8/2
0
0
UV/VIS
1
1
1
DoubleDePol,CommonBeamDepol,RBeamAtt,SBeamAtt,60mm sphere, WB InGaAs Detector
0
0
0
0
Program
Program
3350/servo 860,8/2
3350/0,2 860,8/0,2
3350/0,2 860,8/0,2
0
15.00
 
 
 
0
 
860,8
319,2
860,8
Front
100
on
S:100 R:100
0
0
0
0
 
0
 
 
 
0
 
 
0
0
0
0
0
 
 
 
 
0
0


0
0
#HDR
-1
-1
#GR
nm
%R
1.0
0.0
2500,000000
-1,000000
2251
8
70,476400
5,457100
#DATA
2500.000000	8.354400
2499.000000	8.491600
2498.000000	8.270400
2497.000000	8.435400
2496.000000	8.287100
2495.000000	8.267100
2494.000000	8.312500
2493.000000	8.361300
2492.000000	8.236100
2491.000000	8.204000
2490.000000	8.151700
2489.000000	8.224900
2488.000000	8.196600
2487.000000	8.158300
2486.000000	8.227700
2485.000000	8.189600
2484.000000	8.154400
2483.000000	8.182000
2482.000000	8.127500
2481.000000	8.147700
2480.000000	8.112100
2479.000000	8.125500
2478.000000	8.126700
2477.000000	8.185500
2476.000000	8.211100
2475.000000	8.137000
2474.000000	8.175700
2473.000000	8.146100
2472.000000	8.188800
2471.000000	8.163300
2470.000000	8.193300
2469.000000	8.169800
2468.000000	8.185000
2467.000000	8.201200
2466.000000	8.214100
2465.000000	8.234400
2464.000000	8.209600
2463.000000	8.286800
2462.000000	8.315800
2461.000000	8.333900
2460.000000	8.393100
2459.000000	8.450000
2458.000000	8.468000
2457.000000	8.510400
2456.000000	8.577500
2455.000000	8.622600
2454.000000	8.695000
2453.000000	8.773800
2452.000000	8.827900
2451.000000	8.887700
2450.000000	8.970400
2449.000000	9.026800
2448.000000	9.089100
2447.000000	9.140500
2446.000000	9.233000
2445.000000	9.304500
2444.000000	9.373800
2443.000000	9.467600
2442.000000	9.528500
2441.000000	9.579200
2440.000000	9.657600
2439.000000	9.704900
2438.000000	9.786100
2437.000000	9.868500
2436.000000	9.928600
2435.000000	10.002400
2434.000000	10.043400
2433.000000	10.082600
2432.000000	10.144700
2431.000000	10.234100
2430.000000	10.258500
2429.000000	10.299800
2428.000000	10.349100
2427.000000	10.405000
2426.000000	10.452000
2425.000000	10.495100
2424.000000	10.542400
2423.000000	10.573700
2422.000000	10.593100
2421.000000	10.627800
2420.000000	10.676300
2419.000000	10.722200
2418.000000	10.751900
2417.000000	10.774300
2416.000000	10.794400
2415.000000	10.829500
2414.000000	10.876300
2413.000000	10.898400
2412.000000	10.933100
2411.000000	10.958600
2410.000000	10.976900
2409.000000	11.006300
2408.000000	11.029000
2407.000000	11.060500
2406.000000	11.095800
2405.000000	11.117100
2404.000000	11.146300
2403.000000	11.180700
2402.000000	11.214800
2401.000000	11.256200
2400.000000	11.295700
2399.000000	11.332200
2398.000000	11.354100
2397.000000	11.394000
2396.000000	11.422500
2395.000000	11.451300
2394.000000	11.484800
2393.000000	11.516900
2392.000000	11.543500
2391.000000	11.571200
2390.000000	11.582100
2389.000000	11.604700
2388.000000	11.626200
2387.000000	11.646100
2386.000000	11.664200
2385.000000	11.670200
2384.000000	11.681900
2383.000000	11.686500
2382.000000	11.690900
2381.000000	11.688500
2380.000000	11.676100
2379.000000	11.670800
2378.000000	11.671700
2377.000000	11.665300
2376.000000	11.653700
2375.000000	11.638500
2374.000000	11.631800
2373.000000	11.608400
2372.000000	11.589100
2371.000000	11.567300
2370.000000	11.533500
2369.000000	11.501500
2368.000000	11.464000
2367.000000	11.423300
2366.000000	11.366800
2365.000000	11.315300
2364.000000	11.263900
2363.000000	11.201900
2362.000000	11.152200
2361.000000	11.107100
2360.000000	11.046700
2359.000000	10.977800
2358.000000	10.908700
2357.000000	10.862000
2356.000000	10.838700
2355.000000	10.801800
2354.000000	10.765500
2353.000000	10.746900
2352.000000	10.736400
2351.000000	10.742100
2350.000000	10.751900
2349.000000	10.759000
2348.000000	10.769900
2347.000000	10.804000
2346.000000	10.854700
2345.000000	10.885400
2344.000000	10.928100
2343.000000	10.983000
2342.000000	11.022200
2341.000000	11.054300
2340.000000	11.087100
2339.000000	11.110700
2338.000000	11.141400
2337.000000	11.157800
2336.000000	11.165500
2335.000000	11.170800
2334.000000	11.153200
2333.000000	11.125600
2332.000000	11.103800
2331.000000	11.069500
2330.000000	11.032800
2329.000000	10.973300
2328.000000	10.920200
2327.000000	10.873300
2326.000000	10.795800
2325.000000	10.722900
2324.000000	10.653100
2323.000000	10.564800
2322.000000	10.468200
2321.000000	10.378700
2320.000000	10.275400
2319.000000	10.159300
2318.000000	10.051500
2317.000000	9.922300
2316.000000	9.805900
2315.000000	9.693100
2314.000000	9.575500
2313.000000	9.465600
2312.000000	9.364800
2311.000000	9.258500
2310.000000	9.180800
2309.000000	9.102500
2308.000000	9.039900
2307.000000	9.001700
2306.000000	8.970100
2305.000000	8.954900
2304.000000	8.986600
2303.000000	9.014500
2302.000000	9.029000
2301.000000	9.087100
2300.000000	9.165900
2299.000000	9.242500
2298.000000	9.338300
2297.000000	9.417700
2296.000000	9.512500
2295.000000	9.614300
2294.000000	9.708900
2293.000000	9.780200
2292.000000	9.849500
2291.000000	9.892300
2290.000000	9.950800
2289.000000	9.988700
2288.000000	9.994100
2287.000000	10.008200
2286.000000	10.000400
2285.000000	9.989200
2284.000000	9.940700
2283.000000	9.906700
2282.000000	9.887000
2281.000000	9.826300
2280.000000	9.772500
2279.000000	9.719900
2278.000000	9.664600
2277.000000	9.607400
2276.000000	9.545100
2275.000000	9.500700
2274.000000	9.465400
2273.000000	9.447400
2272.000000	9.431700
2271.000000	9.435800
2270.000000	9.430900
2269.000000	9.455200
2268.000000	9.496900
2267.000000	9.570700
2266.000000	9.642700
2265.000000	9.746900
2264.000000	9.872700
2263.000000	10.031900
2262.000000	10.196900
2261.000000	10.366600
2260.000000	10.573900
2259.000000	10.807400
2258.000000	11.062400
2257.000000	11.291400
2256.000000	11.545400
2255.000000	11.799000
2254.000000	12.059400
2253.000000	12.316800
2252.000000	12.563800
2251.000000	12.791900
2250.000000	13.005000
2249.000000	13.239600
2248.000000	13.428900
2247.000000	13.611700
2246.000000	13.782100
2245.000000	13.948600
2244.000000	14.100000
2243.000000	14.223400
2242.000000	14.356500
2241.000000	14.458300
2240.000000	14.574400
2239.000000	14.697800
2238.000000	14.780600
2237.000000	14.858100
2236.000000	14.939600
2235.000000	15.009700
2234.000000	15.082200
2233.000000	15.120500
2232.000000	15.172500
2231.000000	15.222800
2230.000000	15.252700
2229.000000	15.283200
2228.000000	15.292500
2227.000000	15.312900
2226.000000	15.331200
2225.000000	15.330600
2224.000000	15.342500
2223.000000	15.314600
2222.000000	15.305500
2221.000000	15.292600
2220.000000	15.270100
2219.000000	15.231700
2218.000000	15.214600
2217.000000	15.174500
2216.000000	15.165900
2215.000000	15.127600
2214.000000	15.088800
2213.000000	15.087300
2212.000000	15.051800
2211.000000	15.017900
2210.000000	14.970600
2209.000000	14.977100
2208.000000	14.958200
2207.000000	14.928800
2206.000000	14.905500
2205.000000	14.903000
2204.000000	14.859800
2203.000000	14.856700
2202.000000	14.835300
2201.000000	14.823700
2200.000000	14.781200
2199.000000	14.795500
2198.000000	14.801300
2197.000000	14.759300
2196.000000	14.752800
2195.000000	14.758900
2194.000000	14.730500
2193.000000	14.719200
2192.000000	14.717800
2191.000000	14.723200
2190.000000	14.709000
2189.000000	14.676900
2188.000000	14.686200
2187.000000	14.676400
2186.000000	14.673400
2185.000000	14.637400
2184.000000	14.631200
2183.000000	14.605200
2182.000000	14.599300
2181.000000	14.581200
2180.000000	14.551200
2179.000000	14.552000
2178.000000	14.554200
2177.000000	14.545000
2176.000000	14.550200
2175.000000	14.526900
2174.000000	14.540100
2173.000000	14.537300
2172.000000	14.527600
2171.000000	14.532500
2170.000000	14.558100
2169.000000	14.562300
2168.000000	14.575600
2167.000000	14.588800
2166.000000	14.600200
2165.000000	14.614300
2164.000000	14.650600
2163.000000	14.661900
2162.000000	14.681600
2161.000000	14.709100
2160.000000	14.715400
2159.000000	14.762300
2158.000000	14.787700
2157.000000	14.830000
2156.000000	14.850000
2155.000000	14.888800
2154.000000	14.934700
2153.000000	14.966900
2152.000000	15.012500
2151.000000	15.051800
2150.000000	15.086700
2149.000000	15.119600
2148.000000	15.180500
2147.000000	15.216100
2146.000000	15.261900
2145.000000	15.287200
2144.000000	15.308200
2143.000000	15.347100
2142.000000	15.396800
2141.000000	15.431000
2140.000000	15.447900
2139.000000	15.489300
2138.000000	15.514400
2137.000000	15.536800
2136.000000	15.569200
2135.000000	15.592600
2134.000000	15.603400
2133.000000	15.618000
2132.000000	15.635500
2131.000000	15.645700
2130.000000	15.652100
2129.000000	15.656600
2128.000000	15.658500
2127.000000	15.670100
2126.000000	15.672000
2125.000000	15.647500
2124.000000	15.646400
2123.000000	15.648900
2122.000000	15.621700
2121.000000	15.608200
2120.000000	15.585600
2119.000000	15.579100
2118.000000	15.562800
2117.000000	15.548900
2116.000000	15.531600
2115.000000	15.498000
2114.000000	15.468100
2113.000000	15.448800
2112.000000	15.426900
2111.000000	15.406300
2110.000000	15.378500
2109.000000	15.341500
2108.000000	15.313400
2107.000000	15.290500
2106.000000	15.260600
2105.000000	15.225500
2104.000000	15.191000
2103.000000	15.157200
2102.000000	15.138600
2101.000000	15.106600
2100.000000	15.069100
2099.000000	15.038500
2098.000000	15.012000
2097.000000	14.998600
2096.000000	14.977700
2095.000000	14.948400
2094.000000	14.923900
2093.000000	14.901800
2092.000000	14.883700
2091.000000	14.858700
2090.000000	14.844400
2089.000000	14.829600
2088.000000	14.810300
2087.000000	14.795100
2086.000000	14.766900
2085.000000	14.732600
2084.000000	14.706700
2083.000000	14.686100
2082.000000	14.665600
2081.000000	14.626500
2080.000000	14.594400
2079.000000	14.566700
2078.000000	14.526400
2077.000000	14.487600
2076.000000	14.460100
2075.000000	14.418900
2074.000000	14.383800
2073.000000	14.337100
2072.000000	14.294900
2071.000000	14.265300
2070.000000	14.214900
2069.000000	14.166900
2068.000000	14.128500
2067.000000	14.083500
2066.000000	14.040800
2065.000000	13.997000
2064.000000	13.958100
2063.000000	13.924600
2062.000000	13.890800
2061.000000	13.849000
2060.000000	13.817400
2059.000000	13.803900
2058.000000	13.789600
2057.000000	13.777800
2056.000000	13.773900
2055.000000	13.780400
2054.000000	13.799300
2053.000000	13.821300
2052.000000	13.857100
2051.000000	13.901100
2050.000000	13.946000
2049.000000	14.014000
2048.000000	14.091000
2047.000000	14.158900
2046.000000	14.230500
2045.000000	14.320600
2044.000000	14.415700
2043.000000	14.492000
2042.000000	14.593700
2041.000000	14.700900
2040.000000	14.782700
2039.000000	14.871600
2038.000000	14.957000
2037.000000	15.036800
2036.000000	15.103700
2035.000000	15.175500
2034.000000	15.254900
2033.000000	15.336600
2032.000000	15.387100
2031.000000	15.444900
2030.000000	15.502000
2029.000000	15.525800
2028.000000	15.580800
2027.000000	15.627700
2026.000000	15.668100
2025.000000	15.711400
2024.000000	15.745500
2023.000000	15.774400
2022.000000	15.807900
2021.000000	15.823600
2020.000000	15.836300
2019.000000	15.858800
2018.000000	15.882100
2017.000000	15.891700
2016.000000	15.924100
2015.000000	15.930300
2014.000000	15.918400
2013.000000	15.924400
2012.000000	15.944000
2011.000000	15.918300
2010.000000	15.908500
2009.000000	15.903200
2008.000000	15.879300
2007.000000	15.846100
2006.000000	15.837000
2005.000000	15.816500
2004.000000	15.789100
2003.000000	15.747200
2002.000000	15.711500
2001.000000	15.663500
2000.000000	15.614600
1999.000000	15.574000
1998.000000	15.518500
1997.000000	15.457400
1996.000000	15.411100
1995.000000	15.345700
1994.000000	15.294600
1993.000000	15.228000
1992.000000	15.170200
1991.000000	15.095600
1990.000000	15.022600
1989.000000	14.963300
1988.000000	14.894900
1987.000000	14.795800
1986.000000	14.741600
1985.000000	14.650900
1984.000000	14.558200
1983.000000	14.487800
1982.000000	14.417700
1981.000000	14.332300
1980.000000	14.250600
1979.000000	14.175100
1978.000000	14.075500
1977.000000	13.990000
1976.000000	13.910100
1975.000000	13.831300
1974.000000	13.755100
1973.000000	13.681100
1972.000000	13.600900
1971.000000	13.526600
1970.000000	13.446700
1969.000000	13.360600
1968.000000	13.273800
1967.000000	13.214600
1966.000000	13.152600
1965.000000	13.090800
1964.000000	13.010900
1963.000000	12.931900
1962.000000	12.851600
1961.000000	12.790800
1960.000000	12.706900
1959.000000	12.630100
1958.000000	12.560700
1957.000000	12.495400
1956.000000	12.434100
1955.000000	12.364800
1954.000000	12.280000
1953.000000	12.230900
1952.000000	12.158400
1951.000000	12.089300
1950.000000	12.026200
1949.000000	11.970100
1948.000000	11.920900
1947.000000	11.885600
1946.000000	11.829500
1945.000000	11.765300
1944.000000	11.741800
1943.000000	11.724400
1942.000000	11.674800
1941.000000	11.669600
1940.000000	11.641300
1939.000000	11.622800
1938.000000	11.613000
1937.000000	11.614600
1936.000000	11.601000
1935.000000	11.627900
1934.000000	11.625000
1933.000000	11.679400
1932.000000	11.719800
1931.000000	11.737600
1930.000000	11.813900
1929.000000	11.881200
1928.000000	11.924900
1927.000000	12.027100
1926.000000	12.079200
1925.000000	12.152000
1924.000000	12.264900
1923.000000	12.381700
1922.000000	12.492800
1921.000000	12.628300
1920.000000	12.749800
1919.000000	12.870900
1918.000000	13.015900
1917.000000	13.155000
1916.000000	13.335900
1915.000000	13.505700
1914.000000	13.687800
1913.000000	13.881600
1912.000000	14.066000
1911.000000	14.253400
1910.000000	14.433700
1909.000000	14.631400
1908.000000	14.853500
1907.000000	15.062400
1906.000000	15.334900
1905.000000	15.594900
1904.000000	15.840000
1903.000000	16.079800
1902.000000	16.336900
1901.000000	16.583700
1900.000000	16.887000
1899.000000	17.200700
1898.000000	17.478600
1897.000000	17.739300
1896.000000	18.071200
1895.000000	18.344500
1894.000000	18.628600
1893.000000	18.942700
1892.000000	19.260700
1891.000000	19.622900
1890.000000	19.995100
1889.000000	20.314300
1888.000000	20.670500
1887.000000	21.061500
1886.000000	21.419600
1885.000000	21.842900
1884.000000	22.286300
1883.000000	22.743600
1882.000000	23.195200
1881.000000	23.656500
1880.000000	24.107500
1879.000000	24.498500
1878.000000	24.943300
1877.000000	25.330300
1876.000000	25.709400
1875.000000	26.089100
1874.000000	26.433800
1873.000000	26.773400
1872.000000	27.085500
1871.000000	27.380100
1870.000000	27.645500
1869.000000	27.875800
1868.000000	28.100700
1867.000000	28.255300
1866.000000	28.385100
1865.000000	28.492600
1864.000000	28.597900
1863.000000	28.666800
1862.000000	28.753400
1861.000000	28.862000
1860.000000	28.980400
1859.000000	29.058300
1858.000000	29.133000
1857.000000	29.198000
1856.000000	29.222600
1855.000000	29.234700
1854.000000	29.274300
1853.000000	29.288500
1852.000000	29.254800
1851.000000	29.264100
1850.000000	29.276100
1849.000000	29.269900
1848.000000	29.260900
1847.000000	29.266400
1846.000000	29.256000
1845.000000	29.196100
1844.000000	29.158000
1843.000000	29.120200
1842.000000	29.124100
1841.000000	29.148200
1840.000000	29.118800
1839.000000	29.107900
1838.000000	29.094200
1837.000000	29.059600
1836.000000	29.023800
1835.000000	28.998200
1834.000000	28.938700
1833.000000	28.866000
1832.000000	28.810100
1831.000000	28.753700
1830.000000	28.720600
1829.000000	28.688400
1828.000000	28.627300
1827.000000	28.566800
1826.000000	28.504600
1825.000000	28.453000
1824.000000	28.406600
1823.000000	28.370200
1822.000000	28.362500
1821.000000	28.358100
1820.000000	28.335600
1819.000000	28.322100
1818.000000	28.293900
1817.000000	28.247300
1816.000000	28.232800
1815.000000	28.239700
1814.000000	28.224000
1813.000000	28.201800
1812.000000	28.194500
1811.000000	28.184500
1810.000000	28.152400
1809.000000	28.114200
1808.000000	28.086700
1807.000000	28.055600
1806.000000	28.019100
1805.000000	27.973800
1804.000000	27.934400
1803.000000	27.906200
1802.000000	27.876400
1801.000000	27.846700
1800.000000	27.788700
1799.000000	27.733400
1798.000000	27.690200
1797.000000	27.650900
1796.000000	27.618700
1795.000000	27.586200
1794.000000	27.540500
1793.000000	27.493600
1792.000000	27.456700
1791.000000	27.416700
1790.000000	27.364600
1789.000000	27.322400
1788.000000	27.286300
1787.000000	27.240000
1786.000000	27.202800
1785.000000	27.156800
1784.000000	27.096700
1783.000000	27.031600
1782.000000	26.973600
1781.000000	26.916000
1780.000000	26.853700
1779.000000	26.799700
1778.000000	26.740000
1777.000000	26.672000
1776.000000	26.592800
1775.000000	26.513500
1774.000000	26.431300
1773.000000	26.356300
1772.000000	26.257600
1771.000000	26.157300
1770.000000	26.066600
1769.000000	25.971800
1768.000000	25.881100
1767.000000	25.787600
1766.000000	25.704600
1765.000000	25.652000
1764.000000	25.598700
1763.000000	25.560100
1762.000000	25.555000
1761.000000	25.567200
1760.000000	25.595400
1759.000000	25.625600
1758.000000	25.686900
1757.000000	25.743700
1756.000000	25.784900
1755.000000	25.831900
1754.000000	25.878900
1753.000000	25.896800
1752.000000	25.899000
1751.000000	25.897200
1750.000000	25.887500
1749.000000	25.871800
1748.000000	25.834600
1747.000000	25.771900
1746.000000	25.699800
1745.000000	25.623400
1744.000000	25.519900
1743.000000	25.392100
1742.000000	25.272400
1741.000000	25.104500
1740.000000	24.934700
1739.000000	24.749500
1738.000000	24.568700
1737.000000	24.407100
1736.000000	24.248500
1735.000000	24.125300
1734.000000	24.040100
1733.000000	24.005600
1732.000000	24.007400
1731.000000	24.021400
1730.000000	24.058000
1729.000000	24.131500
1728.000000	24.217600
1727.000000	24.305100
1726.000000	24.375300
1725.000000	24.437400
1724.000000	24.503800
1723.000000	24.539600
1722.000000	24.595900
1721.000000	24.636200
1720.000000	24.659600
1719.000000	24.692800
1718.000000	24.723800
1717.000000	24.790900
1716.000000	24.848400
1715.000000	24.905500
1714.000000	24.985900
1713.000000	25.050100
1712.000000	25.099200
1711.000000	25.150000
1710.000000	25.198800
1709.000000	25.222400
1708.000000	25.223100
1707.000000	25.219600
1706.000000	25.201200
1705.000000	25.136100
1704.000000	25.107200
1703.000000	25.066700
1702.000000	24.983300
1701.000000	24.884800
1700.000000	24.779800
1699.000000	24.648900
1698.000000	24.521500
1697.000000	24.413400
1696.000000	24.331500
1695.000000	24.290700
1694.000000	24.268300
1693.000000	24.286900
1692.000000	24.364900
1691.000000	24.473000
1690.000000	24.609400
1689.000000	24.719500
1688.000000	24.808500
1687.000000	24.867500
1686.000000	24.918200
1685.000000	24.951400
1684.000000	25.002100
1683.000000	25.107500
1682.000000	25.290400
1681.000000	25.539700
1680.000000	25.908300
1679.000000	26.281800
1678.000000	26.674200
1677.000000	27.064700
1676.000000	27.464000
1675.000000	27.814500
1674.000000	28.095800
1673.000000	28.354300
1672.000000	28.563500
1671.000000	28.767200
1670.000000	28.961900
1669.000000	29.104600
1668.000000	29.217900
1667.000000	29.311200
1666.000000	29.423900
1665.000000	29.498400
1664.000000	29.556000
1663.000000	29.671000
1662.000000	29.713100
1661.000000	29.762700
1660.000000	29.809200
1659.000000	29.852500
1658.000000	29.886700
1657.000000	29.900100
1656.000000	29.915300
1655.000000	29.934300
1654.000000	29.938600
1653.000000	29.949000
1652.000000	29.924300
1651.000000	29.923500
1650.000000	29.918200
1649.000000	29.898800
1648.000000	29.883500
1647.000000	29.839600
1646.000000	29.805000
1645.000000	29.769900
1644.000000	29.731200
1643.000000	29.698500
1642.000000	29.650000
1641.000000	29.621900
1640.000000	29.572200
1639.000000	29.529500
1638.000000	29.490700
1637.000000	29.435600
1636.000000	29.372600
1635.000000	29.353100
1634.000000	29.275300
1633.000000	29.222100
1632.000000	29.160300
1631.000000	29.114800
1630.000000	29.052900
1629.000000	28.986500
1628.000000	28.922400
1627.000000	28.861900
1626.000000	28.787800
1625.000000	28.728300
1624.000000	28.669600
1623.000000	28.591000
1622.000000	28.532900
1621.000000	28.490100
1620.000000	28.421900
1619.000000	28.358000
