PE UV       SUBTECH     SPECTRUM    ASCII       PEDS        4.00        
   -1
CICIMAUCR0201-1.Sample.ASC
24/05/31
11:24:50.00
24/05/31
11:24:50.00
Vinicio Soto Monge
C. cupreomarginata. Sex F. Dorsal
250,000000
1
Lambda 1050
1050L1511233
PerkinElmer UV WinLab 6.3.2.0749 / 2.02.05 Lambda 900 UV/VIS/NIR, Aug  7 2015 09:38:08

0
0
3350/servo 860,8/2
0
0
UV/VIS
1
1
1
DoubleDePol,CommonBeamDepol,RBeamAtt,SBeamAtt,60mm sphere, WB InGaAs Detector
0
0
0
0
Program
Program
3350/servo 860,8/2
3350/0,2 860,8/0,2
3350/0,2 860,8/0,2
0
15.00
 
 
 
0
 
860,8
319,2
860,8
Front
100
on
S:100 R:100
0
0
0
0
 
0
 
 
 
0
 
 
0
0
0
0
0
 
 
 
 
0
0


0
0
#HDR
-1
-1
#GR
nm
%R
1.0
0.0
2500,000000
-1,000000
2251
8
67,473000
5,702500
#DATA
2500.000000	8.550200
2499.000000	8.647600
2498.000000	8.665200
2497.000000	8.671200
2496.000000	8.556600
2495.000000	8.575800
2494.000000	8.608000
2493.000000	8.499900
2492.000000	8.561900
2491.000000	8.481200
2490.000000	8.460800
2489.000000	8.388200
2488.000000	8.431900
2487.000000	8.381800
2486.000000	8.419300
2485.000000	8.366100
2484.000000	8.398000
2483.000000	8.422900
2482.000000	8.331000
2481.000000	8.369600
2480.000000	8.372000
2479.000000	8.374800
2478.000000	8.401500
2477.000000	8.387200
2476.000000	8.328600
2475.000000	8.344000
2474.000000	8.322700
2473.000000	8.355400
2472.000000	8.400600
2471.000000	8.417000
2470.000000	8.390200
2469.000000	8.405300
2468.000000	8.393700
2467.000000	8.402600
2466.000000	8.492800
2465.000000	8.446400
2464.000000	8.497500
2463.000000	8.502200
2462.000000	8.542300
2461.000000	8.577800
2460.000000	8.597600
2459.000000	8.654200
2458.000000	8.715300
2457.000000	8.755100
2456.000000	8.807100
2455.000000	8.884500
2454.000000	8.981400
2453.000000	9.010900
2452.000000	9.088100
2451.000000	9.168100
2450.000000	9.192900
2449.000000	9.275600
2448.000000	9.353500
2447.000000	9.441700
2446.000000	9.536400
2445.000000	9.614600
2444.000000	9.670100
2443.000000	9.736200
2442.000000	9.821100
2441.000000	9.892000
2440.000000	9.959700
2439.000000	10.040200
2438.000000	10.105500
2437.000000	10.167400
2436.000000	10.235400
2435.000000	10.305600
2434.000000	10.379000
2433.000000	10.431900
2432.000000	10.483100
2431.000000	10.535700
2430.000000	10.586000
2429.000000	10.642800
2428.000000	10.684400
2427.000000	10.726300
2426.000000	10.792500
2425.000000	10.841000
2424.000000	10.867400
2423.000000	10.913900
2422.000000	10.960100
2421.000000	10.981400
2420.000000	11.020300
2419.000000	11.065500
2418.000000	11.090700
2417.000000	11.116800
2416.000000	11.158000
2415.000000	11.197600
2414.000000	11.242700
2413.000000	11.251700
2412.000000	11.288300
2411.000000	11.315700
2410.000000	11.354500
2409.000000	11.378200
2408.000000	11.402700
2407.000000	11.447700
2406.000000	11.472000
2405.000000	11.497500
2404.000000	11.546700
2403.000000	11.580800
2402.000000	11.615500
2401.000000	11.668900
2400.000000	11.707300
2399.000000	11.728200
2398.000000	11.759400
2397.000000	11.799000
2396.000000	11.839400
2395.000000	11.873300
2394.000000	11.897900
2393.000000	11.925700
2392.000000	11.959600
2391.000000	11.975700
2390.000000	11.976800
2389.000000	12.011200
2388.000000	12.023000
2387.000000	12.033800
2386.000000	12.069500
2385.000000	12.080500
2384.000000	12.081000
2383.000000	12.085800
2382.000000	12.079700
2381.000000	12.072900
2380.000000	12.067500
2379.000000	12.069500
2378.000000	12.059900
2377.000000	12.043100
2376.000000	12.031800
2375.000000	12.003900
2374.000000	11.981600
2373.000000	11.966100
2372.000000	11.934100
2371.000000	11.918200
2370.000000	11.898200
2369.000000	11.860200
2368.000000	11.815900
2367.000000	11.772800
2366.000000	11.727700
2365.000000	11.679600
2364.000000	11.633500
2363.000000	11.571500
2362.000000	11.508700
2361.000000	11.451100
2360.000000	11.390300
2359.000000	11.337500
2358.000000	11.285100
2357.000000	11.233000
2356.000000	11.196800
2355.000000	11.152900
2354.000000	11.111400
2353.000000	11.085400
2352.000000	11.073900
2351.000000	11.079400
2350.000000	11.086300
2349.000000	11.099500
2348.000000	11.115900
2347.000000	11.140200
2346.000000	11.166500
2345.000000	11.208700
2344.000000	11.259700
2343.000000	11.291500
2342.000000	11.334100
2341.000000	11.367600
2340.000000	11.385200
2339.000000	11.420700
2338.000000	11.456100
2337.000000	11.461900
2336.000000	11.466800
2335.000000	11.466500
2334.000000	11.450900
2333.000000	11.440100
2332.000000	11.411400
2331.000000	11.378100
2330.000000	11.337300
2329.000000	11.288500
2328.000000	11.228600
2327.000000	11.182400
2326.000000	11.117300
2325.000000	11.024600
2324.000000	10.930200
2323.000000	10.855800
2322.000000	10.753100
2321.000000	10.651700
2320.000000	10.545000
2319.000000	10.422100
2318.000000	10.298000
2317.000000	10.177600
2316.000000	10.046200
2315.000000	9.921500
2314.000000	9.785200
2313.000000	9.685200
2312.000000	9.576600
2311.000000	9.460400
2310.000000	9.366700
2309.000000	9.314800
2308.000000	9.232000
2307.000000	9.190600
2306.000000	9.185300
2305.000000	9.170300
2304.000000	9.174600
2303.000000	9.199800
2302.000000	9.243300
2301.000000	9.305600
2300.000000	9.371700
2299.000000	9.452600
2298.000000	9.541400
2297.000000	9.643900
2296.000000	9.725000
2295.000000	9.809800
2294.000000	9.907100
2293.000000	9.997100
2292.000000	10.055700
2291.000000	10.099700
2290.000000	10.158900
2289.000000	10.191100
2288.000000	10.200200
2287.000000	10.211100
2286.000000	10.203200
2285.000000	10.191500
2284.000000	10.163300
2283.000000	10.127900
2282.000000	10.095200
2281.000000	10.046300
2280.000000	10.010800
2279.000000	9.957900
2278.000000	9.925500
2277.000000	9.856400
2276.000000	9.821400
2275.000000	9.781200
2274.000000	9.756400
2273.000000	9.732600
2272.000000	9.724500
2271.000000	9.737800
2270.000000	9.767800
2269.000000	9.798200
2268.000000	9.854700
2267.000000	9.933800
2266.000000	10.011900
2265.000000	10.123600
2264.000000	10.276700
2263.000000	10.422400
2262.000000	10.613200
2261.000000	10.804800
2260.000000	11.042600
2259.000000	11.249000
2258.000000	11.498000
2257.000000	11.761600
2256.000000	12.024700
2255.000000	12.275800
2254.000000	12.523100
2253.000000	12.793300
2252.000000	13.028200
2251.000000	13.284500
2250.000000	13.502800
2249.000000	13.703200
2248.000000	13.926500
2247.000000	14.120500
2246.000000	14.302200
2245.000000	14.462500
2244.000000	14.601500
2243.000000	14.745200
2242.000000	14.890100
2241.000000	14.991100
2240.000000	15.114800
2239.000000	15.206400
2238.000000	15.289700
2237.000000	15.377800
2236.000000	15.457100
2235.000000	15.520600
2234.000000	15.561700
2233.000000	15.626300
2232.000000	15.681700
2231.000000	15.701600
2230.000000	15.749300
2229.000000	15.761900
2228.000000	15.786000
2227.000000	15.779300
2226.000000	15.800300
2225.000000	15.763300
2224.000000	15.759600
2223.000000	15.746800
2222.000000	15.745400
2221.000000	15.708700
2220.000000	15.677600
2219.000000	15.661100
2218.000000	15.610100
2217.000000	15.585300
2216.000000	15.544800
2215.000000	15.501100
2214.000000	15.482400
2213.000000	15.432900
2212.000000	15.405900
2211.000000	15.378700
2210.000000	15.358500
2209.000000	15.327600
2208.000000	15.267600
2207.000000	15.254700
2206.000000	15.229000
2205.000000	15.216900
2204.000000	15.198500
2203.000000	15.168800
2202.000000	15.157500
2201.000000	15.155700
2200.000000	15.124200
2199.000000	15.094700
2198.000000	15.068900
2197.000000	15.049900
2196.000000	15.029900
2195.000000	15.017000
2194.000000	14.992900
2193.000000	14.976600
2192.000000	14.973700
2191.000000	14.963900
2190.000000	14.958800
2189.000000	14.952300
2188.000000	14.935700
2187.000000	14.921700
2186.000000	14.896200
2185.000000	14.881200
2184.000000	14.857600
2183.000000	14.841700
2182.000000	14.821900
2181.000000	14.814300
2180.000000	14.803500
2179.000000	14.783800
2178.000000	14.780000
2177.000000	14.771900
2176.000000	14.774200
2175.000000	14.776300
2174.000000	14.768400
2173.000000	14.764400
2172.000000	14.782800
2171.000000	14.809400
2170.000000	14.838100
2169.000000	14.860100
2168.000000	14.862800
2167.000000	14.881300
2166.000000	14.919700
2165.000000	14.922400
2164.000000	14.941800
2163.000000	14.983700
2162.000000	15.028300
2161.000000	15.053800
2160.000000	15.092700
2159.000000	15.113200
2158.000000	15.176500
2157.000000	15.238600
2156.000000	15.275500
2155.000000	15.326500
2154.000000	15.354200
2153.000000	15.405700
2152.000000	15.462900
2151.000000	15.527600
2150.000000	15.569200
2149.000000	15.629400
2148.000000	15.672000
2147.000000	15.711800
2146.000000	15.759200
2145.000000	15.806500
2144.000000	15.854400
2143.000000	15.894400
2142.000000	15.918600
2141.000000	15.969200
2140.000000	16.010400
2139.000000	16.052200
2138.000000	16.082200
2137.000000	16.107000
2136.000000	16.128900
2135.000000	16.143600
2134.000000	16.180300
2133.000000	16.194100
2132.000000	16.209000
2131.000000	16.225700
2130.000000	16.247600
2129.000000	16.260000
2128.000000	16.253600
2127.000000	16.239100
2126.000000	16.228300
2125.000000	16.227900
2124.000000	16.221500
2123.000000	16.226000
2122.000000	16.213200
2121.000000	16.191400
2120.000000	16.162700
2119.000000	16.151300
2118.000000	16.134300
2117.000000	16.107200
2116.000000	16.084700
2115.000000	16.062300
2114.000000	16.020500
2113.000000	15.988200
2112.000000	15.966200
2111.000000	15.919700
2110.000000	15.884300
2109.000000	15.863100
2108.000000	15.829500
2107.000000	15.792100
2106.000000	15.760900
2105.000000	15.738900
2104.000000	15.690600
2103.000000	15.654000
2102.000000	15.634400
2101.000000	15.591100
2100.000000	15.569500
2099.000000	15.545900
2098.000000	15.485500
2097.000000	15.468500
2096.000000	15.451600
2095.000000	15.430300
2094.000000	15.405600
2093.000000	15.371200
2092.000000	15.349900
2091.000000	15.333500
2090.000000	15.309300
2089.000000	15.278600
2088.000000	15.259200
2087.000000	15.246500
2086.000000	15.225400
2085.000000	15.185800
2084.000000	15.151200
2083.000000	15.122500
2082.000000	15.098400
2081.000000	15.078100
2080.000000	15.040200
2079.000000	14.997900
2078.000000	14.960100
2077.000000	14.907500
2076.000000	14.847000
2075.000000	14.806300
2074.000000	14.771600
2073.000000	14.730800
2072.000000	14.674400
2071.000000	14.614000
2070.000000	14.556300
2069.000000	14.502700
2068.000000	14.445500
2067.000000	14.366000
2066.000000	14.310600
2065.000000	14.274600
2064.000000	14.219300
2063.000000	14.152900
2062.000000	14.103200
2061.000000	14.052800
2060.000000	13.999400
2059.000000	13.954100
2058.000000	13.915300
2057.000000	13.895000
2056.000000	13.871600
2055.000000	13.844200
2054.000000	13.834600
2053.000000	13.838200
2052.000000	13.846900
2051.000000	13.883300
2050.000000	13.924100
2049.000000	13.960100
2048.000000	14.022000
2047.000000	14.082000
2046.000000	14.147600
2045.000000	14.235200
2044.000000	14.332900
2043.000000	14.428100
2042.000000	14.513900
2041.000000	14.603300
2040.000000	14.716600
2039.000000	14.813200
2038.000000	14.897000
2037.000000	14.996400
2036.000000	15.080500
2035.000000	15.156000
2034.000000	15.232500
2033.000000	15.287000
2032.000000	15.360200
2031.000000	15.428900
2030.000000	15.498500
2029.000000	15.535000
2028.000000	15.570600
2027.000000	15.604100
2026.000000	15.647200
2025.000000	15.686800
2024.000000	15.715800
2023.000000	15.748300
2022.000000	15.758900
2021.000000	15.791500
2020.000000	15.807300
2019.000000	15.824400
2018.000000	15.834600
2017.000000	15.847500
2016.000000	15.849100
2015.000000	15.857700
2014.000000	15.865000
2013.000000	15.848900
2012.000000	15.835800
2011.000000	15.835800
2010.000000	15.814700
2009.000000	15.789000
2008.000000	15.772800
2007.000000	15.758300
2006.000000	15.727100
2005.000000	15.703800
2004.000000	15.657400
2003.000000	15.617700
2002.000000	15.571100
2001.000000	15.523300
2000.000000	15.481400
1999.000000	15.430100
1998.000000	15.374800
1997.000000	15.328100
1996.000000	15.254100
1995.000000	15.194700
1994.000000	15.119100
1993.000000	15.058200
1992.000000	14.997500
1991.000000	14.923300
1990.000000	14.841700
1989.000000	14.746500
1988.000000	14.680300
1987.000000	14.609300
1986.000000	14.520300
1985.000000	14.423700
1984.000000	14.353500
1983.000000	14.279100
1982.000000	14.192900
1981.000000	14.096600
1980.000000	14.011200
1979.000000	13.936600
1978.000000	13.852500
1977.000000	13.754300
1976.000000	13.667000
1975.000000	13.594300
1974.000000	13.504000
1973.000000	13.444100
1972.000000	13.364800
1971.000000	13.279400
1970.000000	13.214200
1969.000000	13.106600
1968.000000	13.029900
1967.000000	12.971600
1966.000000	12.898000
1965.000000	12.820200
1964.000000	12.724000
1963.000000	12.689200
1962.000000	12.606500
1961.000000	12.525800
1960.000000	12.460500
1959.000000	12.395700
1958.000000	12.314400
1957.000000	12.257100
1956.000000	12.188800
1955.000000	12.117100
1954.000000	12.052000
1953.000000	11.974200
1952.000000	11.909500
1951.000000	11.849000
1950.000000	11.792800
1949.000000	11.760400
1948.000000	11.716400
1947.000000	11.649900
1946.000000	11.657600
1945.000000	11.605600
1944.000000	11.557900
1943.000000	11.545700
1942.000000	11.509400
1941.000000	11.497000
1940.000000	11.481000
1939.000000	11.472800
1938.000000	11.448700
1937.000000	11.450800
1936.000000	11.445600
1935.000000	11.463700
1934.000000	11.484200
1933.000000	11.518100
1932.000000	11.568900
1931.000000	11.624600
1930.000000	11.665300
1929.000000	11.712600
1928.000000	11.800300
1927.000000	11.875600
1926.000000	11.926400
1925.000000	12.045500
1924.000000	12.152300
1923.000000	12.280600
1922.000000	12.376100
1921.000000	12.495800
1920.000000	12.631800
1919.000000	12.754800
1918.000000	12.900400
1917.000000	13.052100
1916.000000	13.227900
1915.000000	13.382700
1914.000000	13.582700
1913.000000	13.764800
1912.000000	13.962700
1911.000000	14.152900
1910.000000	14.390500
1909.000000	14.579400
1908.000000	14.797100
1907.000000	15.048400
1906.000000	15.308300
1905.000000	15.578200
1904.000000	15.837800
1903.000000	16.107800
1902.000000	16.400700
1901.000000	16.680000
1900.000000	16.966400
1899.000000	17.275000
1898.000000	17.607900
1897.000000	17.951600
1896.000000	18.264900
1895.000000	18.577900
1894.000000	18.918600
1893.000000	19.258300
1892.000000	19.636400
1891.000000	20.053200
1890.000000	20.430300
1889.000000	20.827500
1888.000000	21.249400
1887.000000	21.672300
1886.000000	22.103500
1885.000000	22.581500
1884.000000	23.098800
1883.000000	23.620100
1882.000000	24.147800
1881.000000	24.662300
1880.000000	25.172100
1879.000000	25.654300
1878.000000	26.127900
1877.000000	26.603500
1876.000000	27.014300
1875.000000	27.440600
1874.000000	27.851800
1873.000000	28.236600
1872.000000	28.593700
1871.000000	28.931400
1870.000000	29.227400
1869.000000	29.502600
1868.000000	29.750600
1867.000000	29.950800
1866.000000	30.107300
1865.000000	30.250700
1864.000000	30.381900
1863.000000	30.508700
1862.000000	30.637000
1861.000000	30.769500
1860.000000	30.886100
1859.000000	30.987000
1858.000000	31.066400
1857.000000	31.141600
1856.000000	31.191100
1855.000000	31.214200
1854.000000	31.259600
1853.000000	31.263300
1852.000000	31.264600
1851.000000	31.280000
1850.000000	31.291000
1849.000000	31.286900
1848.000000	31.278500
1847.000000	31.278600
1846.000000	31.235200
1845.000000	31.184100
1844.000000	31.149500
1843.000000	31.129800
1842.000000	31.149400
1841.000000	31.146200
1840.000000	31.115700
1839.000000	31.092200
1838.000000	31.054500
1837.000000	31.018200
1836.000000	30.989700
1835.000000	30.945100
1834.000000	30.894500
1833.000000	30.829900
1832.000000	30.773700
1831.000000	30.728600
1830.000000	30.691200
1829.000000	30.635800
1828.000000	30.572300
1827.000000	30.494100
1826.000000	30.439000
1825.000000	30.388200
1824.000000	30.339700
1823.000000	30.308600
1822.000000	30.300000
1821.000000	30.297300
1820.000000	30.269800
1819.000000	30.242600
1818.000000	30.203900
1817.000000	30.172800
1816.000000	30.176000
1815.000000	30.181500
1814.000000	30.150100
1813.000000	30.128000
1812.000000	30.106700
1811.000000	30.090700
1810.000000	30.055900
1809.000000	30.001800
1808.000000	29.972000
1807.000000	29.938100
1806.000000	29.899600
1805.000000	29.862100
1804.000000	29.818700
1803.000000	29.775700
1802.000000	29.733900
1801.000000	29.695900
1800.000000	29.648000
1799.000000	29.579700
1798.000000	29.527300
1797.000000	29.486400
1796.000000	29.449900
1795.000000	29.418200
1794.000000	29.368700
1793.000000	29.310300
1792.000000	29.262800
1791.000000	29.208500
1790.000000	29.166300
1789.000000	29.120900
1788.000000	29.065500
1787.000000	29.018700
1786.000000	28.965000
1785.000000	28.917800
1784.000000	28.853200
1783.000000	28.781700
1782.000000	28.713900
1781.000000	28.639500
1780.000000	28.573800
1779.000000	28.511800
1778.000000	28.427000
1777.000000	28.341200
1776.000000	28.254500
1775.000000	28.158100
1774.000000	28.059900
1773.000000	27.951200
1772.000000	27.841200
1771.000000	27.734300
1770.000000	27.622700
1769.000000	27.497000
1768.000000	27.384800
1767.000000	27.270200
1766.000000	27.171500
1765.000000	27.095500
1764.000000	27.045200
1763.000000	27.016300
1762.000000	27.004700
1761.000000	27.026900
1760.000000	27.069000
1759.000000	27.125400
1758.000000	27.207400
1757.000000	27.272300
1756.000000	27.325400
1755.000000	27.383600
1754.000000	27.449600
1753.000000	27.484100
1752.000000	27.510600
1751.000000	27.529800
1750.000000	27.518700
1749.000000	27.500400
1748.000000	27.474400
1747.000000	27.427600
1746.000000	27.350900
1745.000000	27.253800
1744.000000	27.127000
1743.000000	26.992100
1742.000000	26.843000
1741.000000	26.658200
1740.000000	26.457500
1739.000000	26.235100
1738.000000	26.008200
1737.000000	25.807100
1736.000000	25.612100
1735.000000	25.464700
1734.000000	25.368000
1733.000000	25.303400
1732.000000	25.270900
1731.000000	25.279100
1730.000000	25.339900
1729.000000	25.436500
1728.000000	25.518800
1727.000000	25.614900
1726.000000	25.707200
1725.000000	25.803900
1724.000000	25.874300
1723.000000	25.943500
1722.000000	26.012300
1721.000000	26.069300
1720.000000	26.120200
1719.000000	26.192100
1718.000000	26.279700
1717.000000	26.372500
1716.000000	26.477400
1715.000000	26.587600
1714.000000	26.698500
1713.000000	26.780700
1712.000000	26.889300
1711.000000	26.962500
1710.000000	27.019600
1709.000000	27.066000
1708.000000	27.094800
1707.000000	27.102600
1706.000000	27.100800
1705.000000	27.066400
1704.000000	27.042100
1703.000000	26.996300
1702.000000	26.931800
1701.000000	26.845000
1700.000000	26.755600
1699.000000	26.639700
1698.000000	26.519400
1697.000000	26.418900
1696.000000	26.343700
1695.000000	26.312200
1694.000000	26.323500
1693.000000	26.386300
1692.000000	26.489100
1691.000000	26.609800
1690.000000	26.761500
1689.000000	26.872000
1688.000000	26.982600
1687.000000	27.065000
1686.000000	27.109900
1685.000000	27.183500
1684.000000	27.275500
1683.000000	27.422800
1682.000000	27.639600
1681.000000	27.991800
1680.000000	28.359900
1679.000000	28.821400
1678.000000	29.295500
1677.000000	29.754200
1676.000000	30.171900
1675.000000	30.546800
1674.000000	30.865400
1673.000000	31.149700
1672.000000	31.419100
1671.000000	31.632700
1670.000000	31.837800
1669.000000	32.019500
1668.000000	32.156800
1667.000000	32.275300
1666.000000	32.395900
1665.000000	32.488100
1664.000000	32.579800
1663.000000	32.644100
1662.000000	32.723900
1661.000000	32.799600
1660.000000	32.832100
1659.000000	32.902900
1658.000000	32.924800
1657.000000	32.961500
1656.000000	32.968700
1655.000000	32.993900
1654.000000	32.999100
1653.000000	32.995200
1652.000000	33.008800
1651.000000	32.971300
1650.000000	32.952100
1649.000000	32.936100
1648.000000	32.902800
1647.000000	32.865400
1646.000000	32.843100
1645.000000	32.781500
1644.000000	32.747400
1643.000000	32.692900
1642.000000	32.644200
1641.000000	32.604700
1640.000000	32.575400
1639.000000	32.501600
1638.000000	32.461800
1637.000000	32.384500
1636.000000	32.325500
1635.000000	32.268300
1634.000000	32.202400
1633.000000	32.133900
1632.000000	32.069100
1631.000000	31.992100
1630.000000	31.917400
1629.000000	31.855200
1628.000000	31.777000
1627.000000	31.708800
1626.000000	31.621700
1625.000000	31.524700
1624.000000	31.450600
1623.000000	31.377000
1622.000000	31.320200
1621.000000	31.225600
