PE UV       SUBTECH     SPECTRUM    ASCII       PEDS        4.00        
   -1
CICIMAUCR0201-3.Sample.ASC
24/05/31
16:20:21.00
24/05/31
16:20:21.00
Vinicio Soto Monge
C. cupreomarginata. Sex F. Dorsal
250,000000
1
Lambda 1050
1050L1511233
PerkinElmer UV WinLab 6.3.2.0749 / 2.02.05 Lambda 900 UV/VIS/NIR, Aug  7 2015 09:38:08

0
0
3350/servo 860,8/2
0
0
UV/VIS
1
1
1
DoubleDePol,CommonBeamDepol,RBeamAtt,SBeamAtt,60mm sphere, WB InGaAs Detector
0
0
0
0
Program
Program
3350/servo 860,8/2
3350/0,2 860,8/0,2
3350/0,2 860,8/0,2
0
15.00
 
 
 
0
 
860,8
319,2
860,8
Front
100
on
S:100 R:100
0
0
0
0
 
0
 
 
 
0
 
 
0
0
0
0
0
 
 
 
 
0
0


0
0
#HDR
-1
-1
#GR
nm
%R
1.0
0.0
2500,000000
-1,000000
2251
8
69,649100
5,880400
#DATA
2500.000000	9.849900
2499.000000	9.909700
2498.000000	9.807900
2497.000000	9.929400
2496.000000	9.782100
2495.000000	9.831400
2494.000000	9.762900
2493.000000	9.809100
2492.000000	9.640400
2491.000000	9.750000
2490.000000	9.623600
2489.000000	9.707300
2488.000000	9.582300
2487.000000	9.625200
2486.000000	9.606900
2485.000000	9.592300
2484.000000	9.621800
2483.000000	9.653800
2482.000000	9.659800
2481.000000	9.581000
2480.000000	9.564900
2479.000000	9.552000
2478.000000	9.606700
2477.000000	9.651500
2476.000000	9.566900
2475.000000	9.578400
2474.000000	9.630000
2473.000000	9.637000
2472.000000	9.654400
2471.000000	9.652200
2470.000000	9.647600
2469.000000	9.665000
2468.000000	9.695800
2467.000000	9.718200
2466.000000	9.741400
2465.000000	9.773700
2464.000000	9.826000
2463.000000	9.853000
2462.000000	9.859000
2461.000000	9.910100
2460.000000	9.954300
2459.000000	10.040600
2458.000000	10.086200
2457.000000	10.158200
2456.000000	10.223300
2455.000000	10.308800
2454.000000	10.370400
2453.000000	10.438500
2452.000000	10.514200
2451.000000	10.622500
2450.000000	10.720100
2449.000000	10.810500
2448.000000	10.902000
2447.000000	10.995800
2446.000000	11.097600
2445.000000	11.177400
2444.000000	11.292300
2443.000000	11.378900
2442.000000	11.471000
2441.000000	11.549200
2440.000000	11.649400
2439.000000	11.746500
2438.000000	11.835400
2437.000000	11.896900
2436.000000	11.951900
2435.000000	12.071500
2434.000000	12.148000
2433.000000	12.226100
2432.000000	12.285200
2431.000000	12.354800
2430.000000	12.435000
2429.000000	12.511700
2428.000000	12.570900
2427.000000	12.641300
2426.000000	12.717700
2425.000000	12.766000
2424.000000	12.810200
2423.000000	12.861000
2422.000000	12.908600
2421.000000	12.954700
2420.000000	13.005500
2419.000000	13.042200
2418.000000	13.093600
2417.000000	13.149300
2416.000000	13.190600
2415.000000	13.212400
2414.000000	13.247300
2413.000000	13.289800
2412.000000	13.341900
2411.000000	13.364900
2410.000000	13.410600
2409.000000	13.457500
2408.000000	13.482400
2407.000000	13.508100
2406.000000	13.551000
2405.000000	13.584500
2404.000000	13.605100
2403.000000	13.645100
2402.000000	13.682800
2401.000000	13.721400
2400.000000	13.764700
2399.000000	13.800400
2398.000000	13.846100
2397.000000	13.897400
2396.000000	13.931100
2395.000000	13.958700
2394.000000	13.982100
2393.000000	14.002600
2392.000000	14.032600
2391.000000	14.062200
2390.000000	14.093700
2389.000000	14.113000
2388.000000	14.117900
2387.000000	14.147800
2386.000000	14.163200
2385.000000	14.163500
2384.000000	14.174300
2383.000000	14.178000
2382.000000	14.174100
2381.000000	14.168800
2380.000000	14.161900
2379.000000	14.158300
2378.000000	14.149800
2377.000000	14.135600
2376.000000	14.115100
2375.000000	14.094300
2374.000000	14.079600
2373.000000	14.055200
2372.000000	14.032700
2371.000000	14.003900
2370.000000	13.969700
2369.000000	13.918200
2368.000000	13.871500
2367.000000	13.835100
2366.000000	13.786900
2365.000000	13.727000
2364.000000	13.666100
2363.000000	13.609300
2362.000000	13.548700
2361.000000	13.480400
2360.000000	13.408600
2359.000000	13.337400
2358.000000	13.276700
2357.000000	13.220300
2356.000000	13.164400
2355.000000	13.109500
2354.000000	13.065800
2353.000000	13.038700
2352.000000	13.015400
2351.000000	12.997300
2350.000000	13.007900
2349.000000	13.025000
2348.000000	13.027400
2347.000000	13.051900
2346.000000	13.096500
2345.000000	13.128400
2344.000000	13.179500
2343.000000	13.228300
2342.000000	13.265300
2341.000000	13.300000
2340.000000	13.334200
2339.000000	13.370200
2338.000000	13.393500
2337.000000	13.416900
2336.000000	13.430500
2335.000000	13.431100
2334.000000	13.413300
2333.000000	13.393300
2332.000000	13.388400
2331.000000	13.352300
2330.000000	13.293400
2329.000000	13.235600
2328.000000	13.189100
2327.000000	13.128000
2326.000000	13.046600
2325.000000	12.967400
2324.000000	12.885300
2323.000000	12.793900
2322.000000	12.683200
2321.000000	12.574900
2320.000000	12.450200
2319.000000	12.315100
2318.000000	12.169800
2317.000000	12.034900
2316.000000	11.891600
2315.000000	11.740400
2314.000000	11.604800
2313.000000	11.469200
2312.000000	11.326800
2311.000000	11.187400
2310.000000	11.075700
2309.000000	10.987500
2308.000000	10.920400
2307.000000	10.855300
2306.000000	10.817900
2305.000000	10.803700
2304.000000	10.796000
2303.000000	10.829800
2302.000000	10.887900
2301.000000	10.955200
2300.000000	11.034800
2299.000000	11.117500
2298.000000	11.211500
2297.000000	11.319700
2296.000000	11.436900
2295.000000	11.553100
2294.000000	11.646300
2293.000000	11.731000
2292.000000	11.825100
2291.000000	11.896500
2290.000000	11.941600
2289.000000	11.969500
2288.000000	12.010300
2287.000000	12.021400
2286.000000	12.015500
2285.000000	12.003500
2284.000000	11.990300
2283.000000	11.960700
2282.000000	11.918400
2281.000000	11.855800
2280.000000	11.784300
2279.000000	11.748600
2278.000000	11.689500
2277.000000	11.635100
2276.000000	11.592700
2275.000000	11.545900
2274.000000	11.524400
2273.000000	11.506600
2272.000000	11.473400
2271.000000	11.480700
2270.000000	11.504100
2269.000000	11.542500
2268.000000	11.589200
2267.000000	11.667600
2266.000000	11.786600
2265.000000	11.914500
2264.000000	12.066100
2263.000000	12.239000
2262.000000	12.454000
2261.000000	12.691100
2260.000000	12.908300
2259.000000	13.180500
2258.000000	13.462900
2257.000000	13.743600
2256.000000	14.039200
2255.000000	14.359800
2254.000000	14.634500
2253.000000	14.938100
2252.000000	15.234400
2251.000000	15.514800
2250.000000	15.774900
2249.000000	16.020500
2248.000000	16.255800
2247.000000	16.506000
2246.000000	16.696600
2245.000000	16.909100
2244.000000	17.071600
2243.000000	17.249900
2242.000000	17.384800
2241.000000	17.532200
2240.000000	17.640800
2239.000000	17.771800
2238.000000	17.882800
2237.000000	17.971900
2236.000000	18.064400
2235.000000	18.132600
2234.000000	18.209100
2233.000000	18.259700
2232.000000	18.319900
2231.000000	18.352300
2230.000000	18.382500
2229.000000	18.408000
2228.000000	18.421900
2227.000000	18.407900
2226.000000	18.406800
2225.000000	18.412400
2224.000000	18.386100
2223.000000	18.356000
2222.000000	18.338500
2221.000000	18.303500
2220.000000	18.276800
2219.000000	18.222000
2218.000000	18.186900
2217.000000	18.129100
2216.000000	18.095900
2215.000000	18.064000
2214.000000	18.001700
2213.000000	17.945400
2212.000000	17.911500
2211.000000	17.869700
2210.000000	17.827900
2209.000000	17.777600
2208.000000	17.725900
2207.000000	17.682900
2206.000000	17.664400
2205.000000	17.635700
2204.000000	17.611400
2203.000000	17.582500
2202.000000	17.545100
2201.000000	17.523500
2200.000000	17.510500
2199.000000	17.457800
2198.000000	17.454100
2197.000000	17.429400
2196.000000	17.430300
2195.000000	17.397400
2194.000000	17.367300
2193.000000	17.368700
2192.000000	17.341200
2191.000000	17.331400
2190.000000	17.321600
2189.000000	17.312600
2188.000000	17.263600
2187.000000	17.256800
2186.000000	17.235600
2185.000000	17.215500
2184.000000	17.179500
2183.000000	17.167800
2182.000000	17.145400
2181.000000	17.127100
2180.000000	17.118600
2179.000000	17.098200
2178.000000	17.071200
2177.000000	17.055200
2176.000000	17.068400
2175.000000	17.078700
2174.000000	17.055700
2173.000000	17.067900
2172.000000	17.070900
2171.000000	17.066700
2170.000000	17.105200
2169.000000	17.117800
2168.000000	17.126600
2167.000000	17.150500
2166.000000	17.187800
2165.000000	17.221200
2164.000000	17.237500
2163.000000	17.264300
2162.000000	17.306500
2161.000000	17.362100
2160.000000	17.399500
2159.000000	17.456000
2158.000000	17.500100
2157.000000	17.542900
2156.000000	17.615200
2155.000000	17.661500
2154.000000	17.725400
2153.000000	17.793400
2152.000000	17.852300
2151.000000	17.913900
2150.000000	17.976100
2149.000000	18.051200
2148.000000	18.114700
2147.000000	18.172600
2146.000000	18.232100
2145.000000	18.291900
2144.000000	18.347200
2143.000000	18.404500
2142.000000	18.453900
2141.000000	18.519400
2140.000000	18.570900
2139.000000	18.611600
2138.000000	18.652900
2137.000000	18.697200
2136.000000	18.738800
2135.000000	18.766300
2134.000000	18.804100
2133.000000	18.836000
2132.000000	18.852200
2131.000000	18.871600
2130.000000	18.902000
2129.000000	18.923000
2128.000000	18.941400
2127.000000	18.943400
2126.000000	18.954400
2125.000000	18.960800
2124.000000	18.958800
2123.000000	18.936500
2122.000000	18.925000
2121.000000	18.912200
2120.000000	18.895600
2119.000000	18.865100
2118.000000	18.845400
2117.000000	18.839200
2116.000000	18.797900
2115.000000	18.762900
2114.000000	18.728700
2113.000000	18.696600
2112.000000	18.677800
2111.000000	18.642900
2110.000000	18.604200
2109.000000	18.567000
2108.000000	18.533300
2107.000000	18.494200
2106.000000	18.453100
2105.000000	18.420500
2104.000000	18.388500
2103.000000	18.350900
2102.000000	18.299600
2101.000000	18.268700
2100.000000	18.235000
2099.000000	18.188800
2098.000000	18.151200
2097.000000	18.123700
2096.000000	18.082800
2095.000000	18.052300
2094.000000	18.028700
2093.000000	17.995000
2092.000000	17.962000
2091.000000	17.952600
2090.000000	17.938200
2089.000000	17.902700
2088.000000	17.863000
2087.000000	17.834800
2086.000000	17.802600
2085.000000	17.776500
2084.000000	17.748500
2083.000000	17.705300
2082.000000	17.669600
2081.000000	17.622500
2080.000000	17.575400
2079.000000	17.540600
2078.000000	17.483700
2077.000000	17.425400
2076.000000	17.361100
2075.000000	17.295000
2074.000000	17.245300
2073.000000	17.180400
2072.000000	17.102300
2071.000000	17.035300
2070.000000	16.964800
2069.000000	16.897600
2068.000000	16.829600
2067.000000	16.741700
2066.000000	16.651500
2065.000000	16.580300
2064.000000	16.533300
2063.000000	16.458200
2062.000000	16.368200
2061.000000	16.298700
2060.000000	16.235900
2059.000000	16.179500
2058.000000	16.126600
2057.000000	16.067100
2056.000000	16.043400
2055.000000	16.025500
2054.000000	16.012100
2053.000000	16.008800
2052.000000	16.020300
2051.000000	16.059900
2050.000000	16.098500
2049.000000	16.129100
2048.000000	16.200700
2047.000000	16.278300
2046.000000	16.362400
2045.000000	16.454300
2044.000000	16.558100
2043.000000	16.663700
2042.000000	16.771600
2041.000000	16.879000
2040.000000	17.005100
2039.000000	17.113000
2038.000000	17.217800
2037.000000	17.331500
2036.000000	17.432200
2035.000000	17.529900
2034.000000	17.616900
2033.000000	17.689400
2032.000000	17.758300
2031.000000	17.841500
2030.000000	17.914100
2029.000000	17.952200
2028.000000	18.014900
2027.000000	18.055900
2026.000000	18.110200
2025.000000	18.151000
2024.000000	18.191100
2023.000000	18.228500
2022.000000	18.266300
2021.000000	18.289400
2020.000000	18.296700
2019.000000	18.320500
2018.000000	18.346500
2017.000000	18.347200
2016.000000	18.350400
2015.000000	18.347200
2014.000000	18.350900
2013.000000	18.354700
2012.000000	18.345600
2011.000000	18.333600
2010.000000	18.297300
2009.000000	18.273800
2008.000000	18.249900
2007.000000	18.217300
2006.000000	18.168000
2005.000000	18.134000
2004.000000	18.095600
2003.000000	18.055000
2002.000000	17.999300
2001.000000	17.936900
2000.000000	17.868200
1999.000000	17.793500
1998.000000	17.730800
1997.000000	17.659600
1996.000000	17.587800
1995.000000	17.499200
1994.000000	17.422400
1993.000000	17.335900
1992.000000	17.251100
1991.000000	17.161100
1990.000000	17.051400
1989.000000	16.957000
1988.000000	16.874600
1987.000000	16.763600
1986.000000	16.665800
1985.000000	16.574700
1984.000000	16.469300
1983.000000	16.361300
1982.000000	16.252000
1981.000000	16.136100
1980.000000	16.033400
1979.000000	15.940700
1978.000000	15.843600
1977.000000	15.737500
1976.000000	15.630200
1975.000000	15.540100
1974.000000	15.408800
1973.000000	15.326500
1972.000000	15.217100
1971.000000	15.131800
1970.000000	15.025800
1969.000000	14.927000
1968.000000	14.845000
1967.000000	14.746200
1966.000000	14.656500
1965.000000	14.578900
1964.000000	14.484300
1963.000000	14.406400
1962.000000	14.310900
1961.000000	14.214300
1960.000000	14.134600
1959.000000	14.064300
1958.000000	13.990000
1957.000000	13.903700
1956.000000	13.814300
1955.000000	13.726100
1954.000000	13.648700
1953.000000	13.573600
1952.000000	13.480100
1951.000000	13.451200
1950.000000	13.344000
1949.000000	13.276400
1948.000000	13.249100
1947.000000	13.178400
1946.000000	13.139200
1945.000000	13.058900
1944.000000	13.013200
1943.000000	12.970600
1942.000000	12.947200
1941.000000	12.952400
1940.000000	12.918600
1939.000000	12.925300
1938.000000	12.913000
1937.000000	12.889000
1936.000000	12.898600
1935.000000	12.895900
1934.000000	12.921700
1933.000000	12.961800
1932.000000	12.998700
1931.000000	13.064100
1930.000000	13.124000
1929.000000	13.210600
1928.000000	13.297700
1927.000000	13.372900
1926.000000	13.468300
1925.000000	13.577500
1924.000000	13.690500
1923.000000	13.823200
1922.000000	13.952000
1921.000000	14.099700
1920.000000	14.254900
1919.000000	14.430800
1918.000000	14.574500
1917.000000	14.746700
1916.000000	14.913400
1915.000000	15.129600
1914.000000	15.323800
1913.000000	15.575500
1912.000000	15.816700
1911.000000	16.025600
1910.000000	16.251200
1909.000000	16.480400
1908.000000	16.724700
1907.000000	16.995000
1906.000000	17.291900
1905.000000	17.637200
1904.000000	17.954400
1903.000000	18.292600
1902.000000	18.597100
1901.000000	18.935600
1900.000000	19.287700
1899.000000	19.649100
1898.000000	20.024800
1897.000000	20.367500
1896.000000	20.713000
1895.000000	21.067300
1894.000000	21.447000
1893.000000	21.836700
1892.000000	22.233200
1891.000000	22.726300
1890.000000	23.172800
1889.000000	23.612700
1888.000000	24.048900
1887.000000	24.510600
1886.000000	24.975100
1885.000000	25.496900
1884.000000	26.038900
1883.000000	26.604400
1882.000000	27.184800
1881.000000	27.714300
1880.000000	28.270600
1879.000000	28.751900
1878.000000	29.260900
1877.000000	29.785800
1876.000000	30.244500
1875.000000	30.696000
1874.000000	31.140500
1873.000000	31.584700
1872.000000	31.996200
1871.000000	32.344800
1870.000000	32.664200
1869.000000	32.942500
1868.000000	33.222900
1867.000000	33.391400
1866.000000	33.555100
1865.000000	33.695100
1864.000000	33.820100
1863.000000	33.939900
1862.000000	34.071300
1861.000000	34.201500
1860.000000	34.335100
1859.000000	34.456000
1858.000000	34.573400
1857.000000	34.655100
1856.000000	34.714500
1855.000000	34.733100
1854.000000	34.774400
1853.000000	34.808700
1852.000000	34.799100
1851.000000	34.799900
1850.000000	34.804300
1849.000000	34.822900
1848.000000	34.841700
1847.000000	34.866800
1846.000000	34.813400
1845.000000	34.737100
1844.000000	34.708100
1843.000000	34.679500
1842.000000	34.689500
1841.000000	34.696600
1840.000000	34.689500
1839.000000	34.674400
1838.000000	34.655100
1837.000000	34.626500
1836.000000	34.579900
1835.000000	34.518000
1834.000000	34.442100
1833.000000	34.367300
1832.000000	34.303000
1831.000000	34.258400
1830.000000	34.208300
1829.000000	34.164200
1828.000000	34.108200
1827.000000	34.033100
1826.000000	33.958400
1825.000000	33.907300
1824.000000	33.866700
1823.000000	33.826800
1822.000000	33.815100
1821.000000	33.838400
1820.000000	33.832000
1819.000000	33.784300
1818.000000	33.735300
1817.000000	33.708200
1816.000000	33.696900
1815.000000	33.687800
1814.000000	33.667900
1813.000000	33.647300
1812.000000	33.646900
1811.000000	33.625800
1810.000000	33.589100
1809.000000	33.540800
1808.000000	33.513200
1807.000000	33.472100
1806.000000	33.436700
1805.000000	33.380300
1804.000000	33.324400
1803.000000	33.288300
1802.000000	33.254600
1801.000000	33.218900
1800.000000	33.173000
1799.000000	33.116400
1798.000000	33.056300
1797.000000	33.006100
1796.000000	32.965100
1795.000000	32.929800
1794.000000	32.883300
1793.000000	32.835500
1792.000000	32.793700
1791.000000	32.740900
1790.000000	32.695400
1789.000000	32.645100
1788.000000	32.589200
1787.000000	32.546700
1786.000000	32.500200
1785.000000	32.453800
1784.000000	32.398000
1783.000000	32.319000
1782.000000	32.257400
1781.000000	32.200300
1780.000000	32.132900
1779.000000	32.074300
1778.000000	31.992000
1777.000000	31.897900
1776.000000	31.817800
1775.000000	31.725000
1774.000000	31.621700
1773.000000	31.524200
1772.000000	31.430800
1771.000000	31.315100
1770.000000	31.199700
1769.000000	31.083000
1768.000000	30.964000
1767.000000	30.854300
1766.000000	30.742700
1765.000000	30.657300
1764.000000	30.594000
1763.000000	30.562100
1762.000000	30.533900
1761.000000	30.537700
1760.000000	30.589900
1759.000000	30.642600
1758.000000	30.711400
1757.000000	30.772100
1756.000000	30.845300
1755.000000	30.910900
1754.000000	30.964000
1753.000000	31.003200
1752.000000	31.014800
1751.000000	31.034900
1750.000000	31.035700
1749.000000	31.022400
1748.000000	30.988000
1747.000000	30.923000
1746.000000	30.850500
1745.000000	30.753600
1744.000000	30.641500
1743.000000	30.522700
1742.000000	30.362100
1741.000000	30.187000
1740.000000	29.968200
1739.000000	29.756400
1738.000000	29.534300
1737.000000	29.330500
1736.000000	29.131000
1735.000000	28.989500
1734.000000	28.868300
1733.000000	28.779900
1732.000000	28.739100
1731.000000	28.734700
1730.000000	28.769200
1729.000000	28.832000
1728.000000	28.927000
1727.000000	29.018000
1726.000000	29.107200
1725.000000	29.185600
1724.000000	29.269200
1723.000000	29.335800
1722.000000	29.394200
1721.000000	29.479200
1720.000000	29.540200
1719.000000	29.647200
1718.000000	29.743100
1717.000000	29.840300
1716.000000	29.962600
1715.000000	30.095300
1714.000000	30.208900
1713.000000	30.330400
1712.000000	30.450100
1711.000000	30.544300
1710.000000	30.626900
1709.000000	30.706800
1708.000000	30.721900
1707.000000	30.750600
1706.000000	30.767800
1705.000000	30.757000
1704.000000	30.733600
1703.000000	30.691900
1702.000000	30.637800
1701.000000	30.567600
1700.000000	30.454400
1699.000000	30.333100
1698.000000	30.194600
1697.000000	30.076600
1696.000000	30.000600
1695.000000	29.932600
1694.000000	29.928600
1693.000000	29.974100
1692.000000	30.030800
1691.000000	30.165600
1690.000000	30.301200
1689.000000	30.428300
1688.000000	30.515600
1687.000000	30.605200
1686.000000	30.659600
1685.000000	30.757700
1684.000000	30.834300
1683.000000	30.990700
1682.000000	31.215000
1681.000000	31.541300
1680.000000	31.950200
1679.000000	32.397200
1678.000000	32.877900
1677.000000	33.385200
1676.000000	33.851400
1675.000000	34.288100
1674.000000	34.636500
1673.000000	34.924400
1672.000000	35.223000
1671.000000	35.478000
1670.000000	35.711100
1669.000000	35.902000
1668.000000	36.083800
1667.000000	36.202200
1666.000000	36.360400
1665.000000	36.503100
1664.000000	36.601800
1663.000000	36.706100
1662.000000	36.820800
1661.000000	36.891800
1660.000000	36.959100
1659.000000	37.035700
1658.000000	37.102400
1657.000000	37.155400
1656.000000	37.183500
1655.000000	37.204200
1654.000000	37.230500
1653.000000	37.256600
1652.000000	37.245300
1651.000000	37.246400
1650.000000	37.227600
1649.000000	37.220300
1648.000000	37.197000
1647.000000	37.166300
1646.000000	37.134300
1645.000000	37.103100
1644.000000	37.074800
1643.000000	37.024100
1642.000000	36.989500
1641.000000	36.961400
1640.000000	36.891300
1639.000000	36.855200
1638.000000	36.820200
1637.000000	36.780800
1636.000000	36.703500
1635.000000	36.664800
1634.000000	36.612300
1633.000000	36.546900
1632.000000	36.477100
1631.000000	36.403100
1630.000000	36.343200
1629.000000	36.255600
1628.000000	36.175000
1627.000000	36.126500
1626.000000	36.042000
1625.000000	35.961900
1624.000000	35.891600
1623.000000	35.812600
