PE UV       SUBTECH     SPECTRUM    ASCII       PEDS        4.00        
   -1
CICIMAUCR0250-3.Sample.ASC
24/05/27
16:50:50.00
24/05/27
16:50:50.00
Vinicio Soto Monge
C. resplendens, M
250,000000
1
Lambda 1050
1050L1511233
PerkinElmer UV WinLab 6.3.2.0749 / 2.02.05 Lambda 900 UV/VIS/NIR, Aug  7 2015 09:38:08

0
0
3350/servo 860,8/2
0
0
UV/VIS
1
1
1
DoubleDePol,CommonBeamDepol,RBeamAtt,SBeamAtt,60mm sphere, WB InGaAs Detector
0
0
0
0
Program
Program
3350/servo 860,8/2
3350/0,2 860,8/0,2
3350/0,2 860,8/0,2
0
15.00
 
 
 
0
 
860,8
319,2
860,8
Front
100
on
S:100 R:100
0
0
0
0
 
0
 
 
 
0
 
 
0
0
0
0
0
 
 
 
 
0
0


0
0
#HDR
-1
-1
#GR
nm
%R
1.0
0.0
2500,000000
-1,000000
2251
8
89,705100
5,547200
#DATA
2500.000000	8.622800
2499.000000	8.757300
2498.000000	8.544300
2497.000000	8.511700
2496.000000	8.551000
2495.000000	8.501900
2494.000000	8.417900
2493.000000	8.326200
2492.000000	8.396800
2491.000000	8.361200
2490.000000	8.413600
2489.000000	8.391600
2488.000000	8.379000
2487.000000	8.392200
2486.000000	8.320500
2485.000000	8.418500
2484.000000	8.374300
2483.000000	8.390300
2482.000000	8.399300
2481.000000	8.329400
2480.000000	8.331900
2479.000000	8.373000
2478.000000	8.377000
2477.000000	8.389100
2476.000000	8.410600
2475.000000	8.450600
2474.000000	8.450100
2473.000000	8.393600
2472.000000	8.406700
2471.000000	8.434100
2470.000000	8.446700
2469.000000	8.442900
2468.000000	8.461700
2467.000000	8.487900
2466.000000	8.489300
2465.000000	8.520300
2464.000000	8.516500
2463.000000	8.543600
2462.000000	8.559700
2461.000000	8.605800
2460.000000	8.645300
2459.000000	8.694000
2458.000000	8.731300
2457.000000	8.803700
2456.000000	8.847600
2455.000000	8.892500
2454.000000	8.949600
2453.000000	9.017400
2452.000000	9.068300
2451.000000	9.123900
2450.000000	9.215000
2449.000000	9.281500
2448.000000	9.344800
2447.000000	9.424300
2446.000000	9.519000
2445.000000	9.562800
2444.000000	9.637000
2443.000000	9.684600
2442.000000	9.768500
2441.000000	9.862300
2440.000000	9.900200
2439.000000	9.954300
2438.000000	10.039900
2437.000000	10.116300
2436.000000	10.175900
2435.000000	10.230200
2434.000000	10.309100
2433.000000	10.381300
2432.000000	10.434100
2431.000000	10.492600
2430.000000	10.565800
2429.000000	10.607700
2428.000000	10.646300
2427.000000	10.687500
2426.000000	10.739900
2425.000000	10.801900
2424.000000	10.837600
2423.000000	10.872500
2422.000000	10.913600
2421.000000	10.951700
2420.000000	10.992200
2419.000000	11.033500
2418.000000	11.079700
2417.000000	11.106400
2416.000000	11.147900
2415.000000	11.173600
2414.000000	11.199600
2413.000000	11.231100
2412.000000	11.255400
2411.000000	11.289700
2410.000000	11.326000
2409.000000	11.361600
2408.000000	11.386900
2407.000000	11.427400
2406.000000	11.444200
2405.000000	11.474800
2404.000000	11.495400
2403.000000	11.523100
2402.000000	11.546200
2401.000000	11.568000
2400.000000	11.587300
2399.000000	11.605400
2398.000000	11.629300
2397.000000	11.659200
2396.000000	11.690000
2395.000000	11.710800
2394.000000	11.725600
2393.000000	11.759000
2392.000000	11.765600
2391.000000	11.779300
2390.000000	11.805600
2389.000000	11.831400
2388.000000	11.857300
2387.000000	11.850600
2386.000000	11.857000
2385.000000	11.856800
2384.000000	11.857500
2383.000000	11.860200
2382.000000	11.860800
2381.000000	11.872100
2380.000000	11.866900
2379.000000	11.851200
2378.000000	11.843400
2377.000000	11.835100
2376.000000	11.813100
2375.000000	11.806800
2374.000000	11.797200
2373.000000	11.763900
2372.000000	11.722400
2371.000000	11.709500
2370.000000	11.699700
2369.000000	11.663500
2368.000000	11.632200
2367.000000	11.605800
2366.000000	11.559400
2365.000000	11.515200
2364.000000	11.464200
2363.000000	11.415300
2362.000000	11.368800
2361.000000	11.306600
2360.000000	11.254300
2359.000000	11.214000
2358.000000	11.174700
2357.000000	11.119900
2356.000000	11.063700
2355.000000	11.023400
2354.000000	10.993700
2353.000000	10.977800
2352.000000	10.961800
2351.000000	10.945200
2350.000000	10.940700
2349.000000	10.943600
2348.000000	10.950200
2347.000000	10.974800
2346.000000	11.003200
2345.000000	11.016900
2344.000000	11.045700
2343.000000	11.065600
2342.000000	11.088400
2341.000000	11.111700
2340.000000	11.141500
2339.000000	11.168300
2338.000000	11.153700
2337.000000	11.164800
2336.000000	11.171200
2335.000000	11.156300
2334.000000	11.145900
2333.000000	11.123600
2332.000000	11.102100
2331.000000	11.066700
2330.000000	11.020300
2329.000000	10.982600
2328.000000	10.948900
2327.000000	10.877600
2326.000000	10.814900
2325.000000	10.773800
2324.000000	10.710000
2323.000000	10.618200
2322.000000	10.523400
2321.000000	10.454100
2320.000000	10.367500
2319.000000	10.257300
2318.000000	10.155600
2317.000000	10.061600
2316.000000	9.980600
2315.000000	9.888900
2314.000000	9.788900
2313.000000	9.667100
2312.000000	9.565800
2311.000000	9.485400
2310.000000	9.403300
2309.000000	9.330700
2308.000000	9.276000
2307.000000	9.233400
2306.000000	9.201700
2305.000000	9.210300
2304.000000	9.201800
2303.000000	9.212900
2302.000000	9.256400
2301.000000	9.295400
2300.000000	9.342300
2299.000000	9.404100
2298.000000	9.487900
2297.000000	9.554900
2296.000000	9.610000
2295.000000	9.694200
2294.000000	9.767400
2293.000000	9.833800
2292.000000	9.883400
2291.000000	9.918900
2290.000000	9.954100
2289.000000	10.001000
2288.000000	10.006700
2287.000000	10.011800
2286.000000	10.013800
2285.000000	10.011700
2284.000000	10.001900
2283.000000	9.964500
2282.000000	9.907800
2281.000000	9.877800
2280.000000	9.814300
2279.000000	9.770700
2278.000000	9.729000
2277.000000	9.680300
2276.000000	9.639800
2275.000000	9.589700
2274.000000	9.574800
2273.000000	9.551400
2272.000000	9.538200
2271.000000	9.503500
2270.000000	9.511100
2269.000000	9.523300
2268.000000	9.571700
2267.000000	9.607900
2266.000000	9.691200
2265.000000	9.767400
2264.000000	9.860300
2263.000000	9.997000
2262.000000	10.134300
2261.000000	10.288500
2260.000000	10.473900
2259.000000	10.670000
2258.000000	10.863200
2257.000000	11.042700
2256.000000	11.282900
2255.000000	11.510800
2254.000000	11.728500
2253.000000	11.960100
2252.000000	12.177500
2251.000000	12.382600
2250.000000	12.592200
2249.000000	12.773200
2248.000000	12.970700
2247.000000	13.134300
2246.000000	13.311800
2245.000000	13.460300
2244.000000	13.607800
2243.000000	13.724800
2242.000000	13.841000
2241.000000	13.969500
2240.000000	14.066900
2239.000000	14.155900
2238.000000	14.242400
2237.000000	14.333000
2236.000000	14.402100
2235.000000	14.469400
2234.000000	14.513700
2233.000000	14.567100
2232.000000	14.594800
2231.000000	14.653100
2230.000000	14.685300
2229.000000	14.713200
2228.000000	14.720600
2227.000000	14.742100
2226.000000	14.740800
2225.000000	14.739900
2224.000000	14.754500
2223.000000	14.738100
2222.000000	14.709100
2221.000000	14.700300
2220.000000	14.655000
2219.000000	14.656200
2218.000000	14.616300
2217.000000	14.585700
2216.000000	14.555600
2215.000000	14.527300
2214.000000	14.499100
2213.000000	14.448500
2212.000000	14.414400
2211.000000	14.408500
2210.000000	14.377100
2209.000000	14.337600
2208.000000	14.326000
2207.000000	14.301100
2206.000000	14.263700
2205.000000	14.260100
2204.000000	14.220100
2203.000000	14.217800
2202.000000	14.183100
2201.000000	14.145500
2200.000000	14.150300
2199.000000	14.118400
2198.000000	14.094800
2197.000000	14.094900
2196.000000	14.080700
2195.000000	14.058800
2194.000000	14.042200
2193.000000	14.023400
2192.000000	14.017100
2191.000000	13.991300
2190.000000	13.991100
2189.000000	13.991300
2188.000000	13.951400
2187.000000	13.957500
2186.000000	13.931700
2185.000000	13.905900
2184.000000	13.909000
2183.000000	13.887800
2182.000000	13.890700
2181.000000	13.869600
2180.000000	13.827800
2179.000000	13.839700
2178.000000	13.827500
2177.000000	13.790000
2176.000000	13.800600
2175.000000	13.802700
2174.000000	13.785800
2173.000000	13.780300
2172.000000	13.779500
2171.000000	13.807600
2170.000000	13.804300
2169.000000	13.804600
2168.000000	13.802000
2167.000000	13.836600
2166.000000	13.857000
2165.000000	13.862700
2164.000000	13.869200
2163.000000	13.908100
2162.000000	13.937700
2161.000000	13.946700
2160.000000	13.974500
2159.000000	14.001600
2158.000000	14.047900
2157.000000	14.093900
2156.000000	14.109800
2155.000000	14.130400
2154.000000	14.184400
2153.000000	14.236000
2152.000000	14.284500
2151.000000	14.327500
2150.000000	14.373700
2149.000000	14.411500
2148.000000	14.448700
2147.000000	14.494600
2146.000000	14.543000
2145.000000	14.587700
2144.000000	14.622000
2143.000000	14.664000
2142.000000	14.700900
2141.000000	14.752400
2140.000000	14.782200
2139.000000	14.822500
2138.000000	14.846500
2137.000000	14.875700
2136.000000	14.898700
2135.000000	14.937200
2134.000000	14.952300
2133.000000	14.976700
2132.000000	14.996500
2131.000000	15.008100
2130.000000	15.008900
2129.000000	15.036500
2128.000000	15.048400
2127.000000	15.042700
2126.000000	15.047900
2125.000000	15.051900
2124.000000	15.050600
2123.000000	15.023700
2122.000000	15.018600
2121.000000	15.018700
2120.000000	15.008200
2119.000000	14.996400
2118.000000	14.981000
2117.000000	14.971500
2116.000000	14.943200
2115.000000	14.920100
2114.000000	14.878400
2113.000000	14.845900
2112.000000	14.830800
2111.000000	14.813900
2110.000000	14.773100
2109.000000	14.737800
2108.000000	14.710600
2107.000000	14.695700
2106.000000	14.670000
2105.000000	14.633200
2104.000000	14.597000
2103.000000	14.568800
2102.000000	14.543700
2101.000000	14.497100
2100.000000	14.461700
2099.000000	14.440400
2098.000000	14.415500
2097.000000	14.396500
2096.000000	14.370100
2095.000000	14.343800
2094.000000	14.316400
2093.000000	14.291400
2092.000000	14.276400
2091.000000	14.264200
2090.000000	14.242300
2089.000000	14.216400
2088.000000	14.200200
2087.000000	14.177600
2086.000000	14.164300
2085.000000	14.145600
2084.000000	14.120100
2083.000000	14.110200
2082.000000	14.093300
2081.000000	14.056700
2080.000000	14.013400
2079.000000	13.984100
2078.000000	13.949900
2077.000000	13.902400
2076.000000	13.867400
2075.000000	13.821400
2074.000000	13.772500
2073.000000	13.734500
2072.000000	13.698700
2071.000000	13.648300
2070.000000	13.599800
2069.000000	13.557400
2068.000000	13.505900
2067.000000	13.467100
2066.000000	13.424700
2065.000000	13.366500
2064.000000	13.312500
2063.000000	13.274500
2062.000000	13.240700
2061.000000	13.197600
2060.000000	13.160200
2059.000000	13.136800
2058.000000	13.105000
2057.000000	13.082600
2056.000000	13.067500
2055.000000	13.054400
2054.000000	13.060100
2053.000000	13.058500
2052.000000	13.084300
2051.000000	13.121600
2050.000000	13.164100
2049.000000	13.210900
2048.000000	13.268000
2047.000000	13.331500
2046.000000	13.402000
2045.000000	13.480500
2044.000000	13.555100
2043.000000	13.635800
2042.000000	13.734700
2041.000000	13.832300
2040.000000	13.913500
2039.000000	13.984700
2038.000000	14.069100
2037.000000	14.149000
2036.000000	14.217400
2035.000000	14.280200
2034.000000	14.347100
2033.000000	14.411900
2032.000000	14.479000
2031.000000	14.526800
2030.000000	14.590200
2029.000000	14.636600
2028.000000	14.668600
2027.000000	14.704500
2026.000000	14.742200
2025.000000	14.768100
2024.000000	14.809300
2023.000000	14.841000
2022.000000	14.867500
2021.000000	14.877000
2020.000000	14.915600
2019.000000	14.935100
2018.000000	14.943300
2017.000000	14.942700
2016.000000	14.951300
2015.000000	14.943600
2014.000000	14.939500
2013.000000	14.950600
2012.000000	14.946500
2011.000000	14.930500
2010.000000	14.908700
2009.000000	14.890100
2008.000000	14.866500
2007.000000	14.826000
2006.000000	14.798400
2005.000000	14.779500
2004.000000	14.732200
2003.000000	14.684500
2002.000000	14.644800
2001.000000	14.583900
2000.000000	14.535600
1999.000000	14.473400
1998.000000	14.420100
1997.000000	14.365000
1996.000000	14.297400
1995.000000	14.237000
1994.000000	14.164600
1993.000000	14.094500
1992.000000	14.011600
1991.000000	13.936100
1990.000000	13.874500
1989.000000	13.789000
1988.000000	13.698400
1987.000000	13.644400
1986.000000	13.563600
1985.000000	13.468200
1984.000000	13.367800
1983.000000	13.316300
1982.000000	13.211500
1981.000000	13.131700
1980.000000	13.045700
1979.000000	12.974200
1978.000000	12.851500
1977.000000	12.768900
1976.000000	12.679400
1975.000000	12.612900
1974.000000	12.527700
1973.000000	12.442300
1972.000000	12.367600
1971.000000	12.287300
1970.000000	12.232900
1969.000000	12.149300
1968.000000	12.045200
1967.000000	11.960000
1966.000000	11.896100
1965.000000	11.832000
1964.000000	11.763200
1963.000000	11.672400
1962.000000	11.606000
1961.000000	11.523200
1960.000000	11.464900
1959.000000	11.386300
1958.000000	11.316100
1957.000000	11.258900
1956.000000	11.192000
1955.000000	11.115000
1954.000000	11.051300
1953.000000	10.988700
1952.000000	10.934800
1951.000000	10.869100
1950.000000	10.803900
1949.000000	10.740600
1948.000000	10.696300
1947.000000	10.647200
1946.000000	10.592400
1945.000000	10.553000
1944.000000	10.503200
1943.000000	10.479000
1942.000000	10.449200
1941.000000	10.407800
1940.000000	10.397800
1939.000000	10.398100
1938.000000	10.370900
1937.000000	10.385500
1936.000000	10.396700
1935.000000	10.374400
1934.000000	10.382800
1933.000000	10.405700
1932.000000	10.430800
1931.000000	10.477900
1930.000000	10.493100
1929.000000	10.575600
1928.000000	10.636800
1927.000000	10.708100
1926.000000	10.780100
1925.000000	10.866100
1924.000000	10.932600
1923.000000	11.020600
1922.000000	11.126900
1921.000000	11.254300
1920.000000	11.379000
1919.000000	11.530400
1918.000000	11.645400
1917.000000	11.799600
1916.000000	11.913800
1915.000000	12.038700
1914.000000	12.204600
1913.000000	12.404700
1912.000000	12.607800
1911.000000	12.841700
1910.000000	13.010100
1909.000000	13.163200
1908.000000	13.335900
1907.000000	13.548000
1906.000000	13.785000
1905.000000	14.073500
1904.000000	14.375600
1903.000000	14.650600
1902.000000	14.897100
1901.000000	15.165800
1900.000000	15.459200
1899.000000	15.771100
1898.000000	16.102000
1897.000000	16.423500
1896.000000	16.735000
1895.000000	17.018700
1894.000000	17.320500
1893.000000	17.620900
1892.000000	17.975600
1891.000000	18.387200
1890.000000	18.836800
1889.000000	19.233800
1888.000000	19.610700
1887.000000	20.021800
1886.000000	20.433500
1885.000000	20.876300
1884.000000	21.332500
1883.000000	21.853300
1882.000000	22.377600
1881.000000	22.860500
1880.000000	23.361700
1879.000000	23.812700
1878.000000	24.260100
1877.000000	24.717400
1876.000000	25.171100
1875.000000	25.597700
1874.000000	26.005100
1873.000000	26.380800
1872.000000	26.768900
1871.000000	27.106300
1870.000000	27.416700
1869.000000	27.692200
1868.000000	27.951700
1867.000000	28.178700
1866.000000	28.340400
1865.000000	28.481300
1864.000000	28.627200
1863.000000	28.732100
1862.000000	28.850700
1861.000000	28.976200
1860.000000	29.109300
1859.000000	29.209300
1858.000000	29.305600
1857.000000	29.384600
1856.000000	29.429000
1855.000000	29.459700
1854.000000	29.501300
1853.000000	29.527100
1852.000000	29.521300
1851.000000	29.506200
1850.000000	29.518900
1849.000000	29.547400
1848.000000	29.541700
1847.000000	29.537800
1846.000000	29.517000
1845.000000	29.475400
1844.000000	29.416800
1843.000000	29.383800
1842.000000	29.374000
1841.000000	29.384000
1840.000000	29.385800
1839.000000	29.365300
1838.000000	29.336200
1837.000000	29.294200
1836.000000	29.271900
1835.000000	29.221500
1834.000000	29.160000
1833.000000	29.099600
1832.000000	29.026700
1831.000000	28.968600
1830.000000	28.928300
1829.000000	28.877700
1828.000000	28.833900
1827.000000	28.764300
1826.000000	28.699300
1825.000000	28.651300
1824.000000	28.593000
1823.000000	28.541100
1822.000000	28.519900
1821.000000	28.537700
1820.000000	28.522900
1819.000000	28.486700
1818.000000	28.446500
1817.000000	28.408900
1816.000000	28.399500
1815.000000	28.394000
1814.000000	28.370000
1813.000000	28.345800
1812.000000	28.327700
1811.000000	28.308300
1810.000000	28.273300
1809.000000	28.225500
1808.000000	28.190100
1807.000000	28.154100
1806.000000	28.117700
1805.000000	28.074400
1804.000000	28.026800
1803.000000	27.975200
1802.000000	27.939900
1801.000000	27.899800
1800.000000	27.850500
1799.000000	27.783100
1798.000000	27.731600
1797.000000	27.684900
1796.000000	27.635300
1795.000000	27.604400
1794.000000	27.554900
1793.000000	27.493400
1792.000000	27.446200
1791.000000	27.404500
1790.000000	27.351000
1789.000000	27.302800
1788.000000	27.260100
1787.000000	27.208900
1786.000000	27.159000
1785.000000	27.105400
1784.000000	27.041100
1783.000000	26.981500
1782.000000	26.915700
1781.000000	26.843100
1780.000000	26.778800
1779.000000	26.721000
1778.000000	26.657300
1777.000000	26.591000
1776.000000	26.510500
1775.000000	26.426200
1774.000000	26.345900
1773.000000	26.257300
1772.000000	26.150400
1771.000000	26.043700
1770.000000	25.947100
1769.000000	25.846300
1768.000000	25.741800
1767.000000	25.649700
1766.000000	25.566400
1765.000000	25.502600
1764.000000	25.447000
1763.000000	25.406300
1762.000000	25.375600
1761.000000	25.375800
1760.000000	25.422400
1759.000000	25.478000
1758.000000	25.521100
1757.000000	25.582900
1756.000000	25.642800
1755.000000	25.671300
1754.000000	25.717100
1753.000000	25.774200
1752.000000	25.799300
1751.000000	25.798900
1750.000000	25.791200
1749.000000	25.778300
1748.000000	25.743800
1747.000000	25.691000
1746.000000	25.634500
1745.000000	25.552300
1744.000000	25.443900
1743.000000	25.324400
1742.000000	25.177600
1741.000000	25.031300
1740.000000	24.845500
1739.000000	24.657200
1738.000000	24.458300
1737.000000	24.280700
1736.000000	24.131100
1735.000000	23.992500
1734.000000	23.885600
1733.000000	23.821300
1732.000000	23.797600
1731.000000	23.804900
1730.000000	23.845300
1729.000000	23.911500
1728.000000	23.984000
1727.000000	24.063200
1726.000000	24.133000
1725.000000	24.208500
1724.000000	24.264400
1723.000000	24.318400
1722.000000	24.367100
1721.000000	24.415500
1720.000000	24.463400
1719.000000	24.517600
1718.000000	24.585800
1717.000000	24.658700
1716.000000	24.753500
1715.000000	24.835800
1714.000000	24.923700
1713.000000	25.027400
1712.000000	25.114800
1711.000000	25.194500
1710.000000	25.253900
1709.000000	25.282500
1708.000000	25.297800
1707.000000	25.316500
1706.000000	25.303300
1705.000000	25.280400
1704.000000	25.247900
1703.000000	25.199200
1702.000000	25.115300
1701.000000	25.040000
1700.000000	24.941400
1699.000000	24.804400
1698.000000	24.671500
1697.000000	24.559700
1696.000000	24.430600
1695.000000	24.365000
1694.000000	24.334700
1693.000000	24.322900
1692.000000	24.394700
1691.000000	24.462500
1690.000000	24.580900
1689.000000	24.673200
1688.000000	24.753000
1687.000000	24.830300
1686.000000	24.863100
1685.000000	24.893300
1684.000000	24.946000
1683.000000	25.083900
1682.000000	25.216700
1681.000000	25.486800
1680.000000	25.817100
1679.000000	26.225600
1678.000000	26.655900
1677.000000	27.085800
1676.000000	27.497200
1675.000000	27.870700
1674.000000	28.216200
1673.000000	28.486900
1672.000000	28.747800
1671.000000	28.969200
1670.000000	29.189500
1669.000000	29.340300
1668.000000	29.500500
1667.000000	29.638100
1666.000000	29.740400
1665.000000	29.852100
1664.000000	29.968800
1663.000000	30.046500
1662.000000	30.132200
1661.000000	30.187600
1660.000000	30.273500
1659.000000	30.317300
1658.000000	30.398300
1657.000000	30.406300
1656.000000	30.417600
1655.000000	30.447500
1654.000000	30.466700
1653.000000	30.453900
1652.000000	30.458900
1651.000000	30.451900
1650.000000	30.451800
1649.000000	30.449000
1648.000000	30.409600
1647.000000	30.376800
1646.000000	30.343700
1645.000000	30.298700
1644.000000	30.264600
1643.000000	30.218500
1642.000000	30.184900
1641.000000	30.123600
1640.000000	30.084700
1639.000000	30.039400
1638.000000	29.990900
1637.000000	29.927700
1636.000000	29.902200
1635.000000	29.817500
1634.000000	29.770600
1633.000000	29.722400
1632.000000	29.662900
1631.000000	29.582900
1630.000000	29.523000
1629.000000	29.446900
1628.000000	29.361200
1627.000000	29.305400
1626.000000	29.252400
1625.000000	29.169300
1624.000000	29.114600
1623.000000	29.032900
1622.000000	28.968700
1621.000000	28.893100
1620.000000	28.821600
1619.000000	28.769200
