PE UV       SUBTECH     SPECTRUM    ASCII       PEDS        4.00        
   -1
CICIMAUCR0225-3.Sample.ASC
24/05/27
16:32:59.00
24/05/27
16:32:59.00
Vinicio Soto Monge
C. resplendens, F
250,000000
1
Lambda 1050
1050L1511233
PerkinElmer UV WinLab 6.3.2.0749 / 2.02.05 Lambda 900 UV/VIS/NIR, Aug  7 2015 09:38:08

0
0
3350/servo 860,8/2
0
0
UV/VIS
1
1
1
DoubleDePol,CommonBeamDepol,RBeamAtt,SBeamAtt,60mm sphere, WB InGaAs Detector
0
0
0
0
Program
Program
3350/servo 860,8/2
3350/0,2 860,8/0,2
3350/0,2 860,8/0,2
0
15.00
 
 
 
0
 
860,8
319,2
860,8
Front
100
on
S:100 R:100
0
0
0
0
 
0
 
 
 
0
 
 
0
0
0
0
0
 
 
 
 
0
0


0
0
#HDR
-1
-1
#GR
nm
%R
1.0
0.0
2500,000000
-1,000000
2251
8
72,869500
5,660100
#DATA
2500.000000	9.866800
2499.000000	9.757600
2498.000000	9.726300
2497.000000	9.784000
2496.000000	9.643000
2495.000000	9.779800
2494.000000	9.701000
2493.000000	9.612000
2492.000000	9.544800
2491.000000	9.571200
2490.000000	9.552900
2489.000000	9.477100
2488.000000	9.480800
2487.000000	9.512200
2486.000000	9.512400
2485.000000	9.541400
2484.000000	9.523500
2483.000000	9.500600
2482.000000	9.480000
2481.000000	9.459000
2480.000000	9.394400
2479.000000	9.466600
2478.000000	9.439100
2477.000000	9.404700
2476.000000	9.449900
2475.000000	9.458600
2474.000000	9.443100
2473.000000	9.508000
2472.000000	9.505600
2471.000000	9.512200
2470.000000	9.470400
2469.000000	9.484100
2468.000000	9.466400
2467.000000	9.495200
2466.000000	9.489400
2465.000000	9.561800
2464.000000	9.545900
2463.000000	9.597300
2462.000000	9.626400
2461.000000	9.622300
2460.000000	9.688000
2459.000000	9.726700
2458.000000	9.782900
2457.000000	9.856100
2456.000000	9.891500
2455.000000	9.906200
2454.000000	10.012100
2453.000000	10.082500
2452.000000	10.140500
2451.000000	10.229700
2450.000000	10.289400
2449.000000	10.360200
2448.000000	10.458200
2447.000000	10.535500
2446.000000	10.600500
2445.000000	10.673600
2444.000000	10.767200
2443.000000	10.848400
2442.000000	10.937900
2441.000000	11.017400
2440.000000	11.103600
2439.000000	11.140700
2438.000000	11.217500
2437.000000	11.299300
2436.000000	11.366400
2435.000000	11.447800
2434.000000	11.497300
2433.000000	11.577500
2432.000000	11.646500
2431.000000	11.702300
2430.000000	11.750000
2429.000000	11.794700
2428.000000	11.843200
2427.000000	11.885700
2426.000000	11.942400
2425.000000	11.998800
2424.000000	12.041800
2423.000000	12.072900
2422.000000	12.121200
2421.000000	12.168200
2420.000000	12.199700
2419.000000	12.231500
2418.000000	12.271800
2417.000000	12.306700
2416.000000	12.338200
2415.000000	12.365300
2414.000000	12.400000
2413.000000	12.432100
2412.000000	12.453800
2411.000000	12.476500
2410.000000	12.509100
2409.000000	12.547400
2408.000000	12.580200
2407.000000	12.602100
2406.000000	12.625900
2405.000000	12.657200
2404.000000	12.675500
2403.000000	12.717400
2402.000000	12.763900
2401.000000	12.802500
2400.000000	12.834200
2399.000000	12.873000
2398.000000	12.905200
2397.000000	12.931500
2396.000000	12.950200
2395.000000	12.985300
2394.000000	13.019600
2393.000000	13.054600
2392.000000	13.085200
2391.000000	13.101800
2390.000000	13.126400
2389.000000	13.145800
2388.000000	13.144700
2387.000000	13.163200
2386.000000	13.196900
2385.000000	13.196100
2384.000000	13.187200
2383.000000	13.188600
2382.000000	13.193900
2381.000000	13.193900
2380.000000	13.194300
2379.000000	13.193300
2378.000000	13.175200
2377.000000	13.170200
2376.000000	13.171100
2375.000000	13.140400
2374.000000	13.111600
2373.000000	13.102300
2372.000000	13.089200
2371.000000	13.063200
2370.000000	13.029600
2369.000000	12.996100
2368.000000	12.962600
2367.000000	12.916500
2366.000000	12.878900
2365.000000	12.835400
2364.000000	12.774400
2363.000000	12.720500
2362.000000	12.655500
2361.000000	12.588600
2360.000000	12.536300
2359.000000	12.490600
2358.000000	12.431200
2357.000000	12.364900
2356.000000	12.317400
2355.000000	12.284200
2354.000000	12.252200
2353.000000	12.213300
2352.000000	12.184600
2351.000000	12.184900
2350.000000	12.182200
2349.000000	12.192600
2348.000000	12.221600
2347.000000	12.242800
2346.000000	12.273700
2345.000000	12.317500
2344.000000	12.348800
2343.000000	12.389700
2342.000000	12.444200
2341.000000	12.484100
2340.000000	12.505000
2339.000000	12.537100
2338.000000	12.570100
2337.000000	12.592400
2336.000000	12.606600
2335.000000	12.614400
2334.000000	12.604000
2333.000000	12.582500
2332.000000	12.561800
2331.000000	12.532700
2330.000000	12.493300
2329.000000	12.458700
2328.000000	12.404500
2327.000000	12.348300
2326.000000	12.287400
2325.000000	12.219700
2324.000000	12.136400
2323.000000	12.059600
2322.000000	11.960500
2321.000000	11.854700
2320.000000	11.744600
2319.000000	11.624000
2318.000000	11.506000
2317.000000	11.390300
2316.000000	11.250800
2315.000000	11.111000
2314.000000	10.969700
2313.000000	10.859000
2312.000000	10.749300
2311.000000	10.652100
2310.000000	10.545500
2309.000000	10.460200
2308.000000	10.397200
2307.000000	10.342800
2306.000000	10.324700
2305.000000	10.299400
2304.000000	10.296700
2303.000000	10.346600
2302.000000	10.385500
2301.000000	10.440700
2300.000000	10.513500
2299.000000	10.591700
2298.000000	10.689400
2297.000000	10.790400
2296.000000	10.884500
2295.000000	10.979900
2294.000000	11.069500
2293.000000	11.158900
2292.000000	11.224200
2291.000000	11.270100
2290.000000	11.337900
2289.000000	11.366900
2288.000000	11.377100
2287.000000	11.412500
2286.000000	11.404800
2285.000000	11.384600
2284.000000	11.374000
2283.000000	11.350900
2282.000000	11.308600
2281.000000	11.250800
2280.000000	11.210200
2279.000000	11.147300
2278.000000	11.107000
2277.000000	11.093600
2276.000000	11.043900
2275.000000	10.990800
2274.000000	10.980200
2273.000000	10.948700
2272.000000	10.940200
2271.000000	10.921100
2270.000000	10.955600
2269.000000	10.995200
2268.000000	11.045700
2267.000000	11.115200
2266.000000	11.226100
2265.000000	11.350600
2264.000000	11.460800
2263.000000	11.605500
2262.000000	11.792900
2261.000000	12.005600
2260.000000	12.207600
2259.000000	12.416000
2258.000000	12.643900
2257.000000	12.895300
2256.000000	13.154700
2255.000000	13.395500
2254.000000	13.641700
2253.000000	13.894700
2252.000000	14.132000
2251.000000	14.343500
2250.000000	14.578700
2249.000000	14.777500
2248.000000	14.986900
2247.000000	15.165200
2246.000000	15.335200
2245.000000	15.492400
2244.000000	15.633300
2243.000000	15.773500
2242.000000	15.900600
2241.000000	16.003900
2240.000000	16.139500
2239.000000	16.230000
2238.000000	16.330600
2237.000000	16.394300
2236.000000	16.451500
2235.000000	16.552500
2234.000000	16.607600
2233.000000	16.655500
2232.000000	16.700300
2231.000000	16.743500
2230.000000	16.763300
2229.000000	16.780100
2228.000000	16.822400
2227.000000	16.820600
2226.000000	16.830900
2225.000000	16.830600
2224.000000	16.820000
2223.000000	16.819300
2222.000000	16.797300
2221.000000	16.781000
2220.000000	16.761900
2219.000000	16.714300
2218.000000	16.676000
2217.000000	16.680500
2216.000000	16.627300
2215.000000	16.610700
2214.000000	16.552300
2213.000000	16.521000
2212.000000	16.497400
2211.000000	16.468300
2210.000000	16.432300
2209.000000	16.422100
2208.000000	16.391000
2207.000000	16.360200
2206.000000	16.346900
2205.000000	16.328900
2204.000000	16.314600
2203.000000	16.272000
2202.000000	16.279800
2201.000000	16.269000
2200.000000	16.261300
2199.000000	16.240000
2198.000000	16.213400
2197.000000	16.195500
2196.000000	16.191700
2195.000000	16.188600
2194.000000	16.181700
2193.000000	16.180600
2192.000000	16.145900
2191.000000	16.137600
2190.000000	16.116900
2189.000000	16.112100
2188.000000	16.107900
2187.000000	16.078900
2186.000000	16.072400
2185.000000	16.053300
2184.000000	16.055700
2183.000000	16.027300
2182.000000	16.010600
2181.000000	16.002000
2180.000000	15.983400
2179.000000	15.971300
2178.000000	15.953800
2177.000000	15.944100
2176.000000	15.941300
2175.000000	15.935700
2174.000000	15.928100
2173.000000	15.938000
2172.000000	15.948900
2171.000000	15.960800
2170.000000	15.963400
2169.000000	15.982900
2168.000000	15.988800
2167.000000	15.992500
2166.000000	16.014700
2165.000000	16.055300
2164.000000	16.082100
2163.000000	16.096000
2162.000000	16.117000
2161.000000	16.160700
2160.000000	16.199200
2159.000000	16.229600
2158.000000	16.278400
2157.000000	16.300200
2156.000000	16.356900
2155.000000	16.402100
2154.000000	16.450000
2153.000000	16.491900
2152.000000	16.542700
2151.000000	16.606500
2150.000000	16.652900
2149.000000	16.698800
2148.000000	16.749100
2147.000000	16.797900
2146.000000	16.855200
2145.000000	16.882500
2144.000000	16.931700
2143.000000	16.989800
2142.000000	17.026200
2141.000000	17.069400
2140.000000	17.109100
2139.000000	17.149700
2138.000000	17.198200
2137.000000	17.238500
2136.000000	17.281200
2135.000000	17.304500
2134.000000	17.339800
2133.000000	17.377500
2132.000000	17.407000
2131.000000	17.427000
2130.000000	17.440400
2129.000000	17.460900
2128.000000	17.483800
2127.000000	17.493700
2126.000000	17.490500
2125.000000	17.511600
2124.000000	17.527100
2123.000000	17.533200
2122.000000	17.521200
2121.000000	17.512100
2120.000000	17.519800
2119.000000	17.510400
2118.000000	17.500800
2117.000000	17.495000
2116.000000	17.468500
2115.000000	17.447900
2114.000000	17.451600
2113.000000	17.453900
2112.000000	17.431200
2111.000000	17.399900
2110.000000	17.383700
2109.000000	17.369900
2108.000000	17.346900
2107.000000	17.316700
2106.000000	17.302800
2105.000000	17.298600
2104.000000	17.281500
2103.000000	17.257000
2102.000000	17.223800
2101.000000	17.192200
2100.000000	17.186300
2099.000000	17.164100
2098.000000	17.140900
2097.000000	17.130600
2096.000000	17.117300
2095.000000	17.101100
2094.000000	17.079300
2093.000000	17.052300
2092.000000	17.043300
2091.000000	17.040200
2090.000000	17.022400
2089.000000	17.006600
2088.000000	17.000800
2087.000000	16.981900
2086.000000	16.961400
2085.000000	16.950100
2084.000000	16.924100
2083.000000	16.909800
2082.000000	16.890200
2081.000000	16.855700
2080.000000	16.836000
2079.000000	16.800800
2078.000000	16.761700
2077.000000	16.726900
2076.000000	16.697000
2075.000000	16.662900
2074.000000	16.610900
2073.000000	16.568100
2072.000000	16.526700
2071.000000	16.486900
2070.000000	16.441700
2069.000000	16.386900
2068.000000	16.330800
2067.000000	16.286600
2066.000000	16.236100
2065.000000	16.187200
2064.000000	16.130900
2063.000000	16.088300
2062.000000	16.052100
2061.000000	15.998300
2060.000000	15.959700
2059.000000	15.911400
2058.000000	15.878400
2057.000000	15.857600
2056.000000	15.844300
2055.000000	15.832000
2054.000000	15.839000
2053.000000	15.856500
2052.000000	15.869200
2051.000000	15.904000
2050.000000	15.946700
2049.000000	15.988100
2048.000000	16.041200
2047.000000	16.111900
2046.000000	16.203100
2045.000000	16.299500
2044.000000	16.394800
2043.000000	16.487900
2042.000000	16.604900
2041.000000	16.718400
2040.000000	16.808500
2039.000000	16.906500
2038.000000	17.000900
2037.000000	17.094200
2036.000000	17.196700
2035.000000	17.300400
2034.000000	17.367500
2033.000000	17.452700
2032.000000	17.521400
2031.000000	17.587400
2030.000000	17.664200
2029.000000	17.732800
2028.000000	17.791500
2027.000000	17.839200
2026.000000	17.890300
2025.000000	17.928200
2024.000000	17.972000
2023.000000	18.013600
2022.000000	18.052500
2021.000000	18.087400
2020.000000	18.115500
2019.000000	18.149200
2018.000000	18.161900
2017.000000	18.178500
2016.000000	18.192600
2015.000000	18.209100
2014.000000	18.245600
2013.000000	18.246200
2012.000000	18.244600
2011.000000	18.244100
2010.000000	18.251300
2009.000000	18.258700
2008.000000	18.225100
2007.000000	18.228100
2006.000000	18.229000
2005.000000	18.200300
2004.000000	18.171400
2003.000000	18.140500
2002.000000	18.113200
2001.000000	18.102700
2000.000000	18.079500
1999.000000	18.026900
1998.000000	17.977200
1997.000000	17.946500
1996.000000	17.901200
1995.000000	17.849200
1994.000000	17.801300
1993.000000	17.728600
1992.000000	17.657600
1991.000000	17.595900
1990.000000	17.536600
1989.000000	17.466100
1988.000000	17.403900
1987.000000	17.351600
1986.000000	17.249400
1985.000000	17.179200
1984.000000	17.099700
1983.000000	17.028100
1982.000000	16.960700
1981.000000	16.884400
1980.000000	16.784600
1979.000000	16.716300
1978.000000	16.660200
1977.000000	16.549300
1976.000000	16.486000
1975.000000	16.400500
1974.000000	16.312900
1973.000000	16.244500
1972.000000	16.165100
1971.000000	16.091400
1970.000000	16.006900
1969.000000	15.943100
1968.000000	15.864300
1967.000000	15.791800
1966.000000	15.724400
1965.000000	15.632200
1964.000000	15.564200
1963.000000	15.510600
1962.000000	15.438800
1961.000000	15.340100
1960.000000	15.265200
1959.000000	15.194900
1958.000000	15.128100
1957.000000	15.070100
1956.000000	15.010500
1955.000000	14.944700
1954.000000	14.878200
1953.000000	14.817300
1952.000000	14.738600
1951.000000	14.676900
1950.000000	14.611700
1949.000000	14.571100
1948.000000	14.516000
1947.000000	14.460900
1946.000000	14.403500
1945.000000	14.343600
1944.000000	14.299600
1943.000000	14.270900
1942.000000	14.248900
1941.000000	14.223400
1940.000000	14.218600
1939.000000	14.187100
1938.000000	14.162400
1937.000000	14.188300
1936.000000	14.171600
1935.000000	14.192400
1934.000000	14.204000
1933.000000	14.238700
1932.000000	14.286700
1931.000000	14.294600
1930.000000	14.351400
1929.000000	14.418200
1928.000000	14.502700
1927.000000	14.559200
1926.000000	14.679200
1925.000000	14.759100
1924.000000	14.886400
1923.000000	14.971200
1922.000000	15.057100
1921.000000	15.195500
1920.000000	15.354700
1919.000000	15.543200
1918.000000	15.654200
1917.000000	15.827200
1916.000000	15.996800
1915.000000	16.135900
1914.000000	16.298800
1913.000000	16.517200
1912.000000	16.735300
1911.000000	16.951800
1910.000000	17.159000
1909.000000	17.354900
1908.000000	17.543700
1907.000000	17.757900
1906.000000	18.005600
1905.000000	18.266500
1904.000000	18.568100
1903.000000	18.798800
1902.000000	19.079000
1901.000000	19.342200
1900.000000	19.622900
1899.000000	19.910300
1898.000000	20.244300
1897.000000	20.544500
1896.000000	20.833600
1895.000000	21.107400
1894.000000	21.360200
1893.000000	21.683400
1892.000000	21.981600
1891.000000	22.350000
1890.000000	22.702400
1889.000000	23.029300
1888.000000	23.347100
1887.000000	23.727000
1886.000000	24.074500
1885.000000	24.471100
1884.000000	24.857000
1883.000000	25.286800
1882.000000	25.707600
1881.000000	26.120600
1880.000000	26.536600
1879.000000	26.944600
1878.000000	27.318000
1877.000000	27.711000
1876.000000	28.061400
1875.000000	28.400200
1874.000000	28.717700
1873.000000	29.023600
1872.000000	29.317800
1871.000000	29.570900
1870.000000	29.812900
1869.000000	29.997800
1868.000000	30.211200
1867.000000	30.358700
1866.000000	30.483500
1865.000000	30.583300
1864.000000	30.694800
1863.000000	30.780500
1862.000000	30.891900
1861.000000	30.993400
1860.000000	31.078600
1859.000000	31.160400
1858.000000	31.198500
1857.000000	31.242800
1856.000000	31.292200
1855.000000	31.314500
1854.000000	31.333200
1853.000000	31.344600
1852.000000	31.315800
1851.000000	31.309100
1850.000000	31.317600
1849.000000	31.325400
1848.000000	31.335900
1847.000000	31.306900
1846.000000	31.236000
1845.000000	31.170400
1844.000000	31.167400
1843.000000	31.153800
1842.000000	31.171600
1841.000000	31.176600
1840.000000	31.143500
1839.000000	31.120100
1838.000000	31.092800
1837.000000	31.060800
1836.000000	31.005100
1835.000000	30.970200
1834.000000	30.909100
1833.000000	30.849200
1832.000000	30.802400
1831.000000	30.779900
1830.000000	30.739600
1829.000000	30.685000
1828.000000	30.634700
1827.000000	30.565300
1826.000000	30.515500
1825.000000	30.473500
1824.000000	30.402500
1823.000000	30.383900
1822.000000	30.399100
1821.000000	30.392800
1820.000000	30.359800
1819.000000	30.329700
1818.000000	30.283400
1817.000000	30.262400
1816.000000	30.266100
1815.000000	30.273700
1814.000000	30.255700
1813.000000	30.227600
1812.000000	30.214300
1811.000000	30.200100
1810.000000	30.184900
1809.000000	30.149300
1808.000000	30.127100
1807.000000	30.102100
1806.000000	30.065600
1805.000000	30.035100
1804.000000	29.992200
1803.000000	29.954800
1802.000000	29.932300
1801.000000	29.907700
1800.000000	29.859000
1799.000000	29.805000
1798.000000	29.763000
1797.000000	29.733600
1796.000000	29.707200
1795.000000	29.672100
1794.000000	29.635500
1793.000000	29.605100
1792.000000	29.566900
1791.000000	29.523400
1790.000000	29.495400
1789.000000	29.463600
1788.000000	29.412400
1787.000000	29.370800
1786.000000	29.342300
1785.000000	29.300700
1784.000000	29.243400
1783.000000	29.183000
1782.000000	29.121700
1781.000000	29.076600
1780.000000	29.019500
1779.000000	28.944400
1778.000000	28.887700
1777.000000	28.810800
1776.000000	28.747800
1775.000000	28.682700
1774.000000	28.603600
1773.000000	28.519400
1772.000000	28.422900
1771.000000	28.324900
1770.000000	28.224300
1769.000000	28.126000
1768.000000	28.022700
1767.000000	27.922600
1766.000000	27.832600
1765.000000	27.741400
1764.000000	27.682700
1763.000000	27.646100
1762.000000	27.631300
1761.000000	27.641400
1760.000000	27.659800
1759.000000	27.696000
1758.000000	27.749400
1757.000000	27.794000
1756.000000	27.851500
1755.000000	27.898500
1754.000000	27.918100
1753.000000	27.935900
1752.000000	27.961900
1751.000000	27.952000
1750.000000	27.955400
1749.000000	27.945000
1748.000000	27.911300
1747.000000	27.863300
1746.000000	27.807900
1745.000000	27.729700
1744.000000	27.635800
1743.000000	27.513600
1742.000000	27.404500
1741.000000	27.261400
1740.000000	27.074300
1739.000000	26.904200
1738.000000	26.729200
1737.000000	26.538900
1736.000000	26.383700
1735.000000	26.244500
1734.000000	26.136800
1733.000000	26.048500
1732.000000	26.003000
1731.000000	26.004900
1730.000000	26.042000
1729.000000	26.085100
1728.000000	26.137500
1727.000000	26.214600
1726.000000	26.298900
1725.000000	26.365100
1724.000000	26.427700
1723.000000	26.469600
1722.000000	26.532000
1721.000000	26.560100
1720.000000	26.598800
1719.000000	26.642700
1718.000000	26.687700
1717.000000	26.753700
1716.000000	26.824000
1715.000000	26.895900
1714.000000	26.971700
1713.000000	27.047300
1712.000000	27.122700
1711.000000	27.164700
1710.000000	27.219200
1709.000000	27.247600
1708.000000	27.251200
1707.000000	27.291100
1706.000000	27.289400
1705.000000	27.281100
1704.000000	27.247500
1703.000000	27.207300
1702.000000	27.172600
1701.000000	27.110300
1700.000000	27.027100
1699.000000	26.924000
1698.000000	26.833900
1697.000000	26.738500
1696.000000	26.651600
1695.000000	26.595600
1694.000000	26.605200
1693.000000	26.629900
1692.000000	26.701200
1691.000000	26.798900
1690.000000	26.898300
1689.000000	27.033400
1688.000000	27.131200
1687.000000	27.194800
1686.000000	27.222200
1685.000000	27.279700
1684.000000	27.331600
1683.000000	27.427700
1682.000000	27.591800
1681.000000	27.815600
1680.000000	28.102300
1679.000000	28.465700
1678.000000	28.831500
1677.000000	29.210400
1676.000000	29.578600
1675.000000	29.903600
1674.000000	30.180900
1673.000000	30.440000
1672.000000	30.654000
1671.000000	30.842700
1670.000000	30.999200
1669.000000	31.141200
1668.000000	31.285300
1667.000000	31.357700
1666.000000	31.470000
1665.000000	31.547200
1664.000000	31.617800
1663.000000	31.699600
1662.000000	31.765800
1661.000000	31.816500
1660.000000	31.857900
1659.000000	31.913900
1658.000000	31.944800
1657.000000	31.969700
1656.000000	31.991500
1655.000000	32.015600
1654.000000	32.032300
1653.000000	32.033600
1652.000000	32.030500
1651.000000	32.023300
1650.000000	32.014000
1649.000000	31.995700
1648.000000	31.959100
1647.000000	31.955700
1646.000000	31.927600
1645.000000	31.899100
1644.000000	31.853400
1643.000000	31.820200
1642.000000	31.780200
1641.000000	31.759200
1640.000000	31.729500
1639.000000	31.678500
1638.000000	31.624300
1637.000000	31.585600
1636.000000	31.555500
1635.000000	31.503600
1634.000000	31.439000
1633.000000	31.404500
1632.000000	31.368400
1631.000000	31.297100
1630.000000	31.225200
1629.000000	31.187600
1628.000000	31.122100
1627.000000	31.061000
1626.000000	30.998800
1625.000000	30.938300
1624.000000	30.880700
1623.000000	30.810300
1622.000000	30.755500
