PE UV       SUBTECH     SPECTRUM    ASCII       PEDS        4.00        
   -1
CICIMAUCR0250-2.Sample.ASC
24/05/27
15:54:30.00
24/05/27
15:54:30.00
Vinicio Soto Monge
C. resplendens, M
250,000000
1
Lambda 1050
1050L1511233
PerkinElmer UV WinLab 6.3.2.0749 / 2.02.05 Lambda 900 UV/VIS/NIR, Aug  7 2015 09:38:08

0
0
3350/servo 860,8/2
0
0
UV/VIS
1
1
1
DoubleDePol,CommonBeamDepol,RBeamAtt,SBeamAtt,60mm sphere, WB InGaAs Detector
0
0
0
0
Program
Program
3350/servo 860,8/2
3350/0,2 860,8/0,2
3350/0,2 860,8/0,2
0
15.00
 
 
 
0
 
860,8
319,2
860,8
Front
100
on
S:100 R:100
0
0
0
0
 
0
 
 
 
0
 
 
0
0
0
0
0
 
 
 
 
0
0


0
0
#HDR
-1
-1
#GR
nm
%R
1.0
0.0
2500,000000
-1,000000
2251
8
93,577500
5,517900
#DATA
2500.000000	7.501600
2499.000000	7.487300
2498.000000	7.564900
2497.000000	7.420700
2496.000000	7.513400
2495.000000	7.406900
2494.000000	7.278700
2493.000000	7.358900
2492.000000	7.500000
2491.000000	7.349100
2490.000000	7.389200
2489.000000	7.360500
2488.000000	7.270000
2487.000000	7.284700
2486.000000	7.335800
2485.000000	7.258700
2484.000000	7.287300
2483.000000	7.217800
2482.000000	7.275900
2481.000000	7.239200
2480.000000	7.264700
2479.000000	7.237300
2478.000000	7.283800
2477.000000	7.279900
2476.000000	7.273700
2475.000000	7.228500
2474.000000	7.237600
2473.000000	7.228700
2472.000000	7.293100
2471.000000	7.253400
2470.000000	7.220700
2469.000000	7.235000
2468.000000	7.280900
2467.000000	7.301600
2466.000000	7.302800
2465.000000	7.314700
2464.000000	7.290000
2463.000000	7.305800
2462.000000	7.324400
2461.000000	7.358800
2460.000000	7.379800
2459.000000	7.399800
2458.000000	7.441900
2457.000000	7.451700
2456.000000	7.498900
2455.000000	7.529400
2454.000000	7.554000
2453.000000	7.613000
2452.000000	7.658600
2451.000000	7.702400
2450.000000	7.747600
2449.000000	7.783900
2448.000000	7.862600
2447.000000	7.894500
2446.000000	7.935600
2445.000000	8.002300
2444.000000	8.036800
2443.000000	8.093900
2442.000000	8.157100
2441.000000	8.211700
2440.000000	8.250900
2439.000000	8.303600
2438.000000	8.348900
2437.000000	8.393800
2436.000000	8.431500
2435.000000	8.470000
2434.000000	8.526000
2433.000000	8.565800
2432.000000	8.612700
2431.000000	8.658800
2430.000000	8.683500
2429.000000	8.725900
2428.000000	8.788200
2427.000000	8.812500
2426.000000	8.846500
2425.000000	8.876800
2424.000000	8.895600
2423.000000	8.936900
2422.000000	8.963500
2421.000000	8.993200
2420.000000	9.007800
2419.000000	9.033300
2418.000000	9.058800
2417.000000	9.075900
2416.000000	9.110100
2415.000000	9.155300
2414.000000	9.159700
2413.000000	9.172500
2412.000000	9.199400
2411.000000	9.217900
2410.000000	9.236600
2409.000000	9.252900
2408.000000	9.278900
2407.000000	9.289700
2406.000000	9.299200
2405.000000	9.333900
2404.000000	9.360300
2403.000000	9.372900
2402.000000	9.390300
2401.000000	9.395400
2400.000000	9.394200
2399.000000	9.396800
2398.000000	9.411100
2397.000000	9.432700
2396.000000	9.449100
2395.000000	9.464600
2394.000000	9.460200
2393.000000	9.475100
2392.000000	9.505000
2391.000000	9.512700
2390.000000	9.525800
2389.000000	9.536500
2388.000000	9.541500
2387.000000	9.535600
2386.000000	9.540900
2385.000000	9.561300
2384.000000	9.567100
2383.000000	9.552100
2382.000000	9.552900
2381.000000	9.548400
2380.000000	9.523300
2379.000000	9.523600
2378.000000	9.513900
2377.000000	9.497800
2376.000000	9.487900
2375.000000	9.469600
2374.000000	9.446900
2373.000000	9.434800
2372.000000	9.421800
2371.000000	9.393600
2370.000000	9.365100
2369.000000	9.339400
2368.000000	9.295600
2367.000000	9.259700
2366.000000	9.232000
2365.000000	9.204400
2364.000000	9.162500
2363.000000	9.115500
2362.000000	9.072700
2361.000000	9.023300
2360.000000	8.991700
2359.000000	8.948000
2358.000000	8.883700
2357.000000	8.843600
2356.000000	8.816700
2355.000000	8.778900
2354.000000	8.737300
2353.000000	8.702400
2352.000000	8.699100
2351.000000	8.687400
2350.000000	8.676200
2349.000000	8.686600
2348.000000	8.688700
2347.000000	8.686800
2346.000000	8.704300
2345.000000	8.736500
2344.000000	8.748800
2343.000000	8.781700
2342.000000	8.807300
2341.000000	8.830800
2340.000000	8.855300
2339.000000	8.865400
2338.000000	8.883100
2337.000000	8.877700
2336.000000	8.878900
2335.000000	8.875200
2334.000000	8.869500
2333.000000	8.852300
2332.000000	8.824100
2331.000000	8.803800
2330.000000	8.775800
2329.000000	8.743200
2328.000000	8.683800
2327.000000	8.650900
2326.000000	8.625300
2325.000000	8.561200
2324.000000	8.490400
2323.000000	8.424000
2322.000000	8.363100
2321.000000	8.310400
2320.000000	8.227900
2319.000000	8.156900
2318.000000	8.072000
2317.000000	7.996100
2316.000000	7.934300
2315.000000	7.846700
2314.000000	7.750800
2313.000000	7.677200
2312.000000	7.621700
2311.000000	7.550100
2310.000000	7.491100
2309.000000	7.432900
2308.000000	7.385500
2307.000000	7.355400
2306.000000	7.320500
2305.000000	7.310600
2304.000000	7.312100
2303.000000	7.331300
2302.000000	7.335300
2301.000000	7.366000
2300.000000	7.404800
2299.000000	7.444800
2298.000000	7.501700
2297.000000	7.583100
2296.000000	7.640100
2295.000000	7.706000
2294.000000	7.760100
2293.000000	7.794900
2292.000000	7.849100
2291.000000	7.893900
2290.000000	7.934000
2289.000000	7.975100
2288.000000	7.966400
2287.000000	7.983700
2286.000000	7.984900
2285.000000	7.984800
2284.000000	7.960900
2283.000000	7.951600
2282.000000	7.908600
2281.000000	7.881500
2280.000000	7.832100
2279.000000	7.798200
2278.000000	7.760500
2277.000000	7.755300
2276.000000	7.711300
2275.000000	7.677400
2274.000000	7.636500
2273.000000	7.610600
2272.000000	7.586400
2271.000000	7.606800
2270.000000	7.601700
2269.000000	7.611100
2268.000000	7.621200
2267.000000	7.650100
2266.000000	7.704000
2265.000000	7.793900
2264.000000	7.868300
2263.000000	7.956700
2262.000000	8.074400
2261.000000	8.206800
2260.000000	8.328300
2259.000000	8.484000
2258.000000	8.656900
2257.000000	8.822700
2256.000000	9.007100
2255.000000	9.182200
2254.000000	9.380600
2253.000000	9.579100
2252.000000	9.770300
2251.000000	9.942400
2250.000000	10.128200
2249.000000	10.285700
2248.000000	10.456400
2247.000000	10.611700
2246.000000	10.745700
2245.000000	10.886100
2244.000000	11.011300
2243.000000	11.117300
2242.000000	11.224900
2241.000000	11.333700
2240.000000	11.432600
2239.000000	11.524200
2238.000000	11.600500
2237.000000	11.648700
2236.000000	11.717000
2235.000000	11.797700
2234.000000	11.847900
2233.000000	11.898200
2232.000000	11.935600
2231.000000	11.970900
2230.000000	12.006600
2229.000000	12.046600
2228.000000	12.071400
2227.000000	12.051100
2226.000000	12.068100
2225.000000	12.086200
2224.000000	12.091000
2223.000000	12.090500
2222.000000	12.052000
2221.000000	12.072700
2220.000000	12.061200
2219.000000	12.021300
2218.000000	12.020900
2217.000000	11.978100
2216.000000	11.943200
2215.000000	11.926900
2214.000000	11.917800
2213.000000	11.875200
2212.000000	11.862400
2211.000000	11.809400
2210.000000	11.786900
2209.000000	11.793300
2208.000000	11.744500
2207.000000	11.745500
2206.000000	11.713500
2205.000000	11.704200
2204.000000	11.705100
2203.000000	11.665400
2202.000000	11.655800
2201.000000	11.616000
2200.000000	11.613200
2199.000000	11.599900
2198.000000	11.580000
2197.000000	11.575300
2196.000000	11.562000
2195.000000	11.554800
2194.000000	11.522200
2193.000000	11.524600
2192.000000	11.515100
2191.000000	11.499300
2190.000000	11.497600
2189.000000	11.458400
2188.000000	11.470300
2187.000000	11.455100
2186.000000	11.445000
2185.000000	11.440100
2184.000000	11.417200
2183.000000	11.411300
2182.000000	11.401900
2181.000000	11.373000
2180.000000	11.337700
2179.000000	11.350800
2178.000000	11.337900
2177.000000	11.327600
2176.000000	11.319000
2175.000000	11.306600
2174.000000	11.316300
2173.000000	11.317200
2172.000000	11.327700
2171.000000	11.330200
2170.000000	11.334800
2169.000000	11.336000
2168.000000	11.357300
2167.000000	11.367300
2166.000000	11.364700
2165.000000	11.380400
2164.000000	11.399700
2163.000000	11.404600
2162.000000	11.429700
2161.000000	11.462600
2160.000000	11.478100
2159.000000	11.504600
2158.000000	11.510600
2157.000000	11.539600
2156.000000	11.579900
2155.000000	11.616400
2154.000000	11.654000
2153.000000	11.675900
2152.000000	11.698300
2151.000000	11.740900
2150.000000	11.769400
2149.000000	11.804200
2148.000000	11.822700
2147.000000	11.867100
2146.000000	11.912800
2145.000000	11.940700
2144.000000	11.963800
2143.000000	11.992500
2142.000000	12.019700
2141.000000	12.057500
2140.000000	12.084900
2139.000000	12.115500
2138.000000	12.143900
2137.000000	12.144700
2136.000000	12.163600
2135.000000	12.182100
2134.000000	12.203900
2133.000000	12.229700
2132.000000	12.243300
2131.000000	12.248800
2130.000000	12.244000
2129.000000	12.254900
2128.000000	12.276100
2127.000000	12.272200
2126.000000	12.259000
2125.000000	12.255400
2124.000000	12.247800
2123.000000	12.245000
2122.000000	12.229500
2121.000000	12.214000
2120.000000	12.209900
2119.000000	12.185600
2118.000000	12.157700
2117.000000	12.140100
2116.000000	12.118200
2115.000000	12.113000
2114.000000	12.084600
2113.000000	12.061600
2112.000000	12.045000
2111.000000	12.018600
2110.000000	12.000600
2109.000000	11.967700
2108.000000	11.933600
2107.000000	11.913600
2106.000000	11.907300
2105.000000	11.870500
2104.000000	11.836000
2103.000000	11.815100
2102.000000	11.790400
2101.000000	11.765400
2100.000000	11.738900
2099.000000	11.711100
2098.000000	11.697100
2097.000000	11.674300
2096.000000	11.641200
2095.000000	11.630200
2094.000000	11.616200
2093.000000	11.599700
2092.000000	11.578400
2091.000000	11.556800
2090.000000	11.559000
2089.000000	11.543100
2088.000000	11.511400
2087.000000	11.494700
2086.000000	11.486500
2085.000000	11.477600
2084.000000	11.468100
2083.000000	11.436000
2082.000000	11.413400
2081.000000	11.398200
2080.000000	11.362900
2079.000000	11.339000
2078.000000	11.327500
2077.000000	11.295100
2076.000000	11.265100
2075.000000	11.238600
2074.000000	11.208100
2073.000000	11.177500
2072.000000	11.145400
2071.000000	11.119000
2070.000000	11.079500
2069.000000	11.042700
2068.000000	11.013100
2067.000000	10.986600
2066.000000	10.952600
2065.000000	10.906100
2064.000000	10.876100
2063.000000	10.862100
2062.000000	10.832200
2061.000000	10.802800
2060.000000	10.778900
2059.000000	10.753300
2058.000000	10.738900
2057.000000	10.729100
2056.000000	10.723500
2055.000000	10.727200
2054.000000	10.728900
2053.000000	10.737500
2052.000000	10.765000
2051.000000	10.795600
2050.000000	10.841100
2049.000000	10.885700
2048.000000	10.908700
2047.000000	10.964100
2046.000000	11.042700
2045.000000	11.103800
2044.000000	11.184100
2043.000000	11.249400
2042.000000	11.325900
2041.000000	11.407000
2040.000000	11.462900
2039.000000	11.533800
2038.000000	11.613600
2037.000000	11.676300
2036.000000	11.724200
2035.000000	11.789400
2034.000000	11.855400
2033.000000	11.904500
2032.000000	11.931100
2031.000000	11.990500
2030.000000	12.043000
2029.000000	12.076500
2028.000000	12.111200
2027.000000	12.161100
2026.000000	12.183700
2025.000000	12.214200
2024.000000	12.239200
2023.000000	12.245400
2022.000000	12.273000
2021.000000	12.288100
2020.000000	12.301900
2019.000000	12.304400
2018.000000	12.315500
2017.000000	12.336800
2016.000000	12.338100
2015.000000	12.335300
2014.000000	12.325100
2013.000000	12.317000
2012.000000	12.313500
2011.000000	12.311300
2010.000000	12.290200
2009.000000	12.276500
2008.000000	12.232100
2007.000000	12.215600
2006.000000	12.185400
2005.000000	12.159100
2004.000000	12.123300
2003.000000	12.079500
2002.000000	12.047400
2001.000000	11.999000
2000.000000	11.964700
1999.000000	11.915600
1998.000000	11.867200
1997.000000	11.810300
1996.000000	11.756200
1995.000000	11.698000
1994.000000	11.656600
1993.000000	11.579500
1992.000000	11.527500
1991.000000	11.454200
1990.000000	11.379100
1989.000000	11.299900
1988.000000	11.239500
1987.000000	11.185600
1986.000000	11.108800
1985.000000	11.044900
1984.000000	10.951200
1983.000000	10.905100
1982.000000	10.807900
1981.000000	10.743400
1980.000000	10.690100
1979.000000	10.610200
1978.000000	10.533500
1977.000000	10.476600
1976.000000	10.397900
1975.000000	10.328100
1974.000000	10.268100
1973.000000	10.197900
1972.000000	10.153500
1971.000000	10.065600
1970.000000	9.989100
1969.000000	9.932500
1968.000000	9.872400
1967.000000	9.823000
1966.000000	9.754500
1965.000000	9.696000
1964.000000	9.639800
1963.000000	9.583300
1962.000000	9.525400
1961.000000	9.473900
1960.000000	9.411100
1959.000000	9.354300
1958.000000	9.297100
1957.000000	9.237400
1956.000000	9.200400
1955.000000	9.135500
1954.000000	9.096000
1953.000000	9.006600
1952.000000	8.966800
1951.000000	8.939700
1950.000000	8.891000
1949.000000	8.859100
1948.000000	8.806400
1947.000000	8.788600
1946.000000	8.754800
1945.000000	8.718200
1944.000000	8.685700
1943.000000	8.675500
1942.000000	8.628100
1941.000000	8.637300
1940.000000	8.611100
1939.000000	8.619500
1938.000000	8.614200
1937.000000	8.623300
1936.000000	8.592900
1935.000000	8.599600
1934.000000	8.630200
1933.000000	8.629400
1932.000000	8.680000
1931.000000	8.738600
1930.000000	8.760000
1929.000000	8.809300
1928.000000	8.851200
1927.000000	8.907900
1926.000000	8.970200
1925.000000	9.031500
1924.000000	9.081800
1923.000000	9.175400
1922.000000	9.255900
1921.000000	9.365100
1920.000000	9.469800
1919.000000	9.565900
1918.000000	9.668400
1917.000000	9.758200
1916.000000	9.902200
1915.000000	10.028600
1914.000000	10.162100
1913.000000	10.293900
1912.000000	10.436900
1911.000000	10.636100
1910.000000	10.766300
1909.000000	10.915100
1908.000000	11.100100
1907.000000	11.283900
1906.000000	11.482700
1905.000000	11.679700
1904.000000	11.933000
1903.000000	12.128100
1902.000000	12.337500
1901.000000	12.573000
1900.000000	12.812400
1899.000000	13.065300
1898.000000	13.336200
1897.000000	13.574800
1896.000000	13.825600
1895.000000	14.086200
1894.000000	14.355500
1893.000000	14.619200
1892.000000	14.928600
1891.000000	15.257900
1890.000000	15.615500
1889.000000	15.969800
1888.000000	16.273300
1887.000000	16.633000
1886.000000	17.002900
1885.000000	17.414100
1884.000000	17.842400
1883.000000	18.313800
1882.000000	18.789700
1881.000000	19.262700
1880.000000	19.751900
1879.000000	20.213300
1878.000000	20.659100
1877.000000	21.124400
1876.000000	21.586500
1875.000000	22.006300
1874.000000	22.407600
1873.000000	22.810700
1872.000000	23.174300
1871.000000	23.529400
1870.000000	23.841600
1869.000000	24.107900
1868.000000	24.376500
1867.000000	24.572900
1866.000000	24.741500
1865.000000	24.874800
1864.000000	25.006300
1863.000000	25.134400
1862.000000	25.249700
1861.000000	25.395100
1860.000000	25.524800
1859.000000	25.625500
1858.000000	25.717700
1857.000000	25.762100
1856.000000	25.796900
1855.000000	25.842900
1854.000000	25.855200
1853.000000	25.873900
1852.000000	25.852200
1851.000000	25.852400
1850.000000	25.871800
1849.000000	25.877900
1848.000000	25.880700
1847.000000	25.856600
1846.000000	25.793500
1845.000000	25.732900
1844.000000	25.687300
1843.000000	25.658100
1842.000000	25.651100
1841.000000	25.643700
1840.000000	25.625700
1839.000000	25.606300
1838.000000	25.566500
1837.000000	25.526300
1836.000000	25.496600
1835.000000	25.433100
1834.000000	25.347600
1833.000000	25.268500
1832.000000	25.213900
1831.000000	25.169800
1830.000000	25.109000
1829.000000	25.031100
1828.000000	24.958600
1827.000000	24.883200
1826.000000	24.821300
1825.000000	24.761000
1824.000000	24.703800
1823.000000	24.663600
1822.000000	24.653800
1821.000000	24.648200
1820.000000	24.627800
1819.000000	24.574400
1818.000000	24.523200
1817.000000	24.502400
1816.000000	24.488300
1815.000000	24.479000
1814.000000	24.460700
1813.000000	24.444000
1812.000000	24.428500
1811.000000	24.392700
1810.000000	24.359900
1809.000000	24.327200
1808.000000	24.291900
1807.000000	24.263200
1806.000000	24.229300
1805.000000	24.173600
1804.000000	24.104600
1803.000000	24.069000
1802.000000	24.035900
1801.000000	23.992500
1800.000000	23.936200
1799.000000	23.864800
1798.000000	23.807400
1797.000000	23.767600
1796.000000	23.729800
1795.000000	23.691400
1794.000000	23.655000
1793.000000	23.605600
1792.000000	23.553200
1791.000000	23.507000
1790.000000	23.452800
1789.000000	23.400100
1788.000000	23.355700
1787.000000	23.291500
1786.000000	23.234300
1785.000000	23.182400
1784.000000	23.128800
1783.000000	23.076200
1782.000000	23.010500
1781.000000	22.928900
1780.000000	22.864300
1779.000000	22.811900
1778.000000	22.739200
1777.000000	22.650300
1776.000000	22.561300
1775.000000	22.481400
1774.000000	22.398000
1773.000000	22.295900
1772.000000	22.195000
1771.000000	22.083100
1770.000000	21.979200
1769.000000	21.880200
1768.000000	21.777600
1767.000000	21.693900
1766.000000	21.605500
1765.000000	21.519200
1764.000000	21.471200
1763.000000	21.441000
1762.000000	21.433100
1761.000000	21.440500
1760.000000	21.461000
1759.000000	21.508600
1758.000000	21.577000
1757.000000	21.656800
1756.000000	21.730700
1755.000000	21.793300
1754.000000	21.828500
1753.000000	21.862800
1752.000000	21.880600
1751.000000	21.882200
1750.000000	21.887000
1749.000000	21.868900
1748.000000	21.820900
1747.000000	21.766600
1746.000000	21.705900
1745.000000	21.631300
1744.000000	21.520500
1743.000000	21.383800
1742.000000	21.236300
1741.000000	21.065200
1740.000000	20.868500
1739.000000	20.671400
1738.000000	20.478100
1737.000000	20.290500
1736.000000	20.121800
1735.000000	19.988700
1734.000000	19.878300
1733.000000	19.827100
1732.000000	19.806400
1731.000000	19.823000
1730.000000	19.882000
1729.000000	19.936800
1728.000000	20.010900
1727.000000	20.093200
1726.000000	20.188500
1725.000000	20.257800
1724.000000	20.322100
1723.000000	20.383500
1722.000000	20.415400
1721.000000	20.441000
1720.000000	20.483800
1719.000000	20.522300
1718.000000	20.574600
1717.000000	20.618800
1716.000000	20.679700
1715.000000	20.752000
1714.000000	20.838100
1713.000000	20.924200
1712.000000	20.979400
1711.000000	21.033300
1710.000000	21.074100
1709.000000	21.091300
1708.000000	21.091400
1707.000000	21.094000
1706.000000	21.071900
1705.000000	21.037300
1704.000000	20.995100
1703.000000	20.931500
1702.000000	20.866400
1701.000000	20.772000
1700.000000	20.619400
1699.000000	20.473100
1698.000000	20.346500
1697.000000	20.210000
1696.000000	20.097900
1695.000000	20.018700
1694.000000	19.976100
1693.000000	20.003500
1692.000000	20.059100
1691.000000	20.166500
1690.000000	20.301700
1689.000000	20.423600
1688.000000	20.501100
1687.000000	20.563700
1686.000000	20.613500
1685.000000	20.642600
1684.000000	20.694100
1683.000000	20.798600
1682.000000	20.969500
1681.000000	21.239000
1680.000000	21.611800
1679.000000	22.041600
1678.000000	22.498600
1677.000000	22.950500
1676.000000	23.405800
1675.000000	23.808000
1674.000000	24.163800
1673.000000	24.487700
1672.000000	24.767600
1671.000000	25.041400
1670.000000	25.222500
1669.000000	25.408100
1668.000000	25.571600
1667.000000	25.722700
1666.000000	25.840400
1665.000000	25.929100
1664.000000	26.018800
1663.000000	26.145300
1662.000000	26.236300
1661.000000	26.282100
1660.000000	26.361000
1659.000000	26.393700
1658.000000	26.447400
1657.000000	26.498100
1656.000000	26.534300
1655.000000	26.564500
1654.000000	26.561900
1653.000000	26.576300
1652.000000	26.578400
1651.000000	26.565700
1650.000000	26.547000
1649.000000	26.521300
1648.000000	26.506300
1647.000000	26.470200
1646.000000	26.435900
1645.000000	26.398200
1644.000000	26.363100
1643.000000	26.324700
1642.000000	26.272700
1641.000000	26.236000
1640.000000	26.169900
1639.000000	26.120300
1638.000000	26.085100
1637.000000	26.013800
1636.000000	25.975400
1635.000000	25.913400
1634.000000	25.841500
1633.000000	25.778000
1632.000000	25.706700
1631.000000	25.650100
1630.000000	25.567100
1629.000000	25.499700
1628.000000	25.418300
1627.000000	25.359600
1626.000000	25.278900
1625.000000	25.194300
1624.000000	25.124400
1623.000000	25.041000
1622.000000	24.984200
1621.000000	24.912700
1620.000000	24.835900
1619.000000	24.762100
1618.000000	24.703200
1617.000000	24.623900
1616.000000	24.553400
1615.000000	24.477100
1614.000000	24.400600
1613.000000	24.339800
1612.000000	24.272100
1611.000000	24.194300
