PE UV       SUBTECH     SPECTRUM    ASCII       PEDS        4.00        
   -1
CICIMAUCR0205-2.Sample.ASC
24/05/31
16:02:27.00
24/05/31
16:02:27.00
Vinicio Soto Monge
C. cupreomarginata. Sex F. Dorsal
250,000000
1
Lambda 1050
1050L1511233
PerkinElmer UV WinLab 6.3.2.0749 / 2.02.05 Lambda 900 UV/VIS/NIR, Aug  7 2015 09:38:08

0
0
3350/servo 860,8/2
0
0
UV/VIS
1
1
1
DoubleDePol,CommonBeamDepol,RBeamAtt,SBeamAtt,60mm sphere, WB InGaAs Detector
0
0
0
0
Program
Program
3350/servo 860,8/2
3350/0,2 860,8/0,2
3350/0,2 860,8/0,2
0
15.00
 
 
 
0
 
860,8
319,2
860,8
Front
100
on
S:100 R:100
0
0
0
0
 
0
 
 
 
0
 
 
0
0
0
0
0
 
 
 
 
0
0


0
0
#HDR
-1
-1
#GR
nm
%R
1.0
0.0
2500,000000
-1,000000
2251
8
68,667400
5,592200
#DATA
2500.000000	9.160100
2499.000000	9.104100
2498.000000	9.156100
2497.000000	9.105400
2496.000000	9.142700
2495.000000	9.030000
2494.000000	8.968100
2493.000000	8.886900
2492.000000	8.951500
2491.000000	8.958100
2490.000000	8.935900
2489.000000	8.983100
2488.000000	8.905500
2487.000000	8.934200
2486.000000	8.972400
2485.000000	8.965500
2484.000000	8.917600
2483.000000	8.880500
2482.000000	8.819600
2481.000000	8.865800
2480.000000	8.931700
2479.000000	8.976200
2478.000000	8.917600
2477.000000	8.952700
2476.000000	8.985700
2475.000000	8.979600
2474.000000	8.894000
2473.000000	8.918700
2472.000000	8.964700
2471.000000	9.020400
2470.000000	9.059700
2469.000000	9.020500
2468.000000	9.026800
2467.000000	9.048100
2466.000000	9.080600
2465.000000	9.097600
2464.000000	9.101500
2463.000000	9.146600
2462.000000	9.140800
2461.000000	9.218500
2460.000000	9.281800
2459.000000	9.305100
2458.000000	9.371900
2457.000000	9.376600
2456.000000	9.430500
2455.000000	9.522400
2454.000000	9.599900
2453.000000	9.668400
2452.000000	9.674400
2451.000000	9.790900
2450.000000	9.887500
2449.000000	9.949500
2448.000000	10.011500
2447.000000	10.110400
2446.000000	10.178500
2445.000000	10.263800
2444.000000	10.321400
2443.000000	10.385900
2442.000000	10.466100
2441.000000	10.538000
2440.000000	10.624000
2439.000000	10.708200
2438.000000	10.770100
2437.000000	10.849400
2436.000000	10.903200
2435.000000	10.965000
2434.000000	11.048800
2433.000000	11.112400
2432.000000	11.157900
2431.000000	11.228900
2430.000000	11.287500
2429.000000	11.343700
2428.000000	11.390400
2427.000000	11.435500
2426.000000	11.510600
2425.000000	11.566600
2424.000000	11.607400
2423.000000	11.645700
2422.000000	11.680900
2421.000000	11.723700
2420.000000	11.761500
2419.000000	11.818500
2418.000000	11.852000
2417.000000	11.884400
2416.000000	11.939500
2415.000000	11.976200
2414.000000	11.999200
2413.000000	12.041000
2412.000000	12.076400
2411.000000	12.106200
2410.000000	12.132300
2409.000000	12.171100
2408.000000	12.210000
2407.000000	12.222400
2406.000000	12.244600
2405.000000	12.274500
2404.000000	12.304800
2403.000000	12.345400
2402.000000	12.388100
2401.000000	12.400100
2400.000000	12.433200
2399.000000	12.472300
2398.000000	12.500500
2397.000000	12.537100
2396.000000	12.556900
2395.000000	12.583000
2394.000000	12.608500
2393.000000	12.631100
2392.000000	12.655100
2391.000000	12.673000
2390.000000	12.688700
2389.000000	12.710900
2388.000000	12.739600
2387.000000	12.752600
2386.000000	12.752400
2385.000000	12.763100
2384.000000	12.771800
2383.000000	12.776000
2382.000000	12.784700
2381.000000	12.775400
2380.000000	12.766400
2379.000000	12.767800
2378.000000	12.766200
2377.000000	12.771800
2376.000000	12.755900
2375.000000	12.719000
2374.000000	12.708500
2373.000000	12.707000
2372.000000	12.679100
2371.000000	12.650800
2370.000000	12.616300
2369.000000	12.587000
2368.000000	12.573200
2367.000000	12.537600
2366.000000	12.494700
2365.000000	12.456500
2364.000000	12.416600
2363.000000	12.375400
2362.000000	12.333500
2361.000000	12.293900
2360.000000	12.241400
2359.000000	12.191500
2358.000000	12.158200
2357.000000	12.119100
2356.000000	12.067100
2355.000000	12.035800
2354.000000	12.025400
2353.000000	11.976900
2352.000000	11.953600
2351.000000	11.966800
2350.000000	11.961100
2349.000000	11.944500
2348.000000	11.949700
2347.000000	11.974900
2346.000000	11.992100
2345.000000	12.031300
2344.000000	12.053300
2343.000000	12.062200
2342.000000	12.102300
2341.000000	12.140100
2340.000000	12.167000
2339.000000	12.184600
2338.000000	12.192800
2337.000000	12.212800
2336.000000	12.237300
2335.000000	12.246500
2334.000000	12.244400
2333.000000	12.225900
2332.000000	12.193200
2331.000000	12.173000
2330.000000	12.159700
2329.000000	12.126000
2328.000000	12.061500
2327.000000	12.012700
2326.000000	11.985900
2325.000000	11.931400
2324.000000	11.856900
2323.000000	11.771600
2322.000000	11.689700
2321.000000	11.620700
2320.000000	11.538000
2319.000000	11.443600
2318.000000	11.309000
2317.000000	11.204200
2316.000000	11.102800
2315.000000	11.007100
2314.000000	10.916200
2313.000000	10.787400
2312.000000	10.668500
2311.000000	10.565800
2310.000000	10.484700
2309.000000	10.415800
2308.000000	10.362000
2307.000000	10.301500
2306.000000	10.268200
2305.000000	10.252500
2304.000000	10.248000
2303.000000	10.262400
2302.000000	10.316900
2301.000000	10.322000
2300.000000	10.366700
2299.000000	10.441300
2298.000000	10.521800
2297.000000	10.597200
2296.000000	10.685200
2295.000000	10.768100
2294.000000	10.841100
2293.000000	10.913400
2292.000000	10.947800
2291.000000	11.030400
2290.000000	11.068400
2289.000000	11.113500
2288.000000	11.127800
2287.000000	11.142000
2286.000000	11.152800
2285.000000	11.152400
2284.000000	11.127500
2283.000000	11.111600
2282.000000	11.080800
2281.000000	11.046100
2280.000000	11.003400
2279.000000	10.950300
2278.000000	10.907300
2277.000000	10.846200
2276.000000	10.823700
2275.000000	10.802000
2274.000000	10.769900
2273.000000	10.749800
2272.000000	10.709000
2271.000000	10.708900
2270.000000	10.720500
2269.000000	10.768500
2268.000000	10.776900
2267.000000	10.822900
2266.000000	10.921800
2265.000000	11.021100
2264.000000	11.104800
2263.000000	11.241100
2262.000000	11.415800
2261.000000	11.580200
2260.000000	11.757800
2259.000000	11.940900
2258.000000	12.143300
2257.000000	12.392100
2256.000000	12.633000
2255.000000	12.844200
2254.000000	13.042100
2253.000000	13.278700
2252.000000	13.516200
2251.000000	13.733100
2250.000000	13.923300
2249.000000	14.105700
2248.000000	14.314800
2247.000000	14.488800
2246.000000	14.653500
2245.000000	14.789500
2244.000000	14.924400
2243.000000	15.073600
2242.000000	15.183500
2241.000000	15.290100
2240.000000	15.372100
2239.000000	15.477000
2238.000000	15.563000
2237.000000	15.648300
2236.000000	15.724400
2235.000000	15.776800
2234.000000	15.808500
2233.000000	15.873300
2232.000000	15.919300
2231.000000	15.959500
2230.000000	15.967100
2229.000000	15.983200
2228.000000	15.998500
2227.000000	16.022700
2226.000000	16.027000
2225.000000	16.028800
2224.000000	15.993300
2223.000000	15.977600
2222.000000	15.941400
2221.000000	15.934200
2220.000000	15.921200
2219.000000	15.890900
2218.000000	15.853300
2217.000000	15.825800
2216.000000	15.770900
2215.000000	15.745600
2214.000000	15.710100
2213.000000	15.668600
2212.000000	15.629600
2211.000000	15.618800
2210.000000	15.573100
2209.000000	15.571500
2208.000000	15.488500
2207.000000	15.484500
2206.000000	15.456300
2205.000000	15.418500
2204.000000	15.404100
2203.000000	15.384200
2202.000000	15.376900
2201.000000	15.365100
2200.000000	15.327200
2199.000000	15.312400
2198.000000	15.283900
2197.000000	15.258300
2196.000000	15.240600
2195.000000	15.246000
2194.000000	15.216000
2193.000000	15.187800
2192.000000	15.211900
2191.000000	15.195200
2190.000000	15.176200
2189.000000	15.165700
2188.000000	15.134100
2187.000000	15.141400
2186.000000	15.113900
2185.000000	15.101400
2184.000000	15.100900
2183.000000	15.073400
2182.000000	15.093900
2181.000000	15.064800
2180.000000	15.026800
2179.000000	15.064000
2178.000000	15.033000
2177.000000	15.010100
2176.000000	15.007800
2175.000000	15.016700
2174.000000	15.024600
2173.000000	15.028100
2172.000000	15.041100
2171.000000	15.040600
2170.000000	15.065500
2169.000000	15.080300
2168.000000	15.092600
2167.000000	15.128100
2166.000000	15.140800
2165.000000	15.180100
2164.000000	15.200400
2163.000000	15.223900
2162.000000	15.256000
2161.000000	15.318900
2160.000000	15.350800
2159.000000	15.378700
2158.000000	15.434100
2157.000000	15.494300
2156.000000	15.530000
2155.000000	15.570200
2154.000000	15.623500
2153.000000	15.668900
2152.000000	15.721000
2151.000000	15.773700
2150.000000	15.848500
2149.000000	15.907000
2148.000000	15.957700
2147.000000	16.014000
2146.000000	16.059600
2145.000000	16.110500
2144.000000	16.162800
2143.000000	16.218000
2142.000000	16.266000
2141.000000	16.298800
2140.000000	16.344000
2139.000000	16.389500
2138.000000	16.423200
2137.000000	16.431800
2136.000000	16.464800
2135.000000	16.512700
2134.000000	16.540400
2133.000000	16.569300
2132.000000	16.571800
2131.000000	16.576100
2130.000000	16.600200
2129.000000	16.627500
2128.000000	16.626800
2127.000000	16.621600
2126.000000	16.630700
2125.000000	16.625400
2124.000000	16.616800
2123.000000	16.620900
2122.000000	16.608600
2121.000000	16.598500
2120.000000	16.589600
2119.000000	16.551400
2118.000000	16.544400
2117.000000	16.519200
2116.000000	16.482600
2115.000000	16.458800
2114.000000	16.428200
2113.000000	16.401800
2112.000000	16.366900
2111.000000	16.327800
2110.000000	16.300800
2109.000000	16.271000
2108.000000	16.249600
2107.000000	16.211300
2106.000000	16.168700
2105.000000	16.133500
2104.000000	16.100100
2103.000000	16.067500
2102.000000	16.040100
2101.000000	16.016700
2100.000000	15.978000
2099.000000	15.930900
2098.000000	15.894500
2097.000000	15.858400
2096.000000	15.824700
2095.000000	15.802100
2094.000000	15.778000
2093.000000	15.743100
2092.000000	15.720300
2091.000000	15.700300
2090.000000	15.675300
2089.000000	15.658400
2088.000000	15.629200
2087.000000	15.583000
2086.000000	15.564000
2085.000000	15.547500
2084.000000	15.513100
2083.000000	15.469800
2082.000000	15.438000
2081.000000	15.406800
2080.000000	15.357500
2079.000000	15.324700
2078.000000	15.278300
2077.000000	15.211900
2076.000000	15.162600
2075.000000	15.108200
2074.000000	15.061900
2073.000000	15.017400
2072.000000	14.943700
2071.000000	14.871500
2070.000000	14.819900
2069.000000	14.758200
2068.000000	14.683900
2067.000000	14.622900
2066.000000	14.564100
2065.000000	14.491100
2064.000000	14.418700
2063.000000	14.358400
2062.000000	14.303800
2061.000000	14.235800
2060.000000	14.174800
2059.000000	14.123100
2058.000000	14.072500
2057.000000	14.044900
2056.000000	14.028800
2055.000000	13.997800
2054.000000	13.978300
2053.000000	13.980900
2052.000000	13.980900
2051.000000	13.997900
2050.000000	14.029700
2049.000000	14.075400
2048.000000	14.118900
2047.000000	14.180400
2046.000000	14.248800
2045.000000	14.319400
2044.000000	14.396400
2043.000000	14.468800
2042.000000	14.552700
2041.000000	14.630700
2040.000000	14.714900
2039.000000	14.801100
2038.000000	14.872100
2037.000000	14.954300
2036.000000	15.030500
2035.000000	15.098200
2034.000000	15.160000
2033.000000	15.217100
2032.000000	15.269900
2031.000000	15.320300
2030.000000	15.369700
2029.000000	15.410500
2028.000000	15.461800
2027.000000	15.501600
2026.000000	15.526100
2025.000000	15.547300
2024.000000	15.579900
2023.000000	15.594600
2022.000000	15.603000
2021.000000	15.624400
2020.000000	15.645900
2019.000000	15.656100
2018.000000	15.659500
2017.000000	15.655900
2016.000000	15.650500
2015.000000	15.679200
2014.000000	15.662500
2013.000000	15.626500
2012.000000	15.605200
2011.000000	15.608300
2010.000000	15.585500
2009.000000	15.558900
2008.000000	15.527000
2007.000000	15.489000
2006.000000	15.458000
2005.000000	15.418100
2004.000000	15.394200
2003.000000	15.365400
2002.000000	15.296800
2001.000000	15.236800
2000.000000	15.195300
1999.000000	15.124700
1998.000000	15.071600
1997.000000	15.002300
1996.000000	14.925600
1995.000000	14.865400
1994.000000	14.802500
1993.000000	14.709000
1992.000000	14.645600
1991.000000	14.554500
1990.000000	14.487800
1989.000000	14.416200
1988.000000	14.334800
1987.000000	14.251200
1986.000000	14.163000
1985.000000	14.079900
1984.000000	13.988100
1983.000000	13.903200
1982.000000	13.811700
1981.000000	13.734500
1980.000000	13.636500
1979.000000	13.535800
1978.000000	13.466500
1977.000000	13.369100
1976.000000	13.281500
1975.000000	13.201400
1974.000000	13.107400
1973.000000	13.050200
1972.000000	12.950300
1971.000000	12.883100
1970.000000	12.795600
1969.000000	12.718900
1968.000000	12.620300
1967.000000	12.544300
1966.000000	12.491900
1965.000000	12.413600
1964.000000	12.332200
1963.000000	12.261300
1962.000000	12.201400
1961.000000	12.107100
1960.000000	12.060400
1959.000000	11.994600
1958.000000	11.921700
1957.000000	11.836900
1956.000000	11.782400
1955.000000	11.698500
1954.000000	11.647500
1953.000000	11.572600
1952.000000	11.508300
1951.000000	11.448100
1950.000000	11.411900
1949.000000	11.346600
1948.000000	11.271800
1947.000000	11.222800
1946.000000	11.195600
1945.000000	11.147200
1944.000000	11.137200
1943.000000	11.092100
1942.000000	11.065400
1941.000000	11.030900
1940.000000	11.043600
1939.000000	11.032400
1938.000000	11.037100
1937.000000	11.006900
1936.000000	11.027500
1935.000000	11.044900
1934.000000	11.043700
1933.000000	11.074300
1932.000000	11.131500
1931.000000	11.149900
1930.000000	11.198200
1929.000000	11.292300
1928.000000	11.360200
1927.000000	11.452100
1926.000000	11.508500
1925.000000	11.602400
1924.000000	11.677100
1923.000000	11.792300
1922.000000	11.902900
1921.000000	12.059100
1920.000000	12.195500
1919.000000	12.320100
1918.000000	12.464000
1917.000000	12.621200
1916.000000	12.770800
1915.000000	12.924200
1914.000000	13.095000
1913.000000	13.303000
1912.000000	13.552200
1911.000000	13.741000
1910.000000	13.938900
1909.000000	14.134100
1908.000000	14.337600
1907.000000	14.559600
1906.000000	14.833500
1905.000000	15.138700
1904.000000	15.454500
1903.000000	15.742400
1902.000000	16.017400
1901.000000	16.335200
1900.000000	16.622000
1899.000000	16.982000
1898.000000	17.320100
1897.000000	17.667300
1896.000000	18.023400
1895.000000	18.319800
1894.000000	18.635000
1893.000000	18.983800
1892.000000	19.386700
1891.000000	19.823500
1890.000000	20.295800
1889.000000	20.705100
1888.000000	21.139200
1887.000000	21.556200
1886.000000	21.997700
1885.000000	22.450300
1884.000000	22.960100
1883.000000	23.475500
1882.000000	23.992900
1881.000000	24.505400
1880.000000	25.000600
1879.000000	25.460500
1878.000000	25.914900
1877.000000	26.403600
1876.000000	26.829500
1875.000000	27.252700
1874.000000	27.678500
1873.000000	28.067900
1872.000000	28.470100
1871.000000	28.829100
1870.000000	29.149000
1869.000000	29.442400
1868.000000	29.714300
1867.000000	29.924600
1866.000000	30.088100
1865.000000	30.219000
1864.000000	30.374000
1863.000000	30.502800
1862.000000	30.623500
1861.000000	30.763500
1860.000000	30.888800
1859.000000	31.010600
1858.000000	31.114800
1857.000000	31.211800
1856.000000	31.272000
1855.000000	31.312700
1854.000000	31.365400
1853.000000	31.388400
1852.000000	31.375400
1851.000000	31.392900
1850.000000	31.407400
1849.000000	31.430100
1848.000000	31.453500
1847.000000	31.434700
1846.000000	31.405600
1845.000000	31.363900
1844.000000	31.340800
1843.000000	31.310100
1842.000000	31.317100
1841.000000	31.354800
1840.000000	31.328500
1839.000000	31.297700
1838.000000	31.273500
1837.000000	31.235000
1836.000000	31.189800
1835.000000	31.149400
1834.000000	31.102900
1833.000000	31.028600
1832.000000	30.964900
1831.000000	30.922000
1830.000000	30.883300
1829.000000	30.822600
1828.000000	30.765500
1827.000000	30.700500
1826.000000	30.634400
1825.000000	30.591900
1824.000000	30.532100
1823.000000	30.492100
1822.000000	30.483600
1821.000000	30.478300
1820.000000	30.461900
1819.000000	30.429900
1818.000000	30.386600
1817.000000	30.355400
1816.000000	30.340400
1815.000000	30.327200
1814.000000	30.319600
1813.000000	30.303300
1812.000000	30.275300
1811.000000	30.241300
1810.000000	30.206600
1809.000000	30.168200
1808.000000	30.133700
1807.000000	30.100900
1806.000000	30.069100
1805.000000	30.017500
1804.000000	29.965300
1803.000000	29.937900
1802.000000	29.894000
1801.000000	29.837100
1800.000000	29.775800
1799.000000	29.717900
1798.000000	29.673400
1797.000000	29.621300
1796.000000	29.588200
1795.000000	29.548400
1794.000000	29.508900
1793.000000	29.461200
1792.000000	29.400100
1791.000000	29.346100
1790.000000	29.295900
1789.000000	29.262800
1788.000000	29.208400
1787.000000	29.160400
1786.000000	29.120200
1785.000000	29.072400
1784.000000	29.007800
1783.000000	28.946700
1782.000000	28.892100
1781.000000	28.824500
1780.000000	28.753800
1779.000000	28.689100
1778.000000	28.635200
1777.000000	28.561600
1776.000000	28.488100
1775.000000	28.408900
1774.000000	28.319500
1773.000000	28.224900
1772.000000	28.127400
1771.000000	28.030800
1770.000000	27.931000
1769.000000	27.838100
1768.000000	27.750900
1767.000000	27.655600
1766.000000	27.573200
1765.000000	27.508100
1764.000000	27.447700
1763.000000	27.414800
1762.000000	27.401800
1761.000000	27.404600
1760.000000	27.445100
1759.000000	27.480500
1758.000000	27.524900
1757.000000	27.573600
1756.000000	27.628100
1755.000000	27.685700
1754.000000	27.750400
1753.000000	27.773300
1752.000000	27.789400
1751.000000	27.801500
1750.000000	27.789600
1749.000000	27.777000
1748.000000	27.744300
1747.000000	27.698600
1746.000000	27.649300
1745.000000	27.577900
1744.000000	27.491800
1743.000000	27.365300
1742.000000	27.227400
1741.000000	27.068200
1740.000000	26.893500
1739.000000	26.718000
1738.000000	26.543700
1737.000000	26.366500
1736.000000	26.223900
1735.000000	26.102300
1734.000000	25.993600
1733.000000	25.916900
1732.000000	25.873100
1731.000000	25.886100
1730.000000	25.929300
1729.000000	25.966300
1728.000000	26.016300
1727.000000	26.100600
1726.000000	26.170400
1725.000000	26.242300
1724.000000	26.303900
1723.000000	26.358800
1722.000000	26.403500
1721.000000	26.443300
1720.000000	26.512300
1719.000000	26.589100
1718.000000	26.662300
1717.000000	26.773000
1716.000000	26.866500
1715.000000	26.958400
1714.000000	27.055100
1713.000000	27.164200
1712.000000	27.260400
1711.000000	27.335400
1710.000000	27.405100
1709.000000	27.448100
1708.000000	27.471600
1707.000000	27.492700
1706.000000	27.495400
1705.000000	27.476200
1704.000000	27.441100
1703.000000	27.428000
1702.000000	27.362100
1701.000000	27.281400
1700.000000	27.203300
1699.000000	27.060000
1698.000000	26.946200
1697.000000	26.853800
1696.000000	26.752100
1695.000000	26.716800
1694.000000	26.679400
1693.000000	26.708600
1692.000000	26.751900
1691.000000	26.845700
1690.000000	26.936300
1689.000000	27.032800
1688.000000	27.120500
1687.000000	27.168700
1686.000000	27.217700
1685.000000	27.287500
1684.000000	27.356900
1683.000000	27.480100
1682.000000	27.648400
1681.000000	27.922700
1680.000000	28.250500
1679.000000	28.638100
1678.000000	29.063500
1677.000000	29.478400
1676.000000	29.891700
1675.000000	30.260800
1674.000000	30.586300
1673.000000	30.860000
1672.000000	31.099600
1671.000000	31.320600
1670.000000	31.520600
1669.000000	31.711900
1668.000000	31.880800
1667.000000	32.006400
1666.000000	32.118900
1665.000000	32.249200
1664.000000	32.340100
1663.000000	32.419100
1662.000000	32.527700
1661.000000	32.577400
1660.000000	32.640500
1659.000000	32.688900
1658.000000	32.749800
1657.000000	32.773500
1656.000000	32.799200
1655.000000	32.822100
1654.000000	32.830100
1653.000000	32.836400
1652.000000	32.824300
1651.000000	32.813000
1650.000000	32.812000
1649.000000	32.792100
1648.000000	32.763200
1647.000000	32.707200
1646.000000	32.667100
1645.000000	32.649100
1644.000000	32.602400
1643.000000	32.565000
1642.000000	32.511700
1641.000000	32.464100
1640.000000	32.419200
1639.000000	32.381200
1638.000000	32.316200
1637.000000	32.258900
1636.000000	32.196300
1635.000000	32.145300
1634.000000	32.093500
1633.000000	32.020200
1632.000000	31.953400
1631.000000	31.889300
1630.000000	31.827000
1629.000000	31.749300
1628.000000	31.674200
1627.000000	31.597400
1626.000000	31.517900
1625.000000	31.475300
1624.000000	31.391600
1623.000000	31.275000
