PE UV       SUBTECH     SPECTRUM    ASCII       PEDS        4.00        
   -1
CICIMAUCR0205-1.Sample.ASC
24/05/31
12:07:00.00
24/05/31
12:07:00.00
Vinicio Soto Monge
C. cupreomarginata. Sex F. Dorsal
250,000000
1
Lambda 1050
1050L1511233
PerkinElmer UV WinLab 6.3.2.0749 / 2.02.05 Lambda 900 UV/VIS/NIR, Aug  7 2015 09:38:08

0
0
3350/servo 860,8/2
0
0
UV/VIS
1
1
1
DoubleDePol,CommonBeamDepol,RBeamAtt,SBeamAtt,60mm sphere, WB InGaAs Detector
0
0
0
0
Program
Program
3350/servo 860,8/2
3350/0,2 860,8/0,2
3350/0,2 860,8/0,2
0
15.00
 
 
 
0
 
860,8
319,2
860,8
Front
100
on
S:100 R:100
0
0
0
0
 
0
 
 
 
0
 
 
0
0
0
0
0
 
 
 
 
0
0


0
0
#HDR
-1
-1
#GR
nm
%R
1.0
0.0
2500,000000
-1,000000
2251
8
67,318600
5,349800
#DATA
2500.000000	6.440100
2499.000000	6.359500
2498.000000	6.496400
2497.000000	6.303100
2496.000000	6.364200
2495.000000	6.399800
2494.000000	6.331500
2493.000000	6.279700
2492.000000	6.362800
2491.000000	6.376100
2490.000000	6.342000
2489.000000	6.256200
2488.000000	6.250300
2487.000000	6.284500
2486.000000	6.283200
2485.000000	6.275300
2484.000000	6.201700
2483.000000	6.251100
2482.000000	6.269900
2481.000000	6.210800
2480.000000	6.194100
2479.000000	6.226900
2478.000000	6.268400
2477.000000	6.228900
2476.000000	6.216000
2475.000000	6.205600
2474.000000	6.198800
2473.000000	6.238700
2472.000000	6.169300
2471.000000	6.189000
2470.000000	6.230800
2469.000000	6.226500
2468.000000	6.240600
2467.000000	6.224800
2466.000000	6.205000
2465.000000	6.240000
2464.000000	6.229100
2463.000000	6.265500
2462.000000	6.256200
2461.000000	6.321500
2460.000000	6.306000
2459.000000	6.311100
2458.000000	6.377600
2457.000000	6.374200
2456.000000	6.409400
2455.000000	6.439200
2454.000000	6.453800
2453.000000	6.517200
2452.000000	6.552000
2451.000000	6.566200
2450.000000	6.593000
2449.000000	6.628200
2448.000000	6.674900
2447.000000	6.692100
2446.000000	6.753500
2445.000000	6.786000
2444.000000	6.826400
2443.000000	6.879000
2442.000000	6.913500
2441.000000	6.940800
2440.000000	6.969000
2439.000000	7.013400
2438.000000	7.059200
2437.000000	7.103200
2436.000000	7.117000
2435.000000	7.138900
2434.000000	7.185000
2433.000000	7.227900
2432.000000	7.263100
2431.000000	7.289400
2430.000000	7.320200
2429.000000	7.322500
2428.000000	7.336000
2427.000000	7.363000
2426.000000	7.408700
2425.000000	7.447700
2424.000000	7.451100
2423.000000	7.476800
2422.000000	7.490800
2421.000000	7.505800
2420.000000	7.533000
2419.000000	7.569000
2418.000000	7.574700
2417.000000	7.584100
2416.000000	7.612700
2415.000000	7.628300
2414.000000	7.640800
2413.000000	7.669300
2412.000000	7.683700
2411.000000	7.694900
2410.000000	7.716100
2409.000000	7.725800
2408.000000	7.737100
2407.000000	7.753800
2406.000000	7.781600
2405.000000	7.790500
2404.000000	7.813800
2403.000000	7.831500
2402.000000	7.851600
2401.000000	7.866000
2400.000000	7.888600
2399.000000	7.904000
2398.000000	7.921200
2397.000000	7.937100
2396.000000	7.960100
2395.000000	7.978900
2394.000000	7.994000
2393.000000	8.009000
2392.000000	8.029300
2391.000000	8.046300
2390.000000	8.045700
2389.000000	8.054700
2388.000000	8.076400
2387.000000	8.080700
2386.000000	8.083700
2385.000000	8.084200
2384.000000	8.087800
2383.000000	8.096400
2382.000000	8.094100
2381.000000	8.092300
2380.000000	8.084600
2379.000000	8.078600
2378.000000	8.077300
2377.000000	8.065700
2376.000000	8.051900
2375.000000	8.067000
2374.000000	8.055900
2373.000000	8.032900
2372.000000	8.013100
2371.000000	7.997300
2370.000000	7.980100
2369.000000	7.959500
2368.000000	7.917900
2367.000000	7.896000
2366.000000	7.882300
2365.000000	7.852800
2364.000000	7.808500
2363.000000	7.762200
2362.000000	7.720300
2361.000000	7.674600
2360.000000	7.646500
2359.000000	7.624900
2358.000000	7.584000
2357.000000	7.537400
2356.000000	7.518400
2355.000000	7.510800
2354.000000	7.479900
2353.000000	7.452400
2352.000000	7.446700
2351.000000	7.457400
2350.000000	7.455300
2349.000000	7.466700
2348.000000	7.484800
2347.000000	7.492100
2346.000000	7.527600
2345.000000	7.559100
2344.000000	7.574100
2343.000000	7.598100
2342.000000	7.631200
2341.000000	7.654000
2340.000000	7.669800
2339.000000	7.677100
2338.000000	7.684600
2337.000000	7.701300
2336.000000	7.701400
2335.000000	7.704600
2334.000000	7.699400
2333.000000	7.680500
2332.000000	7.648300
2331.000000	7.620600
2330.000000	7.600200
2329.000000	7.578900
2328.000000	7.535800
2327.000000	7.486000
2326.000000	7.451800
2325.000000	7.409000
2324.000000	7.354600
2323.000000	7.285700
2322.000000	7.231500
2321.000000	7.179400
2320.000000	7.110900
2319.000000	7.051200
2318.000000	6.965400
2317.000000	6.895900
2316.000000	6.840200
2315.000000	6.778400
2314.000000	6.717800
2313.000000	6.649200
2312.000000	6.571200
2311.000000	6.516200
2310.000000	6.476700
2309.000000	6.439500
2308.000000	6.405600
2307.000000	6.367500
2306.000000	6.365300
2305.000000	6.360800
2304.000000	6.363100
2303.000000	6.385400
2302.000000	6.389900
2301.000000	6.441200
2300.000000	6.476800
2299.000000	6.532800
2298.000000	6.562100
2297.000000	6.608900
2296.000000	6.659100
2295.000000	6.698300
2294.000000	6.761400
2293.000000	6.800800
2292.000000	6.846800
2291.000000	6.874900
2290.000000	6.876000
2289.000000	6.904900
2288.000000	6.918200
2287.000000	6.921300
2286.000000	6.920100
2285.000000	6.912800
2284.000000	6.887400
2283.000000	6.872800
2282.000000	6.839400
2281.000000	6.802800
2280.000000	6.784800
2279.000000	6.742500
2278.000000	6.713200
2277.000000	6.690600
2276.000000	6.645900
2275.000000	6.620000
2274.000000	6.605500
2273.000000	6.601700
2272.000000	6.569000
2271.000000	6.570100
2270.000000	6.586500
2269.000000	6.604100
2268.000000	6.612300
2267.000000	6.652000
2266.000000	6.706800
2265.000000	6.771200
2264.000000	6.835000
2263.000000	6.930900
2262.000000	7.028300
2261.000000	7.109800
2260.000000	7.231100
2259.000000	7.392500
2258.000000	7.516600
2257.000000	7.661900
2256.000000	7.816000
2255.000000	7.979100
2254.000000	8.109400
2253.000000	8.289000
2252.000000	8.451200
2251.000000	8.598300
2250.000000	8.765700
2249.000000	8.902600
2248.000000	9.008000
2247.000000	9.144000
2246.000000	9.263000
2245.000000	9.345500
2244.000000	9.469500
2243.000000	9.587500
2242.000000	9.661400
2241.000000	9.749100
2240.000000	9.826500
2239.000000	9.894800
2238.000000	10.003900
2237.000000	10.033100
2236.000000	10.108500
2235.000000	10.158900
2234.000000	10.213100
2233.000000	10.255000
2232.000000	10.310900
2231.000000	10.330800
2230.000000	10.356900
2229.000000	10.389400
2228.000000	10.419600
2227.000000	10.431800
2226.000000	10.463600
2225.000000	10.447600
2224.000000	10.451300
2223.000000	10.462100
2222.000000	10.462600
2221.000000	10.467600
2220.000000	10.470300
2219.000000	10.470600
2218.000000	10.457700
2217.000000	10.431300
2216.000000	10.418000
2215.000000	10.422400
2214.000000	10.405700
2213.000000	10.378300
2212.000000	10.394600
2211.000000	10.376100
2210.000000	10.344300
2209.000000	10.359600
2208.000000	10.348300
2207.000000	10.321000
2206.000000	10.290200
2205.000000	10.295700
2204.000000	10.296600
2203.000000	10.291400
2202.000000	10.280200
2201.000000	10.281800
2200.000000	10.269300
2199.000000	10.257000
2198.000000	10.256700
2197.000000	10.244700
2196.000000	10.249600
2195.000000	10.240500
2194.000000	10.237100
2193.000000	10.224300
2192.000000	10.217100
2191.000000	10.231200
2190.000000	10.218600
2189.000000	10.209600
2188.000000	10.220200
2187.000000	10.211900
2186.000000	10.207600
2185.000000	10.198000
2184.000000	10.177700
2183.000000	10.167400
2182.000000	10.162700
2181.000000	10.149600
2180.000000	10.156400
2179.000000	10.149300
2178.000000	10.137100
2177.000000	10.139600
2176.000000	10.151700
2175.000000	10.178800
2174.000000	10.182700
2173.000000	10.164000
2172.000000	10.156100
2171.000000	10.175400
2170.000000	10.217800
2169.000000	10.216600
2168.000000	10.226900
2167.000000	10.234200
2166.000000	10.259200
2165.000000	10.264000
2164.000000	10.301500
2163.000000	10.294400
2162.000000	10.333300
2161.000000	10.363400
2160.000000	10.374200
2159.000000	10.381700
2158.000000	10.405700
2157.000000	10.437600
2156.000000	10.471000
2155.000000	10.493100
2154.000000	10.503900
2153.000000	10.529900
2152.000000	10.562900
2151.000000	10.586000
2150.000000	10.631800
2149.000000	10.643900
2148.000000	10.677300
2147.000000	10.718700
2146.000000	10.729300
2145.000000	10.731100
2144.000000	10.758900
2143.000000	10.791700
2142.000000	10.800500
2141.000000	10.824300
2140.000000	10.832400
2139.000000	10.847100
2138.000000	10.856700
2137.000000	10.854000
2136.000000	10.858900
2135.000000	10.866100
2134.000000	10.891200
2133.000000	10.883800
2132.000000	10.874900
2131.000000	10.875100
2130.000000	10.868000
2129.000000	10.868400
2128.000000	10.861100
2127.000000	10.849100
2126.000000	10.827700
2125.000000	10.830700
2124.000000	10.809600
2123.000000	10.799400
2122.000000	10.773000
2121.000000	10.737600
2120.000000	10.708400
2119.000000	10.691400
2118.000000	10.674000
2117.000000	10.639400
2116.000000	10.617200
2115.000000	10.583400
2114.000000	10.554100
2113.000000	10.544200
2112.000000	10.497700
2111.000000	10.456700
2110.000000	10.428800
2109.000000	10.406700
2108.000000	10.381100
2107.000000	10.348800
2106.000000	10.309700
2105.000000	10.277600
2104.000000	10.254600
2103.000000	10.236800
2102.000000	10.218900
2101.000000	10.179200
2100.000000	10.147600
2099.000000	10.121500
2098.000000	10.095600
2097.000000	10.061900
2096.000000	10.022200
2095.000000	10.008900
2094.000000	9.987100
2093.000000	9.968400
2092.000000	9.950100
2091.000000	9.920100
2090.000000	9.894400
2089.000000	9.872800
2088.000000	9.855500
2087.000000	9.844600
2086.000000	9.813300
2085.000000	9.778900
2084.000000	9.761700
2083.000000	9.740300
2082.000000	9.716600
2081.000000	9.687400
2080.000000	9.657100
2079.000000	9.625700
2078.000000	9.600300
2077.000000	9.581700
2076.000000	9.556700
2075.000000	9.527700
2074.000000	9.486800
2073.000000	9.458900
2072.000000	9.439800
2071.000000	9.407100
2070.000000	9.376800
2069.000000	9.356700
2068.000000	9.322700
2067.000000	9.285700
2066.000000	9.251100
2065.000000	9.215700
2064.000000	9.198100
2063.000000	9.187200
2062.000000	9.155500
2061.000000	9.134000
2060.000000	9.110600
2059.000000	9.088400
2058.000000	9.071200
2057.000000	9.047200
2056.000000	9.051700
2055.000000	9.077900
2054.000000	9.078900
2053.000000	9.074200
2052.000000	9.076100
2051.000000	9.089100
2050.000000	9.133700
2049.000000	9.178500
2048.000000	9.210700
2047.000000	9.250300
2046.000000	9.298500
2045.000000	9.346900
2044.000000	9.390500
2043.000000	9.432400
2042.000000	9.491600
2041.000000	9.539600
2040.000000	9.583300
2039.000000	9.632700
2038.000000	9.686900
2037.000000	9.718200
2036.000000	9.763700
2035.000000	9.816800
2034.000000	9.848000
2033.000000	9.869600
2032.000000	9.911400
2031.000000	9.933400
2030.000000	9.972500
2029.000000	9.987000
2028.000000	10.005000
2027.000000	10.035400
2026.000000	10.050600
2025.000000	10.070600
2024.000000	10.083300
2023.000000	10.086800
2022.000000	10.089600
2021.000000	10.105300
2020.000000	10.107700
2019.000000	10.122100
2018.000000	10.133200
2017.000000	10.130800
2016.000000	10.123400
2015.000000	10.125600
2014.000000	10.115900
2013.000000	10.104700
2012.000000	10.090900
2011.000000	10.081900
2010.000000	10.059400
2009.000000	10.060200
2008.000000	10.038600
2007.000000	10.005800
2006.000000	9.991600
2005.000000	9.967200
2004.000000	9.929300
2003.000000	9.907000
2002.000000	9.881500
2001.000000	9.826100
2000.000000	9.811100
1999.000000	9.766400
1998.000000	9.727600
1997.000000	9.682700
1996.000000	9.641300
1995.000000	9.608700
1994.000000	9.558400
1993.000000	9.509800
1992.000000	9.471500
1991.000000	9.417200
1990.000000	9.351800
1989.000000	9.302200
1988.000000	9.264000
1987.000000	9.213600
1986.000000	9.183900
1985.000000	9.084300
1984.000000	9.040000
1983.000000	8.992300
1982.000000	8.945000
1981.000000	8.886300
1980.000000	8.822200
1979.000000	8.767900
1978.000000	8.723100
1977.000000	8.678600
1976.000000	8.616400
1975.000000	8.566700
1974.000000	8.520300
1973.000000	8.476300
1972.000000	8.408000
1971.000000	8.354100
1970.000000	8.323600
1969.000000	8.274200
1968.000000	8.234400
1967.000000	8.194600
1966.000000	8.139200
1965.000000	8.103700
1964.000000	8.069000
1963.000000	8.020900
1962.000000	7.981100
1961.000000	7.920100
1960.000000	7.886200
1959.000000	7.870100
1958.000000	7.819100
1957.000000	7.783900
1956.000000	7.738600
1955.000000	7.706800
1954.000000	7.675900
1953.000000	7.630500
1952.000000	7.585000
1951.000000	7.543200
1950.000000	7.524400
1949.000000	7.508600
1948.000000	7.469100
1947.000000	7.442200
1946.000000	7.439100
1945.000000	7.388700
1944.000000	7.369500
1943.000000	7.374800
1942.000000	7.369100
1941.000000	7.362200
1940.000000	7.347300
1939.000000	7.330700
1938.000000	7.345400
1937.000000	7.352000
1936.000000	7.341900
1935.000000	7.370100
1934.000000	7.363100
1933.000000	7.398500
1932.000000	7.423000
1931.000000	7.443200
1930.000000	7.493000
1929.000000	7.518300
1928.000000	7.564200
1927.000000	7.619600
1926.000000	7.666600
1925.000000	7.727800
1924.000000	7.779900
1923.000000	7.855800
1922.000000	7.923500
1921.000000	8.013600
1920.000000	8.074200
1919.000000	8.154900
1918.000000	8.252400
1917.000000	8.360400
1916.000000	8.429700
1915.000000	8.532800
1914.000000	8.653800
1913.000000	8.788800
1912.000000	8.928200
1911.000000	9.019800
1910.000000	9.146400
1909.000000	9.276400
1908.000000	9.376700
1907.000000	9.538300
1906.000000	9.714500
1905.000000	9.883100
1904.000000	10.065800
1903.000000	10.239200
1902.000000	10.394200
1901.000000	10.583300
1900.000000	10.774500
1899.000000	10.983300
1898.000000	11.192100
1897.000000	11.427600
1896.000000	11.624900
1895.000000	11.805400
1894.000000	12.028300
1893.000000	12.247700
1892.000000	12.501700
1891.000000	12.793900
1890.000000	13.066900
1889.000000	13.360700
1888.000000	13.660400
1887.000000	13.925600
1886.000000	14.253800
1885.000000	14.609000
1884.000000	15.024400
1883.000000	15.469700
1882.000000	15.898500
1881.000000	16.344200
1880.000000	16.767200
1879.000000	17.172700
1878.000000	17.624200
1877.000000	18.050700
1876.000000	18.445400
1875.000000	18.839200
1874.000000	19.215300
1873.000000	19.598600
1872.000000	19.947800
1871.000000	20.279400
1870.000000	20.570500
1869.000000	20.846300
1868.000000	21.094500
1867.000000	21.281500
1866.000000	21.453800
1865.000000	21.581300
1864.000000	21.717600
1863.000000	21.839000
1862.000000	21.967000
1861.000000	22.106200
1860.000000	22.225800
1859.000000	22.302700
1858.000000	22.372300
1857.000000	22.438400
1856.000000	22.491500
1855.000000	22.515300
1854.000000	22.550800
1853.000000	22.549700
1852.000000	22.542500
1851.000000	22.546700
1850.000000	22.543600
1849.000000	22.535700
1848.000000	22.519700
1847.000000	22.500500
1846.000000	22.454500
1845.000000	22.403900
1844.000000	22.373300
1843.000000	22.354600
1842.000000	22.356200
1841.000000	22.371000
1840.000000	22.340700
1839.000000	22.316800
1838.000000	22.281000
1837.000000	22.252700
1836.000000	22.210800
1835.000000	22.146600
1834.000000	22.083800
1833.000000	22.031800
1832.000000	21.988100
1831.000000	21.929600
1830.000000	21.870900
1829.000000	21.816400
1828.000000	21.738300
1827.000000	21.668200
1826.000000	21.608900
1825.000000	21.545200
1824.000000	21.486200
1823.000000	21.448800
1822.000000	21.430300
1821.000000	21.418100
1820.000000	21.383100
1819.000000	21.337900
1818.000000	21.304700
1817.000000	21.284600
1816.000000	21.273100
1815.000000	21.253200
1814.000000	21.233800
1813.000000	21.220000
1812.000000	21.210400
1811.000000	21.187800
1810.000000	21.145300
1809.000000	21.101800
1808.000000	21.068500
1807.000000	21.037600
1806.000000	20.991700
1805.000000	20.935100
1804.000000	20.893000
1803.000000	20.855100
1802.000000	20.812500
1801.000000	20.767000
1800.000000	20.702400
1799.000000	20.642300
1798.000000	20.592600
1797.000000	20.549500
1796.000000	20.505500
1795.000000	20.450700
1794.000000	20.403200
1793.000000	20.358100
1792.000000	20.302700
1791.000000	20.240600
1790.000000	20.189900
1789.000000	20.130400
1788.000000	20.070500
1787.000000	20.014500
1786.000000	19.951600
1785.000000	19.883800
1784.000000	19.821900
1783.000000	19.770200
1782.000000	19.691300
1781.000000	19.605800
1780.000000	19.538500
1779.000000	19.479200
1778.000000	19.402300
1777.000000	19.316100
1776.000000	19.237700
1775.000000	19.153400
1774.000000	19.054200
1773.000000	18.950100
1772.000000	18.852900
1771.000000	18.742900
1770.000000	18.628800
1769.000000	18.531000
1768.000000	18.441600
1767.000000	18.350400
1766.000000	18.261200
1765.000000	18.189500
1764.000000	18.134700
1763.000000	18.102700
1762.000000	18.093500
1761.000000	18.125100
1760.000000	18.157100
1759.000000	18.202300
1758.000000	18.266600
1757.000000	18.336300
1756.000000	18.397500
1755.000000	18.453700
1754.000000	18.499600
1753.000000	18.529500
1752.000000	18.549600
1751.000000	18.552600
1750.000000	18.536400
1749.000000	18.513500
1748.000000	18.480100
1747.000000	18.438900
1746.000000	18.367700
1745.000000	18.277400
1744.000000	18.163300
1743.000000	18.043000
1742.000000	17.882700
1741.000000	17.708800
1740.000000	17.516600
1739.000000	17.336700
1738.000000	17.162300
1737.000000	16.989600
1736.000000	16.829700
1735.000000	16.697600
1734.000000	16.618900
1733.000000	16.573500
1732.000000	16.568400
1731.000000	16.598100
1730.000000	16.674800
1729.000000	16.760800
1728.000000	16.855800
1727.000000	16.952100
1726.000000	17.039600
1725.000000	17.119500
1724.000000	17.187500
1723.000000	17.233200
1722.000000	17.271400
1721.000000	17.317400
1720.000000	17.339600
1719.000000	17.370700
1718.000000	17.411300
1717.000000	17.463700
1716.000000	17.491100
1715.000000	17.558100
1714.000000	17.638300
1713.000000	17.708900
1712.000000	17.757700
1711.000000	17.785800
1710.000000	17.836900
1709.000000	17.857200
1708.000000	17.847000
1707.000000	17.836200
1706.000000	17.823600
1705.000000	17.792000
1704.000000	17.729900
1703.000000	17.674300
1702.000000	17.604300
1701.000000	17.510700
1700.000000	17.362600
1699.000000	17.233200
1698.000000	17.114700
1697.000000	16.974900
1696.000000	16.881600
1695.000000	16.849000
1694.000000	16.843200
1693.000000	16.885800
1692.000000	16.994900
1691.000000	17.138400
1690.000000	17.266800
1689.000000	17.390400
1688.000000	17.500900
1687.000000	17.560500
1686.000000	17.583600
1685.000000	17.610000
1684.000000	17.670900
1683.000000	17.770700
1682.000000	17.965600
1681.000000	18.242600
1680.000000	18.631700
1679.000000	19.058300
1678.000000	19.518000
1677.000000	20.014300
1676.000000	20.401200
1675.000000	20.807100
1674.000000	21.145300
1673.000000	21.443600
1672.000000	21.688500
1671.000000	21.923700
1670.000000	22.123300
1669.000000	22.285500
1668.000000	22.437200
1667.000000	22.565600
1666.000000	22.657100
1665.000000	22.751600
1664.000000	22.841000
1663.000000	22.886400
1662.000000	22.963900
1661.000000	23.020900
1660.000000	23.062900
1659.000000	23.107000
1658.000000	23.145100
1657.000000	23.160100
1656.000000	23.166600
1655.000000	23.196500
1654.000000	23.166800
1653.000000	23.180300
1652.000000	23.141900
1651.000000	23.147700
1650.000000	23.104100
1649.000000	23.100000
1648.000000	23.053400
1647.000000	23.021600
1646.000000	22.971000
1645.000000	22.928500
1644.000000	22.868800
1643.000000	22.820800
1642.000000	22.768500
1641.000000	22.718800
1640.000000	22.659700
1639.000000	22.635500
1638.000000	22.541300
1637.000000	22.500400
1636.000000	22.441700
1635.000000	22.373600
1634.000000	22.307900
1633.000000	22.238200
1632.000000	22.162700
1631.000000	22.108100
1630.000000	22.035700
1629.000000	21.983000
1628.000000	21.877500
1627.000000	21.788400
1626.000000	21.723300
1625.000000	21.659600
1624.000000	21.582800
1623.000000	21.508500
1622.000000	21.430200
1621.000000	21.362700
1620.000000	21.287200
1619.000000	21.221900
1618.000000	21.141100
1617.000000	21.063300
1616.000000	21.010000
1615.000000	20.940400
1614.000000	20.863900
1613.000000	20.802600
1612.000000	20.710700
1611.000000	20.662900
1610.000000	20.591000
1609.000000	20.533800
1608.000000	20.474900
1607.000000	20.412800
1606.000000	20.338300
