PE UV       SUBTECH     SPECTRUM    ASCII       PEDS        4.00        
   -1
CICIMAUCR0003-3.Sample.ASC
24/05/03
16:05:21.00
24/05/03
16:05:21.00
Vinicio Soto Monge
C. kalinini
250,000000
1
Lambda 1050
1050L1511233
PerkinElmer UV WinLab 6.3.2.0749 / 2.02.05 Lambda 900 UV/VIS/NIR, Aug  7 2015 09:38:08

0
0
3350/servo 860,8/2
0
0
UV/VIS
1
1
1
DoubleDePol,CommonBeamDepol,RBeamAtt,SBeamAtt,60mm sphere, WB InGaAs Detector
0
0
0
0
Program
Program
3350/servo 860,8/2
3350/0,2 860,8/0,2
3350/0,2 860,8/0,2
0
15.00
 
 
 
0
 
860,8
319,2
860,8
Front
100
on
S:100 R:100
0
0
0
0
 
0
 
 
 
0
 
 
0
0
0
0
0
 
 
 
 
0
0


0
0
#HDR
-1
-1
#GR
nm
%R
1.0
0.0
2500,000000
-1,000000
2251
8
101,669700
5,424300
#DATA
2500.000000	8.512300
2499.000000	8.389000
2498.000000	8.333700
2497.000000	8.234300
2496.000000	8.325700
2495.000000	8.341600
2494.000000	8.182100
2493.000000	8.262600
2492.000000	8.155900
2491.000000	8.161100
2490.000000	8.135100
2489.000000	8.168000
2488.000000	8.129600
2487.000000	8.051000
2486.000000	8.197300
2485.000000	8.190200
2484.000000	8.053300
2483.000000	8.048000
2482.000000	8.072300
2481.000000	8.101400
2480.000000	8.085000
2479.000000	8.073400
2478.000000	8.140100
2477.000000	8.089600
2476.000000	8.125600
2475.000000	8.080000
2474.000000	8.084600
2473.000000	8.082700
2472.000000	8.132300
2471.000000	8.112800
2470.000000	8.127600
2469.000000	8.099300
2468.000000	8.145900
2467.000000	8.143600
2466.000000	8.159800
2465.000000	8.198900
2464.000000	8.223300
2463.000000	8.275000
2462.000000	8.325200
2461.000000	8.375200
2460.000000	8.401000
2459.000000	8.443500
2458.000000	8.502000
2457.000000	8.576000
2456.000000	8.640100
2455.000000	8.702900
2454.000000	8.793600
2453.000000	8.857200
2452.000000	8.939200
2451.000000	9.050200
2450.000000	9.098700
2449.000000	9.174200
2448.000000	9.270700
2447.000000	9.352000
2446.000000	9.432400
2445.000000	9.515500
2444.000000	9.631500
2443.000000	9.700000
2442.000000	9.767400
2441.000000	9.838900
2440.000000	9.933400
2439.000000	9.994900
2438.000000	10.074000
2437.000000	10.153900
2436.000000	10.221300
2435.000000	10.283400
2434.000000	10.343800
2433.000000	10.422700
2432.000000	10.487800
2431.000000	10.537600
2430.000000	10.589200
2429.000000	10.633000
2428.000000	10.706300
2427.000000	10.756400
2426.000000	10.802700
2425.000000	10.830500
2424.000000	10.867300
2423.000000	10.897800
2422.000000	10.923800
2421.000000	10.950000
2420.000000	10.995400
2419.000000	11.018500
2418.000000	11.068800
2417.000000	11.079000
2416.000000	11.106900
2415.000000	11.139600
2414.000000	11.159200
2413.000000	11.200500
2412.000000	11.232600
2411.000000	11.244500
2410.000000	11.264300
2409.000000	11.300000
2408.000000	11.317600
2407.000000	11.342600
2406.000000	11.377400
2405.000000	11.395700
2404.000000	11.423400
2403.000000	11.443000
2402.000000	11.481400
2401.000000	11.510000
2400.000000	11.534900
2399.000000	11.575400
2398.000000	11.646200
2397.000000	11.715500
2396.000000	11.759200
2395.000000	11.776300
2394.000000	11.787200
2393.000000	11.799000
2392.000000	11.826000
2391.000000	11.860600
2390.000000	11.878900
2389.000000	11.895200
2388.000000	11.914700
2387.000000	11.942300
2386.000000	11.964800
2385.000000	11.954900
2384.000000	11.930100
2383.000000	11.946000
2382.000000	11.966300
2381.000000	11.951700
2380.000000	11.938500
2379.000000	11.923500
2378.000000	11.906800
2377.000000	11.888100
2376.000000	11.876700
2375.000000	11.851400
2374.000000	11.827100
2373.000000	11.811500
2372.000000	11.760800
2371.000000	11.723500
2370.000000	11.694500
2369.000000	11.641200
2368.000000	11.597800
2367.000000	11.557900
2366.000000	11.493800
2365.000000	11.416700
2364.000000	11.358200
2363.000000	11.292300
2362.000000	11.220900
2361.000000	11.168300
2360.000000	11.097800
2359.000000	11.019700
2358.000000	10.972200
2357.000000	10.931400
2356.000000	10.888800
2355.000000	10.873900
2354.000000	10.860600
2353.000000	10.843700
2352.000000	10.833400
2351.000000	10.847900
2350.000000	10.889400
2349.000000	10.909300
2348.000000	10.947500
2347.000000	10.996300
2346.000000	11.031200
2345.000000	11.086200
2344.000000	11.134000
2343.000000	11.181200
2342.000000	11.225800
2341.000000	11.277800
2340.000000	11.311300
2339.000000	11.322200
2338.000000	11.323000
2337.000000	11.336900
2336.000000	11.336500
2335.000000	11.324300
2334.000000	11.289800
2333.000000	11.254500
2332.000000	11.239000
2331.000000	11.204800
2330.000000	11.140800
2329.000000	11.061500
2328.000000	11.015900
2327.000000	10.928300
2326.000000	10.851300
2325.000000	10.765800
2324.000000	10.658800
2323.000000	10.572500
2322.000000	10.475600
2321.000000	10.353300
2320.000000	10.235400
2319.000000	10.117900
2318.000000	9.991600
2317.000000	9.876200
2316.000000	9.758900
2315.000000	9.623300
2314.000000	9.489600
2313.000000	9.395100
2312.000000	9.314500
2311.000000	9.218400
2310.000000	9.133600
2309.000000	9.096200
2308.000000	9.069700
2307.000000	9.053000
2306.000000	9.032500
2305.000000	9.053700
2304.000000	9.109200
2303.000000	9.182500
2302.000000	9.244800
2301.000000	9.343000
2300.000000	9.429500
2299.000000	9.555100
2298.000000	9.623200
2297.000000	9.701600
2296.000000	9.802500
2295.000000	9.894800
2294.000000	9.998000
2293.000000	10.053400
2292.000000	10.111800
2291.000000	10.147400
2290.000000	10.182800
2289.000000	10.208900
2288.000000	10.205000
2287.000000	10.170600
2286.000000	10.174700
2285.000000	10.155100
2284.000000	10.104600
2283.000000	10.037300
2282.000000	9.992400
2281.000000	9.949700
2280.000000	9.892300
2279.000000	9.847200
2278.000000	9.790900
2277.000000	9.766600
2276.000000	9.728000
2275.000000	9.685100
2274.000000	9.698200
2273.000000	9.675700
2272.000000	9.681400
2271.000000	9.709200
2270.000000	9.761200
2269.000000	9.813500
2268.000000	9.914400
2267.000000	10.007500
2266.000000	10.146100
2265.000000	10.284400
2264.000000	10.451300
2263.000000	10.655500
2262.000000	10.870800
2261.000000	11.160800
2260.000000	11.411900
2259.000000	11.660600
2258.000000	11.940600
2257.000000	12.261500
2256.000000	12.532500
2255.000000	12.820200
2254.000000	13.091500
2253.000000	13.399600
2252.000000	13.684700
2251.000000	13.942000
2250.000000	14.169000
2249.000000	14.379600
2248.000000	14.635100
2247.000000	14.840200
2246.000000	15.017300
2245.000000	15.187600
2244.000000	15.340100
2243.000000	15.533600
2242.000000	15.668700
2241.000000	15.783100
2240.000000	15.903700
2239.000000	16.022700
2238.000000	16.147700
2237.000000	16.246200
2236.000000	16.318200
2235.000000	16.378300
2234.000000	16.447300
2233.000000	16.522600
2232.000000	16.571300
2231.000000	16.612100
2230.000000	16.662200
2229.000000	16.656200
2228.000000	16.688000
2227.000000	16.701600
2226.000000	16.712500
2225.000000	16.708700
2224.000000	16.703700
2223.000000	16.664900
2222.000000	16.643900
2221.000000	16.633400
2220.000000	16.598900
2219.000000	16.571000
2218.000000	16.555100
2217.000000	16.499500
2216.000000	16.475600
2215.000000	16.443600
2214.000000	16.405700
2213.000000	16.388500
2212.000000	16.352100
2211.000000	16.343100
2210.000000	16.302700
2209.000000	16.286700
2208.000000	16.250100
2207.000000	16.218400
2206.000000	16.197700
2205.000000	16.192000
2204.000000	16.185900
2203.000000	16.157900
2202.000000	16.156600
2201.000000	16.179600
2200.000000	16.151000
2199.000000	16.130900
2198.000000	16.137500
2197.000000	16.136500
2196.000000	16.126600
2195.000000	16.109800
2194.000000	16.103200
2193.000000	16.096500
2192.000000	16.086300
2191.000000	16.087700
2190.000000	16.072200
2189.000000	16.069500
2188.000000	16.051900
2187.000000	16.038900
2186.000000	16.039200
2185.000000	16.029900
2184.000000	16.001700
2183.000000	16.002000
2182.000000	15.987800
2181.000000	15.948800
2180.000000	15.953600
2179.000000	15.930200
2178.000000	15.929800
2177.000000	15.930400
2176.000000	15.942000
2175.000000	15.930600
2174.000000	15.914300
2173.000000	15.914000
2172.000000	15.920100
2171.000000	15.939800
2170.000000	15.956500
2169.000000	15.958500
2168.000000	15.970700
2167.000000	16.003900
2166.000000	16.024600
2165.000000	16.037700
2164.000000	16.055100
2163.000000	16.094900
2162.000000	16.120600
2161.000000	16.136700
2160.000000	16.174500
2159.000000	16.210400
2158.000000	16.249600
2157.000000	16.296800
2156.000000	16.340800
2155.000000	16.384200
2154.000000	16.439900
2153.000000	16.465000
2152.000000	16.533200
2151.000000	16.581400
2150.000000	16.628100
2149.000000	16.688300
2148.000000	16.745000
2147.000000	16.788400
2146.000000	16.835500
2145.000000	16.875800
2144.000000	16.927000
2143.000000	16.953300
2142.000000	17.001800
2141.000000	17.055800
2140.000000	17.109600
2139.000000	17.139500
2138.000000	17.184500
2137.000000	17.221900
2136.000000	17.259500
2135.000000	17.277200
2134.000000	17.313300
2133.000000	17.344100
2132.000000	17.353600
2131.000000	17.356700
2130.000000	17.384300
2129.000000	17.424300
2128.000000	17.422800
2127.000000	17.424900
2126.000000	17.430500
2125.000000	17.420400
2124.000000	17.425300
2123.000000	17.428500
2122.000000	17.412000
2121.000000	17.406600
2120.000000	17.399500
2119.000000	17.375900
2118.000000	17.358800
2117.000000	17.325700
2116.000000	17.305400
2115.000000	17.287900
2114.000000	17.269300
2113.000000	17.251500
2112.000000	17.218000
2111.000000	17.187500
2110.000000	17.166000
2109.000000	17.129500
2108.000000	17.105400
2107.000000	17.075100
2106.000000	17.041200
2105.000000	17.016000
2104.000000	16.980200
2103.000000	16.957800
2102.000000	16.945000
2101.000000	16.923900
2100.000000	16.887100
2099.000000	16.852500
2098.000000	16.830700
2097.000000	16.819600
2096.000000	16.802900
2095.000000	16.773900
2094.000000	16.752300
2093.000000	16.739100
2092.000000	16.712100
2091.000000	16.716100
2090.000000	16.726500
2089.000000	16.703700
2088.000000	16.672000
2087.000000	16.648000
2086.000000	16.645400
2085.000000	16.629900
2084.000000	16.608300
2083.000000	16.582100
2082.000000	16.575300
2081.000000	16.548200
2080.000000	16.528300
2079.000000	16.510200
2078.000000	16.472500
2077.000000	16.452400
2076.000000	16.404300
2075.000000	16.359800
2074.000000	16.336700
2073.000000	16.293500
2072.000000	16.258900
2071.000000	16.232800
2070.000000	16.200500
2069.000000	16.158900
2068.000000	16.122400
2067.000000	16.083500
2066.000000	16.034400
2065.000000	16.015600
2064.000000	15.998800
2063.000000	15.966600
2062.000000	15.969300
2061.000000	15.960300
2060.000000	15.946100
2059.000000	15.936200
2058.000000	15.935500
2057.000000	15.957300
2056.000000	16.008100
2055.000000	16.062800
2054.000000	16.114700
2053.000000	16.187800
2052.000000	16.269100
2051.000000	16.360400
2050.000000	16.477300
2049.000000	16.607700
2048.000000	16.757300
2047.000000	16.890300
2046.000000	17.038400
2045.000000	17.192600
2044.000000	17.369400
2043.000000	17.512200
2042.000000	17.681300
2041.000000	17.875600
2040.000000	18.024000
2039.000000	18.174900
2038.000000	18.304700
2037.000000	18.454200
2036.000000	18.627700
2035.000000	18.754200
2034.000000	18.884900
2033.000000	18.998500
2032.000000	19.118200
2031.000000	19.241700
2030.000000	19.349400
2029.000000	19.467300
2028.000000	19.556200
2027.000000	19.663300
2026.000000	19.746600
2025.000000	19.843700
2024.000000	19.927500
2023.000000	20.002800
2022.000000	20.082000
2021.000000	20.162400
2020.000000	20.248500
2019.000000	20.287400
2018.000000	20.369300
2017.000000	20.401900
2016.000000	20.460400
2015.000000	20.519900
2014.000000	20.557900
2013.000000	20.601100
2012.000000	20.621700
2011.000000	20.671000
2010.000000	20.690100
2009.000000	20.690900
2008.000000	20.709700
2007.000000	20.728700
2006.000000	20.713900
2005.000000	20.719100
2004.000000	20.714400
2003.000000	20.703600
2002.000000	20.669700
2001.000000	20.647300
2000.000000	20.608400
1999.000000	20.583000
1998.000000	20.550700
1997.000000	20.508500
1996.000000	20.462500
1995.000000	20.409700
1994.000000	20.349800
1993.000000	20.292900
1992.000000	20.219600
1991.000000	20.158200
1990.000000	20.084500
1989.000000	20.028500
1988.000000	19.947600
1987.000000	19.853200
1986.000000	19.775500
1985.000000	19.696500
1984.000000	19.609600
1983.000000	19.518400
1982.000000	19.443400
1981.000000	19.353900
1980.000000	19.279200
1979.000000	19.162000
1978.000000	19.091500
1977.000000	19.008500
1976.000000	18.899400
1975.000000	18.812300
1974.000000	18.712500
1973.000000	18.647500
1972.000000	18.570200
1971.000000	18.463100
1970.000000	18.377800
1969.000000	18.299400
1968.000000	18.240900
1967.000000	18.133500
1966.000000	18.063500
1965.000000	18.005700
1964.000000	17.906200
1963.000000	17.804200
1962.000000	17.720900
1961.000000	17.636500
1960.000000	17.557900
1959.000000	17.482200
1958.000000	17.400800
1957.000000	17.321100
1956.000000	17.235400
1955.000000	17.145400
1954.000000	17.063900
1953.000000	17.001600
1952.000000	16.924900
1951.000000	16.834200
1950.000000	16.785900
1949.000000	16.712700
1948.000000	16.639000
1947.000000	16.605800
1946.000000	16.542300
1945.000000	16.500200
1944.000000	16.438500
1943.000000	16.417800
1942.000000	16.403400
1941.000000	16.395200
1940.000000	16.375900
1939.000000	16.374500
1938.000000	16.366500
1937.000000	16.397800
1936.000000	16.424100
1935.000000	16.429100
1934.000000	16.497700
1933.000000	16.545000
1932.000000	16.629000
1931.000000	16.687200
1930.000000	16.775500
1929.000000	16.882100
1928.000000	16.985800
1927.000000	17.089500
1926.000000	17.224000
1925.000000	17.367000
1924.000000	17.509600
1923.000000	17.681700
1922.000000	17.856300
1921.000000	18.044500
1920.000000	18.241000
1919.000000	18.450600
1918.000000	18.635900
1917.000000	18.850900
1916.000000	19.059400
1915.000000	19.271900
1914.000000	19.532900
1913.000000	19.844600
1912.000000	20.106500
1911.000000	20.342400
1910.000000	20.599600
1909.000000	20.853100
1908.000000	21.121700
1907.000000	21.435300
1906.000000	21.775700
1905.000000	22.096700
1904.000000	22.439200
1903.000000	22.746400
1902.000000	23.075500
1901.000000	23.401100
1900.000000	23.753700
1899.000000	24.098400
1898.000000	24.466200
1897.000000	24.781400
1896.000000	25.054000
1895.000000	25.372400
1894.000000	25.683900
1893.000000	26.033800
1892.000000	26.407200
1891.000000	26.750800
1890.000000	27.082100
1889.000000	27.416400
1888.000000	27.766600
1887.000000	28.139400
1886.000000	28.540000
1885.000000	28.986500
1884.000000	29.483900
1883.000000	29.974800
1882.000000	30.457100
1881.000000	30.916700
1880.000000	31.342700
1879.000000	31.805400
1878.000000	32.244700
1877.000000	32.647000
1876.000000	33.019000
1875.000000	33.370300
1874.000000	33.713100
1873.000000	34.018800
1872.000000	34.281600
1871.000000	34.522600
1870.000000	34.733400
1869.000000	34.917100
1868.000000	35.048300
1867.000000	35.126400
1866.000000	35.181700
1865.000000	35.253400
1864.000000	35.309200
1863.000000	35.364200
1862.000000	35.427500
1861.000000	35.471300
1860.000000	35.508400
1859.000000	35.533500
1858.000000	35.518600
1857.000000	35.501500
1856.000000	35.472700
1855.000000	35.441700
1854.000000	35.412600
1853.000000	35.340400
1852.000000	35.289600
1851.000000	35.266900
1850.000000	35.231600
1849.000000	35.175100
1848.000000	35.104200
1847.000000	35.023000
1846.000000	34.935600
1845.000000	34.860400
1844.000000	34.808900
1843.000000	34.788800
1842.000000	34.774900
1841.000000	34.732900
1840.000000	34.668400
1839.000000	34.613600
1838.000000	34.550600
1837.000000	34.489600
1836.000000	34.426400
1835.000000	34.327900
1834.000000	34.239900
1833.000000	34.156400
1832.000000	34.073200
1831.000000	33.999300
1830.000000	33.908700
1829.000000	33.820700
1828.000000	33.720900
1827.000000	33.638200
1826.000000	33.574400
1825.000000	33.502800
1824.000000	33.449900
1823.000000	33.441700
1822.000000	33.436600
1821.000000	33.398600
1820.000000	33.350100
1819.000000	33.295900
1818.000000	33.277200
1817.000000	33.275700
1816.000000	33.264800
1815.000000	33.247000
1814.000000	33.238000
1813.000000	33.226200
1812.000000	33.184500
1811.000000	33.136700
1810.000000	33.084000
1809.000000	33.041100
1808.000000	33.011600
1807.000000	32.970400
1806.000000	32.909400
1805.000000	32.838400
1804.000000	32.781200
1803.000000	32.739800
1802.000000	32.694900
1801.000000	32.626800
1800.000000	32.549600
1799.000000	32.487000
1798.000000	32.444400
1797.000000	32.404100
1796.000000	32.345500
1795.000000	32.294600
1794.000000	32.238500
1793.000000	32.166200
1792.000000	32.115900
1791.000000	32.054600
1790.000000	31.985000
1789.000000	31.923800
1788.000000	31.860300
1787.000000	31.789900
1786.000000	31.714500
1785.000000	31.625900
1784.000000	31.537900
1783.000000	31.464900
1782.000000	31.370600
1781.000000	31.282800
1780.000000	31.196700
1779.000000	31.099600
1778.000000	31.003400
1777.000000	30.879000
1776.000000	30.755000
1775.000000	30.615400
1774.000000	30.466400
1773.000000	30.316800
1772.000000	30.178800
1771.000000	30.027100
1770.000000	29.885100
1769.000000	29.751300
1768.000000	29.625700
1767.000000	29.515300
1766.000000	29.418100
1765.000000	29.353800
1764.000000	29.322500
1763.000000	29.300700
1762.000000	29.338100
1761.000000	29.376100
1760.000000	29.434200
1759.000000	29.500800
1758.000000	29.583800
1757.000000	29.629100
1756.000000	29.690000
1755.000000	29.706900
1754.000000	29.723600
1753.000000	29.733900
1752.000000	29.708900
1751.000000	29.648700
1750.000000	29.600300
1749.000000	29.525700
1748.000000	29.421300
1747.000000	29.312100
1746.000000	29.171100
1745.000000	29.009200
1744.000000	28.810900
1743.000000	28.612400
1742.000000	28.360900
1741.000000	28.123200
1740.000000	27.854200
1739.000000	27.594700
1738.000000	27.367600
1737.000000	27.190200
1736.000000	27.062700
1735.000000	26.981800
1734.000000	26.961500
1733.000000	26.960000
1732.000000	27.019300
1731.000000	27.098500
1730.000000	27.223900
1729.000000	27.338100
1728.000000	27.464600
1727.000000	27.561000
1726.000000	27.654100
1725.000000	27.727500
1724.000000	27.770700
1723.000000	27.817700
1722.000000	27.839900
1721.000000	27.844300
1720.000000	27.897100
1719.000000	27.943700
1718.000000	28.008200
1717.000000	28.069500
1716.000000	28.164700
1715.000000	28.240200
1714.000000	28.313900
1713.000000	28.396700
1712.000000	28.446800
1711.000000	28.489500
1710.000000	28.519300
1709.000000	28.497900
1708.000000	28.496400
1707.000000	28.469500
1706.000000	28.435700
1705.000000	28.369300
1704.000000	28.305800
1703.000000	28.183900
1702.000000	28.062800
1701.000000	27.899600
1700.000000	27.740900
1699.000000	27.570600
1698.000000	27.417700
1697.000000	27.301000
1696.000000	27.251200
1695.000000	27.248200
1694.000000	27.277500
1693.000000	27.410800
1692.000000	27.584900
1691.000000	27.747300
1690.000000	27.883000
1689.000000	27.996500
1688.000000	28.046900
1687.000000	28.053200
1686.000000	28.107200
1685.000000	28.171200
1684.000000	28.314800
1683.000000	28.602600
1682.000000	28.984900
1681.000000	29.519200
1680.000000	30.120000
1679.000000	30.691600
1678.000000	31.277900
1677.000000	31.781800
1676.000000	32.240700
1675.000000	32.669500
1674.000000	33.021600
1673.000000	33.329100
1672.000000	33.610200
1671.000000	33.848600
1670.000000	34.049000
1669.000000	34.227300
1668.000000	34.408400
1667.000000	34.540200
1666.000000	34.639700
1665.000000	34.764100
1664.000000	34.850300
1663.000000	34.917200
1662.000000	35.008800
1661.000000	35.070900
1660.000000	35.121800
1659.000000	35.175700
1658.000000	35.200600
1657.000000	35.215800
1656.000000	35.237600
1655.000000	35.247500
1654.000000	35.261800
1653.000000	35.248700
1652.000000	35.238000
1651.000000	35.200600
1650.000000	35.179800
1649.000000	35.165800
1648.000000	35.110600
1647.000000	35.052800
1646.000000	35.005500
1645.000000	34.963800
1644.000000	34.908900
1643.000000	34.869600
1642.000000	34.811700
1641.000000	34.745200
1640.000000	34.691800
1639.000000	34.638700
1638.000000	34.572500
1637.000000	34.488800
1636.000000	34.422600
1635.000000	34.354500
1634.000000	34.300500
1633.000000	34.209200
1632.000000	34.136500
1631.000000	34.063900
1630.000000	33.963900
1629.000000	33.896800
1628.000000	33.816600
1627.000000	33.730500
1626.000000	33.658300
1625.000000	33.570000
1624.000000	33.505600
1623.000000	33.422200
1622.000000	33.336900
1621.000000	33.250200
1620.000000	33.174300
