PE UV       SUBTECH     SPECTRUM    ASCII       PEDS        4.00        
   -1
CICIMAUCR0205-3.Sample.ASC
24/05/31
16:47:51.00
24/05/31
16:47:51.00
Vinicio Soto Monge
C. cupreomarginata. Sex F. Dorsal
250,000000
1
Lambda 1050
1050L1511233
PerkinElmer UV WinLab 6.3.2.0749 / 2.02.05 Lambda 900 UV/VIS/NIR, Aug  7 2015 09:38:08

0
0
3350/servo 860,8/2
0
0
UV/VIS
1
1
1
DoubleDePol,CommonBeamDepol,RBeamAtt,SBeamAtt,60mm sphere, WB InGaAs Detector
0
0
0
0
Program
Program
3350/servo 860,8/2
3350/0,2 860,8/0,2
3350/0,2 860,8/0,2
0
15.00
 
 
 
0
 
860,8
319,2
860,8
Front
100
on
S:100 R:100
0
0
0
0
 
0
 
 
 
0
 
 
0
0
0
0
0
 
 
 
 
0
0


0
0
#HDR
-1
-1
#GR
nm
%R
1.0
0.0
2500,000000
-1,000000
2251
8
69,495500
5,503700
#DATA
2500.000000	9.174200
2499.000000	9.232600
2498.000000	9.030400
2497.000000	9.035300
2496.000000	9.105800
2495.000000	9.011600
2494.000000	9.103800
2493.000000	8.970300
2492.000000	8.974100
2491.000000	8.919700
2490.000000	8.980800
2489.000000	8.967700
2488.000000	8.939500
2487.000000	9.004200
2486.000000	9.005000
2485.000000	9.015800
2484.000000	8.905300
2483.000000	8.962700
2482.000000	8.956000
2481.000000	8.939100
2480.000000	8.939500
2479.000000	8.991700
2478.000000	8.970700
2477.000000	8.980200
2476.000000	8.975200
2475.000000	9.033800
2474.000000	8.987700
2473.000000	9.001800
2472.000000	9.029600
2471.000000	9.091900
2470.000000	9.031500
2469.000000	9.040800
2468.000000	9.017700
2467.000000	9.078000
2466.000000	9.129100
2465.000000	9.148100
2464.000000	9.151000
2463.000000	9.180100
2462.000000	9.185200
2461.000000	9.242500
2460.000000	9.298500
2459.000000	9.354500
2458.000000	9.395600
2457.000000	9.450300
2456.000000	9.510700
2455.000000	9.591600
2454.000000	9.638500
2453.000000	9.695500
2452.000000	9.812200
2451.000000	9.857000
2450.000000	9.946400
2449.000000	9.998900
2448.000000	10.081900
2447.000000	10.157000
2446.000000	10.238900
2445.000000	10.326900
2444.000000	10.408500
2443.000000	10.465800
2442.000000	10.520600
2441.000000	10.615400
2440.000000	10.698400
2439.000000	10.774200
2438.000000	10.852700
2437.000000	10.935100
2436.000000	11.016000
2435.000000	11.078900
2434.000000	11.155300
2433.000000	11.190700
2432.000000	11.260200
2431.000000	11.330900
2430.000000	11.382100
2429.000000	11.459800
2428.000000	11.524400
2427.000000	11.565500
2426.000000	11.606700
2425.000000	11.676500
2424.000000	11.717400
2423.000000	11.766900
2422.000000	11.807600
2421.000000	11.860300
2420.000000	11.898800
2419.000000	11.923600
2418.000000	11.978700
2417.000000	12.024100
2416.000000	12.051800
2415.000000	12.101600
2414.000000	12.140000
2413.000000	12.176400
2412.000000	12.202000
2411.000000	12.240900
2410.000000	12.273000
2409.000000	12.314400
2408.000000	12.340000
2407.000000	12.367900
2406.000000	12.391200
2405.000000	12.414300
2404.000000	12.447200
2403.000000	12.473800
2402.000000	12.502800
2401.000000	12.537200
2400.000000	12.573400
2399.000000	12.622000
2398.000000	12.654900
2397.000000	12.680200
2396.000000	12.720100
2395.000000	12.738400
2394.000000	12.760900
2393.000000	12.788100
2392.000000	12.815100
2391.000000	12.832700
2390.000000	12.851600
2389.000000	12.882200
2388.000000	12.896400
2387.000000	12.905800
2386.000000	12.922400
2385.000000	12.944800
2384.000000	12.954100
2383.000000	12.948300
2382.000000	12.939200
2381.000000	12.937700
2380.000000	12.934900
2379.000000	12.939200
2378.000000	12.929000
2377.000000	12.920900
2376.000000	12.915600
2375.000000	12.909400
2374.000000	12.901600
2373.000000	12.890500
2372.000000	12.865600
2371.000000	12.837300
2370.000000	12.808200
2369.000000	12.771700
2368.000000	12.755000
2367.000000	12.737300
2366.000000	12.702000
2365.000000	12.650800
2364.000000	12.608900
2363.000000	12.569200
2362.000000	12.523000
2361.000000	12.475500
2360.000000	12.417000
2359.000000	12.369000
2358.000000	12.328900
2357.000000	12.303600
2356.000000	12.268600
2355.000000	12.223200
2354.000000	12.195100
2353.000000	12.178800
2352.000000	12.168700
2351.000000	12.159300
2350.000000	12.166700
2349.000000	12.175600
2348.000000	12.159800
2347.000000	12.182200
2346.000000	12.220600
2345.000000	12.250600
2344.000000	12.296200
2343.000000	12.325600
2342.000000	12.357400
2341.000000	12.379500
2340.000000	12.403100
2339.000000	12.430900
2338.000000	12.451400
2337.000000	12.473300
2336.000000	12.476500
2335.000000	12.476400
2334.000000	12.460600
2333.000000	12.444000
2332.000000	12.428700
2331.000000	12.407100
2330.000000	12.378800
2329.000000	12.339800
2328.000000	12.284600
2327.000000	12.245200
2326.000000	12.187500
2325.000000	12.124900
2324.000000	12.059600
2323.000000	11.983900
2322.000000	11.905000
2321.000000	11.828900
2320.000000	11.750400
2319.000000	11.645800
2318.000000	11.547400
2317.000000	11.440500
2316.000000	11.330200
2315.000000	11.224200
2314.000000	11.113300
2313.000000	11.007800
2312.000000	10.916900
2311.000000	10.806800
2310.000000	10.736900
2309.000000	10.667400
2308.000000	10.612700
2307.000000	10.540900
2306.000000	10.501900
2305.000000	10.500700
2304.000000	10.515200
2303.000000	10.537000
2302.000000	10.556100
2301.000000	10.596300
2300.000000	10.672700
2299.000000	10.746900
2298.000000	10.829100
2297.000000	10.897200
2296.000000	10.983600
2295.000000	11.056600
2294.000000	11.136600
2293.000000	11.223000
2292.000000	11.262300
2291.000000	11.325800
2290.000000	11.367400
2289.000000	11.422700
2288.000000	11.444800
2287.000000	11.438300
2286.000000	11.436500
2285.000000	11.411200
2284.000000	11.405800
2283.000000	11.375500
2282.000000	11.343200
2281.000000	11.303300
2280.000000	11.242900
2279.000000	11.185300
2278.000000	11.155800
2277.000000	11.113500
2276.000000	11.053400
2275.000000	11.010400
2274.000000	10.975600
2273.000000	10.956200
2272.000000	10.919200
2271.000000	10.931100
2270.000000	10.923700
2269.000000	10.953000
2268.000000	10.988800
2267.000000	11.034600
2266.000000	11.100300
2265.000000	11.208700
2264.000000	11.320800
2263.000000	11.443300
2262.000000	11.614600
2261.000000	11.793700
2260.000000	11.984200
2259.000000	12.177000
2258.000000	12.402900
2257.000000	12.623400
2256.000000	12.847900
2255.000000	13.075000
2254.000000	13.314900
2253.000000	13.541900
2252.000000	13.775400
2251.000000	13.979700
2250.000000	14.193900
2249.000000	14.388600
2248.000000	14.550200
2247.000000	14.749400
2246.000000	14.926100
2245.000000	15.088000
2244.000000	15.191400
2243.000000	15.337700
2242.000000	15.472900
2241.000000	15.574100
2240.000000	15.666800
2239.000000	15.764800
2238.000000	15.863400
2237.000000	15.954400
2236.000000	16.011200
2235.000000	16.073000
2234.000000	16.119000
2233.000000	16.164400
2232.000000	16.229900
2231.000000	16.262700
2230.000000	16.274300
2229.000000	16.318700
2228.000000	16.341400
2227.000000	16.315300
2226.000000	16.324700
2225.000000	16.324400
2224.000000	16.327800
2223.000000	16.290100
2222.000000	16.275400
2221.000000	16.253300
2220.000000	16.223400
2219.000000	16.180200
2218.000000	16.162200
2217.000000	16.104900
2216.000000	16.072500
2215.000000	16.050800
2214.000000	16.021900
2213.000000	15.981800
2212.000000	15.937300
2211.000000	15.921200
2210.000000	15.885800
2209.000000	15.862900
2208.000000	15.841800
2207.000000	15.803800
2206.000000	15.768500
2205.000000	15.736800
2204.000000	15.740600
2203.000000	15.715000
2202.000000	15.698400
2201.000000	15.672900
2200.000000	15.677400
2199.000000	15.653700
2198.000000	15.630100
2197.000000	15.609100
2196.000000	15.594800
2195.000000	15.594300
2194.000000	15.582100
2193.000000	15.538100
2192.000000	15.527000
2191.000000	15.543800
2190.000000	15.505200
2189.000000	15.498900
2188.000000	15.496900
2187.000000	15.454800
2186.000000	15.447600
2185.000000	15.458900
2184.000000	15.437000
2183.000000	15.414200
2182.000000	15.411100
2181.000000	15.406400
2180.000000	15.406200
2179.000000	15.376900
2178.000000	15.374300
2177.000000	15.351400
2176.000000	15.332000
2175.000000	15.330400
2174.000000	15.355300
2173.000000	15.334600
2172.000000	15.350100
2171.000000	15.358500
2170.000000	15.361500
2169.000000	15.367200
2168.000000	15.392900
2167.000000	15.410400
2166.000000	15.423900
2165.000000	15.439300
2164.000000	15.476600
2163.000000	15.500500
2162.000000	15.527200
2161.000000	15.547500
2160.000000	15.590100
2159.000000	15.627500
2158.000000	15.666500
2157.000000	15.720200
2156.000000	15.758100
2155.000000	15.794900
2154.000000	15.850200
2153.000000	15.902700
2152.000000	15.959600
2151.000000	16.006300
2150.000000	16.055900
2149.000000	16.112400
2148.000000	16.160100
2147.000000	16.212300
2146.000000	16.255700
2145.000000	16.304000
2144.000000	16.356300
2143.000000	16.410300
2142.000000	16.458800
2141.000000	16.502900
2140.000000	16.530200
2139.000000	16.576500
2138.000000	16.611000
2137.000000	16.649800
2136.000000	16.689700
2135.000000	16.731000
2134.000000	16.752500
2133.000000	16.763300
2132.000000	16.779600
2131.000000	16.818000
2130.000000	16.827100
2129.000000	16.830700
2128.000000	16.840500
2127.000000	16.851000
2126.000000	16.865500
2125.000000	16.864800
2124.000000	16.852500
2123.000000	16.854500
2122.000000	16.844800
2121.000000	16.837500
2120.000000	16.827400
2119.000000	16.807000
2118.000000	16.786600
2117.000000	16.771200
2116.000000	16.743000
2115.000000	16.717500
2114.000000	16.693000
2113.000000	16.662800
2112.000000	16.630200
2111.000000	16.617000
2110.000000	16.589400
2109.000000	16.561000
2108.000000	16.518000
2107.000000	16.483500
2106.000000	16.454500
2105.000000	16.430700
2104.000000	16.390200
2103.000000	16.358100
2102.000000	16.324200
2101.000000	16.282100
2100.000000	16.254100
2099.000000	16.219700
2098.000000	16.187000
2097.000000	16.157300
2096.000000	16.120500
2095.000000	16.092100
2094.000000	16.063000
2093.000000	16.036900
2092.000000	16.020100
2091.000000	16.007400
2090.000000	15.971300
2089.000000	15.944100
2088.000000	15.939000
2087.000000	15.904300
2086.000000	15.877600
2085.000000	15.852100
2084.000000	15.814700
2083.000000	15.779900
2082.000000	15.748500
2081.000000	15.711800
2080.000000	15.675600
2079.000000	15.642600
2078.000000	15.593400
2077.000000	15.537100
2076.000000	15.490000
2075.000000	15.435300
2074.000000	15.380100
2073.000000	15.337300
2072.000000	15.286700
2071.000000	15.218300
2070.000000	15.156900
2069.000000	15.096000
2068.000000	15.027000
2067.000000	14.966700
2066.000000	14.902300
2065.000000	14.841900
2064.000000	14.781500
2063.000000	14.732800
2062.000000	14.675700
2061.000000	14.622300
2060.000000	14.569900
2059.000000	14.518600
2058.000000	14.475200
2057.000000	14.440100
2056.000000	14.424400
2055.000000	14.415800
2054.000000	14.401700
2053.000000	14.406000
2052.000000	14.409200
2051.000000	14.436800
2050.000000	14.476200
2049.000000	14.528000
2048.000000	14.585500
2047.000000	14.645900
2046.000000	14.716900
2045.000000	14.780200
2044.000000	14.853200
2043.000000	14.939900
2042.000000	15.017700
2041.000000	15.095700
2040.000000	15.171300
2039.000000	15.259000
2038.000000	15.343800
2037.000000	15.414000
2036.000000	15.471000
2035.000000	15.532800
2034.000000	15.598600
2033.000000	15.663800
2032.000000	15.705800
2031.000000	15.759100
2030.000000	15.799700
2029.000000	15.851800
2028.000000	15.873000
2027.000000	15.893500
2026.000000	15.938100
2025.000000	15.958100
2024.000000	15.971400
2023.000000	15.994400
2022.000000	16.016000
2021.000000	16.043300
2020.000000	16.048100
2019.000000	16.067700
2018.000000	16.045800
2017.000000	16.038900
2016.000000	16.042000
2015.000000	16.047800
2014.000000	16.050700
2013.000000	16.041500
2012.000000	16.012100
2011.000000	15.987100
2010.000000	15.972600
2009.000000	15.963400
2008.000000	15.908400
2007.000000	15.872200
2006.000000	15.834300
2005.000000	15.790100
2004.000000	15.743500
2003.000000	15.716900
2002.000000	15.670700
2001.000000	15.602800
2000.000000	15.561800
1999.000000	15.478100
1998.000000	15.409500
1997.000000	15.348500
1996.000000	15.291500
1995.000000	15.215600
1994.000000	15.138900
1993.000000	15.073400
1992.000000	15.004400
1991.000000	14.908100
1990.000000	14.826400
1989.000000	14.737900
1988.000000	14.673300
1987.000000	14.577800
1986.000000	14.497800
1985.000000	14.429200
1984.000000	14.324900
1983.000000	14.248300
1982.000000	14.140800
1981.000000	14.051000
1980.000000	13.970700
1979.000000	13.890300
1978.000000	13.799800
1977.000000	13.710900
1976.000000	13.619300
1975.000000	13.532000
1974.000000	13.443700
1973.000000	13.360900
1972.000000	13.286600
1971.000000	13.206800
1970.000000	13.109600
1969.000000	13.040900
1968.000000	12.954100
1967.000000	12.884400
1966.000000	12.802000
1965.000000	12.739900
1964.000000	12.643100
1963.000000	12.589700
1962.000000	12.488500
1961.000000	12.420300
1960.000000	12.346400
1959.000000	12.279700
1958.000000	12.204600
1957.000000	12.148100
1956.000000	12.090600
1955.000000	12.028800
1954.000000	11.955600
1953.000000	11.875100
1952.000000	11.807800
1951.000000	11.758300
1950.000000	11.689600
1949.000000	11.634600
1948.000000	11.611700
1947.000000	11.531100
1946.000000	11.494500
1945.000000	11.448800
1944.000000	11.423300
1943.000000	11.388400
1942.000000	11.352700
1941.000000	11.332100
1940.000000	11.333300
1939.000000	11.288900
1938.000000	11.332400
1937.000000	11.313600
1936.000000	11.344900
1935.000000	11.324800
1934.000000	11.338700
1933.000000	11.406700
1932.000000	11.421600
1931.000000	11.430500
1930.000000	11.480400
1929.000000	11.582700
1928.000000	11.658200
1927.000000	11.738600
1926.000000	11.832600
1925.000000	11.918300
1924.000000	12.018000
1923.000000	12.090100
1922.000000	12.213600
1921.000000	12.388300
1920.000000	12.560700
1919.000000	12.708200
1918.000000	12.876200
1917.000000	13.032400
1916.000000	13.166800
1915.000000	13.297400
1914.000000	13.461300
1913.000000	13.716800
1912.000000	13.968400
1911.000000	14.194600
1910.000000	14.402300
1909.000000	14.580400
1908.000000	14.784400
1907.000000	14.993800
1906.000000	15.256200
1905.000000	15.572300
1904.000000	15.902600
1903.000000	16.209700
1902.000000	16.487200
1901.000000	16.774800
1900.000000	17.101100
1899.000000	17.463600
1898.000000	17.829500
1897.000000	18.183300
1896.000000	18.544300
1895.000000	18.827400
1894.000000	19.139800
1893.000000	19.489700
1892.000000	19.871900
1891.000000	20.332900
1890.000000	20.784700
1889.000000	21.183400
1888.000000	21.604200
1887.000000	22.027700
1886.000000	22.442700
1885.000000	22.898900
1884.000000	23.387600
1883.000000	23.919400
1882.000000	24.406800
1881.000000	24.904200
1880.000000	25.371500
1879.000000	25.790800
1878.000000	26.259300
1877.000000	26.704600
1876.000000	27.124000
1875.000000	27.519200
1874.000000	27.939300
1873.000000	28.318400
1872.000000	28.705700
1871.000000	29.047900
1870.000000	29.380200
1869.000000	29.691900
1868.000000	29.969300
1867.000000	30.164400
1866.000000	30.340600
1865.000000	30.470700
1864.000000	30.627500
1863.000000	30.734900
1862.000000	30.845100
1861.000000	30.983000
1860.000000	31.116900
1859.000000	31.225700
1858.000000	31.329800
1857.000000	31.429700
1856.000000	31.498200
1855.000000	31.532500
1854.000000	31.586700
1853.000000	31.625800
1852.000000	31.630800
1851.000000	31.630500
1850.000000	31.649900
1849.000000	31.655300
1848.000000	31.678100
1847.000000	31.705100
1846.000000	31.711400
1845.000000	31.665400
1844.000000	31.605500
1843.000000	31.544400
1842.000000	31.550000
1841.000000	31.583300
1840.000000	31.591000
1839.000000	31.593600
1838.000000	31.554500
1837.000000	31.525200
1836.000000	31.494000
1835.000000	31.481800
1834.000000	31.443700
1833.000000	31.361800
1832.000000	31.289100
1831.000000	31.239500
1830.000000	31.204500
1829.000000	31.174700
1828.000000	31.121200
1827.000000	31.062700
1826.000000	31.004600
1825.000000	30.958900
1824.000000	30.896200
1823.000000	30.850900
1822.000000	30.842800
1821.000000	30.847800
1820.000000	30.838900
1819.000000	30.830200
1818.000000	30.787900
1817.000000	30.746400
1816.000000	30.714100
1815.000000	30.709900
1814.000000	30.706800
1813.000000	30.689600
1812.000000	30.671600
1811.000000	30.655500
1810.000000	30.628700
1809.000000	30.588600
1808.000000	30.542600
1807.000000	30.501800
1806.000000	30.470800
1805.000000	30.418100
1804.000000	30.373600
1803.000000	30.334300
1802.000000	30.282000
1801.000000	30.255400
1800.000000	30.214300
1799.000000	30.146600
1798.000000	30.103600
1797.000000	30.058200
1796.000000	30.010900
1795.000000	29.974000
1794.000000	29.931600
1793.000000	29.887500
1792.000000	29.848300
1791.000000	29.799100
1790.000000	29.738600
1789.000000	29.679000
1788.000000	29.640000
1787.000000	29.607800
1786.000000	29.562600
1785.000000	29.509300
1784.000000	29.438300
1783.000000	29.385200
1782.000000	29.336400
1781.000000	29.276600
1780.000000	29.232300
1779.000000	29.153900
1778.000000	29.083000
1777.000000	29.023500
1776.000000	28.944300
1775.000000	28.860900
1774.000000	28.790400
1773.000000	28.702400
1772.000000	28.605700
1771.000000	28.524800
1770.000000	28.419600
1769.000000	28.323800
1768.000000	28.236400
1767.000000	28.144000
1766.000000	28.068300
1765.000000	28.012000
1764.000000	27.942100
1763.000000	27.908200
1762.000000	27.896000
1761.000000	27.904900
1760.000000	27.921500
1759.000000	27.953200
1758.000000	28.010300
1757.000000	28.068000
1756.000000	28.130400
1755.000000	28.172500
1754.000000	28.209800
1753.000000	28.244500
1752.000000	28.255200
1751.000000	28.264100
1750.000000	28.268500
1749.000000	28.245700
1748.000000	28.208300
1747.000000	28.167000
1746.000000	28.118900
1745.000000	28.047600
1744.000000	27.945900
1743.000000	27.833600
1742.000000	27.706000
1741.000000	27.565000
1740.000000	27.413600
1739.000000	27.239400
1738.000000	27.074300
1737.000000	26.903400
1736.000000	26.767300
1735.000000	26.638400
1734.000000	26.558000
1733.000000	26.507200
1732.000000	26.472100
1731.000000	26.482200
1730.000000	26.521700
1729.000000	26.565300
1728.000000	26.640000
1727.000000	26.717400
1726.000000	26.781300
1725.000000	26.845900
1724.000000	26.892800
1723.000000	26.950800
1722.000000	27.010900
1721.000000	27.059100
1720.000000	27.109300
1719.000000	27.195800
1718.000000	27.255100
1717.000000	27.331900
1716.000000	27.427100
1715.000000	27.523200
1714.000000	27.628800
1713.000000	27.725400
1712.000000	27.817200
1711.000000	27.887100
1710.000000	27.959800
1709.000000	27.996500
1708.000000	28.012900
1707.000000	28.062200
1706.000000	28.076900
1705.000000	28.034000
1704.000000	28.007000
1703.000000	27.983000
1702.000000	27.928300
1701.000000	27.851000
1700.000000	27.766700
1699.000000	27.650800
1698.000000	27.541900
1697.000000	27.431600
1696.000000	27.354800
1695.000000	27.287600
1694.000000	27.280300
1693.000000	27.294900
1692.000000	27.351200
1691.000000	27.450400
1690.000000	27.558100
1689.000000	27.666400
1688.000000	27.756100
1687.000000	27.814600
1686.000000	27.861200
1685.000000	27.910600
1684.000000	27.990800
1683.000000	28.105900
1682.000000	28.292100
1681.000000	28.554600
1680.000000	28.877100
1679.000000	29.263300
1678.000000	29.665100
1677.000000	30.082500
1676.000000	30.484700
1675.000000	30.834500
1674.000000	31.162000
1673.000000	31.421200
1672.000000	31.680100
1671.000000	31.904600
1670.000000	32.092600
1669.000000	32.283900
1668.000000	32.413400
1667.000000	32.560900
1666.000000	32.679000
1665.000000	32.783700
1664.000000	32.894600
1663.000000	32.951600
1662.000000	33.049500
1661.000000	33.132500
1660.000000	33.189100
1659.000000	33.256700
1658.000000	33.301800
1657.000000	33.338100
1656.000000	33.363700
1655.000000	33.371600
1654.000000	33.409400
1653.000000	33.390900
1652.000000	33.399900
1651.000000	33.405600
1650.000000	33.376900
1649.000000	33.367100
1648.000000	33.335700
1647.000000	33.324300
1646.000000	33.280700
1645.000000	33.254600
1644.000000	33.208800
1643.000000	33.189200
1642.000000	33.141000
1641.000000	33.096200
1640.000000	33.057200
1639.000000	33.015500
1638.000000	32.963300
1637.000000	32.928200
1636.000000	32.862100
1635.000000	32.809500
1634.000000	32.750500
1633.000000	32.693700
1632.000000	32.638400
1631.000000	32.595500
1630.000000	32.524700
1629.000000	32.435100
1628.000000	32.382100
1627.000000	32.316100
1626.000000	32.228700
1625.000000	32.161700
1624.000000	32.085200
1623.000000	32.032400
