PE UV       SUBTECH     SPECTRUM    ASCII       PEDS        4.00        
   -1
CICIMAUCR0251-2.Sample.ASC
24/05/27
16:17:18.00
24/05/27
16:17:18.00
Vinicio Soto Monge
C. resplendens, F
250,000000
1
Lambda 1050
1050L1511233
PerkinElmer UV WinLab 6.3.2.0749 / 2.02.05 Lambda 900 UV/VIS/NIR, Aug  7 2015 09:38:08

0
0
3350/servo 860,8/2
0
0
UV/VIS
1
1
1
DoubleDePol,CommonBeamDepol,RBeamAtt,SBeamAtt,60mm sphere, WB InGaAs Detector
0
0
0
0
Program
Program
3350/servo 860,8/2
3350/0,2 860,8/0,2
3350/0,2 860,8/0,2
0
15.00
 
 
 
0
 
860,8
319,2
860,8
Front
100
on
S:100 R:100
0
0
0
0
 
0
 
 
 
0
 
 
0
0
0
0
0
 
 
 
 
0
0


0
0
#HDR
-1
-1
#GR
nm
%R
1.0
0.0
2500,000000
-1,000000
2251
8
92,106900
5,126500
#DATA
2500.000000	5.354600
2499.000000	5.426400
2498.000000	5.439800
2497.000000	5.508400
2496.000000	5.351400
2495.000000	5.509100
2494.000000	5.386700
2493.000000	5.407600
2492.000000	5.306500
2491.000000	5.267300
2490.000000	5.383900
2489.000000	5.419700
2488.000000	5.316800
2487.000000	5.328200
2486.000000	5.266600
2485.000000	5.341000
2484.000000	5.244100
2483.000000	5.249700
2482.000000	5.344900
2481.000000	5.220600
2480.000000	5.292900
2479.000000	5.270400
2478.000000	5.185400
2477.000000	5.234300
2476.000000	5.177200
2475.000000	5.188700
2474.000000	5.221300
2473.000000	5.247500
2472.000000	5.250600
2471.000000	5.179900
2470.000000	5.166000
2469.000000	5.168900
2468.000000	5.143700
2467.000000	5.179000
2466.000000	5.163000
2465.000000	5.126500
2464.000000	5.180800
2463.000000	5.155600
2462.000000	5.208200
2461.000000	5.209800
2460.000000	5.215100
2459.000000	5.178500
2458.000000	5.171700
2457.000000	5.198400
2456.000000	5.191200
2455.000000	5.197700
2454.000000	5.228700
2453.000000	5.225900
2452.000000	5.247800
2451.000000	5.290400
2450.000000	5.287200
2449.000000	5.259000
2448.000000	5.304200
2447.000000	5.333300
2446.000000	5.353600
2445.000000	5.361600
2444.000000	5.384700
2443.000000	5.402500
2442.000000	5.401900
2441.000000	5.430500
2440.000000	5.439200
2439.000000	5.467100
2438.000000	5.469200
2437.000000	5.498500
2436.000000	5.506900
2435.000000	5.509400
2434.000000	5.532600
2433.000000	5.572000
2432.000000	5.589700
2431.000000	5.593500
2430.000000	5.613500
2429.000000	5.619600
2428.000000	5.626100
2427.000000	5.645200
2426.000000	5.659500
2425.000000	5.667200
2424.000000	5.680500
2423.000000	5.681800
2422.000000	5.698300
2421.000000	5.702900
2420.000000	5.706700
2419.000000	5.742500
2418.000000	5.750700
2417.000000	5.751600
2416.000000	5.772300
2415.000000	5.790000
2414.000000	5.796100
2413.000000	5.796000
2412.000000	5.814700
2411.000000	5.823400
2410.000000	5.841400
2409.000000	5.855300
2408.000000	5.863200
2407.000000	5.880700
2406.000000	5.885000
2405.000000	5.893000
2404.000000	5.912000
2403.000000	5.916400
2402.000000	5.930700
2401.000000	5.948000
2400.000000	5.956600
2399.000000	5.963100
2398.000000	5.969200
2397.000000	5.972800
2396.000000	5.991500
2395.000000	6.004000
2394.000000	6.014500
2393.000000	6.013900
2392.000000	6.028600
2391.000000	6.055300
2390.000000	6.063300
2389.000000	6.066700
2388.000000	6.080200
2387.000000	6.094100
2386.000000	6.103600
2385.000000	6.091100
2384.000000	6.094400
2383.000000	6.108400
2382.000000	6.105900
2381.000000	6.111100
2380.000000	6.122300
2379.000000	6.122100
2378.000000	6.112900
2377.000000	6.115000
2376.000000	6.108400
2375.000000	6.107400
2374.000000	6.112800
2373.000000	6.110800
2372.000000	6.107500
2371.000000	6.109000
2370.000000	6.090600
2369.000000	6.065200
2368.000000	6.061500
2367.000000	6.056900
2366.000000	6.030600
2365.000000	6.010700
2364.000000	6.005200
2363.000000	5.996200
2362.000000	5.977100
2361.000000	5.968800
2360.000000	5.957900
2359.000000	5.925400
2358.000000	5.899500
2357.000000	5.887500
2356.000000	5.879600
2355.000000	5.867900
2354.000000	5.856800
2353.000000	5.864700
2352.000000	5.869100
2351.000000	5.863100
2350.000000	5.861600
2349.000000	5.875400
2348.000000	5.878000
2347.000000	5.875100
2346.000000	5.895800
2345.000000	5.921200
2344.000000	5.940500
2343.000000	5.955000
2342.000000	5.973400
2341.000000	5.996500
2340.000000	5.991300
2339.000000	6.007300
2338.000000	6.039600
2337.000000	6.030200
2336.000000	6.024700
2335.000000	6.029500
2334.000000	6.023600
2333.000000	6.033600
2332.000000	6.026800
2331.000000	6.013700
2330.000000	5.999400
2329.000000	5.981400
2328.000000	5.952300
2327.000000	5.926000
2326.000000	5.916100
2325.000000	5.887600
2324.000000	5.859600
2323.000000	5.840300
2322.000000	5.810800
2321.000000	5.786300
2320.000000	5.749800
2319.000000	5.697500
2318.000000	5.666300
2317.000000	5.640500
2316.000000	5.601300
2315.000000	5.544300
2314.000000	5.533400
2313.000000	5.514300
2312.000000	5.479100
2311.000000	5.463600
2310.000000	5.434200
2309.000000	5.395900
2308.000000	5.382100
2307.000000	5.369100
2306.000000	5.366400
2305.000000	5.364300
2304.000000	5.372300
2303.000000	5.365600
2302.000000	5.373600
2301.000000	5.395800
2300.000000	5.416900
2299.000000	5.450200
2298.000000	5.460200
2297.000000	5.471700
2296.000000	5.505800
2295.000000	5.517800
2294.000000	5.556300
2293.000000	5.575600
2292.000000	5.589000
2291.000000	5.594900
2290.000000	5.598100
2289.000000	5.604800
2288.000000	5.598700
2287.000000	5.603400
2286.000000	5.593400
2285.000000	5.591100
2284.000000	5.583600
2283.000000	5.553500
2282.000000	5.523600
2281.000000	5.515100
2280.000000	5.495100
2279.000000	5.471000
2278.000000	5.441900
2277.000000	5.444100
2276.000000	5.405100
2275.000000	5.395800
2274.000000	5.372300
2273.000000	5.367800
2272.000000	5.358900
2271.000000	5.341200
2270.000000	5.346300
2269.000000	5.347800
2268.000000	5.338100
2267.000000	5.358700
2266.000000	5.375400
2265.000000	5.414800
2264.000000	5.443300
2263.000000	5.467700
2262.000000	5.507900
2261.000000	5.565900
2260.000000	5.651300
2259.000000	5.686800
2258.000000	5.757500
2257.000000	5.861100
2256.000000	5.952700
2255.000000	6.016700
2254.000000	6.120900
2253.000000	6.199000
2252.000000	6.304900
2251.000000	6.375700
2250.000000	6.487400
2249.000000	6.567700
2248.000000	6.658700
2247.000000	6.754300
2246.000000	6.812500
2245.000000	6.881300
2244.000000	6.952000
2243.000000	7.020900
2242.000000	7.072200
2241.000000	7.131100
2240.000000	7.191200
2239.000000	7.223200
2238.000000	7.289900
2237.000000	7.328400
2236.000000	7.356600
2235.000000	7.399400
2234.000000	7.430700
2233.000000	7.451000
2232.000000	7.481400
2231.000000	7.531700
2230.000000	7.539300
2229.000000	7.559500
2228.000000	7.582300
2227.000000	7.581200
2226.000000	7.586400
2225.000000	7.606500
2224.000000	7.591700
2223.000000	7.602100
2222.000000	7.605500
2221.000000	7.610600
2220.000000	7.581400
2219.000000	7.580900
2218.000000	7.586500
2217.000000	7.559800
2216.000000	7.546800
2215.000000	7.545700
2214.000000	7.536100
2213.000000	7.505100
2212.000000	7.512700
2211.000000	7.470500
2210.000000	7.496700
2209.000000	7.459400
2208.000000	7.446100
2207.000000	7.466800
2206.000000	7.457400
2205.000000	7.440200
2204.000000	7.418700
2203.000000	7.423500
2202.000000	7.430800
2201.000000	7.426000
2200.000000	7.405500
2199.000000	7.384600
2198.000000	7.397800
2197.000000	7.386800
2196.000000	7.375000
2195.000000	7.387400
2194.000000	7.381900
2193.000000	7.373300
2192.000000	7.381600
2191.000000	7.361900
2190.000000	7.353800
2189.000000	7.356400
2188.000000	7.348800
2187.000000	7.347400
2186.000000	7.346300
2185.000000	7.351000
2184.000000	7.340700
2183.000000	7.332300
2182.000000	7.323400
2181.000000	7.322200
2180.000000	7.323700
2179.000000	7.318600
2178.000000	7.305100
2177.000000	7.324100
2176.000000	7.316000
2175.000000	7.316500
2174.000000	7.322300
2173.000000	7.314700
2172.000000	7.320700
2171.000000	7.326600
2170.000000	7.342600
2169.000000	7.368300
2168.000000	7.368300
2167.000000	7.381400
2166.000000	7.379000
2165.000000	7.404400
2164.000000	7.395100
2163.000000	7.411800
2162.000000	7.420300
2161.000000	7.435300
2160.000000	7.464000
2159.000000	7.484300
2158.000000	7.503100
2157.000000	7.510800
2156.000000	7.527300
2155.000000	7.558200
2154.000000	7.572300
2153.000000	7.600700
2152.000000	7.620600
2151.000000	7.643600
2150.000000	7.670300
2149.000000	7.675000
2148.000000	7.701000
2147.000000	7.711700
2146.000000	7.737000
2145.000000	7.756000
2144.000000	7.754400
2143.000000	7.774100
2142.000000	7.795700
2141.000000	7.807100
2140.000000	7.824200
2139.000000	7.843600
2138.000000	7.838400
2137.000000	7.858600
2136.000000	7.866900
2135.000000	7.876000
2134.000000	7.869800
2133.000000	7.884100
2132.000000	7.904200
2131.000000	7.908000
2130.000000	7.902900
2129.000000	7.910100
2128.000000	7.902700
2127.000000	7.905800
2126.000000	7.899800
2125.000000	7.891700
2124.000000	7.894200
2123.000000	7.907600
2122.000000	7.885100
2121.000000	7.866500
2120.000000	7.857700
2119.000000	7.851400
2118.000000	7.841500
2117.000000	7.822400
2116.000000	7.806900
2115.000000	7.793400
2114.000000	7.773000
2113.000000	7.742500
2112.000000	7.739200
2111.000000	7.729800
2110.000000	7.711400
2109.000000	7.697400
2108.000000	7.670100
2107.000000	7.642400
2106.000000	7.625500
2105.000000	7.613700
2104.000000	7.596000
2103.000000	7.589900
2102.000000	7.561400
2101.000000	7.537500
2100.000000	7.529200
2099.000000	7.510200
2098.000000	7.501600
2097.000000	7.479700
2096.000000	7.470300
2095.000000	7.462800
2094.000000	7.435500
2093.000000	7.423000
2092.000000	7.409700
2091.000000	7.388200
2090.000000	7.374600
2089.000000	7.366900
2088.000000	7.349000
2087.000000	7.339400
2086.000000	7.341800
2085.000000	7.324000
2084.000000	7.304000
2083.000000	7.290800
2082.000000	7.272700
2081.000000	7.251800
2080.000000	7.239200
2079.000000	7.226900
2078.000000	7.206900
2077.000000	7.190100
2076.000000	7.166100
2075.000000	7.150300
2074.000000	7.142700
2073.000000	7.112400
2072.000000	7.086100
2071.000000	7.072100
2070.000000	7.062900
2069.000000	7.033700
2068.000000	7.000800
2067.000000	6.982200
2066.000000	6.960700
2065.000000	6.945900
2064.000000	6.932300
2063.000000	6.920200
2062.000000	6.898200
2061.000000	6.878000
2060.000000	6.857800
2059.000000	6.849900
2058.000000	6.836600
2057.000000	6.831700
2056.000000	6.827500
2055.000000	6.821700
2054.000000	6.811400
2053.000000	6.826200
2052.000000	6.836700
2051.000000	6.835700
2050.000000	6.843000
2049.000000	6.862200
2048.000000	6.873400
2047.000000	6.903800
2046.000000	6.932000
2045.000000	6.952000
2044.000000	6.986000
2043.000000	7.014600
2042.000000	7.056600
2041.000000	7.079000
2040.000000	7.111100
2039.000000	7.137000
2038.000000	7.183000
2037.000000	7.213500
2036.000000	7.232900
2035.000000	7.237500
2034.000000	7.268700
2033.000000	7.290400
2032.000000	7.314900
2031.000000	7.335200
2030.000000	7.341500
2029.000000	7.353700
2028.000000	7.375300
2027.000000	7.381500
2026.000000	7.393100
2025.000000	7.401000
2024.000000	7.415400
2023.000000	7.413600
2022.000000	7.429900
2021.000000	7.446800
2020.000000	7.436600
2019.000000	7.431300
2018.000000	7.438300
2017.000000	7.444100
2016.000000	7.447400
2015.000000	7.435000
2014.000000	7.425900
2013.000000	7.426600
2012.000000	7.406100
2011.000000	7.402600
2010.000000	7.388000
2009.000000	7.361600
2008.000000	7.346800
2007.000000	7.336500
2006.000000	7.332900
2005.000000	7.315700
2004.000000	7.300100
2003.000000	7.273100
2002.000000	7.258900
2001.000000	7.233900
2000.000000	7.218600
1999.000000	7.184600
1998.000000	7.145800
1997.000000	7.115400
1996.000000	7.106800
1995.000000	7.093200
1994.000000	7.057600
1993.000000	7.014600
1992.000000	6.992600
1991.000000	6.960500
1990.000000	6.921900
1989.000000	6.901800
1988.000000	6.859800
1987.000000	6.828700
1986.000000	6.806100
1985.000000	6.770500
1984.000000	6.741100
1983.000000	6.696400
1982.000000	6.664400
1981.000000	6.643400
1980.000000	6.616400
1979.000000	6.586600
1978.000000	6.564000
1977.000000	6.530700
1976.000000	6.491600
1975.000000	6.459800
1974.000000	6.437200
1973.000000	6.425100
1972.000000	6.386300
1971.000000	6.344900
1970.000000	6.351900
1969.000000	6.318800
1968.000000	6.307100
1967.000000	6.269600
1966.000000	6.260600
1965.000000	6.245800
1964.000000	6.200100
1963.000000	6.198900
1962.000000	6.163400
1961.000000	6.165200
1960.000000	6.142800
1959.000000	6.136200
1958.000000	6.102200
1957.000000	6.086500
1956.000000	6.079500
1955.000000	6.065500
1954.000000	6.037500
1953.000000	6.040500
1952.000000	6.030100
1951.000000	6.026700
1950.000000	5.987600
1949.000000	5.999700
1948.000000	5.975800
1947.000000	5.950100
1946.000000	5.971900
1945.000000	5.954200
1944.000000	5.939200
1943.000000	5.962000
1942.000000	5.925500
1941.000000	5.913600
1940.000000	5.931600
1939.000000	5.936100
1938.000000	5.943600
1937.000000	5.934600
1936.000000	5.953800
1935.000000	5.950800
1934.000000	5.985800
1933.000000	5.994400
1932.000000	5.979000
1931.000000	5.997800
1930.000000	6.021200
1929.000000	6.020300
1928.000000	6.089900
1927.000000	6.108500
1926.000000	6.131500
1925.000000	6.181500
1924.000000	6.182500
1923.000000	6.211200
1922.000000	6.255200
1921.000000	6.290100
1920.000000	6.346400
1919.000000	6.405600
1918.000000	6.445000
1917.000000	6.498700
1916.000000	6.544300
1915.000000	6.598700
1914.000000	6.663600
1913.000000	6.731900
1912.000000	6.817600
1911.000000	6.885200
1910.000000	6.970800
1909.000000	7.037300
1908.000000	7.098000
1907.000000	7.175900
1906.000000	7.275200
1905.000000	7.390200
1904.000000	7.505000
1903.000000	7.607800
1902.000000	7.731000
1901.000000	7.840200
1900.000000	7.981200
1899.000000	8.118200
1898.000000	8.265700
1897.000000	8.410700
1896.000000	8.556000
1895.000000	8.705700
1894.000000	8.850600
1893.000000	9.025300
1892.000000	9.201500
1891.000000	9.406200
1890.000000	9.651700
1889.000000	9.882100
1888.000000	10.090500
1887.000000	10.339600
1886.000000	10.599000
1885.000000	10.926000
1884.000000	11.245000
1883.000000	11.613100
1882.000000	11.982800
1881.000000	12.402300
1880.000000	12.794300
1879.000000	13.196900
1878.000000	13.592700
1877.000000	13.988300
1876.000000	14.391800
1875.000000	14.780100
1874.000000	15.141400
1873.000000	15.503500
1872.000000	15.862000
1871.000000	16.197600
1870.000000	16.521600
1869.000000	16.816500
1868.000000	17.092400
1867.000000	17.326500
1866.000000	17.530000
1865.000000	17.699800
1864.000000	17.860800
1863.000000	17.989300
1862.000000	18.134100
1861.000000	18.277700
1860.000000	18.407100
1859.000000	18.540400
1858.000000	18.634600
1857.000000	18.684200
1856.000000	18.763600
1855.000000	18.829700
1854.000000	18.847000
1853.000000	18.864400
1852.000000	18.862500
1851.000000	18.885600
1850.000000	18.899300
1849.000000	18.910000
1848.000000	18.920100
1847.000000	18.884400
1846.000000	18.848800
1845.000000	18.811100
1844.000000	18.780300
1843.000000	18.745700
1842.000000	18.742900
1841.000000	18.759900
1840.000000	18.749800
1839.000000	18.737300
1838.000000	18.705300
1837.000000	18.680000
1836.000000	18.655600
1835.000000	18.597700
1834.000000	18.551700
1833.000000	18.501400
1832.000000	18.453500
1831.000000	18.406900
1830.000000	18.351100
1829.000000	18.294400
1828.000000	18.253200
1827.000000	18.186200
1826.000000	18.114700
1825.000000	18.055400
1824.000000	17.997700
1823.000000	17.972300
1822.000000	17.954900
1821.000000	17.939900
1820.000000	17.921800
1819.000000	17.900600
1818.000000	17.873300
1817.000000	17.848500
1816.000000	17.837200
1815.000000	17.845200
1814.000000	17.838800
1813.000000	17.826700
1812.000000	17.819800
1811.000000	17.807100
1810.000000	17.790800
1809.000000	17.764600
1808.000000	17.727400
1807.000000	17.690300
1806.000000	17.663300
1805.000000	17.631700
1804.000000	17.587900
1803.000000	17.550500
1802.000000	17.503400
1801.000000	17.473400
1800.000000	17.449600
1799.000000	17.393700
1798.000000	17.342600
1797.000000	17.300900
1796.000000	17.267200
1795.000000	17.237900
1794.000000	17.200500
1793.000000	17.160100
1792.000000	17.119900
1791.000000	17.068700
1790.000000	17.008100
1789.000000	16.966000
1788.000000	16.932400
1787.000000	16.887900
1786.000000	16.835700
1785.000000	16.783000
1784.000000	16.731300
1783.000000	16.678000
1782.000000	16.608100
1781.000000	16.539100
1780.000000	16.484300
1779.000000	16.430400
1778.000000	16.367400
1777.000000	16.285800
1776.000000	16.219500
1775.000000	16.150400
1774.000000	16.060500
1773.000000	15.974400
1772.000000	15.879300
1771.000000	15.790400
1770.000000	15.701000
1769.000000	15.589200
1768.000000	15.503100
1767.000000	15.422600
1766.000000	15.330800
1765.000000	15.255100
1764.000000	15.210400
1763.000000	15.187300
1762.000000	15.171700
1761.000000	15.170300
1760.000000	15.215700
1759.000000	15.265700
1758.000000	15.324100
1757.000000	15.387500
1756.000000	15.440100
1755.000000	15.486400
1754.000000	15.540800
1753.000000	15.581200
1752.000000	15.587300
1751.000000	15.604700
1750.000000	15.605700
1749.000000	15.584000
1748.000000	15.571700
1747.000000	15.517200
1746.000000	15.441700
1745.000000	15.371200
1744.000000	15.295400
1743.000000	15.164600
1742.000000	15.034900
1741.000000	14.866700
1740.000000	14.689500
1739.000000	14.530000
1738.000000	14.337900
1737.000000	14.150600
1736.000000	13.992600
1735.000000	13.863300
1734.000000	13.762100
1733.000000	13.717500
1732.000000	13.682000
1731.000000	13.689400
1730.000000	13.731600
1729.000000	13.797000
1728.000000	13.869300
1727.000000	13.935600
1726.000000	14.016900
1725.000000	14.093200
1724.000000	14.138600
1723.000000	14.200100
1722.000000	14.251900
1721.000000	14.269000
1720.000000	14.274000
1719.000000	14.297900
1718.000000	14.322100
1717.000000	14.353900
1716.000000	14.387600
1715.000000	14.433800
1714.000000	14.494300
1713.000000	14.551200
1712.000000	14.614300
1711.000000	14.656300
1710.000000	14.678000
1709.000000	14.693300
1708.000000	14.705000
1707.000000	14.683500
1706.000000	14.651800
1705.000000	14.616800
1704.000000	14.564400
1703.000000	14.519900
1702.000000	14.450300
1701.000000	14.364000
1700.000000	14.241900
1699.000000	14.130500
1698.000000	14.006800
1697.000000	13.879600
1696.000000	13.788900
1695.000000	13.731900
1694.000000	13.683700
1693.000000	13.717600
1692.000000	13.793700
1691.000000	13.895700
1690.000000	14.026800
1689.000000	14.143000
1688.000000	14.241500
1687.000000	14.317000
1686.000000	14.403900
1685.000000	14.407200
1684.000000	14.434000
1683.000000	14.521300
1682.000000	14.671400
1681.000000	14.903900
1680.000000	15.235400
1679.000000	15.634400
1678.000000	16.095500
1677.000000	16.566200
1676.000000	16.994600
1675.000000	17.411800
1674.000000	17.765100
1673.000000	18.082800
1672.000000	18.371100
1671.000000	18.616200
1670.000000	18.806900
1669.000000	19.015800
1668.000000	19.162200
1667.000000	19.297900
1666.000000	19.401900
1665.000000	19.517200
1664.000000	19.593300
1663.000000	19.700100
1662.000000	19.765100
1661.000000	19.814900
1660.000000	19.876800
1659.000000	19.907500
1658.000000	19.973500
1657.000000	19.976200
1656.000000	20.008700
1655.000000	20.021100
1654.000000	20.006300
1653.000000	20.032500
1652.000000	20.006800
1651.000000	19.989700
1650.000000	19.990800
1649.000000	19.953300
1648.000000	19.919100
1647.000000	19.879100
1646.000000	19.839200
1645.000000	19.801600
1644.000000	19.760900
1643.000000	19.683400
1642.000000	19.650200
1641.000000	19.604900
1640.000000	19.547700
1639.000000	19.470400
1638.000000	19.422200
1637.000000	19.364500
1636.000000	19.275100
1635.000000	19.214300
1634.000000	19.167300
1633.000000	19.092400
1632.000000	19.013700
1631.000000	18.943000
1630.000000	18.871200
1629.000000	18.765300
1628.000000	18.694400
1627.000000	18.620100
1626.000000	18.532000
1625.000000	18.463600
1624.000000	18.375500
1623.000000	18.312800
1622.000000	18.215000
1621.000000	18.125300
1620.000000	18.062000
1619.000000	17.980800
1618.000000	17.901200
1617.000000	17.819000
1616.000000	17.757900
1615.000000	17.677400
1614.000000	17.585800
1613.000000	17.518900
1612.000000	17.439300
1611.000000	17.350700
1610.000000	17.291600
1609.000000	17.215400
1608.000000	17.162600
1607.000000	17.087900
1606.000000	17.012300
1605.000000	16.947000
1604.000000	16.868000
1603.000000	16.794700
1602.000000	16.721200
1601.000000	16.644400
1600.000000	16.586000
1599.000000	16.518600
1598.000000	16.444000
1597.000000	16.373700
