PE UV       SUBTECH     SPECTRUM    ASCII       PEDS        4.00        
   -1
CICIMAUCR0251-3.Sample.ASC
24/05/27
17:05:10.00
24/05/27
17:05:10.00
Vinicio Soto Monge
C. resplendens, F
250,000000
1
Lambda 1050
1050L1511233
PerkinElmer UV WinLab 6.3.2.0749 / 2.02.05 Lambda 900 UV/VIS/NIR, Aug  7 2015 09:38:08

0
0
3350/servo 860,8/2
0
0
UV/VIS
1
1
1
DoubleDePol,CommonBeamDepol,RBeamAtt,SBeamAtt,60mm sphere, WB InGaAs Detector
0
0
0
0
Program
Program
3350/servo 860,8/2
3350/0,2 860,8/0,2
3350/0,2 860,8/0,2
0
15.00
 
 
 
0
 
860,8
319,2
860,8
Front
100
on
S:100 R:100
0
0
0
0
 
0
 
 
 
0
 
 
0
0
0
0
0
 
 
 
 
0
0


0
0
#HDR
-1
-1
#GR
nm
%R
1.0
0.0
2500,000000
-1,000000
2251
8
89,601500
5,208800
#DATA
2500.000000	5.589900
2499.000000	5.561900
2498.000000	5.580500
2497.000000	5.418800
2496.000000	5.470100
2495.000000	5.440000
2494.000000	5.343700
2493.000000	5.451300
2492.000000	5.472000
2491.000000	5.369000
2490.000000	5.430800
2489.000000	5.396400
2488.000000	5.373700
2487.000000	5.290100
2486.000000	5.350500
2485.000000	5.346500
2484.000000	5.324600
2483.000000	5.259900
2482.000000	5.288100
2481.000000	5.316600
2480.000000	5.255000
2479.000000	5.281400
2478.000000	5.261400
2477.000000	5.208800
2476.000000	5.267100
2475.000000	5.279800
2474.000000	5.294800
2473.000000	5.244300
2472.000000	5.259700
2471.000000	5.244500
2470.000000	5.229000
2469.000000	5.234600
2468.000000	5.256500
2467.000000	5.223400
2466.000000	5.220800
2465.000000	5.225800
2464.000000	5.232600
2463.000000	5.255300
2462.000000	5.267300
2461.000000	5.264400
2460.000000	5.223500
2459.000000	5.260200
2458.000000	5.297900
2457.000000	5.298000
2456.000000	5.285100
2455.000000	5.304500
2454.000000	5.339600
2453.000000	5.352900
2452.000000	5.357200
2451.000000	5.369800
2450.000000	5.361600
2449.000000	5.409800
2448.000000	5.405900
2447.000000	5.438000
2446.000000	5.447800
2445.000000	5.466900
2444.000000	5.475400
2443.000000	5.516200
2442.000000	5.524700
2441.000000	5.539800
2440.000000	5.567800
2439.000000	5.583300
2438.000000	5.583400
2437.000000	5.604100
2436.000000	5.639700
2435.000000	5.633900
2434.000000	5.677200
2433.000000	5.697400
2432.000000	5.688100
2431.000000	5.714100
2430.000000	5.736000
2429.000000	5.758700
2428.000000	5.763100
2427.000000	5.777200
2426.000000	5.797400
2425.000000	5.821700
2424.000000	5.825700
2423.000000	5.826300
2422.000000	5.837900
2421.000000	5.850500
2420.000000	5.892500
2419.000000	5.901900
2418.000000	5.898200
2417.000000	5.900500
2416.000000	5.919700
2415.000000	5.934600
2414.000000	5.947400
2413.000000	5.963400
2412.000000	5.975100
2411.000000	5.981300
2410.000000	5.990800
2409.000000	6.010900
2408.000000	6.022400
2407.000000	6.021800
2406.000000	6.032900
2405.000000	6.056000
2404.000000	6.063900
2403.000000	6.065900
2402.000000	6.071100
2401.000000	6.085900
2400.000000	6.089600
2399.000000	6.103500
2398.000000	6.102000
2397.000000	6.092200
2396.000000	6.116600
2395.000000	6.132900
2394.000000	6.140800
2393.000000	6.150900
2392.000000	6.161000
2391.000000	6.171500
2390.000000	6.167100
2389.000000	6.168400
2388.000000	6.179700
2387.000000	6.199100
2386.000000	6.207500
2385.000000	6.204100
2384.000000	6.199800
2383.000000	6.210300
2382.000000	6.214500
2381.000000	6.207400
2380.000000	6.215800
2379.000000	6.214900
2378.000000	6.206000
2377.000000	6.194800
2376.000000	6.202500
2375.000000	6.206500
2374.000000	6.197400
2373.000000	6.195300
2372.000000	6.193500
2371.000000	6.180900
2370.000000	6.162200
2369.000000	6.153900
2368.000000	6.155700
2367.000000	6.145100
2366.000000	6.124500
2365.000000	6.110100
2364.000000	6.102700
2363.000000	6.075800
2362.000000	6.051400
2361.000000	6.032500
2360.000000	6.018400
2359.000000	5.999600
2358.000000	5.974800
2357.000000	5.950700
2356.000000	5.936700
2355.000000	5.921900
2354.000000	5.903200
2353.000000	5.898400
2352.000000	5.905400
2351.000000	5.907700
2350.000000	5.904300
2349.000000	5.912500
2348.000000	5.930200
2347.000000	5.927900
2346.000000	5.923200
2345.000000	5.934100
2344.000000	5.945900
2343.000000	5.957900
2342.000000	5.972400
2341.000000	5.987300
2340.000000	6.012700
2339.000000	6.026700
2338.000000	6.032500
2337.000000	6.037600
2336.000000	6.033400
2335.000000	6.045900
2334.000000	6.043000
2333.000000	6.038900
2332.000000	6.024300
2331.000000	6.001000
2330.000000	5.969900
2329.000000	5.965700
2328.000000	5.945900
2327.000000	5.919100
2326.000000	5.891800
2325.000000	5.867300
2324.000000	5.842800
2323.000000	5.816000
2322.000000	5.782900
2321.000000	5.750900
2320.000000	5.717100
2319.000000	5.679600
2318.000000	5.641400
2317.000000	5.593800
2316.000000	5.570400
2315.000000	5.544800
2314.000000	5.501400
2313.000000	5.473300
2312.000000	5.436100
2311.000000	5.393000
2310.000000	5.358300
2309.000000	5.345600
2308.000000	5.306300
2307.000000	5.290800
2306.000000	5.287600
2305.000000	5.284800
2304.000000	5.278800
2303.000000	5.285100
2302.000000	5.300300
2301.000000	5.300400
2300.000000	5.319900
2299.000000	5.340300
2298.000000	5.353100
2297.000000	5.383500
2296.000000	5.415800
2295.000000	5.443700
2294.000000	5.457900
2293.000000	5.466400
2292.000000	5.478500
2291.000000	5.479900
2290.000000	5.511900
2289.000000	5.520800
2288.000000	5.513400
2287.000000	5.525200
2286.000000	5.515400
2285.000000	5.520300
2284.000000	5.495400
2283.000000	5.458300
2282.000000	5.455900
2281.000000	5.438100
2280.000000	5.414700
2279.000000	5.397100
2278.000000	5.395700
2277.000000	5.369200
2276.000000	5.341500
2275.000000	5.320500
2274.000000	5.311000
2273.000000	5.317600
2272.000000	5.295500
2271.000000	5.269000
2270.000000	5.252900
2269.000000	5.268800
2268.000000	5.268900
2267.000000	5.290000
2266.000000	5.307500
2265.000000	5.329000
2264.000000	5.361400
2263.000000	5.415000
2262.000000	5.452600
2261.000000	5.511800
2260.000000	5.579900
2259.000000	5.649200
2258.000000	5.707700
2257.000000	5.796800
2256.000000	5.881100
2255.000000	5.980700
2254.000000	6.059000
2253.000000	6.154300
2252.000000	6.248100
2251.000000	6.348900
2250.000000	6.423000
2249.000000	6.508800
2248.000000	6.608300
2247.000000	6.703600
2246.000000	6.769000
2245.000000	6.843200
2244.000000	6.919600
2243.000000	6.977600
2242.000000	7.025600
2241.000000	7.097600
2240.000000	7.140700
2239.000000	7.199600
2238.000000	7.264700
2237.000000	7.302400
2236.000000	7.333500
2235.000000	7.369300
2234.000000	7.409800
2233.000000	7.450400
2232.000000	7.470900
2231.000000	7.508700
2230.000000	7.516800
2229.000000	7.557300
2228.000000	7.570300
2227.000000	7.580600
2226.000000	7.583500
2225.000000	7.574800
2224.000000	7.604500
2223.000000	7.581700
2222.000000	7.585700
2221.000000	7.590500
2220.000000	7.595300
2219.000000	7.588600
2218.000000	7.579800
2217.000000	7.571500
2216.000000	7.542100
2215.000000	7.549200
2214.000000	7.519100
2213.000000	7.519700
2212.000000	7.500500
2211.000000	7.514100
2210.000000	7.483200
2209.000000	7.491000
2208.000000	7.459000
2207.000000	7.467200
2206.000000	7.457500
2205.000000	7.454400
2204.000000	7.431700
2203.000000	7.415400
2202.000000	7.419900
2201.000000	7.427300
2200.000000	7.415300
2199.000000	7.399800
2198.000000	7.377200
2197.000000	7.379500
2196.000000	7.379100
2195.000000	7.374200
2194.000000	7.396300
2193.000000	7.366400
2192.000000	7.371800
2191.000000	7.368300
2190.000000	7.369900
2189.000000	7.347200
2188.000000	7.375300
2187.000000	7.352300
2186.000000	7.356300
2185.000000	7.356600
2184.000000	7.331300
2183.000000	7.340300
2182.000000	7.335800
2181.000000	7.328700
2180.000000	7.332700
2179.000000	7.308500
2178.000000	7.318100
2177.000000	7.328300
2176.000000	7.321500
2175.000000	7.314800
2174.000000	7.338900
2173.000000	7.330500
2172.000000	7.326600
2171.000000	7.339400
2170.000000	7.339500
2169.000000	7.346300
2168.000000	7.356900
2167.000000	7.386100
2166.000000	7.397400
2165.000000	7.367500
2164.000000	7.421800
2163.000000	7.439100
2162.000000	7.432300
2161.000000	7.469200
2160.000000	7.486500
2159.000000	7.497700
2158.000000	7.493100
2157.000000	7.525200
2156.000000	7.544400
2155.000000	7.559700
2154.000000	7.582600
2153.000000	7.596100
2152.000000	7.604700
2151.000000	7.641900
2150.000000	7.650200
2149.000000	7.664000
2148.000000	7.700100
2147.000000	7.702100
2146.000000	7.712400
2145.000000	7.733700
2144.000000	7.764800
2143.000000	7.764500
2142.000000	7.783900
2141.000000	7.803900
2140.000000	7.829300
2139.000000	7.833400
2138.000000	7.832500
2137.000000	7.841100
2136.000000	7.857300
2135.000000	7.862700
2134.000000	7.872100
2133.000000	7.862800
2132.000000	7.873600
2131.000000	7.878700
2130.000000	7.871800
2129.000000	7.869800
2128.000000	7.881100
2127.000000	7.874300
2126.000000	7.871100
2125.000000	7.865800
2124.000000	7.833400
2123.000000	7.819100
2122.000000	7.814500
2121.000000	7.809800
2120.000000	7.803000
2119.000000	7.798400
2118.000000	7.761600
2117.000000	7.756800
2116.000000	7.752100
2115.000000	7.743700
2114.000000	7.700000
2113.000000	7.668300
2112.000000	7.650200
2111.000000	7.623600
2110.000000	7.619800
2109.000000	7.606800
2108.000000	7.575100
2107.000000	7.550400
2106.000000	7.526300
2105.000000	7.517300
2104.000000	7.498200
2103.000000	7.467800
2102.000000	7.445100
2101.000000	7.421900
2100.000000	7.414100
2099.000000	7.396800
2098.000000	7.373300
2097.000000	7.351300
2096.000000	7.337200
2095.000000	7.316900
2094.000000	7.302000
2093.000000	7.297800
2092.000000	7.290900
2091.000000	7.270600
2090.000000	7.258800
2089.000000	7.249600
2088.000000	7.230900
2087.000000	7.204900
2086.000000	7.189600
2085.000000	7.176800
2084.000000	7.156800
2083.000000	7.143200
2082.000000	7.136500
2081.000000	7.109500
2080.000000	7.088900
2079.000000	7.084500
2078.000000	7.061600
2077.000000	7.045800
2076.000000	7.031400
2075.000000	7.016000
2074.000000	6.984100
2073.000000	6.972400
2072.000000	6.966500
2071.000000	6.929900
2070.000000	6.905000
2069.000000	6.884300
2068.000000	6.858600
2067.000000	6.847000
2066.000000	6.822100
2065.000000	6.794200
2064.000000	6.775000
2063.000000	6.757900
2062.000000	6.750000
2061.000000	6.741700
2060.000000	6.709400
2059.000000	6.688800
2058.000000	6.680400
2057.000000	6.681100
2056.000000	6.671000
2055.000000	6.671800
2054.000000	6.677000
2053.000000	6.681100
2052.000000	6.691800
2051.000000	6.703500
2050.000000	6.707000
2049.000000	6.713500
2048.000000	6.749100
2047.000000	6.777700
2046.000000	6.815300
2045.000000	6.840300
2044.000000	6.872600
2043.000000	6.901500
2042.000000	6.923600
2041.000000	6.963400
2040.000000	7.003600
2039.000000	7.037100
2038.000000	7.083700
2037.000000	7.130800
2036.000000	7.142600
2035.000000	7.181100
2034.000000	7.196700
2033.000000	7.221800
2032.000000	7.249300
2031.000000	7.269200
2030.000000	7.297300
2029.000000	7.307800
2028.000000	7.329200
2027.000000	7.344300
2026.000000	7.355100
2025.000000	7.362000
2024.000000	7.386000
2023.000000	7.384100
2022.000000	7.389700
2021.000000	7.411100
2020.000000	7.414800
2019.000000	7.418900
2018.000000	7.438200
2017.000000	7.424300
2016.000000	7.427200
2015.000000	7.424400
2014.000000	7.424000
2013.000000	7.414800
2012.000000	7.406700
2011.000000	7.400900
2010.000000	7.394400
2009.000000	7.395000
2008.000000	7.367400
2007.000000	7.356300
2006.000000	7.341300
2005.000000	7.328200
2004.000000	7.309900
2003.000000	7.273100
2002.000000	7.259700
2001.000000	7.237300
2000.000000	7.220800
1999.000000	7.195400
1998.000000	7.171400
1997.000000	7.154700
1996.000000	7.133100
1995.000000	7.076600
1994.000000	7.045800
1993.000000	7.040400
1992.000000	7.008700
1991.000000	6.973800
1990.000000	6.931300
1989.000000	6.921800
1988.000000	6.876100
1987.000000	6.835500
1986.000000	6.810900
1985.000000	6.771800
1984.000000	6.731200
1983.000000	6.707500
1982.000000	6.666200
1981.000000	6.638800
1980.000000	6.614400
1979.000000	6.591900
1978.000000	6.544200
1977.000000	6.507300
1976.000000	6.479500
1975.000000	6.440500
1974.000000	6.408000
1973.000000	6.402100
1972.000000	6.370700
1971.000000	6.324700
1970.000000	6.295500
1969.000000	6.273400
1968.000000	6.258700
1967.000000	6.230900
1966.000000	6.204900
1965.000000	6.187100
1964.000000	6.152500
1963.000000	6.144500
1962.000000	6.112500
1961.000000	6.095500
1960.000000	6.065500
1959.000000	6.048400
1958.000000	6.035200
1957.000000	6.008700
1956.000000	5.997200
1955.000000	5.979400
1954.000000	5.939400
1953.000000	5.919700
1952.000000	5.904600
1951.000000	5.890600
1950.000000	5.855800
1949.000000	5.848100
1948.000000	5.842300
1947.000000	5.824500
1946.000000	5.831400
1945.000000	5.839800
1944.000000	5.816100
1943.000000	5.780300
1942.000000	5.773300
1941.000000	5.763400
1940.000000	5.778900
1939.000000	5.766400
1938.000000	5.768000
1937.000000	5.779300
1936.000000	5.774900
1935.000000	5.796900
1934.000000	5.793600
1933.000000	5.804600
1932.000000	5.805200
1931.000000	5.823500
1930.000000	5.834400
1929.000000	5.856300
1928.000000	5.878200
1927.000000	5.897600
1926.000000	5.919500
1925.000000	5.954700
1924.000000	5.977400
1923.000000	6.010500
1922.000000	6.056500
1921.000000	6.109600
1920.000000	6.145300
1919.000000	6.186900
1918.000000	6.228000
1917.000000	6.292500
1916.000000	6.329100
1915.000000	6.386800
1914.000000	6.441400
1913.000000	6.525400
1912.000000	6.602400
1911.000000	6.669800
1910.000000	6.735800
1909.000000	6.805400
1908.000000	6.883000
1907.000000	6.979000
1906.000000	7.078700
1905.000000	7.187500
1904.000000	7.297400
1903.000000	7.398200
1902.000000	7.549700
1901.000000	7.664900
1900.000000	7.791000
1899.000000	7.932500
1898.000000	8.112600
1897.000000	8.229300
1896.000000	8.412300
1895.000000	8.566100
1894.000000	8.703100
1893.000000	8.906300
1892.000000	9.092400
1891.000000	9.325500
1890.000000	9.545300
1889.000000	9.799600
1888.000000	10.031900
1887.000000	10.300100
1886.000000	10.572000
1885.000000	10.904000
1884.000000	11.239100
1883.000000	11.628600
1882.000000	12.044700
1881.000000	12.431800
1880.000000	12.861800
1879.000000	13.235200
1878.000000	13.635400
1877.000000	14.060900
1876.000000	14.464000
1875.000000	14.837800
1874.000000	15.220000
1873.000000	15.608800
1872.000000	15.976500
1871.000000	16.297800
1870.000000	16.619200
1869.000000	16.904200
1868.000000	17.200200
1867.000000	17.449700
1866.000000	17.654100
1865.000000	17.810500
1864.000000	17.986800
1863.000000	18.154700
1862.000000	18.289000
1861.000000	18.426100
1860.000000	18.561000
1859.000000	18.686800
1858.000000	18.778300
1857.000000	18.870200
1856.000000	18.940900
1855.000000	18.976000
1854.000000	19.026500
1853.000000	19.074400
1852.000000	19.063100
1851.000000	19.092200
1850.000000	19.078600
1849.000000	19.086700
1848.000000	19.093900
1847.000000	19.087300
1846.000000	19.060800
1845.000000	19.017800
1844.000000	18.990000
1843.000000	18.979200
1842.000000	18.978000
1841.000000	18.987200
1840.000000	18.967900
1839.000000	18.950200
1838.000000	18.915500
1837.000000	18.888200
1836.000000	18.848100
1835.000000	18.819800
1834.000000	18.786900
1833.000000	18.737600
1832.000000	18.689200
1831.000000	18.642900
1830.000000	18.594500
1829.000000	18.541400
1828.000000	18.503300
1827.000000	18.438600
1826.000000	18.376000
1825.000000	18.329100
1824.000000	18.273900
1823.000000	18.227500
1822.000000	18.204400
1821.000000	18.203900
1820.000000	18.192700
1819.000000	18.167700
1818.000000	18.116300
1817.000000	18.089300
1816.000000	18.088200
1815.000000	18.081000
1814.000000	18.082300
1813.000000	18.073900
1812.000000	18.058700
1811.000000	18.035500
1810.000000	18.013600
1809.000000	17.977600
1808.000000	17.952700
1807.000000	17.926500
1806.000000	17.886700
1805.000000	17.835900
1804.000000	17.798500
1803.000000	17.759400
1802.000000	17.701100
1801.000000	17.664500
1800.000000	17.618600
1799.000000	17.556300
1798.000000	17.509800
1797.000000	17.464700
1796.000000	17.426800
1795.000000	17.387100
1794.000000	17.348800
1793.000000	17.307100
1792.000000	17.259600
1791.000000	17.208300
1790.000000	17.143700
1789.000000	17.086600
1788.000000	17.042000
1787.000000	16.992700
1786.000000	16.926700
1785.000000	16.876100
1784.000000	16.821200
1783.000000	16.751900
1782.000000	16.689600
1781.000000	16.624600
1780.000000	16.545300
1779.000000	16.468700
1778.000000	16.405100
1777.000000	16.342700
1776.000000	16.275800
1775.000000	16.189100
1774.000000	16.093100
1773.000000	16.000200
1772.000000	15.910900
1771.000000	15.813000
1770.000000	15.707300
1769.000000	15.605800
1768.000000	15.517500
1767.000000	15.424800
1766.000000	15.354700
1765.000000	15.270900
1764.000000	15.207600
1763.000000	15.163700
1762.000000	15.161300
1761.000000	15.164300
1760.000000	15.188500
1759.000000	15.251900
1758.000000	15.304900
1757.000000	15.363000
1756.000000	15.433700
1755.000000	15.480700
1754.000000	15.518600
1753.000000	15.573500
1752.000000	15.595800
1751.000000	15.603200
1750.000000	15.606300
1749.000000	15.592300
1748.000000	15.577100
1747.000000	15.529600
1746.000000	15.479300
1745.000000	15.402400
1744.000000	15.305700
1743.000000	15.183300
1742.000000	15.045400
1741.000000	14.904000
1740.000000	14.735400
1739.000000	14.551100
1738.000000	14.361200
1737.000000	14.189700
1736.000000	14.032500
1735.000000	13.911400
1734.000000	13.831400
1733.000000	13.759400
1732.000000	13.720700
1731.000000	13.733100
1730.000000	13.771100
1729.000000	13.837200
1728.000000	13.915900
1727.000000	14.008100
1726.000000	14.105000
1725.000000	14.183600
1724.000000	14.225200
1723.000000	14.288400
1722.000000	14.344900
1721.000000	14.370200
1720.000000	14.383600
1719.000000	14.425800
1718.000000	14.449200
1717.000000	14.493300
1716.000000	14.555600
1715.000000	14.609900
1714.000000	14.670800
1713.000000	14.748700
1712.000000	14.798700
1711.000000	14.849500
1710.000000	14.898500
1709.000000	14.923100
1708.000000	14.941200
1707.000000	14.932300
1706.000000	14.912900
1705.000000	14.877700
1704.000000	14.838400
1703.000000	14.805800
1702.000000	14.724600
1701.000000	14.647000
1700.000000	14.541300
1699.000000	14.419400
1698.000000	14.286000
1697.000000	14.146300
1696.000000	14.051400
1695.000000	14.002800
1694.000000	13.959700
1693.000000	13.998400
1692.000000	14.069500
1691.000000	14.168600
1690.000000	14.286100
1689.000000	14.427300
1688.000000	14.520900
1687.000000	14.589800
1686.000000	14.630800
1685.000000	14.670300
1684.000000	14.716600
1683.000000	14.803900
1682.000000	14.943100
1681.000000	15.159100
1680.000000	15.500100
1679.000000	15.914900
1678.000000	16.355000
1677.000000	16.813100
1676.000000	17.247700
1675.000000	17.674300
1674.000000	18.011500
1673.000000	18.346900
1672.000000	18.595000
1671.000000	18.834100
1670.000000	19.049100
1669.000000	19.226700
1668.000000	19.382100
1667.000000	19.524100
1666.000000	19.626800
1665.000000	19.735000
1664.000000	19.840000
1663.000000	19.893000
1662.000000	19.967300
1661.000000	20.041300
1660.000000	20.072200
1659.000000	20.110800
1658.000000	20.143500
1657.000000	20.177300
1656.000000	20.190300
1655.000000	20.207900
1654.000000	20.224300
1653.000000	20.195100
1652.000000	20.199200
1651.000000	20.176600
1650.000000	20.146700
1649.000000	20.119800
1648.000000	20.076100
1647.000000	20.037200
1646.000000	20.008600
1645.000000	19.940700
1644.000000	19.894900
1643.000000	19.824900
1642.000000	19.802000
1641.000000	19.737200
1640.000000	19.690500
1639.000000	19.624200
1638.000000	19.552400
1637.000000	19.489900
1636.000000	19.423900
1635.000000	19.342900
1634.000000	19.288200
1633.000000	19.216300
1632.000000	19.124600
1631.000000	19.063900
1630.000000	19.012400
1629.000000	18.904200
1628.000000	18.825400
1627.000000	18.756100
1626.000000	18.668200
1625.000000	18.597200
1624.000000	18.518300
1623.000000	18.435300
1622.000000	18.360000
1621.000000	18.260900
1620.000000	18.184900
1619.000000	18.115400
1618.000000	18.046800
1617.000000	17.979700
1616.000000	17.903500
1615.000000	17.838000
1614.000000	17.756700
1613.000000	17.682400
1612.000000	17.614700
1611.000000	17.550900
1610.000000	17.474600
1609.000000	17.424800
1608.000000	17.352400
1607.000000	17.283300
1606.000000	17.228900
1605.000000	17.164800
1604.000000	17.091400
1603.000000	17.003400
1602.000000	16.948700
1601.000000	16.896900
1600.000000	16.830000
1599.000000	16.775300
1598.000000	16.692900
1597.000000	16.646800
