PE UV       SUBTECH     SPECTRUM    ASCII       PEDS        4.00        
   -1
CICIMAUCR0204-2.Sample.ASC
24/05/31
15:45:50.00
24/05/31
15:45:50.00
Vinicio Soto Monge
C. cupreomarginata. Sex M. Dorsal
250,000000
1
Lambda 1050
1050L1511233
PerkinElmer UV WinLab 6.3.2.0749 / 2.02.05 Lambda 900 UV/VIS/NIR, Aug  7 2015 09:38:08

0
0
3350/servo 860,8/2
0
0
UV/VIS
1
1
1
DoubleDePol,CommonBeamDepol,RBeamAtt,SBeamAtt,60mm sphere, WB InGaAs Detector
0
0
0
0
Program
Program
3350/servo 860,8/2
3350/0,2 860,8/0,2
3350/0,2 860,8/0,2
0
15.00
 
 
 
0
 
860,8
319,2
860,8
Front
100
on
S:100 R:100
0
0
0
0
 
0
 
 
 
0
 
 
0
0
0
0
0
 
 
 
 
0
0


0
0
#HDR
-1
-1
#GR
nm
%R
1.0
0.0
2500,000000
-1,000000
2251
8
68,788900
5,307800
#DATA
2500.000000	10.888800
2499.000000	10.929200
2498.000000	11.033400
2497.000000	10.880300
2496.000000	10.908300
2495.000000	10.759900
2494.000000	10.873000
2493.000000	10.790500
2492.000000	10.806100
2491.000000	10.823600
2490.000000	10.798600
2489.000000	10.674800
2488.000000	10.797400
2487.000000	10.808200
2486.000000	10.655900
2485.000000	10.774500
2484.000000	10.757800
2483.000000	10.688900
2482.000000	10.735400
2481.000000	10.711600
2480.000000	10.760900
2479.000000	10.774500
2478.000000	10.760000
2477.000000	10.789100
2476.000000	10.768900
2475.000000	10.789000
2474.000000	10.802900
2473.000000	10.789000
2472.000000	10.813000
2471.000000	10.773400
2470.000000	10.828800
2469.000000	10.865700
2468.000000	10.854100
2467.000000	10.902000
2466.000000	10.886700
2465.000000	10.892200
2464.000000	10.937800
2463.000000	11.001500
2462.000000	11.004300
2461.000000	11.043700
2460.000000	11.075200
2459.000000	11.154100
2458.000000	11.233800
2457.000000	11.294500
2456.000000	11.335600
2455.000000	11.428200
2454.000000	11.491800
2453.000000	11.597600
2452.000000	11.665800
2451.000000	11.733300
2450.000000	11.803000
2449.000000	11.914800
2448.000000	11.997400
2447.000000	12.086000
2446.000000	12.168200
2445.000000	12.267700
2444.000000	12.355200
2443.000000	12.430100
2442.000000	12.522400
2441.000000	12.614700
2440.000000	12.680200
2439.000000	12.769900
2438.000000	12.877300
2437.000000	12.959800
2436.000000	13.023600
2435.000000	13.092900
2434.000000	13.154000
2433.000000	13.211000
2432.000000	13.299700
2431.000000	13.363400
2430.000000	13.429000
2429.000000	13.492600
2428.000000	13.538000
2427.000000	13.593200
2426.000000	13.649600
2425.000000	13.698500
2424.000000	13.743600
2423.000000	13.788900
2422.000000	13.846900
2421.000000	13.880000
2420.000000	13.931100
2419.000000	13.975400
2418.000000	13.993700
2417.000000	14.030000
2416.000000	14.073000
2415.000000	14.098300
2414.000000	14.137100
2413.000000	14.194000
2412.000000	14.218800
2411.000000	14.260400
2410.000000	14.290000
2409.000000	14.313400
2408.000000	14.345000
2407.000000	14.381000
2406.000000	14.417100
2405.000000	14.438200
2404.000000	14.475100
2403.000000	14.514500
2402.000000	14.541600
2401.000000	14.561800
2400.000000	14.605400
2399.000000	14.649300
2398.000000	14.686700
2397.000000	14.711200
2396.000000	14.734900
2395.000000	14.773600
2394.000000	14.798000
2393.000000	14.821500
2392.000000	14.849500
2391.000000	14.879600
2390.000000	14.897500
2389.000000	14.923000
2388.000000	14.943100
2387.000000	14.958500
2386.000000	14.970200
2385.000000	14.979600
2384.000000	14.980000
2383.000000	14.980600
2382.000000	14.990200
2381.000000	14.987200
2380.000000	14.984200
2379.000000	14.972700
2378.000000	14.957400
2377.000000	14.946900
2376.000000	14.930300
2375.000000	14.912900
2374.000000	14.897300
2373.000000	14.880300
2372.000000	14.861200
2371.000000	14.835600
2370.000000	14.800800
2369.000000	14.769600
2368.000000	14.751800
2367.000000	14.709700
2366.000000	14.654900
2365.000000	14.610700
2364.000000	14.557100
2363.000000	14.492200
2362.000000	14.429800
2361.000000	14.370900
2360.000000	14.310000
2359.000000	14.251400
2358.000000	14.199000
2357.000000	14.154400
2356.000000	14.109400
2355.000000	14.066200
2354.000000	14.039800
2353.000000	14.018700
2352.000000	14.012400
2351.000000	14.014600
2350.000000	14.017300
2349.000000	14.023800
2348.000000	14.052100
2347.000000	14.084200
2346.000000	14.123400
2345.000000	14.173600
2344.000000	14.209700
2343.000000	14.247200
2342.000000	14.291300
2341.000000	14.327400
2340.000000	14.356900
2339.000000	14.389500
2338.000000	14.409700
2337.000000	14.427100
2336.000000	14.441600
2335.000000	14.422300
2334.000000	14.404000
2333.000000	14.401100
2332.000000	14.376000
2331.000000	14.337400
2330.000000	14.282300
2329.000000	14.225400
2328.000000	14.173900
2327.000000	14.108000
2326.000000	14.030600
2325.000000	13.951300
2324.000000	13.864900
2323.000000	13.771100
2322.000000	13.660600
2321.000000	13.556700
2320.000000	13.448100
2319.000000	13.316600
2318.000000	13.184900
2317.000000	13.073800
2316.000000	12.916800
2315.000000	12.777100
2314.000000	12.665600
2313.000000	12.543600
2312.000000	12.412400
2311.000000	12.307500
2310.000000	12.195500
2309.000000	12.098800
2308.000000	12.037800
2307.000000	11.990300
2306.000000	11.974800
2305.000000	11.970900
2304.000000	11.973900
2303.000000	11.985200
2302.000000	12.026900
2301.000000	12.098800
2300.000000	12.179000
2299.000000	12.252400
2298.000000	12.350800
2297.000000	12.461200
2296.000000	12.565800
2295.000000	12.660600
2294.000000	12.755700
2293.000000	12.818900
2292.000000	12.906800
2291.000000	12.954500
2290.000000	12.973800
2289.000000	13.004500
2288.000000	13.047800
2287.000000	13.044800
2286.000000	13.023100
2285.000000	13.002200
2284.000000	12.982200
2283.000000	12.943600
2282.000000	12.894800
2281.000000	12.835700
2280.000000	12.775100
2279.000000	12.711300
2278.000000	12.631500
2277.000000	12.584000
2276.000000	12.545100
2275.000000	12.479900
2274.000000	12.449900
2273.000000	12.415800
2272.000000	12.384200
2271.000000	12.379800
2270.000000	12.396600
2269.000000	12.421000
2268.000000	12.453800
2267.000000	12.535800
2266.000000	12.613600
2265.000000	12.733600
2264.000000	12.889500
2263.000000	13.043100
2262.000000	13.213000
2261.000000	13.428700
2260.000000	13.637500
2259.000000	13.867400
2258.000000	14.117000
2257.000000	14.384100
2256.000000	14.649800
2255.000000	14.919100
2254.000000	15.176400
2253.000000	15.410000
2252.000000	15.665700
2251.000000	15.905800
2250.000000	16.127900
2249.000000	16.333400
2248.000000	16.546300
2247.000000	16.752600
2246.000000	16.918000
2245.000000	17.066100
2244.000000	17.198800
2243.000000	17.346500
2242.000000	17.486000
2241.000000	17.617000
2240.000000	17.694900
2239.000000	17.809800
2238.000000	17.896800
2237.000000	17.977700
2236.000000	18.059400
2235.000000	18.120100
2234.000000	18.162000
2233.000000	18.221900
2232.000000	18.261600
2231.000000	18.298500
2230.000000	18.339100
2229.000000	18.366400
2228.000000	18.364400
2227.000000	18.372200
2226.000000	18.381400
2225.000000	18.388800
2224.000000	18.352800
2223.000000	18.325500
2222.000000	18.306100
2221.000000	18.296100
2220.000000	18.286600
2219.000000	18.231000
2218.000000	18.211300
2217.000000	18.185600
2216.000000	18.131300
2215.000000	18.097000
2214.000000	18.051400
2213.000000	18.040900
2212.000000	18.001300
2211.000000	17.958600
2210.000000	17.922000
2209.000000	17.902800
2208.000000	17.864800
2207.000000	17.851800
2206.000000	17.806100
2205.000000	17.795400
2204.000000	17.777700
2203.000000	17.769800
2202.000000	17.748100
2201.000000	17.730400
2200.000000	17.710400
2199.000000	17.713200
2198.000000	17.676300
2197.000000	17.671100
2196.000000	17.643300
2195.000000	17.620100
2194.000000	17.625500
2193.000000	17.615800
2192.000000	17.584000
2191.000000	17.582200
2190.000000	17.566500
2189.000000	17.557700
2188.000000	17.545100
2187.000000	17.535900
2186.000000	17.523600
2185.000000	17.496400
2184.000000	17.468000
2183.000000	17.476300
2182.000000	17.459100
2181.000000	17.455200
2180.000000	17.427100
2179.000000	17.425600
2178.000000	17.403400
2177.000000	17.396700
2176.000000	17.396700
2175.000000	17.387000
2174.000000	17.386800
2173.000000	17.380300
2172.000000	17.378600
2171.000000	17.391600
2170.000000	17.390700
2169.000000	17.408700
2168.000000	17.433900
2167.000000	17.437700
2166.000000	17.465800
2165.000000	17.481000
2164.000000	17.505400
2163.000000	17.523100
2162.000000	17.556600
2161.000000	17.596200
2160.000000	17.622000
2159.000000	17.641900
2158.000000	17.678900
2157.000000	17.743300
2156.000000	17.769400
2155.000000	17.830000
2154.000000	17.877500
2153.000000	17.924600
2152.000000	17.955100
2151.000000	18.004800
2150.000000	18.053800
2149.000000	18.098900
2148.000000	18.143600
2147.000000	18.194900
2146.000000	18.250100
2145.000000	18.299600
2144.000000	18.331800
2143.000000	18.370000
2142.000000	18.422700
2141.000000	18.477100
2140.000000	18.513900
2139.000000	18.534600
2138.000000	18.575900
2137.000000	18.604200
2136.000000	18.631400
2135.000000	18.660400
2134.000000	18.684100
2133.000000	18.705400
2132.000000	18.724900
2131.000000	18.752200
2130.000000	18.780600
2129.000000	18.785500
2128.000000	18.792300
2127.000000	18.794900
2126.000000	18.803600
2125.000000	18.800900
2124.000000	18.774600
2123.000000	18.780800
2122.000000	18.781600
2121.000000	18.761100
2120.000000	18.735200
2119.000000	18.723200
2118.000000	18.699700
2117.000000	18.680400
2116.000000	18.658900
2115.000000	18.636400
2114.000000	18.610000
2113.000000	18.576800
2112.000000	18.560200
2111.000000	18.540700
2110.000000	18.501600
2109.000000	18.467900
2108.000000	18.440900
2107.000000	18.404500
2106.000000	18.376100
2105.000000	18.339500
2104.000000	18.303200
2103.000000	18.272300
2102.000000	18.240000
2101.000000	18.210700
2100.000000	18.166600
2099.000000	18.119800
2098.000000	18.090000
2097.000000	18.063100
2096.000000	18.039200
2095.000000	18.007000
2094.000000	17.985700
2093.000000	17.953100
2092.000000	17.917500
2091.000000	17.896200
2090.000000	17.866300
2089.000000	17.829100
2088.000000	17.815000
2087.000000	17.800300
2086.000000	17.758100
2085.000000	17.721700
2084.000000	17.692200
2083.000000	17.661600
2082.000000	17.623300
2081.000000	17.567400
2080.000000	17.530100
2079.000000	17.502700
2078.000000	17.460400
2077.000000	17.416300
2076.000000	17.367800
2075.000000	17.300500
2074.000000	17.252700
2073.000000	17.204400
2072.000000	17.142100
2071.000000	17.084700
2070.000000	17.035300
2069.000000	16.984800
2068.000000	16.923500
2067.000000	16.864700
2066.000000	16.805500
2065.000000	16.749300
2064.000000	16.684200
2063.000000	16.622400
2062.000000	16.586500
2061.000000	16.543000
2060.000000	16.495100
2059.000000	16.455200
2058.000000	16.436300
2057.000000	16.407200
2056.000000	16.379700
2055.000000	16.376100
2054.000000	16.390100
2053.000000	16.391900
2052.000000	16.402100
2051.000000	16.437700
2050.000000	16.476900
2049.000000	16.523100
2048.000000	16.591500
2047.000000	16.664400
2046.000000	16.726300
2045.000000	16.802000
2044.000000	16.888600
2043.000000	16.973100
2042.000000	17.069900
2041.000000	17.145700
2040.000000	17.216200
2039.000000	17.290900
2038.000000	17.381100
2037.000000	17.443800
2036.000000	17.501400
2035.000000	17.572000
2034.000000	17.650800
2033.000000	17.707500
2032.000000	17.750600
2031.000000	17.799500
2030.000000	17.835800
2029.000000	17.893100
2028.000000	17.932300
2027.000000	17.955500
2026.000000	17.983900
2025.000000	18.010100
2024.000000	18.037000
2023.000000	18.050000
2022.000000	18.065600
2021.000000	18.086100
2020.000000	18.093800
2019.000000	18.114600
2018.000000	18.119400
2017.000000	18.128100
2016.000000	18.111800
2015.000000	18.114500
2014.000000	18.101400
2013.000000	18.096300
2012.000000	18.084300
2011.000000	18.065800
2010.000000	18.034200
2009.000000	18.014000
2008.000000	17.974000
2007.000000	17.930700
2006.000000	17.908100
2005.000000	17.868100
2004.000000	17.818100
2003.000000	17.758700
2002.000000	17.706500
2001.000000	17.660500
2000.000000	17.588500
1999.000000	17.520400
1998.000000	17.458300
1997.000000	17.384400
1996.000000	17.306100
1995.000000	17.257100
1994.000000	17.166100
1993.000000	17.081200
1992.000000	17.010900
1991.000000	16.924800
1990.000000	16.855400
1989.000000	16.774700
1988.000000	16.690700
1987.000000	16.589700
1986.000000	16.475300
1985.000000	16.406900
1984.000000	16.315300
1983.000000	16.210800
1982.000000	16.120900
1981.000000	16.042100
1980.000000	15.949400
1979.000000	15.842000
1978.000000	15.749000
1977.000000	15.661900
1976.000000	15.561300
1975.000000	15.480800
1974.000000	15.385500
1973.000000	15.298200
1972.000000	15.225300
1971.000000	15.129900
1970.000000	15.044300
1969.000000	14.956100
1968.000000	14.867000
1967.000000	14.799500
1966.000000	14.700000
1965.000000	14.642700
1964.000000	14.552000
1963.000000	14.453800
1962.000000	14.387500
1961.000000	14.335400
1960.000000	14.244100
1959.000000	14.154800
1958.000000	14.068900
1957.000000	14.024400
1956.000000	13.956500
1955.000000	13.885200
1954.000000	13.796900
1953.000000	13.741400
1952.000000	13.667400
1951.000000	13.596400
1950.000000	13.554300
1949.000000	13.485200
1948.000000	13.423000
1947.000000	13.383300
1946.000000	13.318400
1945.000000	13.277600
1944.000000	13.238200
1943.000000	13.209400
1942.000000	13.196900
1941.000000	13.163100
1940.000000	13.130000
1939.000000	13.123200
1938.000000	13.129100
1937.000000	13.144700
1936.000000	13.151700
1935.000000	13.165400
1934.000000	13.195900
1933.000000	13.181500
1932.000000	13.228200
1931.000000	13.273200
1930.000000	13.344200
1929.000000	13.421800
1928.000000	13.487600
1927.000000	13.568800
1926.000000	13.676300
1925.000000	13.783200
1924.000000	13.864400
1923.000000	13.951100
1922.000000	14.089800
1921.000000	14.238700
1920.000000	14.377500
1919.000000	14.563000
1918.000000	14.702200
1917.000000	14.856900
1916.000000	15.005700
1915.000000	15.152200
1914.000000	15.324100
1913.000000	15.554100
1912.000000	15.776800
1911.000000	16.014400
1910.000000	16.187400
1909.000000	16.382600
1908.000000	16.552800
1907.000000	16.780500
1906.000000	17.015100
1905.000000	17.309500
1904.000000	17.635400
1903.000000	17.913500
1902.000000	18.173700
1901.000000	18.434300
1900.000000	18.734500
1899.000000	19.052200
1898.000000	19.409300
1897.000000	19.704000
1896.000000	19.995200
1895.000000	20.255000
1894.000000	20.533800
1893.000000	20.832700
1892.000000	21.168700
1891.000000	21.570900
1890.000000	21.968500
1889.000000	22.318700
1888.000000	22.684200
1887.000000	23.067700
1886.000000	23.449900
1885.000000	23.861000
1884.000000	24.301000
1883.000000	24.800800
1882.000000	25.292200
1881.000000	25.728700
1880.000000	26.196100
1879.000000	26.585100
1878.000000	27.013000
1877.000000	27.456500
1876.000000	27.862000
1875.000000	28.266800
1874.000000	28.644700
1873.000000	29.018400
1872.000000	29.395000
1871.000000	29.722900
1870.000000	30.035800
1869.000000	30.283100
1868.000000	30.552200
1867.000000	30.728900
1866.000000	30.875400
1865.000000	30.993300
1864.000000	31.104000
1863.000000	31.201400
1862.000000	31.295300
1861.000000	31.416600
1860.000000	31.537100
1859.000000	31.665600
1858.000000	31.757100
1857.000000	31.827300
1856.000000	31.877600
1855.000000	31.894300
1854.000000	31.936500
1853.000000	31.964500
1852.000000	31.965000
1851.000000	31.953600
1850.000000	31.956100
1849.000000	31.986900
1848.000000	32.006800
1847.000000	32.005400
1846.000000	32.001200
1845.000000	31.934000
1844.000000	31.891000
1843.000000	31.846000
1842.000000	31.865600
1841.000000	31.902700
1840.000000	31.885000
1839.000000	31.869000
1838.000000	31.848700
1837.000000	31.825300
1836.000000	31.791600
1835.000000	31.748400
1834.000000	31.695500
1833.000000	31.632900
1832.000000	31.569100
1831.000000	31.521600
1830.000000	31.474400
1829.000000	31.434300
1828.000000	31.387400
1827.000000	31.329700
1826.000000	31.273000
1825.000000	31.199000
1824.000000	31.147300
1823.000000	31.107200
1822.000000	31.090700
1821.000000	31.104000
1820.000000	31.095100
1819.000000	31.068500
1818.000000	31.036400
1817.000000	31.002200
1816.000000	30.978200
1815.000000	30.973200
1814.000000	30.947300
1813.000000	30.934200
1812.000000	30.931600
1811.000000	30.916900
1810.000000	30.890200
1809.000000	30.846600
1808.000000	30.801600
1807.000000	30.766500
1806.000000	30.745900
1805.000000	30.699900
1804.000000	30.645000
1803.000000	30.614400
1802.000000	30.582000
1801.000000	30.540900
1800.000000	30.488200
1799.000000	30.437100
1798.000000	30.387600
1797.000000	30.341400
1796.000000	30.308000
1795.000000	30.267400
1794.000000	30.219200
1793.000000	30.170500
1792.000000	30.133400
1791.000000	30.096000
1790.000000	30.040400
1789.000000	29.988700
1788.000000	29.943400
1787.000000	29.896700
1786.000000	29.841300
1785.000000	29.779200
1784.000000	29.729800
1783.000000	29.676600
1782.000000	29.608500
1781.000000	29.537800
1780.000000	29.486200
1779.000000	29.424400
1778.000000	29.356700
1777.000000	29.295100
1776.000000	29.221300
1775.000000	29.137100
1774.000000	29.052300
1773.000000	28.950400
1772.000000	28.855700
1771.000000	28.769700
1770.000000	28.669800
1769.000000	28.556300
1768.000000	28.462300
1767.000000	28.370100
1766.000000	28.281900
1765.000000	28.215800
1764.000000	28.164800
1763.000000	28.138500
1762.000000	28.116500
1761.000000	28.117900
1760.000000	28.143100
1759.000000	28.172800
1758.000000	28.219800
1757.000000	28.275500
1756.000000	28.332500
1755.000000	28.381000
1754.000000	28.412200
1753.000000	28.441900
1752.000000	28.452900
1751.000000	28.454600
1750.000000	28.447400
1749.000000	28.425200
1748.000000	28.391600
1747.000000	28.332100
1746.000000	28.275700
1745.000000	28.197400
1744.000000	28.107500
1743.000000	27.987600
1742.000000	27.845600
1741.000000	27.685700
1740.000000	27.514100
1739.000000	27.343300
1738.000000	27.165400
1737.000000	26.972900
1736.000000	26.829500
1735.000000	26.720900
1734.000000	26.640300
1733.000000	26.578800
1732.000000	26.573800
1731.000000	26.582100
1730.000000	26.617300
1729.000000	26.691700
1728.000000	26.761000
1727.000000	26.831300
1726.000000	26.914400
1725.000000	27.004300
1724.000000	27.081400
1723.000000	27.131200
1722.000000	27.167200
1721.000000	27.219800
1720.000000	27.272300
1719.000000	27.322900
1718.000000	27.379300
1717.000000	27.465700
1716.000000	27.523400
1715.000000	27.595200
1714.000000	27.679300
1713.000000	27.768000
1712.000000	27.847700
1711.000000	27.910400
1710.000000	27.974200
1709.000000	27.992800
1708.000000	28.031500
1707.000000	28.034100
1706.000000	28.026800
1705.000000	28.013100
1704.000000	27.972000
1703.000000	27.951600
1702.000000	27.877700
1701.000000	27.806900
1700.000000	27.698300
1699.000000	27.574800
1698.000000	27.477000
1697.000000	27.349400
1696.000000	27.264500
1695.000000	27.211900
1694.000000	27.232500
1693.000000	27.244100
1692.000000	27.323200
1691.000000	27.455900
1690.000000	27.586400
1689.000000	27.728600
1688.000000	27.819900
1687.000000	27.889600
1686.000000	27.959300
1685.000000	28.001100
1684.000000	28.088200
1683.000000	28.196800
1682.000000	28.401200
1681.000000	28.675600
1680.000000	29.039600
1679.000000	29.454700
1678.000000	29.887700
1677.000000	30.330900
1676.000000	30.740800
1675.000000	31.100300
1674.000000	31.442600
1673.000000	31.735700
1672.000000	31.994100
1671.000000	32.229300
1670.000000	32.422500
1669.000000	32.605300
1668.000000	32.774600
1667.000000	32.903300
1666.000000	33.023600
1665.000000	33.133000
1664.000000	33.238800
1663.000000	33.332100
1662.000000	33.414800
1661.000000	33.483700
1660.000000	33.530700
1659.000000	33.610100
1658.000000	33.658100
1657.000000	33.710100
1656.000000	33.752100
1655.000000	33.761900
1654.000000	33.786100
1653.000000	33.791600
1652.000000	33.814500
1651.000000	33.811600
1650.000000	33.796800
1649.000000	33.787700
1648.000000	33.793500
1647.000000	33.764100
1646.000000	33.725100
1645.000000	33.691200
1644.000000	33.662500
1643.000000	33.647000
1642.000000	33.620700
1641.000000	33.582400
1640.000000	33.543200
1639.000000	33.505400
1638.000000	33.466500
1637.000000	33.436500
1636.000000	33.385500
1635.000000	33.348900
1634.000000	33.291000
1633.000000	33.257100
1632.000000	33.200000
1631.000000	33.158900
1630.000000	33.094500
1629.000000	33.047000
1628.000000	32.977700
1627.000000	32.909500
1626.000000	32.857900
1625.000000	32.787100
