PE UV       SUBTECH     SPECTRUM    ASCII       PEDS        4.00        
   -1
CICIMAUCR0204-1.Sample.ASC
24/05/31
11:40:38.00
24/05/31
11:40:38.00
Vinicio Soto Monge
C. cupreomarginata. Sex M. Dorsal
250,000000
1
Lambda 1050
1050L1511233
PerkinElmer UV WinLab 6.3.2.0749 / 2.02.05 Lambda 900 UV/VIS/NIR, Aug  7 2015 09:38:08

0
0
3350/servo 860,8/2
0
0
UV/VIS
1
1
1
DoubleDePol,CommonBeamDepol,RBeamAtt,SBeamAtt,60mm sphere, WB InGaAs Detector
0
0
0
0
Program
Program
3350/servo 860,8/2
3350/0,2 860,8/0,2
3350/0,2 860,8/0,2
0
15.00
 
 
 
0
 
860,8
319,2
860,8
Front
100
on
S:100 R:100
0
0
0
0
 
0
 
 
 
0
 
 
0
0
0
0
0
 
 
 
 
0
0


0
0
#HDR
-1
-1
#GR
nm
%R
1.0
0.0
2500,000000
-1,000000
2251
8
68,478300
5,084100
#DATA
2500.000000	10.415900
2499.000000	10.504700
2498.000000	10.496700
2497.000000	10.438800
2496.000000	10.306600
2495.000000	10.317200
2494.000000	10.259300
2493.000000	10.262500
2492.000000	10.315800
2491.000000	10.321000
2490.000000	10.276900
2489.000000	10.284200
2488.000000	10.244600
2487.000000	10.252300
2486.000000	10.214300
2485.000000	10.258000
2484.000000	10.192400
2483.000000	10.244600
2482.000000	10.238500
2481.000000	10.235900
2480.000000	10.224600
2479.000000	10.225400
2478.000000	10.242400
2477.000000	10.253500
2476.000000	10.288100
2475.000000	10.263600
2474.000000	10.276200
2473.000000	10.280700
2472.000000	10.294300
2471.000000	10.309900
2470.000000	10.281400
2469.000000	10.294100
2468.000000	10.319600
2467.000000	10.307100
2466.000000	10.366200
2465.000000	10.370100
2464.000000	10.385600
2463.000000	10.438500
2462.000000	10.486400
2461.000000	10.510500
2460.000000	10.563600
2459.000000	10.606600
2458.000000	10.683800
2457.000000	10.742600
2456.000000	10.748400
2455.000000	10.842500
2454.000000	10.911200
2453.000000	10.998700
2452.000000	11.081900
2451.000000	11.134000
2450.000000	11.231300
2449.000000	11.322500
2448.000000	11.382800
2447.000000	11.488200
2446.000000	11.576300
2445.000000	11.646300
2444.000000	11.730600
2443.000000	11.788900
2442.000000	11.870000
2441.000000	11.962900
2440.000000	12.010500
2439.000000	12.082800
2438.000000	12.185800
2437.000000	12.256400
2436.000000	12.317100
2435.000000	12.380400
2434.000000	12.454100
2433.000000	12.527700
2432.000000	12.580600
2431.000000	12.627800
2430.000000	12.680800
2429.000000	12.745800
2428.000000	12.804000
2427.000000	12.837400
2426.000000	12.884500
2425.000000	12.932200
2424.000000	12.968000
2423.000000	13.015000
2422.000000	13.054200
2421.000000	13.086300
2420.000000	13.111700
2419.000000	13.164800
2418.000000	13.206700
2417.000000	13.256400
2416.000000	13.284900
2415.000000	13.310900
2414.000000	13.331800
2413.000000	13.374600
2412.000000	13.407600
2411.000000	13.432800
2410.000000	13.462800
2409.000000	13.483000
2408.000000	13.516800
2407.000000	13.547200
2406.000000	13.584500
2405.000000	13.619600
2404.000000	13.657000
2403.000000	13.694300
2402.000000	13.745200
2401.000000	13.803800
2400.000000	13.854000
2399.000000	13.891200
2398.000000	13.915000
2397.000000	13.934000
2396.000000	13.957200
2395.000000	13.997800
2394.000000	14.027000
2393.000000	14.052500
2392.000000	14.086700
2391.000000	14.119900
2390.000000	14.138100
2389.000000	14.168600
2388.000000	14.203400
2387.000000	14.212300
2386.000000	14.215200
2385.000000	14.224000
2384.000000	14.220800
2383.000000	14.236500
2382.000000	14.258700
2381.000000	14.256900
2380.000000	14.242600
2379.000000	14.239000
2378.000000	14.232200
2377.000000	14.231200
2376.000000	14.224000
2375.000000	14.200800
2374.000000	14.191300
2373.000000	14.180100
2372.000000	14.152600
2371.000000	14.137700
2370.000000	14.111800
2369.000000	14.073800
2368.000000	14.035800
2367.000000	13.989900
2366.000000	13.947700
2365.000000	13.897100
2364.000000	13.846400
2363.000000	13.795200
2362.000000	13.733600
2361.000000	13.687300
2360.000000	13.643600
2359.000000	13.591000
2358.000000	13.530100
2357.000000	13.479100
2356.000000	13.451600
2355.000000	13.425200
2354.000000	13.396500
2353.000000	13.375600
2352.000000	13.363500
2351.000000	13.356600
2350.000000	13.367300
2349.000000	13.398500
2348.000000	13.441400
2347.000000	13.467200
2346.000000	13.492400
2345.000000	13.544900
2344.000000	13.586800
2343.000000	13.634200
2342.000000	13.665000
2341.000000	13.700600
2340.000000	13.742000
2339.000000	13.753200
2338.000000	13.763100
2337.000000	13.789300
2336.000000	13.775100
2335.000000	13.766400
2334.000000	13.771500
2333.000000	13.740100
2332.000000	13.709100
2331.000000	13.666600
2330.000000	13.624700
2329.000000	13.570200
2328.000000	13.510300
2327.000000	13.446800
2326.000000	13.385500
2325.000000	13.299600
2324.000000	13.205900
2323.000000	13.102700
2322.000000	13.012200
2321.000000	12.904200
2320.000000	12.789000
2319.000000	12.670600
2318.000000	12.539500
2317.000000	12.407400
2316.000000	12.286200
2315.000000	12.154600
2314.000000	12.043600
2313.000000	11.932300
2312.000000	11.814800
2311.000000	11.716100
2310.000000	11.619300
2309.000000	11.544100
2308.000000	11.489200
2307.000000	11.449300
2306.000000	11.423000
2305.000000	11.411500
2304.000000	11.429600
2303.000000	11.454300
2302.000000	11.506900
2301.000000	11.566800
2300.000000	11.634000
2299.000000	11.715300
2298.000000	11.827800
2297.000000	11.914500
2296.000000	12.011600
2295.000000	12.087800
2294.000000	12.163300
2293.000000	12.231400
2292.000000	12.289500
2291.000000	12.344700
2290.000000	12.373200
2289.000000	12.405900
2288.000000	12.413600
2287.000000	12.424400
2286.000000	12.404600
2285.000000	12.377800
2284.000000	12.330100
2283.000000	12.280800
2282.000000	12.241100
2281.000000	12.192200
2280.000000	12.119500
2279.000000	12.056200
2278.000000	12.002100
2277.000000	11.947000
2276.000000	11.893400
2275.000000	11.836000
2274.000000	11.808000
2273.000000	11.783500
2272.000000	11.750900
2271.000000	11.743600
2270.000000	11.773200
2269.000000	11.808800
2268.000000	11.826600
2267.000000	11.898300
2266.000000	12.000700
2265.000000	12.117100
2264.000000	12.250900
2263.000000	12.390500
2262.000000	12.563900
2261.000000	12.768400
2260.000000	12.971500
2259.000000	13.210600
2258.000000	13.455200
2257.000000	13.667700
2256.000000	13.933300
2255.000000	14.172200
2254.000000	14.403200
2253.000000	14.642500
2252.000000	14.868300
2251.000000	15.092000
2250.000000	15.296100
2249.000000	15.469700
2248.000000	15.662700
2247.000000	15.845100
2246.000000	16.002100
2245.000000	16.171300
2244.000000	16.279300
2243.000000	16.395600
2242.000000	16.509700
2241.000000	16.599500
2240.000000	16.690200
2239.000000	16.793400
2238.000000	16.860200
2237.000000	16.951400
2236.000000	16.995600
2235.000000	17.085000
2234.000000	17.120100
2233.000000	17.149000
2232.000000	17.196700
2231.000000	17.251900
2230.000000	17.249800
2229.000000	17.269900
2228.000000	17.266500
2227.000000	17.279500
2226.000000	17.292300
2225.000000	17.276800
2224.000000	17.269900
2223.000000	17.264800
2222.000000	17.219700
2221.000000	17.172200
2220.000000	17.187600
2219.000000	17.165400
2218.000000	17.117400
2217.000000	17.080200
2216.000000	17.050200
2215.000000	17.019200
2214.000000	16.998500
2213.000000	16.954600
2212.000000	16.917600
2211.000000	16.895200
2210.000000	16.877200
2209.000000	16.833300
2208.000000	16.819400
2207.000000	16.810400
2206.000000	16.761900
2205.000000	16.731600
2204.000000	16.728200
2203.000000	16.707200
2202.000000	16.688700
2201.000000	16.672000
2200.000000	16.637900
2199.000000	16.637000
2198.000000	16.610300
2197.000000	16.578800
2196.000000	16.584900
2195.000000	16.560900
2194.000000	16.541600
2193.000000	16.547800
2192.000000	16.519900
2191.000000	16.523600
2190.000000	16.511100
2189.000000	16.484600
2188.000000	16.482600
2187.000000	16.463500
2186.000000	16.434400
2185.000000	16.419100
2184.000000	16.415100
2183.000000	16.404600
2182.000000	16.384400
2181.000000	16.399500
2180.000000	16.377300
2179.000000	16.367700
2178.000000	16.355900
2177.000000	16.336100
2176.000000	16.333000
2175.000000	16.349600
2174.000000	16.358600
2173.000000	16.339900
2172.000000	16.333000
2171.000000	16.342900
2170.000000	16.378500
2169.000000	16.384500
2168.000000	16.380100
2167.000000	16.394600
2166.000000	16.405200
2165.000000	16.442300
2164.000000	16.455700
2163.000000	16.479700
2162.000000	16.507500
2161.000000	16.530900
2160.000000	16.560300
2159.000000	16.603400
2158.000000	16.646900
2157.000000	16.689700
2156.000000	16.726700
2155.000000	16.765300
2154.000000	16.786700
2153.000000	16.827500
2152.000000	16.885000
2151.000000	16.939700
2150.000000	16.970700
2149.000000	16.995800
2148.000000	17.048100
2147.000000	17.076900
2146.000000	17.099100
2145.000000	17.161000
2144.000000	17.202500
2143.000000	17.242000
2142.000000	17.261900
2141.000000	17.285800
2140.000000	17.311000
2139.000000	17.346900
2138.000000	17.372700
2137.000000	17.400200
2136.000000	17.433400
2135.000000	17.435800
2134.000000	17.455700
2133.000000	17.462800
2132.000000	17.471500
2131.000000	17.476400
2130.000000	17.489100
2129.000000	17.493800
2128.000000	17.489300
2127.000000	17.493200
2126.000000	17.461100
2125.000000	17.450200
2124.000000	17.454300
2123.000000	17.449800
2122.000000	17.428100
2121.000000	17.408600
2120.000000	17.387300
2119.000000	17.360100
2118.000000	17.331900
2117.000000	17.297200
2116.000000	17.263400
2115.000000	17.244400
2114.000000	17.209700
2113.000000	17.166100
2112.000000	17.133600
2111.000000	17.097800
2110.000000	17.071800
2109.000000	17.037200
2108.000000	16.996900
2107.000000	16.946600
2106.000000	16.903800
2105.000000	16.889200
2104.000000	16.859400
2103.000000	16.802500
2102.000000	16.760400
2101.000000	16.727800
2100.000000	16.705800
2099.000000	16.659200
2098.000000	16.624200
2097.000000	16.590800
2096.000000	16.546600
2095.000000	16.518200
2094.000000	16.487700
2093.000000	16.448600
2092.000000	16.425000
2091.000000	16.416400
2090.000000	16.375500
2089.000000	16.331300
2088.000000	16.307400
2087.000000	16.282300
2086.000000	16.247100
2085.000000	16.208400
2084.000000	16.177900
2083.000000	16.153200
2082.000000	16.119800
2081.000000	16.063800
2080.000000	16.009200
2079.000000	15.974100
2078.000000	15.919200
2077.000000	15.874400
2076.000000	15.839900
2075.000000	15.770600
2074.000000	15.710200
2073.000000	15.674300
2072.000000	15.614500
2071.000000	15.563300
2070.000000	15.521300
2069.000000	15.466800
2068.000000	15.422500
2067.000000	15.363800
2066.000000	15.305500
2065.000000	15.243300
2064.000000	15.184300
2063.000000	15.135400
2062.000000	15.086700
2061.000000	15.047700
2060.000000	14.989300
2059.000000	14.960400
2058.000000	14.945300
2057.000000	14.927500
2056.000000	14.920400
2055.000000	14.901400
2054.000000	14.909800
2053.000000	14.935900
2052.000000	14.946800
2051.000000	14.970600
2050.000000	15.004000
2049.000000	15.044000
2048.000000	15.092800
2047.000000	15.153900
2046.000000	15.208600
2045.000000	15.279600
2044.000000	15.357400
2043.000000	15.415200
2042.000000	15.492500
2041.000000	15.556000
2040.000000	15.625600
2039.000000	15.693900
2038.000000	15.751600
2037.000000	15.808100
2036.000000	15.865500
2035.000000	15.917900
2034.000000	15.979400
2033.000000	16.018100
2032.000000	16.049100
2031.000000	16.087200
2030.000000	16.121300
2029.000000	16.151000
2028.000000	16.178600
2027.000000	16.189200
2026.000000	16.207800
2025.000000	16.227700
2024.000000	16.260000
2023.000000	16.270900
2022.000000	16.254900
2021.000000	16.270700
2020.000000	16.289300
2019.000000	16.281300
2018.000000	16.303100
2017.000000	16.283500
2016.000000	16.267700
2015.000000	16.265900
2014.000000	16.243900
2013.000000	16.224600
2012.000000	16.194900
2011.000000	16.169800
2010.000000	16.147700
2009.000000	16.116200
2008.000000	16.080600
2007.000000	16.064600
2006.000000	16.038700
2005.000000	15.982800
2004.000000	15.946700
2003.000000	15.880200
2002.000000	15.829700
2001.000000	15.779700
2000.000000	15.721400
1999.000000	15.657200
1998.000000	15.609500
1997.000000	15.542300
1996.000000	15.483700
1995.000000	15.424700
1994.000000	15.332000
1993.000000	15.271500
1992.000000	15.200400
1991.000000	15.117500
1990.000000	15.050500
1989.000000	14.988900
1988.000000	14.916200
1987.000000	14.827900
1986.000000	14.734100
1985.000000	14.650700
1984.000000	14.564400
1983.000000	14.494200
1982.000000	14.414600
1981.000000	14.319600
1980.000000	14.235200
1979.000000	14.157100
1978.000000	14.091900
1977.000000	13.981300
1976.000000	13.915900
1975.000000	13.833700
1974.000000	13.757200
1973.000000	13.676100
1972.000000	13.600100
1971.000000	13.535600
1970.000000	13.465000
1969.000000	13.384800
1968.000000	13.303400
1967.000000	13.241900
1966.000000	13.177200
1965.000000	13.098900
1964.000000	13.036000
1963.000000	12.967800
1962.000000	12.897600
1961.000000	12.823300
1960.000000	12.764200
1959.000000	12.684800
1958.000000	12.626400
1957.000000	12.562700
1956.000000	12.505600
1955.000000	12.428600
1954.000000	12.396100
1953.000000	12.321100
1952.000000	12.261500
1951.000000	12.203700
1950.000000	12.153900
1949.000000	12.099300
1948.000000	12.047500
1947.000000	12.029700
1946.000000	11.969400
1945.000000	11.960200
1944.000000	11.924700
1943.000000	11.882700
1942.000000	11.877100
1941.000000	11.880600
1940.000000	11.845900
1939.000000	11.848800
1938.000000	11.848800
1937.000000	11.868500
1936.000000	11.846000
1935.000000	11.865200
1934.000000	11.888000
1933.000000	11.898000
1932.000000	11.984300
1931.000000	12.004900
1930.000000	12.081400
1929.000000	12.149700
1928.000000	12.220700
1927.000000	12.319400
1926.000000	12.391800
1925.000000	12.483700
1924.000000	12.583600
1923.000000	12.704000
1922.000000	12.798600
1921.000000	12.961000
1920.000000	13.086600
1919.000000	13.238700
1918.000000	13.350000
1917.000000	13.501600
1916.000000	13.641200
1915.000000	13.829400
1914.000000	13.997600
1913.000000	14.206000
1912.000000	14.410100
1911.000000	14.599900
1910.000000	14.775000
1909.000000	14.947700
1908.000000	15.184500
1907.000000	15.385800
1906.000000	15.634900
1905.000000	15.921500
1904.000000	16.172500
1903.000000	16.414400
1902.000000	16.678700
1901.000000	16.944900
1900.000000	17.219400
1899.000000	17.518200
1898.000000	17.812300
1897.000000	18.133700
1896.000000	18.401700
1895.000000	18.655000
1894.000000	18.957600
1893.000000	19.248900
1892.000000	19.599600
1891.000000	19.992000
1890.000000	20.356200
1889.000000	20.703100
1888.000000	21.090600
1887.000000	21.444800
1886.000000	21.831700
1885.000000	22.235500
1884.000000	22.701500
1883.000000	23.170600
1882.000000	23.629000
1881.000000	24.095800
1880.000000	24.531000
1879.000000	24.978800
1878.000000	25.410000
1877.000000	25.838400
1876.000000	26.242100
1875.000000	26.641600
1874.000000	27.005400
1873.000000	27.373800
1872.000000	27.736700
1871.000000	28.060800
1870.000000	28.356400
1869.000000	28.625300
1868.000000	28.836900
1867.000000	29.008200
1866.000000	29.153000
1865.000000	29.287000
1864.000000	29.414900
1863.000000	29.531300
1862.000000	29.646900
1861.000000	29.775700
1860.000000	29.899000
1859.000000	30.005300
1858.000000	30.080000
1857.000000	30.163900
1856.000000	30.198700
1855.000000	30.224700
1854.000000	30.282300
1853.000000	30.291900
1852.000000	30.284200
1851.000000	30.313200
1850.000000	30.321600
1849.000000	30.327200
1848.000000	30.352200
1847.000000	30.364600
1846.000000	30.320700
1845.000000	30.272600
1844.000000	30.254300
1843.000000	30.230400
1842.000000	30.257700
1841.000000	30.285600
1840.000000	30.265900
1839.000000	30.243600
1838.000000	30.221200
1837.000000	30.205700
1836.000000	30.171600
1835.000000	30.129700
1834.000000	30.076800
1833.000000	30.009100
1832.000000	29.950900
1831.000000	29.916900
1830.000000	29.885600
1829.000000	29.840900
1828.000000	29.772600
1827.000000	29.709300
1826.000000	29.663200
1825.000000	29.614700
1824.000000	29.563800
1823.000000	29.546100
1822.000000	29.542200
1821.000000	29.539300
1820.000000	29.521900
1819.000000	29.490500
1818.000000	29.448600
1817.000000	29.424900
1816.000000	29.413100
1815.000000	29.412300
1814.000000	29.392400
1813.000000	29.388700
1812.000000	29.374300
1811.000000	29.345400
1810.000000	29.324100
1809.000000	29.284700
1808.000000	29.253500
1807.000000	29.222900
1806.000000	29.200100
1805.000000	29.161500
1804.000000	29.111500
1803.000000	29.082900
1802.000000	29.055200
1801.000000	29.015400
1800.000000	28.967400
1799.000000	28.920700
1798.000000	28.875400
1797.000000	28.832900
1796.000000	28.801900
1795.000000	28.767900
1794.000000	28.720500
1793.000000	28.678800
1792.000000	28.635900
1791.000000	28.592800
1790.000000	28.549500
1789.000000	28.505800
1788.000000	28.456000
1787.000000	28.407900
1786.000000	28.365600
1785.000000	28.311100
1784.000000	28.262200
1783.000000	28.201100
1782.000000	28.136600
1781.000000	28.078800
1780.000000	28.028200
1779.000000	27.978400
1778.000000	27.915800
1777.000000	27.842100
1776.000000	27.780900
1775.000000	27.709500
1774.000000	27.637800
1773.000000	27.552000
1772.000000	27.458500
1771.000000	27.351700
1770.000000	27.251800
1769.000000	27.178400
1768.000000	27.102400
1767.000000	27.013700
1766.000000	26.939000
1765.000000	26.867400
1764.000000	26.831500
1763.000000	26.811200
1762.000000	26.799400
1761.000000	26.812200
1760.000000	26.857200
1759.000000	26.920100
1758.000000	26.968400
1757.000000	27.027900
1756.000000	27.088800
1755.000000	27.138300
1754.000000	27.164800
1753.000000	27.197000
1752.000000	27.226700
1751.000000	27.235300
1750.000000	27.214600
1749.000000	27.201700
1748.000000	27.173600
1747.000000	27.127600
1746.000000	27.067300
1745.000000	26.988600
1744.000000	26.895100
1743.000000	26.794200
1742.000000	26.661200
1741.000000	26.500100
1740.000000	26.335500
1739.000000	26.158100
1738.000000	26.010700
1737.000000	25.861500
1736.000000	25.715800
1735.000000	25.602800
1734.000000	25.531700
1733.000000	25.487700
1732.000000	25.506000
1731.000000	25.543600
1730.000000	25.607800
1729.000000	25.683300
1728.000000	25.767900
1727.000000	25.860100
1726.000000	25.943200
1725.000000	26.027400
1724.000000	26.101200
1723.000000	26.140600
1722.000000	26.186700
1721.000000	26.239000
1720.000000	26.284300
1719.000000	26.337100
1718.000000	26.392000
1717.000000	26.465100
1716.000000	26.531800
1715.000000	26.617000
1714.000000	26.693600
1713.000000	26.758100
1712.000000	26.824600
1711.000000	26.899100
1710.000000	26.949000
1709.000000	26.968300
1708.000000	26.988100
1707.000000	26.990100
1706.000000	26.958000
1705.000000	26.945200
1704.000000	26.898100
1703.000000	26.839900
1702.000000	26.790800
1701.000000	26.698400
1700.000000	26.605400
1699.000000	26.474900
1698.000000	26.346900
1697.000000	26.264300
1696.000000	26.173600
1695.000000	26.117800
1694.000000	26.130100
1693.000000	26.199000
1692.000000	26.295600
1691.000000	26.414400
1690.000000	26.517900
1689.000000	26.658700
1688.000000	26.741800
1687.000000	26.817200
1686.000000	26.881700
1685.000000	26.932700
1684.000000	27.012000
1683.000000	27.122500
1682.000000	27.318500
1681.000000	27.633200
1680.000000	28.004800
1679.000000	28.402900
1678.000000	28.839400
1677.000000	29.259300
1676.000000	29.654200
1675.000000	30.005100
1674.000000	30.312400
1673.000000	30.579000
1672.000000	30.834400
1671.000000	31.030800
1670.000000	31.219400
1669.000000	31.387600
1668.000000	31.533700
1667.000000	31.641700
1666.000000	31.741800
1665.000000	31.838700
1664.000000	31.941100
1663.000000	32.003700
1662.000000	32.068500
1661.000000	32.139900
1660.000000	32.210800
1659.000000	32.256900
1658.000000	32.264100
1657.000000	32.310900
1656.000000	32.339600
1655.000000	32.360300
1654.000000	32.356400
1653.000000	32.386700
1652.000000	32.375900
1651.000000	32.368400
1650.000000	32.337200
1649.000000	32.311400
1648.000000	32.271900
1647.000000	32.270800
1646.000000	32.252300
1645.000000	32.213900
1644.000000	32.183700
1643.000000	32.152500
1642.000000	32.098000
1641.000000	32.074800
1640.000000	32.026700
1639.000000	31.969400
1638.000000	31.938300
1637.000000	31.885100
1636.000000	31.861000
1635.000000	31.809100
1634.000000	31.754500
1633.000000	31.690000
1632.000000	31.633500
1631.000000	31.571400
1630.000000	31.511300
1629.000000	31.433700
1628.000000	31.384100
1627.000000	31.312300
1626.000000	31.248000
1625.000000	31.175500
