PE UV       SUBTECH     SPECTRUM    ASCII       PEDS        4.00        
   -1
CICIMAUCR0201-2.Sample.ASC
24/05/31
13:41:41.00
24/05/31
13:41:41.00
Vinicio Soto Monge
C. cupreomarginata. Sex F. Dorsal
250,000000
1
Lambda 1050
1050L1511233
PerkinElmer UV WinLab 6.3.2.0749 / 2.02.05 Lambda 900 UV/VIS/NIR, Aug  7 2015 09:38:08

0
0
3350/servo 860,8/2
0
0
UV/VIS
1
1
1
DoubleDePol,CommonBeamDepol,RBeamAtt,SBeamAtt,60mm sphere, WB InGaAs Detector
0
0
0
0
Program
Program
3350/servo 860,8/2
3350/0,2 860,8/0,2
3350/0,2 860,8/0,2
0
15.00
 
 
 
0
 
860,8
319,2
860,8
Front
100
on
S:100 R:100
0
0
0
0
 
0
 
 
 
0
 
 
0
0
0
0
0
 
 
 
 
0
0


0
0
#HDR
-1
-1
#GR
nm
%R
1.0
0.0
2500,000000
-1,000000
2251
8
68,704500
5,755300
#DATA
2500.000000	9.435900
2499.000000	9.360000
2498.000000	9.353900
2497.000000	9.167100
2496.000000	9.166600
2495.000000	9.177600
2494.000000	9.151600
2493.000000	9.164900
2492.000000	9.153900
2491.000000	9.197300
2490.000000	9.149500
2489.000000	9.113700
2488.000000	9.109200
2487.000000	9.052300
2486.000000	9.141600
2485.000000	8.988300
2484.000000	9.147400
2483.000000	9.031900
2482.000000	9.079800
2481.000000	9.083600
2480.000000	9.042900
2479.000000	9.074200
2478.000000	9.140700
2477.000000	9.018200
2476.000000	9.014100
2475.000000	9.046600
2474.000000	9.050900
2473.000000	9.119600
2472.000000	9.098900
2471.000000	9.106200
2470.000000	9.114000
2469.000000	9.133800
2468.000000	9.139300
2467.000000	9.168900
2466.000000	9.164100
2465.000000	9.233500
2464.000000	9.249900
2463.000000	9.255500
2462.000000	9.295000
2461.000000	9.348000
2460.000000	9.384100
2459.000000	9.460300
2458.000000	9.503900
2457.000000	9.569600
2456.000000	9.641800
2455.000000	9.699100
2454.000000	9.776500
2453.000000	9.866600
2452.000000	9.919200
2451.000000	10.000700
2450.000000	10.061900
2449.000000	10.172800
2448.000000	10.247700
2447.000000	10.340000
2446.000000	10.438800
2445.000000	10.504100
2444.000000	10.596600
2443.000000	10.673300
2442.000000	10.739900
2441.000000	10.848300
2440.000000	10.943700
2439.000000	10.994000
2438.000000	11.097400
2437.000000	11.174000
2436.000000	11.246700
2435.000000	11.317200
2434.000000	11.379800
2433.000000	11.465100
2432.000000	11.521400
2431.000000	11.577000
2430.000000	11.657200
2429.000000	11.727100
2428.000000	11.782800
2427.000000	11.838500
2426.000000	11.899800
2425.000000	11.939700
2424.000000	11.978900
2423.000000	12.038300
2422.000000	12.085100
2421.000000	12.129100
2420.000000	12.181100
2419.000000	12.212000
2418.000000	12.272700
2417.000000	12.307200
2416.000000	12.362500
2415.000000	12.401700
2414.000000	12.434900
2413.000000	12.474400
2412.000000	12.507000
2411.000000	12.535100
2410.000000	12.570400
2409.000000	12.607600
2408.000000	12.633800
2407.000000	12.674600
2406.000000	12.720700
2405.000000	12.744100
2404.000000	12.768600
2403.000000	12.787300
2402.000000	12.824600
2401.000000	12.875200
2400.000000	12.923200
2399.000000	12.967100
2398.000000	13.014900
2397.000000	13.079000
2396.000000	13.127800
2395.000000	13.165500
2394.000000	13.189700
2393.000000	13.203100
2392.000000	13.234100
2391.000000	13.272400
2390.000000	13.282300
2389.000000	13.319300
2388.000000	13.362900
2387.000000	13.364900
2386.000000	13.368600
2385.000000	13.389400
2384.000000	13.391600
2383.000000	13.390500
2382.000000	13.393900
2381.000000	13.401500
2380.000000	13.417800
2379.000000	13.398100
2378.000000	13.380700
2377.000000	13.374500
2376.000000	13.358100
2375.000000	13.352500
2374.000000	13.337800
2373.000000	13.320400
2372.000000	13.293000
2371.000000	13.265700
2370.000000	13.250300
2369.000000	13.222600
2368.000000	13.173400
2367.000000	13.138600
2366.000000	13.094500
2365.000000	13.035000
2364.000000	12.992100
2363.000000	12.923500
2362.000000	12.870300
2361.000000	12.827500
2360.000000	12.759300
2359.000000	12.695700
2358.000000	12.643800
2357.000000	12.592900
2356.000000	12.544300
2355.000000	12.505000
2354.000000	12.476600
2353.000000	12.448100
2352.000000	12.428800
2351.000000	12.428600
2350.000000	12.430300
2349.000000	12.446300
2348.000000	12.467800
2347.000000	12.495400
2346.000000	12.531400
2345.000000	12.568200
2344.000000	12.596500
2343.000000	12.633900
2342.000000	12.686900
2341.000000	12.729200
2340.000000	12.752500
2339.000000	12.788400
2338.000000	12.806900
2337.000000	12.821300
2336.000000	12.836200
2335.000000	12.836100
2334.000000	12.833600
2333.000000	12.817700
2332.000000	12.794300
2331.000000	12.760400
2330.000000	12.713000
2329.000000	12.665300
2328.000000	12.609600
2327.000000	12.551300
2326.000000	12.489000
2325.000000	12.401200
2324.000000	12.321800
2323.000000	12.243700
2322.000000	12.149300
2321.000000	12.054800
2320.000000	11.927900
2319.000000	11.798900
2318.000000	11.673400
2317.000000	11.551600
2316.000000	11.417800
2315.000000	11.276100
2314.000000	11.150200
2313.000000	11.024900
2312.000000	10.900000
2311.000000	10.779100
2310.000000	10.675900
2309.000000	10.598700
2308.000000	10.521300
2307.000000	10.460900
2306.000000	10.440000
2305.000000	10.421600
2304.000000	10.422800
2303.000000	10.439200
2302.000000	10.484800
2301.000000	10.552500
2300.000000	10.616100
2299.000000	10.695900
2298.000000	10.806000
2297.000000	10.898600
2296.000000	11.000400
2295.000000	11.105100
2294.000000	11.177700
2293.000000	11.260400
2292.000000	11.338800
2291.000000	11.393500
2290.000000	11.443100
2289.000000	11.491800
2288.000000	11.508200
2287.000000	11.526000
2286.000000	11.516400
2285.000000	11.503900
2284.000000	11.488600
2283.000000	11.439200
2282.000000	11.408100
2281.000000	11.368900
2280.000000	11.298400
2279.000000	11.251300
2278.000000	11.182800
2277.000000	11.115300
2276.000000	11.059200
2275.000000	11.025300
2274.000000	10.993500
2273.000000	10.962500
2272.000000	10.957600
2271.000000	10.934800
2270.000000	10.962400
2269.000000	10.993700
2268.000000	11.049600
2267.000000	11.112300
2266.000000	11.210300
2265.000000	11.338000
2264.000000	11.476200
2263.000000	11.642300
2262.000000	11.832500
2261.000000	12.040600
2260.000000	12.272200
2259.000000	12.511700
2258.000000	12.763500
2257.000000	13.060000
2256.000000	13.345300
2255.000000	13.595300
2254.000000	13.890800
2253.000000	14.184400
2252.000000	14.442800
2251.000000	14.706600
2250.000000	14.947700
2249.000000	15.202200
2248.000000	15.424100
2247.000000	15.623500
2246.000000	15.819300
2245.000000	16.007700
2244.000000	16.177600
2243.000000	16.335100
2242.000000	16.469100
2241.000000	16.583900
2240.000000	16.713400
2239.000000	16.832000
2238.000000	16.928100
2237.000000	17.019500
2236.000000	17.093800
2235.000000	17.170400
2234.000000	17.223100
2233.000000	17.276700
2232.000000	17.312700
2231.000000	17.351000
2230.000000	17.391500
2229.000000	17.395500
2228.000000	17.407200
2227.000000	17.424000
2226.000000	17.408300
2225.000000	17.399400
2224.000000	17.373500
2223.000000	17.348600
2222.000000	17.330200
2221.000000	17.319400
2220.000000	17.287500
2219.000000	17.229600
2218.000000	17.190000
2217.000000	17.160200
2216.000000	17.111100
2215.000000	17.053700
2214.000000	17.018000
2213.000000	16.974000
2212.000000	16.920000
2211.000000	16.876100
2210.000000	16.843500
2209.000000	16.800600
2208.000000	16.753700
2207.000000	16.736300
2206.000000	16.721000
2205.000000	16.692700
2204.000000	16.654900
2203.000000	16.623800
2202.000000	16.607000
2201.000000	16.556800
2200.000000	16.551600
2199.000000	16.536100
2198.000000	16.482000
2197.000000	16.478700
2196.000000	16.465700
2195.000000	16.438500
2194.000000	16.435300
2193.000000	16.433400
2192.000000	16.415700
2191.000000	16.393400
2190.000000	16.384800
2189.000000	16.349700
2188.000000	16.316300
2187.000000	16.342700
2186.000000	16.301600
2185.000000	16.285600
2184.000000	16.265900
2183.000000	16.234400
2182.000000	16.210000
2181.000000	16.200100
2180.000000	16.181200
2179.000000	16.168200
2178.000000	16.173100
2177.000000	16.140000
2176.000000	16.140700
2175.000000	16.148000
2174.000000	16.134700
2173.000000	16.137500
2172.000000	16.155400
2171.000000	16.173500
2170.000000	16.182700
2169.000000	16.184200
2168.000000	16.228000
2167.000000	16.228600
2166.000000	16.254900
2165.000000	16.274400
2164.000000	16.318200
2163.000000	16.352800
2162.000000	16.379900
2161.000000	16.410300
2160.000000	16.461200
2159.000000	16.487400
2158.000000	16.542400
2157.000000	16.590300
2156.000000	16.660400
2155.000000	16.717200
2154.000000	16.762600
2153.000000	16.823200
2152.000000	16.880100
2151.000000	16.945500
2150.000000	17.001800
2149.000000	17.059600
2148.000000	17.112300
2147.000000	17.172100
2146.000000	17.226000
2145.000000	17.285900
2144.000000	17.349000
2143.000000	17.379000
2142.000000	17.433000
2141.000000	17.473800
2140.000000	17.531100
2139.000000	17.582600
2138.000000	17.619400
2137.000000	17.653200
2136.000000	17.701100
2135.000000	17.732200
2134.000000	17.759500
2133.000000	17.773900
2132.000000	17.799600
2131.000000	17.817300
2130.000000	17.831000
2129.000000	17.832200
2128.000000	17.847600
2127.000000	17.856100
2126.000000	17.853200
2125.000000	17.844700
2124.000000	17.844200
2123.000000	17.833800
2122.000000	17.817800
2121.000000	17.808700
2120.000000	17.789200
2119.000000	17.769300
2118.000000	17.739800
2117.000000	17.713700
2116.000000	17.706700
2115.000000	17.651400
2114.000000	17.614800
2113.000000	17.594000
2112.000000	17.564200
2111.000000	17.528300
2110.000000	17.487900
2109.000000	17.445000
2108.000000	17.399000
2107.000000	17.356300
2106.000000	17.332400
2105.000000	17.312300
2104.000000	17.265100
2103.000000	17.212700
2102.000000	17.173600
2101.000000	17.135700
2100.000000	17.089600
2099.000000	17.058900
2098.000000	17.031400
2097.000000	16.994000
2096.000000	16.961600
2095.000000	16.947800
2094.000000	16.905600
2093.000000	16.865200
2092.000000	16.842500
2091.000000	16.814400
2090.000000	16.778700
2089.000000	16.745500
2088.000000	16.726100
2087.000000	16.695500
2086.000000	16.674600
2085.000000	16.651500
2084.000000	16.605100
2083.000000	16.571900
2082.000000	16.532100
2081.000000	16.487300
2080.000000	16.453300
2079.000000	16.400500
2078.000000	16.345200
2077.000000	16.301900
2076.000000	16.251800
2075.000000	16.197200
2074.000000	16.131500
2073.000000	16.063900
2072.000000	16.006400
2071.000000	15.940000
2070.000000	15.866000
2069.000000	15.805500
2068.000000	15.736000
2067.000000	15.654000
2066.000000	15.583000
2065.000000	15.524600
2064.000000	15.452200
2063.000000	15.377500
2062.000000	15.323100
2061.000000	15.254700
2060.000000	15.204700
2059.000000	15.164700
2058.000000	15.122400
2057.000000	15.080000
2056.000000	15.045100
2055.000000	15.036000
2054.000000	15.033600
2053.000000	15.031300
2052.000000	15.046600
2051.000000	15.077000
2050.000000	15.120400
2049.000000	15.185700
2048.000000	15.244800
2047.000000	15.297600
2046.000000	15.366000
2045.000000	15.467900
2044.000000	15.564400
2043.000000	15.663100
2042.000000	15.756400
2041.000000	15.850900
2040.000000	15.949500
2039.000000	16.045200
2038.000000	16.133300
2037.000000	16.221600
2036.000000	16.292800
2035.000000	16.378300
2034.000000	16.447800
2033.000000	16.523600
2032.000000	16.590500
2031.000000	16.641400
2030.000000	16.683300
2029.000000	16.742600
2028.000000	16.798900
2027.000000	16.833700
2026.000000	16.877100
2025.000000	16.894200
2024.000000	16.925100
2023.000000	16.949400
2022.000000	16.977000
2021.000000	17.004000
2020.000000	17.032300
2019.000000	17.042300
2018.000000	17.052400
2017.000000	17.038400
2016.000000	17.031600
2015.000000	17.028800
2014.000000	17.027100
2013.000000	17.012700
2012.000000	16.991700
2011.000000	16.990400
2010.000000	16.957100
2009.000000	16.936900
2008.000000	16.890900
2007.000000	16.861200
2006.000000	16.819600
2005.000000	16.775900
2004.000000	16.723900
2003.000000	16.673700
2002.000000	16.620700
2001.000000	16.567300
2000.000000	16.504900
1999.000000	16.438200
1998.000000	16.370000
1997.000000	16.280600
1996.000000	16.214300
1995.000000	16.141700
1994.000000	16.052500
1993.000000	15.980400
1992.000000	15.881500
1991.000000	15.794900
1990.000000	15.708900
1989.000000	15.626100
1988.000000	15.520300
1987.000000	15.414800
1986.000000	15.331800
1985.000000	15.237100
1984.000000	15.138000
1983.000000	15.043400
1982.000000	14.935700
1981.000000	14.829500
1980.000000	14.727800
1979.000000	14.646900
1978.000000	14.517300
1977.000000	14.432700
1976.000000	14.330000
1975.000000	14.237000
1974.000000	14.135100
1973.000000	14.048700
1972.000000	13.946200
1971.000000	13.855000
1970.000000	13.781300
1969.000000	13.670400
1968.000000	13.605500
1967.000000	13.498800
1966.000000	13.424900
1965.000000	13.355800
1964.000000	13.240100
1963.000000	13.166100
1962.000000	13.081900
1961.000000	13.008500
1960.000000	12.907500
1959.000000	12.822500
1958.000000	12.752800
1957.000000	12.667100
1956.000000	12.600600
1955.000000	12.522400
1954.000000	12.452400
1953.000000	12.374100
1952.000000	12.297500
1951.000000	12.221900
1950.000000	12.158000
1949.000000	12.089400
1948.000000	12.040300
1947.000000	11.979000
1946.000000	11.930100
1945.000000	11.881800
1944.000000	11.854100
1943.000000	11.820000
1942.000000	11.757400
1941.000000	11.743400
1940.000000	11.736600
1939.000000	11.722600
1938.000000	11.738400
1937.000000	11.725000
1936.000000	11.734600
1935.000000	11.739300
1934.000000	11.737400
1933.000000	11.767600
1932.000000	11.829600
1931.000000	11.839500
1930.000000	11.906700
1929.000000	11.975800
1928.000000	12.058900
1927.000000	12.143000
1926.000000	12.219300
1925.000000	12.323500
1924.000000	12.448400
1923.000000	12.568000
1922.000000	12.687100
1921.000000	12.836000
1920.000000	12.977400
1919.000000	13.134700
1918.000000	13.287600
1917.000000	13.466700
1916.000000	13.630500
1915.000000	13.816500
1914.000000	14.014700
1913.000000	14.244100
1912.000000	14.464200
1911.000000	14.714200
1910.000000	14.922200
1909.000000	15.139700
1908.000000	15.342900
1907.000000	15.628700
1906.000000	15.911400
1905.000000	16.234200
1904.000000	16.570800
1903.000000	16.851000
1902.000000	17.172300
1901.000000	17.488300
1900.000000	17.838700
1899.000000	18.226700
1898.000000	18.598700
1897.000000	18.972000
1896.000000	19.338700
1895.000000	19.675600
1894.000000	20.021600
1893.000000	20.401400
1892.000000	20.826600
1891.000000	21.326400
1890.000000	21.783300
1889.000000	22.241600
1888.000000	22.706400
1887.000000	23.144500
1886.000000	23.622300
1885.000000	24.111500
1884.000000	24.677500
1883.000000	25.258300
1882.000000	25.788400
1881.000000	26.364700
1880.000000	26.899000
1879.000000	27.381000
1878.000000	27.884400
1877.000000	28.408500
1876.000000	28.855800
1875.000000	29.310300
1874.000000	29.758500
1873.000000	30.184300
1872.000000	30.589100
1871.000000	30.966600
1870.000000	31.308200
1869.000000	31.609700
1868.000000	31.900800
1867.000000	32.124000
1866.000000	32.287200
1865.000000	32.433000
1864.000000	32.577100
1863.000000	32.700500
1862.000000	32.816700
1861.000000	32.971900
1860.000000	33.106600
1859.000000	33.226600
1858.000000	33.341100
1857.000000	33.439500
1856.000000	33.489600
1855.000000	33.510100
1854.000000	33.575800
1853.000000	33.606600
1852.000000	33.607500
1851.000000	33.631300
1850.000000	33.630700
1849.000000	33.630000
1848.000000	33.643400
1847.000000	33.676000
1846.000000	33.672400
1845.000000	33.609900
1844.000000	33.557700
1843.000000	33.509700
1842.000000	33.513800
1841.000000	33.562300
1840.000000	33.552200
1839.000000	33.534700
1838.000000	33.496700
1837.000000	33.468100
1836.000000	33.442200
1835.000000	33.418400
1834.000000	33.361200
1833.000000	33.287500
1832.000000	33.207800
1831.000000	33.151900
1830.000000	33.117200
1829.000000	33.073000
1828.000000	33.025000
1827.000000	32.956600
1826.000000	32.905700
1825.000000	32.853000
1824.000000	32.788200
1823.000000	32.749500
1822.000000	32.741500
1821.000000	32.738900
1820.000000	32.726600
1819.000000	32.723500
1818.000000	32.691900
1817.000000	32.658600
1816.000000	32.642800
1815.000000	32.637500
1814.000000	32.609300
1813.000000	32.587700
1812.000000	32.577900
1811.000000	32.570800
1810.000000	32.531600
1809.000000	32.484100
1808.000000	32.449200
1807.000000	32.417400
1806.000000	32.384300
1805.000000	32.340100
1804.000000	32.292500
1803.000000	32.235700
1802.000000	32.195800
1801.000000	32.159700
1800.000000	32.115700
1799.000000	32.065300
1798.000000	32.005900
1797.000000	31.953200
1796.000000	31.911300
1795.000000	31.881000
1794.000000	31.833700
1793.000000	31.782600
1792.000000	31.732700
1791.000000	31.689800
1790.000000	31.650600
1789.000000	31.591600
1788.000000	31.542800
1787.000000	31.504400
1786.000000	31.449300
1785.000000	31.395900
1784.000000	31.336200
1783.000000	31.281200
1782.000000	31.221200
1781.000000	31.155400
1780.000000	31.098000
1779.000000	31.027200
1778.000000	30.944400
1777.000000	30.870400
1776.000000	30.801100
1775.000000	30.719500
1774.000000	30.625300
1773.000000	30.525000
1772.000000	30.423400
1771.000000	30.325800
1770.000000	30.218500
1769.000000	30.114900
1768.000000	30.019400
1767.000000	29.921800
1766.000000	29.826800
1765.000000	29.757600
1764.000000	29.705600
1763.000000	29.690700
1762.000000	29.682100
1761.000000	29.688200
1760.000000	29.725900
1759.000000	29.774700
1758.000000	29.845200
1757.000000	29.902600
1756.000000	29.967100
1755.000000	30.034700
1754.000000	30.076400
1753.000000	30.110200
1752.000000	30.132700
1751.000000	30.147200
1750.000000	30.150200
1749.000000	30.140700
1748.000000	30.085300
1747.000000	30.037900
1746.000000	29.978500
1745.000000	29.883200
1744.000000	29.776500
1743.000000	29.641700
1742.000000	29.493500
1741.000000	29.325400
1740.000000	29.139100
1739.000000	28.940000
1738.000000	28.734800
1737.000000	28.551500
1736.000000	28.376100
1735.000000	28.230500
1734.000000	28.130500
1733.000000	28.076700
1732.000000	28.051000
1731.000000	28.056600
1730.000000	28.096300
1729.000000	28.171300
1728.000000	28.254400
1727.000000	28.322100
1726.000000	28.411900
1725.000000	28.493200
1724.000000	28.555100
1723.000000	28.614400
1722.000000	28.683600
1721.000000	28.734300
1720.000000	28.801300
1719.000000	28.892600
1718.000000	28.986200
1717.000000	29.072000
1716.000000	29.169300
1715.000000	29.281600
1714.000000	29.401100
1713.000000	29.517200
1712.000000	29.617400
1711.000000	29.707300
1710.000000	29.772700
1709.000000	29.819000
1708.000000	29.837800
1707.000000	29.855100
1706.000000	29.862800
1705.000000	29.853600
1704.000000	29.818300
1703.000000	29.767700
1702.000000	29.684200
1701.000000	29.595100
1700.000000	29.484700
1699.000000	29.341600
1698.000000	29.213200
1697.000000	29.090800
1696.000000	29.002800
1695.000000	28.942800
1694.000000	28.925800
1693.000000	28.942900
1692.000000	29.032700
1691.000000	29.143000
1690.000000	29.247200
1689.000000	29.365900
1688.000000	29.470600
1687.000000	29.559000
1686.000000	29.607500
1685.000000	29.678900
1684.000000	29.747700
1683.000000	29.900900
1682.000000	30.113100
1681.000000	30.422700
1680.000000	30.810100
1679.000000	31.255300
1678.000000	31.745100
1677.000000	32.208400
1676.000000	32.668900
1675.000000	33.032500
1674.000000	33.368700
1673.000000	33.694900
1672.000000	33.979600
1671.000000	34.215300
1670.000000	34.415200
1669.000000	34.622900
1668.000000	34.795200
1667.000000	34.938800
1666.000000	35.052400
1665.000000	35.178700
1664.000000	35.303900
1663.000000	35.388100
1662.000000	35.470200
1661.000000	35.573100
1660.000000	35.618600
1659.000000	35.688100
1658.000000	35.733200
1657.000000	35.782200
1656.000000	35.822100
1655.000000	35.857200
1654.000000	35.857500
1653.000000	35.875300
1652.000000	35.861800
1651.000000	35.859200
1650.000000	35.844100
1649.000000	35.813000
1648.000000	35.798300
1647.000000	35.791200
1646.000000	35.754200
1645.000000	35.717100
1644.000000	35.675600
1643.000000	35.635200
1642.000000	35.578800
1641.000000	35.555700
1640.000000	35.517700
1639.000000	35.472300
1638.000000	35.420800
1637.000000	35.356600
1636.000000	35.300700
1635.000000	35.257500
1634.000000	35.203300
1633.000000	35.124000
1632.000000	35.087800
1631.000000	35.000800
1630.000000	34.922800
1629.000000	34.861300
1628.000000	34.777600
1627.000000	34.696000
1626.000000	34.627200
1625.000000	34.547700
1624.000000	34.483500
1623.000000	34.413900
