PE UV       SUBTECH     SPECTRUM    ASCII       PEDS        4.00        
   -1
CICIMAUCR0225-2.Sample.ASC
24/05/27
15:32:39.00
24/05/27
15:32:39.00
Vinicio Soto Monge
C. resplendens, F
250,000000
1
Lambda 1050
1050L1511233
PerkinElmer UV WinLab 6.3.2.0749 / 2.02.05 Lambda 900 UV/VIS/NIR, Aug  7 2015 09:38:08

0
0
3350/servo 860,8/2
0
0
UV/VIS
1
1
1
DoubleDePol,CommonBeamDepol,RBeamAtt,SBeamAtt,60mm sphere, WB InGaAs Detector
0
0
0
0
Program
Program
3350/servo 860,8/2
3350/0,2 860,8/0,2
3350/0,2 860,8/0,2
0
15.00
 
 
 
0
 
860,8
319,2
860,8
Front
100
on
S:100 R:100
0
0
0
0
 
0
 
 
 
0
 
 
0
0
0
0
0
 
 
 
 
0
0


0
0
#HDR
-1
-1
#GR
nm
%R
1.0
0.0
2500,000000
-1,000000
2251
8
76,317000
5,348100
#DATA
2500.000000	8.534200
2499.000000	8.723500
2498.000000	8.688400
2497.000000	8.627900
2496.000000	8.677500
2495.000000	8.531900
2494.000000	8.508900
2493.000000	8.510300
2492.000000	8.443400
2491.000000	8.449000
2490.000000	8.439300
2489.000000	8.424800
2488.000000	8.433400
2487.000000	8.487200
2486.000000	8.410800
2485.000000	8.400300
2484.000000	8.339900
2483.000000	8.330700
2482.000000	8.315600
2481.000000	8.366000
2480.000000	8.415000
2479.000000	8.355000
2478.000000	8.287100
2477.000000	8.394300
2476.000000	8.414100
2475.000000	8.398400
2474.000000	8.355300
2473.000000	8.372500
2472.000000	8.375700
2471.000000	8.387500
2470.000000	8.376500
2469.000000	8.356700
2468.000000	8.414900
2467.000000	8.407300
2466.000000	8.443300
2465.000000	8.412800
2464.000000	8.489900
2463.000000	8.496300
2462.000000	8.511800
2461.000000	8.542800
2460.000000	8.576000
2459.000000	8.606200
2458.000000	8.663000
2457.000000	8.734100
2456.000000	8.756800
2455.000000	8.787500
2454.000000	8.863300
2453.000000	8.906800
2452.000000	8.958400
2451.000000	9.030800
2450.000000	9.105100
2449.000000	9.167400
2448.000000	9.228700
2447.000000	9.293500
2446.000000	9.345100
2445.000000	9.419600
2444.000000	9.475600
2443.000000	9.545500
2442.000000	9.616300
2441.000000	9.684300
2440.000000	9.744500
2439.000000	9.817600
2438.000000	9.852000
2437.000000	9.916000
2436.000000	9.981100
2435.000000	10.031400
2434.000000	10.090000
2433.000000	10.131800
2432.000000	10.204900
2431.000000	10.242600
2430.000000	10.287400
2429.000000	10.352900
2428.000000	10.389900
2427.000000	10.429200
2426.000000	10.476000
2425.000000	10.506700
2424.000000	10.558400
2423.000000	10.593100
2422.000000	10.616500
2421.000000	10.666700
2420.000000	10.700200
2419.000000	10.724600
2418.000000	10.740200
2417.000000	10.780400
2416.000000	10.806000
2415.000000	10.840300
2414.000000	10.884300
2413.000000	10.915000
2412.000000	10.927100
2411.000000	10.949400
2410.000000	10.974400
2409.000000	10.998700
2408.000000	11.018100
2407.000000	11.045500
2406.000000	11.077300
2405.000000	11.111600
2404.000000	11.117800
2403.000000	11.125900
2402.000000	11.168300
2401.000000	11.203600
2400.000000	11.234200
2399.000000	11.269000
2398.000000	11.290200
2397.000000	11.313400
2396.000000	11.340100
2395.000000	11.357700
2394.000000	11.367100
2393.000000	11.384400
2392.000000	11.411100
2391.000000	11.426900
2390.000000	11.449400
2389.000000	11.474700
2388.000000	11.475300
2387.000000	11.480900
2386.000000	11.505200
2385.000000	11.518600
2384.000000	11.526700
2383.000000	11.519000
2382.000000	11.506800
2381.000000	11.512600
2380.000000	11.511700
2379.000000	11.515400
2378.000000	11.506700
2377.000000	11.502600
2376.000000	11.489800
2375.000000	11.471300
2374.000000	11.457900
2373.000000	11.433900
2372.000000	11.408800
2371.000000	11.393900
2370.000000	11.367000
2369.000000	11.345600
2368.000000	11.312600
2367.000000	11.270100
2366.000000	11.230600
2365.000000	11.191000
2364.000000	11.141700
2363.000000	11.082000
2362.000000	11.036400
2361.000000	10.993900
2360.000000	10.933200
2359.000000	10.879200
2358.000000	10.833200
2357.000000	10.781400
2356.000000	10.734000
2355.000000	10.702800
2354.000000	10.672700
2353.000000	10.650900
2352.000000	10.629800
2351.000000	10.620000
2350.000000	10.621800
2349.000000	10.623000
2348.000000	10.640300
2347.000000	10.674800
2346.000000	10.705600
2345.000000	10.738300
2344.000000	10.778500
2343.000000	10.803500
2342.000000	10.840200
2341.000000	10.867800
2340.000000	10.896600
2339.000000	10.927600
2338.000000	10.944100
2337.000000	10.937700
2336.000000	10.929500
2335.000000	10.945700
2334.000000	10.948300
2333.000000	10.923800
2332.000000	10.889900
2331.000000	10.864900
2330.000000	10.830400
2329.000000	10.791400
2328.000000	10.724100
2327.000000	10.668400
2326.000000	10.621800
2325.000000	10.550000
2324.000000	10.455500
2323.000000	10.367100
2322.000000	10.290700
2321.000000	10.205600
2320.000000	10.111800
2319.000000	10.003000
2318.000000	9.891300
2317.000000	9.786400
2316.000000	9.676600
2315.000000	9.546100
2314.000000	9.438400
2313.000000	9.350800
2312.000000	9.258300
2311.000000	9.167100
2310.000000	9.095400
2309.000000	9.047000
2308.000000	8.977400
2307.000000	8.928000
2306.000000	8.913400
2305.000000	8.896900
2304.000000	8.894100
2303.000000	8.923400
2302.000000	8.963500
2301.000000	9.008100
2300.000000	9.079500
2299.000000	9.147900
2298.000000	9.214200
2297.000000	9.292100
2296.000000	9.369300
2295.000000	9.437500
2294.000000	9.525400
2293.000000	9.581200
2292.000000	9.629100
2291.000000	9.696900
2290.000000	9.734400
2289.000000	9.765900
2288.000000	9.782800
2287.000000	9.787600
2286.000000	9.785900
2285.000000	9.789700
2284.000000	9.783100
2283.000000	9.748500
2282.000000	9.718500
2281.000000	9.666600
2280.000000	9.645900
2279.000000	9.621800
2278.000000	9.572000
2277.000000	9.519700
2276.000000	9.466100
2275.000000	9.468400
2274.000000	9.417000
2273.000000	9.406000
2272.000000	9.376400
2271.000000	9.413500
2270.000000	9.396100
2269.000000	9.443400
2268.000000	9.495100
2267.000000	9.540400
2266.000000	9.633900
2265.000000	9.707200
2264.000000	9.804800
2263.000000	9.941900
2262.000000	10.087300
2261.000000	10.255300
2260.000000	10.432500
2259.000000	10.598600
2258.000000	10.809500
2257.000000	11.022000
2256.000000	11.247400
2255.000000	11.436900
2254.000000	11.660200
2253.000000	11.850500
2252.000000	12.068000
2251.000000	12.267700
2250.000000	12.461900
2249.000000	12.648800
2248.000000	12.827900
2247.000000	12.986500
2246.000000	13.136200
2245.000000	13.275500
2244.000000	13.411900
2243.000000	13.541700
2242.000000	13.652000
2241.000000	13.755100
2240.000000	13.833600
2239.000000	13.925600
2238.000000	14.006000
2237.000000	14.069800
2236.000000	14.134500
2235.000000	14.220100
2234.000000	14.271000
2233.000000	14.311800
2232.000000	14.347500
2231.000000	14.399700
2230.000000	14.403100
2229.000000	14.447400
2228.000000	14.463200
2227.000000	14.466000
2226.000000	14.482500
2225.000000	14.457100
2224.000000	14.466100
2223.000000	14.456400
2222.000000	14.440200
2221.000000	14.411400
2220.000000	14.421400
2219.000000	14.387800
2218.000000	14.366100
2217.000000	14.329600
2216.000000	14.312900
2215.000000	14.271300
2214.000000	14.245800
2213.000000	14.210600
2212.000000	14.171600
2211.000000	14.163800
2210.000000	14.153400
2209.000000	14.106900
2208.000000	14.118600
2207.000000	14.091300
2206.000000	14.068900
2205.000000	14.036500
2204.000000	14.032800
2203.000000	14.024100
2202.000000	13.995300
2201.000000	13.983100
2200.000000	13.942700
2199.000000	13.972100
2198.000000	13.973900
2197.000000	13.932600
2196.000000	13.918700
2195.000000	13.918800
2194.000000	13.906300
2193.000000	13.903000
2192.000000	13.873900
2191.000000	13.876500
2190.000000	13.861100
2189.000000	13.843800
2188.000000	13.841700
2187.000000	13.813300
2186.000000	13.823400
2185.000000	13.841400
2184.000000	13.815900
2183.000000	13.804900
2182.000000	13.787600
2181.000000	13.775600
2180.000000	13.780300
2179.000000	13.789000
2178.000000	13.763400
2177.000000	13.769500
2176.000000	13.761200
2175.000000	13.765500
2174.000000	13.774900
2173.000000	13.798300
2172.000000	13.783000
2171.000000	13.796400
2170.000000	13.802500
2169.000000	13.826400
2168.000000	13.857900
2167.000000	13.878700
2166.000000	13.904500
2165.000000	13.906600
2164.000000	13.938300
2163.000000	13.982600
2162.000000	14.011100
2161.000000	14.033500
2160.000000	14.060900
2159.000000	14.109400
2158.000000	14.141500
2157.000000	14.194200
2156.000000	14.238300
2155.000000	14.278300
2154.000000	14.325400
2153.000000	14.375500
2152.000000	14.418800
2151.000000	14.457100
2150.000000	14.478800
2149.000000	14.537700
2148.000000	14.595800
2147.000000	14.642800
2146.000000	14.684600
2145.000000	14.741200
2144.000000	14.782900
2143.000000	14.821000
2142.000000	14.854900
2141.000000	14.892800
2140.000000	14.918200
2139.000000	14.956700
2138.000000	14.994800
2137.000000	15.020000
2136.000000	15.046500
2135.000000	15.074400
2134.000000	15.111800
2133.000000	15.140500
2132.000000	15.150500
2131.000000	15.173400
2130.000000	15.184000
2129.000000	15.188300
2128.000000	15.197400
2127.000000	15.209400
2126.000000	15.208300
2125.000000	15.203500
2124.000000	15.194300
2123.000000	15.197800
2122.000000	15.197900
2121.000000	15.187200
2120.000000	15.168400
2119.000000	15.152400
2118.000000	15.127800
2117.000000	15.112700
2116.000000	15.100300
2115.000000	15.080700
2114.000000	15.050100
2113.000000	15.033700
2112.000000	15.011500
2111.000000	14.985200
2110.000000	14.956100
2109.000000	14.913300
2108.000000	14.887800
2107.000000	14.859500
2106.000000	14.843700
2105.000000	14.816200
2104.000000	14.772700
2103.000000	14.747600
2102.000000	14.726500
2101.000000	14.707200
2100.000000	14.668900
2099.000000	14.637100
2098.000000	14.626100
2097.000000	14.598200
2096.000000	14.570800
2095.000000	14.551800
2094.000000	14.533800
2093.000000	14.509100
2092.000000	14.496100
2091.000000	14.481700
2090.000000	14.453300
2089.000000	14.436300
2088.000000	14.417900
2087.000000	14.412400
2086.000000	14.398900
2085.000000	14.367400
2084.000000	14.333200
2083.000000	14.322100
2082.000000	14.299500
2081.000000	14.266900
2080.000000	14.235300
2079.000000	14.204300
2078.000000	14.174400
2077.000000	14.137000
2076.000000	14.089300
2075.000000	14.042900
2074.000000	14.003700
2073.000000	13.959300
2072.000000	13.911500
2071.000000	13.875600
2070.000000	13.829800
2069.000000	13.780100
2068.000000	13.730200
2067.000000	13.667200
2066.000000	13.618800
2065.000000	13.573200
2064.000000	13.524800
2063.000000	13.480300
2062.000000	13.441600
2061.000000	13.385900
2060.000000	13.332100
2059.000000	13.314300
2058.000000	13.273400
2057.000000	13.245200
2056.000000	13.243000
2055.000000	13.234700
2054.000000	13.224300
2053.000000	13.231700
2052.000000	13.253200
2051.000000	13.278400
2050.000000	13.313000
2049.000000	13.375700
2048.000000	13.443900
2047.000000	13.509600
2046.000000	13.569900
2045.000000	13.646800
2044.000000	13.751300
2043.000000	13.834900
2042.000000	13.927900
2041.000000	14.028100
2040.000000	14.114400
2039.000000	14.205000
2038.000000	14.294100
2037.000000	14.361500
2036.000000	14.453000
2035.000000	14.538100
2034.000000	14.600900
2033.000000	14.682800
2032.000000	14.749900
2031.000000	14.794300
2030.000000	14.848100
2029.000000	14.901400
2028.000000	14.946800
2027.000000	14.991700
2026.000000	15.037000
2025.000000	15.064100
2024.000000	15.093500
2023.000000	15.126800
2022.000000	15.146700
2021.000000	15.178600
2020.000000	15.206000
2019.000000	15.230100
2018.000000	15.267900
2017.000000	15.266400
2016.000000	15.271700
2015.000000	15.288800
2014.000000	15.298000
2013.000000	15.301200
2012.000000	15.310500
2011.000000	15.307700
2010.000000	15.303000
2009.000000	15.278000
2008.000000	15.265700
2007.000000	15.234100
2006.000000	15.227400
2005.000000	15.234500
2004.000000	15.198500
2003.000000	15.155900
2002.000000	15.121600
2001.000000	15.102400
2000.000000	15.063400
1999.000000	15.012100
1998.000000	14.957000
1997.000000	14.905100
1996.000000	14.855800
1995.000000	14.800400
1994.000000	14.749100
1993.000000	14.704800
1992.000000	14.637600
1991.000000	14.572800
1990.000000	14.498900
1989.000000	14.457700
1988.000000	14.369300
1987.000000	14.297300
1986.000000	14.225800
1985.000000	14.158000
1984.000000	14.083000
1983.000000	14.004000
1982.000000	13.915500
1981.000000	13.848100
1980.000000	13.788200
1979.000000	13.712100
1978.000000	13.622800
1977.000000	13.538600
1976.000000	13.467400
1975.000000	13.399100
1974.000000	13.301100
1973.000000	13.234200
1972.000000	13.156400
1971.000000	13.103500
1970.000000	13.026100
1969.000000	12.954800
1968.000000	12.882700
1967.000000	12.814800
1966.000000	12.735300
1965.000000	12.690600
1964.000000	12.604000
1963.000000	12.543100
1962.000000	12.485400
1961.000000	12.417700
1960.000000	12.325000
1959.000000	12.284200
1958.000000	12.203300
1957.000000	12.151400
1956.000000	12.071700
1955.000000	12.019300
1954.000000	11.974800
1953.000000	11.902900
1952.000000	11.835700
1951.000000	11.766300
1950.000000	11.703500
1949.000000	11.664000
1948.000000	11.621000
1947.000000	11.572100
1946.000000	11.516200
1945.000000	11.508400
1944.000000	11.451600
1943.000000	11.421100
1942.000000	11.388700
1941.000000	11.362200
1940.000000	11.328100
1939.000000	11.337500
1938.000000	11.341000
1937.000000	11.344500
1936.000000	11.379700
1935.000000	11.362000
1934.000000	11.365000
1933.000000	11.390800
1932.000000	11.416200
1931.000000	11.430500
1930.000000	11.482200
1929.000000	11.556700
1928.000000	11.626500
1927.000000	11.707400
1926.000000	11.766400
1925.000000	11.885700
1924.000000	11.939000
1923.000000	12.008000
1922.000000	12.090500
1921.000000	12.249700
1920.000000	12.406200
1919.000000	12.557400
1918.000000	12.683500
1917.000000	12.778800
1916.000000	12.888900
1915.000000	13.000700
1914.000000	13.168300
1913.000000	13.352900
1912.000000	13.576400
1911.000000	13.779700
1910.000000	13.933900
1909.000000	14.071600
1908.000000	14.215100
1907.000000	14.393300
1906.000000	14.607600
1905.000000	14.877600
1904.000000	15.158900
1903.000000	15.407200
1902.000000	15.625600
1901.000000	15.855900
1900.000000	16.122500
1899.000000	16.384100
1898.000000	16.696600
1897.000000	16.996200
1896.000000	17.250600
1895.000000	17.473300
1894.000000	17.697400
1893.000000	17.963100
1892.000000	18.252700
1891.000000	18.614900
1890.000000	18.982100
1889.000000	19.297100
1888.000000	19.608900
1887.000000	19.944800
1886.000000	20.275000
1885.000000	20.642300
1884.000000	21.054800
1883.000000	21.494000
1882.000000	21.922400
1881.000000	22.327400
1880.000000	22.738200
1879.000000	23.110600
1878.000000	23.490100
1877.000000	23.881200
1876.000000	24.226200
1875.000000	24.583300
1874.000000	24.908400
1873.000000	25.233000
1872.000000	25.566200
1871.000000	25.838100
1870.000000	26.113900
1869.000000	26.327200
1868.000000	26.553500
1867.000000	26.704900
1866.000000	26.837200
1865.000000	26.914200
1864.000000	27.015500
1863.000000	27.100800
1862.000000	27.176900
1861.000000	27.282800
1860.000000	27.374900
1859.000000	27.432900
1858.000000	27.514600
1857.000000	27.570500
1856.000000	27.601700
1855.000000	27.615100
1854.000000	27.636200
1853.000000	27.653600
1852.000000	27.632000
1851.000000	27.626100
1850.000000	27.636000
1849.000000	27.621000
1848.000000	27.611400
1847.000000	27.632600
1846.000000	27.588900
1845.000000	27.521900
1844.000000	27.491800
1843.000000	27.455900
1842.000000	27.452700
1841.000000	27.451800
1840.000000	27.440200
1839.000000	27.403100
1838.000000	27.378000
1837.000000	27.340800
1836.000000	27.316700
1835.000000	27.287800
1834.000000	27.226100
1833.000000	27.163300
1832.000000	27.085500
1831.000000	27.042200
1830.000000	27.010600
1829.000000	26.960000
1828.000000	26.900700
1827.000000	26.836700
1826.000000	26.774000
1825.000000	26.725700
1824.000000	26.675400
1823.000000	26.639000
1822.000000	26.621200
1821.000000	26.626300
1820.000000	26.614000
1819.000000	26.587800
1818.000000	26.547300
1817.000000	26.505600
1816.000000	26.499400
1815.000000	26.497200
1814.000000	26.455300
1813.000000	26.446400
1812.000000	26.454400
1811.000000	26.439300
1810.000000	26.409700
1809.000000	26.361000
1808.000000	26.328700
1807.000000	26.296200
1806.000000	26.264400
1805.000000	26.223700
1804.000000	26.169700
1803.000000	26.131800
1802.000000	26.099500
1801.000000	26.047700
1800.000000	26.002000
1799.000000	25.964800
1798.000000	25.914200
1797.000000	25.867900
1796.000000	25.824600
1795.000000	25.785500
1794.000000	25.749000
1793.000000	25.706200
1792.000000	25.660800
1791.000000	25.615800
1790.000000	25.564700
1789.000000	25.507900
1788.000000	25.452400
1787.000000	25.411500
1786.000000	25.379500
1785.000000	25.332400
1784.000000	25.262500
1783.000000	25.206500
1782.000000	25.136500
1781.000000	25.058800
1780.000000	25.004100
1779.000000	24.952800
1778.000000	24.885500
1777.000000	24.803300
1776.000000	24.726700
1775.000000	24.644500
1774.000000	24.555500
1773.000000	24.463100
1772.000000	24.365800
1771.000000	24.263000
1770.000000	24.150700
1769.000000	24.034400
1768.000000	23.933500
1767.000000	23.833800
1766.000000	23.738200
1765.000000	23.658200
1764.000000	23.605700
1763.000000	23.568000
1762.000000	23.551100
1761.000000	23.557800
1760.000000	23.590200
1759.000000	23.616400
1758.000000	23.655600
1757.000000	23.706300
1756.000000	23.751000
1755.000000	23.804900
1754.000000	23.831300
1753.000000	23.857800
1752.000000	23.873400
1751.000000	23.870200
1750.000000	23.859700
1749.000000	23.846900
1748.000000	23.797200
1747.000000	23.758400
1746.000000	23.693200
1745.000000	23.605100
1744.000000	23.510500
1743.000000	23.387300
1742.000000	23.231400
1741.000000	23.079000
1740.000000	22.896000
1739.000000	22.730800
1738.000000	22.541600
1737.000000	22.362500
1736.000000	22.201100
1735.000000	22.057300
1734.000000	21.951600
1733.000000	21.880700
1732.000000	21.856600
1731.000000	21.859900
1730.000000	21.901100
1729.000000	21.960100
1728.000000	22.028800
1727.000000	22.102700
1726.000000	22.160400
1725.000000	22.233500
1724.000000	22.279200
1723.000000	22.324900
1722.000000	22.363000
1721.000000	22.412500
1720.000000	22.445800
1719.000000	22.491300
1718.000000	22.547100
1717.000000	22.605600
1716.000000	22.674400
1715.000000	22.758800
1714.000000	22.858200
1713.000000	22.929100
1712.000000	23.013100
1711.000000	23.070900
1710.000000	23.110000
1709.000000	23.145600
1708.000000	23.170500
1707.000000	23.177400
1706.000000	23.164200
1705.000000	23.156300
1704.000000	23.142200
1703.000000	23.099000
1702.000000	23.029400
1701.000000	22.971000
1700.000000	22.891100
1699.000000	22.783400
1698.000000	22.668000
1697.000000	22.565800
1696.000000	22.484300
1695.000000	22.450300
1694.000000	22.414900
1693.000000	22.450600
1692.000000	22.538000
1691.000000	22.628300
1690.000000	22.731300
1689.000000	22.831300
1688.000000	22.924000
1687.000000	22.967400
1686.000000	23.033800
1685.000000	23.081900
1684.000000	23.128800
1683.000000	23.212900
1682.000000	23.373800
1681.000000	23.641300
1680.000000	23.957000
1679.000000	24.344400
1678.000000	24.738300
1677.000000	25.153600
1676.000000	25.519300
1675.000000	25.865000
1674.000000	26.153200
1673.000000	26.413000
1672.000000	26.655600
1671.000000	26.852900
1670.000000	27.018900
1669.000000	27.197100
1668.000000	27.318000
1667.000000	27.429500
1666.000000	27.517600
1665.000000	27.630400
1664.000000	27.719800
1663.000000	27.810500
1662.000000	27.865300
1661.000000	27.914700
1660.000000	27.988000
1659.000000	28.038800
1658.000000	28.076500
1657.000000	28.096500
1656.000000	28.123600
1655.000000	28.158400
1654.000000	28.158100
1653.000000	28.168900
1652.000000	28.145300
1651.000000	28.163100
1650.000000	28.148400
1649.000000	28.126300
1648.000000	28.107100
1647.000000	28.064300
1646.000000	28.039400
1645.000000	28.009100
1644.000000	27.961000
1643.000000	27.955900
1642.000000	27.910100
1641.000000	27.856900
1640.000000	27.827000
1639.000000	27.772600
1638.000000	27.722000
1637.000000	27.677700
1636.000000	27.629800
1635.000000	27.581700
1634.000000	27.508700
1633.000000	27.470400
1632.000000	27.420900
1631.000000	27.358300
1630.000000	27.300100
1629.000000	27.207000
1628.000000	27.167800
1627.000000	27.101900
1626.000000	27.037300
1625.000000	26.964200
1624.000000	26.903200
1623.000000	26.830200
1622.000000	26.768900
1621.000000	26.699000
1620.000000	26.641200
1619.000000	26.577300
