PE UV       SUBTECH     SPECTRUM    ASCII       PEDS        4.00        
   -1
CICIMAUCR0113-3.Sample.ASC
24/04/18
16:30:55.00
24/04/18
16:30:55.00
Vinicio Soto Monge
C. kalinini
250,000000
1
Lambda 1050
1050L1511233
PerkinElmer UV WinLab 6.3.2.0749 / 2.02.05 Lambda 900 UV/VIS/NIR, Aug  7 2015 09:38:08

0
0
3350/servo 860,8/2
0
0
UV/VIS
1
1
1
DoubleDePol,CommonBeamDepol,RBeamAtt,SBeamAtt,60mm sphere, WB InGaAs Detector
0
0
0
0
Program
Program
3350/servo 860,8/2
3350/0,2 860,8/0,2
3350/0,2 860,8/0,2
0
15.00
 
 
 
0
 
860,8
319,2
860,8
Front
100
on
S:100 R:100
0
0
0
0
 
0
 
 
 
0
 
 
0
0
0
0
0
 
 
 
 
0
0


0
0
#HDR
-1
-1
#GR
nm
%R
1.0
0.0
2500,000000
-1,000000
2251
8
57,813900
3,274400
#DATA
2482.000000	10.148651
2481.000000	10.170322
2480.000000	10.119821
2479.000000	10.164116
2478.000000	10.126217
2477.000000	10.135000
2476.000000	10.063210
2475.000000	10.104451
2474.000000	10.102828
2473.000000	10.080299
2472.000000	10.071516
2471.000000	10.072184
2470.000000	10.057101
2469.000000	10.052805
2468.000000	10.073711
2467.000000	10.085931
2466.000000	10.053091
2465.000000	10.065788
2464.000000	10.038867
2463.000000	10.064260
2462.000000	10.092995
2461.000000	10.120489
2460.000000	10.132422
2459.000000	10.176527
2458.000000	10.193901
2457.000000	10.217195
2456.000000	10.232755
2455.000000	10.283543
2454.000000	10.328602
2453.000000	10.385117
2452.000000	10.424639
2451.000000	10.479150
2450.000000	10.513135
2449.000000	10.561536
2448.000000	10.635043
2447.000000	10.705019
2446.000000	10.759529
2445.000000	10.781963
2444.000000	10.848025
2443.000000	10.890029
2442.000000	10.958955
2441.000000	11.021866
2440.000000	11.061006
2439.000000	11.102152
2438.000000	11.158380
2437.000000	11.210027
2436.000000	11.269692
2435.000000	11.305396
2434.000000	11.357901
2433.000000	11.393319
2432.000000	11.408593
2431.000000	11.446397
2430.000000	11.491743
2429.000000	11.516277
2428.000000	11.570883
2427.000000	11.600286
2426.000000	11.606014
2425.000000	11.635990
2424.000000	11.662052
2423.000000	11.690405
2422.000000	11.713889
2421.000000	11.766490
2420.000000	11.811167
2419.000000	11.831406
2418.000000	11.860141
2417.000000	11.897849
2416.000000	11.915415
2415.000000	11.934030
2414.000000	11.959137
2413.000000	11.985199
2412.000000	12.011929
2411.000000	12.019948
2410.000000	12.046106
2409.000000	12.063862
2408.000000	12.073409
2407.000000	12.093838
2406.000000	12.122573
2405.000000	12.130019
2404.000000	12.143957
2403.000000	12.163432
2402.000000	12.171355
2401.000000	12.180138
2400.000000	12.196844
2399.000000	12.221474
2398.000000	12.240949
2397.000000	12.255746
2396.000000	12.260806
2395.000000	12.275030
2394.000000	12.275507
2393.000000	12.286772
2392.000000	12.309302
2391.000000	12.318180
2390.000000	12.316175
2389.000000	12.305674
2388.000000	12.307774
2387.000000	12.327344
2386.000000	12.337082
2385.000000	12.326390
2384.000000	12.323812
2383.000000	12.318848
2382.000000	12.303001
2381.000000	12.287058
2380.000000	12.272070
2379.000000	12.256032
2378.000000	12.230352
2377.000000	12.215651
2376.000000	12.205436
2375.000000	12.178515
2374.000000	12.150353
2373.000000	12.116749
2372.000000	12.092883
2371.000000	12.068062
2370.000000	12.045246
2369.000000	12.015557
2368.000000	11.964961
2367.000000	11.928398
2366.000000	11.885248
2365.000000	11.837420
2364.000000	11.792838
2363.000000	11.736514
2362.000000	11.684104
2361.000000	11.635417
2360.000000	11.578902
2359.000000	11.535943
2358.000000	11.499571
2357.000000	11.445347
2356.000000	11.396469
2355.000000	11.365538
2354.000000	11.348641
2353.000000	11.330407
2352.000000	11.325061
2351.000000	11.326589
2350.000000	11.325730
2349.000000	11.323343
2348.000000	11.347114
2347.000000	11.382245
2346.000000	11.397615
2345.000000	11.416517
2344.000000	11.446874
2343.000000	11.477614
2342.000000	11.502339
2341.000000	11.511981
2340.000000	11.530406
2339.000000	11.548258
2338.000000	11.555036
2337.000000	11.553317
2336.000000	11.549403
2335.000000	11.540430
2334.000000	11.536134
2333.000000	11.520096
2332.000000	11.471027
2331.000000	11.436278
2330.000000	11.399619
2329.000000	11.352173
2328.000000	11.312269
2327.000000	11.274847
2326.000000	11.199621
2325.000000	11.112557
2324.000000	11.055183
2323.000000	11.009074
2322.000000	10.929838
2321.000000	10.852225
2320.000000	10.775567
2319.000000	10.693563
2318.000000	10.610318
2317.000000	10.535569
2316.000000	10.418625
2315.000000	10.325833
2314.000000	10.240297
2313.000000	10.166503
2312.000000	10.086886
2311.000000	10.019392
2310.000000	9.953044
2309.000000	9.889847
2308.000000	9.849179
2307.000000	9.832663
2306.000000	9.821208
2305.000000	9.814621
2304.000000	9.823308
2303.000000	9.835718
2302.000000	9.891947
2301.000000	9.959058
2300.000000	9.990371
2299.000000	10.034571
2298.000000	10.091468
2297.000000	10.166694
2296.000000	10.205166
2295.000000	10.275810
2294.000000	10.342826
2293.000000	10.382253
2292.000000	10.404401
2291.000000	10.436191
2290.000000	10.455283
2289.000000	10.475808
2288.000000	10.471799
2287.000000	10.478290
2286.000000	10.461393
2285.000000	10.441059
2284.000000	10.429603
2283.000000	10.419007
2282.000000	10.388745
2281.000000	10.346931
2280.000000	10.314187
2279.000000	10.286884
2278.000000	10.261586
2277.000000	10.232374
2276.000000	10.209080
2275.000000	10.189892
2274.000000	10.178627
2273.000000	10.148365
2272.000000	10.168699
2271.000000	10.183878
2270.000000	10.188269
2269.000000	10.211276
2268.000000	10.258054
2267.000000	10.306454
2266.000000	10.384067
2265.000000	10.459770
2264.000000	10.558099
2263.000000	10.700723
2262.000000	10.824922
2261.000000	10.983107
2260.000000	11.113416
2259.000000	11.279238
2258.000000	11.473604
2257.000000	11.675608
2256.000000	11.866919
2255.000000	12.066535
2254.000000	12.251259
2253.000000	12.455744
2252.000000	12.630731
2251.000000	12.806386
2250.000000	12.973640
2249.000000	13.137934
2248.000000	13.306143
2247.000000	13.464423
2246.000000	13.592346
2245.000000	13.716641
2244.000000	13.857356
2243.000000	13.947379
2242.000000	14.058595
2241.000000	14.151100
2240.000000	14.226708
2239.000000	14.328473
2238.000000	14.384225
2237.000000	14.450095
2236.000000	14.504701
2235.000000	14.560739
2234.000000	14.626227
2233.000000	14.661740
2232.000000	14.697158
2231.000000	14.737539
2230.000000	14.741167
2229.000000	14.766370
2228.000000	14.765510
2227.000000	14.760642
2226.000000	14.761310
2225.000000	14.779448
2224.000000	14.741740
2223.000000	14.714819
2222.000000	14.678542
2221.000000	14.677110
2220.000000	14.646180
2219.000000	14.599784
2218.000000	14.572481
2217.000000	14.565417
2216.000000	14.527422
2215.000000	14.484558
2214.000000	14.445513
2213.000000	14.405991
2212.000000	14.380597
2211.000000	14.356254
2210.000000	14.331337
2209.000000	14.330478
2208.000000	14.272818
2207.000000	14.240073
2206.000000	14.232341
2205.000000	14.223176
2204.000000	14.208474
2203.000000	14.188522
2202.000000	14.177830
2201.000000	14.158546
2200.000000	14.145945
2199.000000	14.119501
2198.000000	14.091339
2197.000000	14.113010
2196.000000	14.092676
2195.000000	14.065468
2194.000000	14.070528
2193.000000	14.044180
2192.000000	14.029383
2191.000000	14.022127
2190.000000	14.002653
2189.000000	14.001030
2188.000000	14.010003
2187.000000	13.992724
2186.000000	13.972486
2185.000000	13.950147
2184.000000	13.942319
2183.000000	13.925040
2182.000000	13.930004
2181.000000	13.913298
2180.000000	13.905374
2179.000000	13.911293
2178.000000	13.905947
2177.000000	13.894587
2176.000000	13.890386
2175.000000	13.894587
2174.000000	13.882176
2173.000000	13.879026
2172.000000	13.882272
2171.000000	13.901938
2170.000000	13.928286
2169.000000	13.942987
2168.000000	13.946806
2167.000000	13.941746
2166.000000	13.955207
2165.000000	13.995588
2164.000000	14.017450
2163.000000	14.035683
2162.000000	14.071578
2161.000000	14.114633
2160.000000	14.154250
2159.000000	14.180885
2158.000000	14.222985
2157.000000	14.281600
2156.000000	14.315013
2155.000000	14.362554
2154.000000	14.413055
2153.000000	14.456301
2152.000000	14.509188
2151.000000	14.561598
2150.000000	14.611908
2149.000000	14.659163
2148.000000	14.716442
2147.000000	14.774484
2146.000000	14.822025
2145.000000	14.868899
2144.000000	14.918922
2143.000000	14.969327
2142.000000	15.020592
2141.000000	15.067179
2140.000000	15.115102
2139.000000	15.156533
2138.000000	15.190710
2137.000000	15.244170
2136.000000	15.287033
2135.000000	15.313859
2134.000000	15.360732
2133.000000	15.383930
2132.000000	15.400255
2131.000000	15.439109
2130.000000	15.457724
2129.000000	15.473380
2128.000000	15.498201
2127.000000	15.531805
2126.000000	15.548607
2125.000000	15.547079
2124.000000	15.550516
2123.000000	15.555575
2122.000000	15.567890
2121.000000	15.569609
2120.000000	15.569036
2119.000000	15.556912
2118.000000	15.546697
2117.000000	15.547270
2116.000000	15.540110
2115.000000	15.521113
2114.000000	15.484741
2113.000000	15.484454
2112.000000	15.483309
2111.000000	15.454478
2110.000000	15.430994
2109.000000	15.411042
2108.000000	15.397009
2107.000000	15.372379
2106.000000	15.358727
2105.000000	15.336293
2104.000000	15.315768
2103.000000	15.295053
2102.000000	15.256294
2101.000000	15.242738
2100.000000	15.231282
2099.000000	15.204648
2098.000000	15.181736
2097.000000	15.160161
2096.000000	15.154624
2095.000000	15.136772
2094.000000	15.102882
2093.000000	15.079780
2092.000000	15.059732
2091.000000	15.039876
2090.000000	15.029279
2089.000000	15.020305
2088.000000	15.005890
2087.000000	14.980592
2086.000000	14.960926
2085.000000	14.944984
2084.000000	14.925604
2083.000000	14.899256
2082.000000	14.864412
2081.000000	14.827562
2080.000000	14.796727
2079.000000	14.782789
2078.000000	14.748040
2077.000000	14.699544
2076.000000	14.657635
2075.000000	14.615345
2074.000000	14.572576
2073.000000	14.533531
2072.000000	14.476825
2071.000000	14.424033
2070.000000	14.374105
2069.000000	14.331624
2068.000000	14.296397
2067.000000	14.245324
2066.000000	14.189286
2065.000000	14.144895
2064.000000	14.099549
2063.000000	14.075301
2062.000000	14.047807
2061.000000	14.016113
2060.000000	13.992629
2059.000000	13.972963
2058.000000	13.955780
2057.000000	13.966567
2056.000000	13.976782
2055.000000	13.981841
2054.000000	14.006280
2053.000000	14.060122
2052.000000	14.127234
2051.000000	14.202078
2050.000000	14.264703
2049.000000	14.340120
2048.000000	14.444654
2047.000000	14.547374
2046.000000	14.673292
2045.000000	14.790045
2044.000000	14.899829
2043.000000	15.048467
2042.000000	15.176485
2041.000000	15.303549
2040.000000	15.423261
2039.000000	15.545074
2038.000000	15.666314
2037.000000	15.792900
2036.000000	15.904785
2035.000000	16.015715
2034.000000	16.137623
2033.000000	16.245594
2032.000000	16.320915
2031.000000	16.409220
2030.000000	16.511653
2029.000000	16.597094
2028.000000	16.672989
2027.000000	16.762725
2026.000000	16.828310
2025.000000	16.899049
2024.000000	16.939526
2023.000000	17.004251
2022.000000	17.061148
2021.000000	17.123963
2020.000000	17.181815
2019.000000	17.235084
2018.000000	17.288163
2017.000000	17.316134
2016.000000	17.354988
2015.000000	17.397756
2014.000000	17.420954
2013.000000	17.451502
2012.000000	17.492743
2011.000000	17.486061
2010.000000	17.522528
2009.000000	17.541048
2008.000000	17.541717
2007.000000	17.543721
2006.000000	17.534461
2005.000000	17.542098
2004.000000	17.542385
2003.000000	17.539330
2002.000000	17.516896
2001.000000	17.489879
2000.000000	17.471168
1999.000000	17.431359
1998.000000	17.401574
1997.000000	17.357470
1996.000000	17.334272
1995.000000	17.287972
1994.000000	17.248163
1993.000000	17.206731
1992.000000	17.141147
1991.000000	17.084918
1990.000000	17.019239
1989.000000	16.973798
1988.000000	16.893035
1987.000000	16.857522
1986.000000	16.781436
1985.000000	16.733704
1984.000000	16.657332
1983.000000	16.600245
1982.000000	16.517572
1981.000000	16.446642
1980.000000	16.387645
1979.000000	16.325593
1978.000000	16.253994
1977.000000	16.175523
1976.000000	16.119867
1975.000000	16.047505
1974.000000	15.983639
1973.000000	15.912804
1972.000000	15.873282
1971.000000	15.792709
1970.000000	15.734381
1969.000000	15.680730
1968.000000	15.633379
1967.000000	15.551470
1966.000000	15.507843
1965.000000	15.446937
1964.000000	15.383930
1963.000000	15.336675
1962.000000	15.280733
1961.000000	15.227750
1960.000000	15.133049
1959.000000	15.078634
1958.000000	15.039971
1957.000000	14.957872
1956.000000	14.916153
1955.000000	14.866703
1954.000000	14.804651
1953.000000	14.750618
1952.000000	14.694294
1951.000000	14.632719
1950.000000	14.568567
1949.000000	14.535154
1948.000000	14.510906
1947.000000	14.449713
1946.000000	14.405991
1945.000000	14.388330
1944.000000	14.372578
1943.000000	14.339738
1942.000000	14.299357
1941.000000	14.286946
1940.000000	14.309762
1939.000000	14.318450
1938.000000	14.327996
1937.000000	14.360931
1936.000000	14.369714
1935.000000	14.392435
1934.000000	14.407995
1933.000000	14.435394
1932.000000	14.499451
1931.000000	14.541073
1930.000000	14.618113
1929.000000	14.696776
1928.000000	14.795582
1927.000000	14.923504
1926.000000	15.017537
1925.000000	15.110042
1924.000000	15.214194
1923.000000	15.325697
1922.000000	15.444073
1921.000000	15.639775
1920.000000	15.823258
1919.000000	15.996526
1918.000000	16.156048
1917.000000	16.272706
1916.000000	16.395855
1915.000000	16.554326
1914.000000	16.770458
1913.000000	17.048642
1912.000000	17.297327
1911.000000	17.489020
1910.000000	17.683577
1909.000000	17.857132
1908.000000	18.029636
1907.000000	18.277749
1906.000000	18.570061
1905.000000	18.898173
1904.000000	19.214256
1903.000000	19.467619
1902.000000	19.716973
1901.000000	19.982269
1900.000000	20.278591
1899.000000	20.636393
1898.000000	20.937392
1897.000000	21.261590
1896.000000	21.505407
1895.000000	21.738531
1894.000000	22.020438
1893.000000	22.332035
1892.000000	22.674562
1891.000000	23.048879
1890.000000	23.382527
1889.000000	23.680759
1888.000000	24.022904
1887.000000	24.337746
1886.000000	24.684951
1885.000000	25.075879
1884.000000	25.500410
1883.000000	25.906039
1882.000000	26.300498
1881.000000	26.717488
1880.000000	27.096769
1879.000000	27.455334
1878.000000	27.802157
1877.000000	28.139051
1876.000000	28.463249
1875.000000	28.771791
1874.000000	29.049975
1873.000000	29.311452
1872.000000	29.546868
1871.000000	29.746675
1870.000000	29.919084
1869.000000	30.059608
1868.000000	30.180275
1867.000000	30.252733
1866.000000	30.296170
1865.000000	30.341133
1864.000000	30.374355
1863.000000	30.409009
1862.000000	30.451299
1861.000000	30.502469
1860.000000	30.553733
1859.000000	30.589819
1858.000000	30.613589
1857.000000	30.612348
1856.000000	30.581131
1855.000000	30.564330
1854.000000	30.547528
1853.000000	30.497886
1852.000000	30.454927
1851.000000	30.421705
1850.000000	30.399080
1849.000000	30.394116
1848.000000	30.367100
1847.000000	30.309725
1846.000000	30.240227
1845.000000	30.156887
1844.000000	30.091112
1843.000000	30.071159
1842.000000	30.066386
1841.000000	30.057126
1840.000000	30.024955
1839.000000	29.974358
1838.000000	29.918893
1837.000000	29.870493
1836.000000	29.819992
1835.000000	29.745625
1834.000000	29.653502
1833.000000	29.572452
1832.000000	29.512978
1831.000000	29.459613
1830.000000	29.392406
1829.000000	29.334555
1828.000000	29.271643
1827.000000	29.203386
1826.000000	29.136847
1825.000000	29.059712
1824.000000	29.018089
1823.000000	29.005011
1822.000000	29.003961
1821.000000	28.998137
1820.000000	28.978185
1819.000000	28.934940
1818.000000	28.903150
1817.000000	28.891790
1816.000000	28.893031
1815.000000	28.886157
1814.000000	28.877375
1813.000000	28.868974
1812.000000	28.849976
1811.000000	28.823628
1810.000000	28.774273
1809.000000	28.736755
1808.000000	28.706684
1807.000000	28.684059
1806.000000	28.644632
1805.000000	28.600623
1804.000000	28.550313
1803.000000	28.506972
1802.000000	28.477760
1801.000000	28.450552
1800.000000	28.396519
1799.000000	28.340863
1798.000000	28.295231
1797.000000	28.264014
1796.000000	28.224683
1795.000000	28.180292
1794.000000	28.138383
1793.000000	28.095519
1792.000000	28.050078
1791.000000	28.019339
1790.000000	27.958719
1789.000000	27.909936
1788.000000	27.872323
1787.000000	27.828028
1786.000000	27.763016
1785.000000	27.697718
1784.000000	27.633471
1783.000000	27.556431
1782.000000	27.483878
1781.000000	27.422303
1780.000000	27.337053
1779.000000	27.257245
1778.000000	27.179823
1777.000000	27.075003
1776.000000	26.986698
1775.000000	26.874909
1774.000000	26.753955
1773.000000	26.636343
1772.000000	26.499638
1771.000000	26.364364
1770.000000	26.230427
1769.000000	26.107660
1768.000000	25.987661
1767.000000	25.872817
1766.000000	25.776684
1765.000000	25.698690
1764.000000	25.642079
1763.000000	25.587855
1762.000000	25.574586
1761.000000	25.588523
1760.000000	25.609048
1759.000000	25.646280
1758.000000	25.691243
1757.000000	25.718451
1756.000000	25.737639
1755.000000	25.750718
1754.000000	25.743081
1753.000000	25.725706
1752.000000	25.705468
1751.000000	25.643893
1750.000000	25.591101
1749.000000	25.517880
1748.000000	25.430720
1747.000000	25.342034
1746.000000	25.224517
1745.000000	25.099172
1744.000000	24.943756
1743.000000	24.770010
1742.000000	24.588341
1741.000000	24.377746
1740.000000	24.166769
1739.000000	23.955888
1738.000000	23.769159
1737.000000	23.595986
1736.000000	23.466918
1735.000000	23.380809
1734.000000	23.314557
1733.000000	23.309115
1732.000000	23.321716
1731.000000	23.377372
1730.000000	23.453744
1729.000000	23.521428
1728.000000	23.606678
1727.000000	23.676081
1726.000000	23.758181
1725.000000	23.806199
1724.000000	23.864242
1723.000000	23.901568
1722.000000	23.917129
1721.000000	23.937081
1720.000000	23.983573
1719.000000	24.036746
1718.000000	24.096030
1717.000000	24.151781
1716.000000	24.254978
1715.000000	24.338796
1714.000000	24.422137
1713.000000	24.510728
1712.000000	24.573162
1711.000000	24.620417
1710.000000	24.653639
1709.000000	24.678841
1708.000000	24.693447
1707.000000	24.673591
1706.000000	24.676646
1705.000000	24.642374
1704.000000	24.600751
1703.000000	24.535549
1702.000000	24.447340
1701.000000	24.339656
1700.000000	24.233308
1699.000000	24.076078
1698.000000	23.968489
1697.000000	23.883908
1696.000000	23.815173
1695.000000	23.805436
1694.000000	23.856223
1693.000000	23.934695
1692.000000	24.059371
1691.000000	24.189776
1690.000000	24.309871
1689.000000	24.406672
1688.000000	24.506050
1687.000000	24.553114
1686.000000	24.622326
1685.000000	24.685142
1684.000000	24.774497
1683.000000	25.023278
1682.000000	25.329337
1681.000000	25.733439
1680.000000	26.211716
1679.000000	26.721211
1678.000000	27.213808
1677.000000	27.706406
1676.000000	28.093133
1675.000000	28.490552
1674.000000	28.818091
1673.000000	29.112695
1672.000000	29.367872
1671.000000	29.616175
1670.000000	29.843858
1669.000000	30.034310
1668.000000	30.213211
1667.000000	30.378842
1666.000000	30.518793
1665.000000	30.628959
1664.000000	30.745808
1663.000000	30.844232
1662.000000	30.938074
1661.000000	31.035829
1660.000000	31.095495
1659.000000	31.171962
1658.000000	31.226186
1657.000000	31.280505
1656.000000	31.319073
1655.000000	31.333679
1654.000000	31.350194
1653.000000	31.354204
1652.000000	31.362032
1651.000000	31.347712
1650.000000	31.341698
1649.000000	31.309526
1648.000000	31.288620
1647.000000	31.251579
1646.000000	31.225708
1645.000000	31.180554
1644.000000	31.131962
1643.000000	31.080698
1642.000000	31.038120
1641.000000	31.001176
1640.000000	30.967286
1639.000000	30.923372
1638.000000	30.867907
1637.000000	30.800604
1636.000000	30.750008
1635.000000	30.686047
1634.000000	30.626763
1633.000000	30.574258
1632.000000	30.507910
1631.000000	30.424856
1630.000000	30.360608
1629.000000	30.297506
1628.000000	30.225621
1627.000000	30.142853
1626.000000	30.090634
1625.000000	30.011780
1624.000000	29.933595
1623.000000	29.869729
1622.000000	29.794503
1621.000000	29.726532
1620.000000	29.659516
1619.000000	29.592023
1618.000000	29.513455
1617.000000	29.444243
1616.000000	29.380664
1615.000000	29.296369
1614.000000	29.241858
1613.000000	29.171692
1612.000000	29.111454
1611.000000	29.057039
1610.000000	28.968543
1609.000000	28.900763
1608.000000	28.838139
1607.000000	28.769022
1606.000000	28.695896
