PE UV       SUBTECH     SPECTRUM    ASCII       PEDS        4.00        
   -1
CICIMAUCR0013-5.Sample.ASC
24/04/23
11:02:20.00
24/04/23
11:02:20.00
Vinicio Soto Monge
C. resplendens
250,000000
1
Lambda 1050
1050L1511233
PerkinElmer UV WinLab 6.3.2.0749 / 2.02.05 Lambda 900 UV/VIS/NIR, Aug  7 2015 09:38:08

0
0
3350/servo 860,8/2
0
0
UV/VIS
1
1
1
DoubleDePol,CommonBeamDepol,RBeamAtt,SBeamAtt,60mm sphere, WB InGaAs Detector
0
0
0
0
Program
Program
3350/servo 860,8/2
3350/0,2 860,8/0,2
3350/0,2 860,8/0,2
0
15.00
 
 
 
0
 
860,8
319,2
860,8
Front
100
on
S:100 R:100
0
0
0
0
 
0
 
 
 
0
 
 
0
0
0
0
0
 
 
 
 
0
0


0
0
#HDR
-1
-1
#GR
nm
%R
1.0
0.0
2500,000000
-1,000000
2251
8
89,800900
5,734500
#DATA
2482.000000	9.261458
2481.000000	9.259572
2480.000000	9.321155
2479.000000	9.343347
2478.000000	9.310281
2477.000000	9.229834
2476.000000	9.296078
2475.000000	9.303068
2474.000000	9.308062
2473.000000	9.328922
2472.000000	9.301182
2471.000000	9.304178
2470.000000	9.316717
2469.000000	9.353223
2468.000000	9.343680
2467.000000	9.335691
2466.000000	9.379742
2465.000000	9.431450
2464.000000	9.418690
2463.000000	9.441991
2462.000000	9.487152
2461.000000	9.541301
2460.000000	9.551954
2459.000000	9.592787
2458.000000	9.664579
2457.000000	9.750019
2456.000000	9.797621
2455.000000	9.845001
2454.000000	9.910135
2453.000000	9.968168
2452.000000	10.050612
2451.000000	10.135830
2450.000000	10.222046
2449.000000	10.252893
2448.000000	10.342994
2447.000000	10.436201
2446.000000	10.517313
2445.000000	10.617067
2444.000000	10.668220
2443.000000	10.756101
2442.000000	10.837879
2441.000000	10.937189
2440.000000	10.984902
2439.000000	11.045154
2438.000000	11.108069
2437.000000	11.191178
2436.000000	11.289046
2435.000000	11.340753
2434.000000	11.411657
2433.000000	11.466250
2432.000000	11.499982
2431.000000	11.563674
2430.000000	11.644675
2429.000000	11.700156
2428.000000	11.734332
2427.000000	11.769617
2426.000000	11.829647
2425.000000	11.936058
2424.000000	12.033482
2423.000000	12.079198
2422.000000	12.137563
2421.000000	12.177398
2420.000000	12.217122
2419.000000	12.264170
2418.000000	12.320427
2417.000000	12.358597
2416.000000	12.388113
2415.000000	12.430722
2414.000000	12.469558
2413.000000	12.520822
2412.000000	12.553999
2411.000000	12.577523
2410.000000	12.626568
2409.000000	12.664073
2408.000000	12.698803
2407.000000	12.726100
2406.000000	12.753507
2405.000000	12.800443
2404.000000	12.845715
2403.000000	12.876008
2402.000000	12.925052
2401.000000	12.947910
2400.000000	12.996511
2399.000000	13.040785
2398.000000	13.084725
2397.000000	13.112354
2396.000000	13.148860
2395.000000	13.192357
2394.000000	13.222538
2393.000000	13.265036
2392.000000	13.313637
2391.000000	13.329838
2390.000000	13.360352
2389.000000	13.378660
2388.000000	13.394972
2387.000000	13.409175
2386.000000	13.426817
2385.000000	13.430146
2384.000000	13.441908
2383.000000	13.455334
2382.000000	13.451895
2381.000000	13.443129
2380.000000	13.447012
2379.000000	13.434252
2378.000000	13.411727
2377.000000	13.400742
2376.000000	13.388869
2375.000000	13.378660
2374.000000	13.349145
2373.000000	13.330947
2372.000000	13.309865
2371.000000	13.274246
2370.000000	13.235854
2369.000000	13.187031
2368.000000	13.160844
2367.000000	13.126335
2366.000000	13.052768
2365.000000	12.976094
2364.000000	12.915732
2363.000000	12.839502
2362.000000	12.755615
2361.000000	12.687041
2360.000000	12.613696
2359.000000	12.541572
2358.000000	12.486868
2357.000000	12.423953
2356.000000	12.363258
2355.000000	12.332078
2354.000000	12.306668
2353.000000	12.297791
2352.000000	12.305891
2351.000000	12.306335
2350.000000	12.324199
2349.000000	12.363591
2348.000000	12.412413
2347.000000	12.462346
2346.000000	12.519601
2345.000000	12.584957
2344.000000	12.640771
2343.000000	12.691702
2342.000000	12.759721
2341.000000	12.813537
2340.000000	12.856590
2339.000000	12.885772
2338.000000	12.897867
2337.000000	12.903526
2336.000000	12.933264
2335.000000	12.928714
2334.000000	12.907743
2333.000000	12.858698
2332.000000	12.819973
2331.000000	12.778473
2330.000000	12.737529
2329.000000	12.651756
2328.000000	12.569534
2327.000000	12.508173
2326.000000	12.427726
2325.000000	12.332743
2324.000000	12.240868
2323.000000	12.134567
2322.000000	12.040029
2321.000000	11.931287
2320.000000	11.795804
2319.000000	11.667200
2318.000000	11.534824
2317.000000	11.401560
2316.000000	11.276396
2315.000000	11.164770
2314.000000	11.019744
2313.000000	10.916772
2312.000000	10.814688
2311.000000	10.710829
2310.000000	10.610409
2309.000000	10.544498
2308.000000	10.512431
2307.000000	10.484136
2306.000000	10.480585
2305.000000	10.486577
2304.000000	10.551378
2303.000000	10.598869
2302.000000	10.684309
2301.000000	10.769638
2300.000000	10.863733
2299.000000	10.964929
2298.000000	11.064017
2297.000000	11.165546
2296.000000	11.294816
2295.000000	11.390353
2294.000000	11.483338
2293.000000	11.565893
2292.000000	11.631804
2291.000000	11.674524
2290.000000	11.708700
2289.000000	11.744429
2288.000000	11.734443
2287.000000	11.735774
2286.000000	11.713582
2285.000000	11.678074
2284.000000	11.639349
2283.000000	11.588751
2282.000000	11.527612
2281.000000	11.481008
2280.000000	11.421311
2279.000000	11.364055
2278.000000	11.309795
2277.000000	11.259752
2276.000000	11.207600
2275.000000	11.167211
2274.000000	11.140691
2273.000000	11.132369
2272.000000	11.116613
2271.000000	11.129928
2270.000000	11.177308
2269.000000	11.205936
2268.000000	11.274621
2267.000000	11.347522
2266.000000	11.460591
2265.000000	11.582093
2264.000000	11.748756
2263.000000	11.962356
2262.000000	12.184278
2261.000000	12.419848
2260.000000	12.652644
2259.000000	12.930046
2258.000000	13.253829
2257.000000	13.544436
2256.000000	13.835597
2255.000000	14.104344
2254.000000	14.412261
2253.000000	14.716959
2252.000000	14.976497
2251.000000	15.243690
2250.000000	15.510662
2249.000000	15.760324
2248.000000	15.972481
2247.000000	16.170102
2246.000000	16.386587
2245.000000	16.555469
2244.000000	16.744436
2243.000000	16.879031
2242.000000	17.027941
2241.000000	17.157654
2240.000000	17.333638
2239.000000	17.418634
2238.000000	17.532591
2237.000000	17.660196
2236.000000	17.727549
2235.000000	17.841395
2234.000000	17.913630
2233.000000	17.965338
2232.000000	18.039349
2231.000000	18.078629
2230.000000	18.126342
2229.000000	18.183709
2228.000000	18.213557
2227.000000	18.234418
2226.000000	18.256166
2225.000000	18.225319
2224.000000	18.239522
2223.000000	18.258718
2222.000000	18.234862
2221.000000	18.217885
2220.000000	18.210118
2219.000000	18.187149
2218.000000	18.172502
2217.000000	18.139214
2216.000000	18.142764
2215.000000	18.103151
2214.000000	18.078407
2213.000000	18.043565
2212.000000	18.017379
2211.000000	17.988751
2210.000000	17.978098
2209.000000	17.942591
2208.000000	17.951579
2207.000000	17.932605
2206.000000	17.905308
2205.000000	17.872353
2204.000000	17.880675
2203.000000	17.868469
2202.000000	17.846721
2201.000000	17.832407
2200.000000	17.809993
2199.000000	17.789132
2198.000000	17.785914
2197.000000	17.799673
2196.000000	17.786136
2195.000000	17.785027
2194.000000	17.768937
2193.000000	17.756288
2192.000000	17.743194
2191.000000	17.728991
2190.000000	17.731322
2189.000000	17.711903
2188.000000	17.709573
2187.000000	17.671292
2186.000000	17.649211
2185.000000	17.659752
2184.000000	17.619029
2183.000000	17.611817
2182.000000	17.595173
2181.000000	17.597392
2180.000000	17.583633
2179.000000	17.547127
2178.000000	17.555892
2177.000000	17.547792
2176.000000	17.530815
2175.000000	17.536030
2174.000000	17.537140
2173.000000	17.520163
2172.000000	17.528596
2171.000000	17.552009
2170.000000	17.557779
2169.000000	17.570872
2168.000000	17.571538
2167.000000	17.601608
2166.000000	17.628794
2165.000000	17.640777
2164.000000	17.648545
2163.000000	17.681278
2162.000000	17.695037
2161.000000	17.744526
2160.000000	17.763944
2159.000000	17.793571
2158.000000	17.817094
2157.000000	17.855487
2156.000000	17.898651
2155.000000	17.938374
2154.000000	17.970664
2153.000000	18.002843
2152.000000	18.051887
2151.000000	18.099933
2150.000000	18.145982
2149.000000	18.180824
2148.000000	18.206567
2147.000000	18.250064
2146.000000	18.289233
2145.000000	18.301993
2144.000000	18.338832
2143.000000	18.362356
2142.000000	18.408516
2141.000000	18.431928
2140.000000	18.462443
2139.000000	18.483636
2138.000000	18.517812
2137.000000	18.533014
2136.000000	18.547993
2135.000000	18.585942
2134.000000	18.573958
2133.000000	18.578064
2132.000000	18.601920
2131.000000	18.619785
2130.000000	18.608689
2129.000000	18.603696
2128.000000	18.595928
2127.000000	18.600589
2126.000000	18.591268
2125.000000	18.564305
2124.000000	18.524581
2123.000000	18.502832
2122.000000	18.509601
2121.000000	18.474759
2120.000000	18.433260
2119.000000	18.411290
2118.000000	18.388543
2117.000000	18.347598
2116.000000	18.312756
2115.000000	18.292229
2114.000000	18.255833
2113.000000	18.198023
2112.000000	18.167620
2111.000000	18.132889
2110.000000	18.094718
2109.000000	18.060099
2108.000000	18.012607
2107.000000	17.980872
2106.000000	17.951024
2105.000000	17.899427
2104.000000	17.866361
2103.000000	17.838843
2102.000000	17.792461
2101.000000	17.744082
2100.000000	17.709684
2099.000000	17.675508
2098.000000	17.648212
2097.000000	17.613370
2096.000000	17.573424
2095.000000	17.543687
2094.000000	17.504518
2093.000000	17.473559
2092.000000	17.446152
2091.000000	17.412975
2090.000000	17.392003
2089.000000	17.367370
2088.000000	17.335968
2087.000000	17.315329
2086.000000	17.292028
2085.000000	17.261180
2084.000000	17.227115
2083.000000	17.188612
2082.000000	17.155768
2081.000000	17.132577
2080.000000	17.102285
2079.000000	17.066333
2078.000000	17.022393
2077.000000	16.982891
2076.000000	16.962141
2075.000000	16.920642
2074.000000	16.880141
2073.000000	16.850070
2072.000000	16.817448
2071.000000	16.774617
2070.000000	16.755421
2069.000000	16.721689
2068.000000	16.691064
2067.000000	16.656999
2066.000000	16.607732
2065.000000	16.588425
2064.000000	16.562238
2063.000000	16.539269
2062.000000	16.517521
2061.000000	16.507423
2060.000000	16.492000
2059.000000	16.490779
2058.000000	16.495107
2057.000000	16.504982
2056.000000	16.533721
2055.000000	16.558243
2054.000000	16.587426
2053.000000	16.650563
2052.000000	16.717916
2051.000000	16.787267
2050.000000	16.871819
2049.000000	16.962363
2048.000000	17.063670
2047.000000	17.162758
2046.000000	17.273608
2045.000000	17.403210
2044.000000	17.512174
2043.000000	17.648767
2042.000000	17.766940
2041.000000	17.887665
2040.000000	18.002843
2039.000000	18.118464
2038.000000	18.229869
2037.000000	18.328291
2036.000000	18.438142
2035.000000	18.522805
2034.000000	18.623447
2033.000000	18.707000
2032.000000	18.788113
2031.000000	18.862567
2030.000000	18.943791
2029.000000	19.010478
2028.000000	19.089371
2027.000000	19.155948
2026.000000	19.208099
2025.000000	19.224855
2024.000000	19.299198
2023.000000	19.349686
2022.000000	19.395069
2021.000000	19.442449
2020.000000	19.486500
2019.000000	19.509469
2018.000000	19.545642
2017.000000	19.583702
2016.000000	19.599015
2015.000000	19.620985
2014.000000	19.630305
2013.000000	19.630527
2012.000000	19.640625
2011.000000	19.640847
2010.000000	19.642511
2009.000000	19.628308
2008.000000	19.613883
2007.000000	19.609556
2006.000000	19.560289
2005.000000	19.566614
2004.000000	19.504698
2003.000000	19.498151
2002.000000	19.428246
2001.000000	19.390408
2000.000000	19.364776
1999.000000	19.284108
1998.000000	19.260473
1997.000000	19.186573
1996.000000	19.129317
1995.000000	19.050202
1994.000000	18.981517
1993.000000	18.917160
1992.000000	18.832386
1991.000000	18.775130
1990.000000	18.679482
1989.000000	18.593376
1988.000000	18.526578
1987.000000	18.451679
1986.000000	18.339276
1985.000000	18.239966
1984.000000	18.161961
1983.000000	18.081070
1982.000000	17.986531
1981.000000	17.895544
1980.000000	17.800450
1979.000000	17.704469
1978.000000	17.612815
1977.000000	17.528485
1976.000000	17.426068
1975.000000	17.341294
1974.000000	17.239987
1973.000000	17.166642
1972.000000	17.083754
1971.000000	16.997094
1970.000000	16.902888
1969.000000	16.787932
1968.000000	16.745102
1967.000000	16.659329
1966.000000	16.596636
1965.000000	16.486119
1964.000000	16.422316
1963.000000	16.337764
1962.000000	16.257761
1961.000000	16.188522
1960.000000	16.094538
1959.000000	16.041943
1958.000000	15.941634
1957.000000	15.855085
1956.000000	15.782072
1955.000000	15.727147
1954.000000	15.671999
1953.000000	15.586670
1952.000000	15.519317
1951.000000	15.427885
1950.000000	15.373625
1949.000000	15.348992
1948.000000	15.289850
1947.000000	15.241249
1946.000000	15.182551
1945.000000	15.129290
1944.000000	15.090786
1943.000000	15.070480
1942.000000	15.048954
1941.000000	15.032865
1940.000000	15.032532
1939.000000	15.033974
1938.000000	15.044959
1937.000000	15.038524
1936.000000	15.037747
1935.000000	15.099108
1934.000000	15.143715
1933.000000	15.181774
1932.000000	15.239696
1931.000000	15.311709
1930.000000	15.385831
1929.000000	15.476264
1928.000000	15.563701
1927.000000	15.664676
1926.000000	15.780963
1925.000000	15.919220
1924.000000	16.051818
1923.000000	16.188189
1922.000000	16.353854
1921.000000	16.540712
1920.000000	16.723797
1919.000000	16.880141
1918.000000	17.092409
1917.000000	17.271722
1916.000000	17.487873
1915.000000	17.718561
1914.000000	17.977322
1913.000000	18.221879
1912.000000	18.449571
1911.000000	18.705780
1910.000000	18.968757
1909.000000	19.212982
1908.000000	19.497485
1907.000000	19.804403
1906.000000	20.143277
1905.000000	20.453635
1904.000000	20.762217
1903.000000	21.070910
1902.000000	21.410783
1901.000000	21.755095
1900.000000	22.124372
1899.000000	22.483109
1898.000000	22.849834
1897.000000	23.251957
1896.000000	23.630444
1895.000000	23.999056
1894.000000	24.394964
1893.000000	24.804299
1892.000000	25.267671
1891.000000	25.716286
1890.000000	26.153805
1889.000000	26.603640
1888.000000	27.085987
1887.000000	27.569998
1886.000000	28.094510
1885.000000	28.689371
1884.000000	29.310974
1883.000000	29.945337
1882.000000	30.552848
1881.000000	31.192093
1880.000000	31.811033
1879.000000	32.407336
1878.000000	32.983556
1877.000000	33.550122
1876.000000	34.048558
1875.000000	34.525246
1874.000000	34.964873
1873.000000	35.375428
1872.000000	35.743707
1871.000000	36.057726
1870.000000	36.311605
1869.000000	36.577578
1868.000000	36.778861
1867.000000	36.937424
1866.000000	37.081340
1865.000000	37.216823
1864.000000	37.342209
1863.000000	37.474474
1862.000000	37.609846
1861.000000	37.704274
1860.000000	37.767300
1859.000000	37.794707
1858.000000	37.824112
1857.000000	37.842864
1856.000000	37.855070
1855.000000	37.857178
1854.000000	37.813571
1853.000000	37.736342
1852.000000	37.702388
1851.000000	37.711598
1850.000000	37.741668
1849.000000	37.737008
1848.000000	37.618279
1847.000000	37.467373
1846.000000	37.355746
1845.000000	37.321348
1844.000000	37.339990
1843.000000	37.371724
1842.000000	37.356301
1841.000000	37.287505
1840.000000	37.220152
1839.000000	37.169776
1838.000000	37.129275
1837.000000	37.067026
1836.000000	36.961835
1835.000000	36.841443
1834.000000	36.761440
1833.000000	36.702298
1832.000000	36.644931
1831.000000	36.573694
1830.000000	36.466506
1829.000000	36.367085
1828.000000	36.253905
1827.000000	36.149158
1826.000000	36.051956
1825.000000	35.970067
1824.000000	35.941550
1823.000000	35.978056
1822.000000	35.996587
1821.000000	35.943104
1820.000000	35.849785
1819.000000	35.783986
1818.000000	35.763902
1817.000000	35.769339
1816.000000	35.766343
1815.000000	35.746259
1814.000000	35.752473
1813.000000	35.749477
1812.000000	35.721515
1811.000000	35.666256
1810.000000	35.611996
1809.000000	35.580927
1808.000000	35.545087
1807.000000	35.496597
1806.000000	35.415485
1805.000000	35.348021
1804.000000	35.289988
1803.000000	35.251152
1802.000000	35.212870
1801.000000	35.132646
1800.000000	35.048426
1799.000000	34.986732
1798.000000	34.941127
1797.000000	34.905731
1796.000000	34.846810
1795.000000	34.790664
1794.000000	34.730856
1793.000000	34.658732
1792.000000	34.579395
1791.000000	34.508158
1790.000000	34.446575
1789.000000	34.379332
1788.000000	34.302880
1787.000000	34.220547
1786.000000	34.150531
1785.000000	34.054439
1784.000000	33.965005
1783.000000	33.870577
1782.000000	33.765386
1781.000000	33.657754
1780.000000	33.566988
1779.000000	33.454252
1778.000000	33.327756
1777.000000	33.220901
1776.000000	33.101729
1775.000000	32.944941
1774.000000	32.792592
1773.000000	32.622822
1772.000000	32.453829
1771.000000	32.305030
1770.000000	32.143027
1769.000000	31.973590
1768.000000	31.826345
1767.000000	31.709392
1766.000000	31.613189
1765.000000	31.516875
1764.000000	31.460507
1763.000000	31.456180
1762.000000	31.466832
1761.000000	31.501119
1760.000000	31.575130
1759.000000	31.653579
1758.000000	31.723041
1757.000000	31.815915
1756.000000	31.874280
1755.000000	31.900134
1754.000000	31.919996
1753.000000	31.909344
1752.000000	31.887374
1751.000000	31.841547
1750.000000	31.779187
1749.000000	31.688976
1748.000000	31.581455
1747.000000	31.462172
1746.000000	31.310932
1745.000000	31.128180
1744.000000	30.927451
1743.000000	30.691660
1742.000000	30.435562
1741.000000	30.142847
1740.000000	29.849689
1739.000000	29.586157
1738.000000	29.314635
1737.000000	29.080064
1736.000000	28.936814
1735.000000	28.838391
1734.000000	28.802995
1733.000000	28.811650
1732.000000	28.876562
1731.000000	28.989631
1730.000000	29.141426
1729.000000	29.289780
1728.000000	29.446013
1727.000000	29.591483
1726.000000	29.712763
1725.000000	29.799645
1724.000000	29.873989
1723.000000	29.912825
1722.000000	29.958430
1721.000000	29.974631
1720.000000	30.000706
1719.000000	30.037434
1718.000000	30.087700
1717.000000	30.136300
1716.000000	30.202211
1715.000000	30.252255
1714.000000	30.335919
1713.000000	30.429237
1712.000000	30.466631
1711.000000	30.501140
1710.000000	30.523887
1709.000000	30.532764
1708.000000	30.511126
1707.000000	30.480168
1706.000000	30.446214
1705.000000	30.372758
1704.000000	30.279551
1703.000000	30.168590
1702.000000	30.018571
1701.000000	29.847358
1700.000000	29.633315
1699.000000	29.437358
1698.000000	29.263704
1697.000000	29.117680
1696.000000	29.052990
1695.000000	29.058982
1694.000000	29.149526
1693.000000	29.318519
1692.000000	29.525239
1691.000000	29.741058
1690.000000	29.952660
1689.000000	30.097797
1688.000000	30.174582
1687.000000	30.212974
1686.000000	30.222184
1685.000000	30.279440
1684.000000	30.430236
1683.000000	30.708193
1682.000000	31.157584
1681.000000	31.756773
1680.000000	32.429195
1679.000000	33.113380
1678.000000	33.824861
1677.000000	34.447351
1676.000000	35.028342
1675.000000	35.497152
1674.000000	35.950205
1673.000000	36.315821
1672.000000	36.612863
1671.000000	36.912790
1670.000000	37.158569
1669.000000	37.365844
1668.000000	37.541384
1667.000000	37.706160
1666.000000	37.820450
1665.000000	37.945503
1664.000000	38.047143
1663.000000	38.142569
1662.000000	38.230229
1661.000000	38.275612
1660.000000	38.330537
1659.000000	38.377141
1658.000000	38.403217
1657.000000	38.437503
1656.000000	38.448378
1655.000000	38.441498
1654.000000	38.422635
1653.000000	38.406656
1652.000000	38.400332
1651.000000	38.370150
1650.000000	38.332645
1649.000000	38.300023
1648.000000	38.232115
1647.000000	38.159657
1646.000000	38.109392
1645.000000	38.024507
1644.000000	37.946391
1643.000000	37.883920
1642.000000	37.812683
1641.000000	37.729351
1640.000000	37.639140
1639.000000	37.557917
1638.000000	37.476361
1637.000000	37.388369
1636.000000	37.292387
1635.000000	37.205616
1634.000000	37.111188
1633.000000	37.019979
1632.000000	36.918671
1631.000000	36.804271
1630.000000	36.691313
1629.000000	36.580574
1628.000000	36.468947
1627.000000	36.360316
1626.000000	36.265556
1625.000000	36.142611
1624.000000	36.037198
1623.000000	35.931675
1622.000000	35.822933
1621.000000	35.722402
1620.000000	35.614105
1619.000000	35.517458
1618.000000	35.415263
1617.000000	35.304080
1616.000000	35.220194
1615.000000	35.110231
1614.000000	35.011032
1613.000000	34.922153
1612.000000	34.819958
1611.000000	34.716099
1610.000000	34.636762
1609.000000	34.526023
1608.000000	34.437920
1607.000000	34.353035
1606.000000	34.259938
1605.000000	34.169283
