PE UV       SUBTECH     SPECTRUM    ASCII       PEDS        4.00        
   -1
CICIMAUCR0113-4.Sample.ASC
24/04/18
17:16:39.00
24/04/18
17:16:39.00
Vinicio Soto Monge
C. kalinini
250,000000
1
Lambda 1050
1050L1511233
PerkinElmer UV WinLab 6.3.2.0749 / 2.02.05 Lambda 900 UV/VIS/NIR, Aug  7 2015 09:38:08

0
0
3350/servo 860,8/2
0
0
UV/VIS
1
1
1
DoubleDePol,CommonBeamDepol,RBeamAtt,SBeamAtt,60mm sphere, WB InGaAs Detector
0
0
0
0
Program
Program
3350/servo 860,8/2
3350/0,2 860,8/0,2
3350/0,2 860,8/0,2
0
15.00
 
 
 
0
 
860,8
319,2
860,8
Front
100
on
S:100 R:100
0
0
0
0
 
0
 
 
 
0
 
 
0
0
0
0
0
 
 
 
 
0
0


0
0
#HDR
-1
-1
#GR
nm
%R
1.0
0.0
2500,000000
-1,000000
2251
8
46,046400
2,843400
#DATA
250.000000	3.649726
251.000000	3.645935
252.000000	3.662389
253.000000	3.636910
254.000000	3.630578
255.000000	3.638824
256.000000	3.620302
257.000000	3.607393
258.000000	3.614390
259.000000	3.598734
260.000000	3.586648
261.000000	3.601331
262.000000	3.577056
263.000000	3.558371
264.000000	3.546263
265.000000	3.534454
266.000000	3.510403
267.000000	3.512449
268.000000	3.510503
269.000000	3.499366
270.000000	3.488918
271.000000	3.479942
272.000000	3.455952
273.000000	3.434108
274.000000	3.435904
275.000000	3.423209
276.000000	3.427462
277.000000	3.426392
278.000000	3.418304
279.000000	3.420279
280.000000	3.405816
281.000000	3.396874
282.000000	3.402517
283.000000	3.392005
284.000000	3.397197
285.000000	3.388087
286.000000	3.412135
287.000000	3.387501
288.000000	3.386776
289.000000	3.398691
290.000000	3.400067
291.000000	3.375844
292.000000	3.407484
293.000000	3.393508
294.000000	3.419745
295.000000	3.409140
296.000000	3.422376
297.000000	3.412475
298.000000	3.398363
299.000000	3.401552
300.000000	3.399857
301.000000	3.405958
302.000000	3.379074
303.000000	3.366009
304.000000	3.371213
305.000000	3.417534
306.000000	3.386319
307.000000	3.403608
308.000000	3.411802
309.000000	3.404872
310.000000	3.414543
311.000000	3.393283
312.000000	3.426419
313.000000	3.428143
314.000000	3.412711
315.000000	3.444370
316.000000	3.471887
317.000000	3.958656
318.000000	3.853950
319.000000	3.735816
320.000000	3.908342
321.000000	3.742239
322.000000	3.630021
323.000000	3.594772
324.000000	3.743887
325.000000	3.712696
326.000000	3.583544
327.000000	3.724900
328.000000	3.557990
329.000000	3.564760
330.000000	3.543179
331.000000	3.592637
332.000000	3.499254
333.000000	3.579746
334.000000	3.656204
335.000000	3.705567
336.000000	3.677633
337.000000	3.675680
338.000000	3.669188
339.000000	3.687832
340.000000	3.656165
341.000000	3.749931
342.000000	3.686841
343.000000	3.669288
344.000000	3.678688
345.000000	3.681606
346.000000	3.614805
347.000000	3.669999
348.000000	3.739189
349.000000	3.740364
350.000000	3.768051
351.000000	3.738399
352.000000	3.706773
353.000000	3.732913
354.000000	3.741611
355.000000	3.808180
356.000000	3.849574
357.000000	3.852100
358.000000	3.880371
359.000000	3.868097
360.000000	3.906452
361.000000	3.919315
362.000000	3.912895
363.000000	3.920340
364.000000	3.965658
365.000000	3.952030
366.000000	4.003271
367.000000	4.049287
368.000000	4.016802
369.000000	4.003640
370.000000	4.041880
371.000000	4.072663
372.000000	4.045458
373.000000	4.049192
374.000000	4.067936
375.000000	4.158682
376.000000	4.290142
377.000000	4.280584
378.000000	4.318715
379.000000	4.353803
380.000000	4.403431
381.000000	4.450703
382.000000	4.503865
383.000000	4.556070
384.000000	4.616090
385.000000	4.677249
386.000000	4.740939
387.000000	4.814052
388.000000	4.887558
389.000000	4.965278
390.000000	5.038815
391.000000	5.121413
392.000000	5.219075
393.000000	5.316988
394.000000	5.415914
395.000000	5.523843
396.000000	5.628808
397.000000	5.737210
398.000000	5.857010
399.000000	5.980547
400.000000	6.110749
401.000000	6.249327
402.000000	6.380924
403.000000	6.512490
404.000000	6.646757
405.000000	6.792450
406.000000	6.937677
407.000000	7.082308
408.000000	7.231267
409.000000	7.380587
410.000000	7.543007
411.000000	7.703396
412.000000	7.859766
413.000000	8.024156
414.000000	8.192979
415.000000	8.360923
416.000000	8.521468
417.000000	8.684117
418.000000	8.848560
419.000000	9.017968
420.000000	9.190743
421.000000	9.361789
422.000000	9.527234
423.000000	9.689720
424.000000	9.857168
425.000000	10.032158
426.000000	10.204513
427.000000	10.367841
428.000000	10.529632
429.000000	10.688276
430.000000	10.851279
431.000000	11.010091
432.000000	11.167641
433.000000	11.323109
434.000000	11.474346
435.000000	11.625859
436.000000	11.773817
437.000000	11.915403
438.000000	12.055218
439.000000	12.195218
440.000000	12.333217
441.000000	12.461264
442.000000	12.586544
443.000000	12.715077
444.000000	12.838712
445.000000	12.945903
446.000000	13.035793
447.000000	13.125597
448.000000	13.218746
449.000000	13.305376
450.000000	13.382036
451.000000	13.452312
452.000000	13.535637
453.000000	13.618840
454.000000	13.676225
455.000000	13.733300
456.000000	13.793188
457.000000	13.841709
458.000000	13.890348
459.000000	13.939218
460.000000	13.987351
461.000000	14.026587
462.000000	14.068535
463.000000	14.111888
464.000000	14.149048
465.000000	14.181160
466.000000	14.222432
467.000000	14.261436
468.000000	14.300397
469.000000	14.346504
470.000000	14.392010
471.000000	14.440174
472.000000	14.495863
473.000000	14.558128
474.000000	14.624051
475.000000	14.691668
476.000000	14.760481
477.000000	14.840637
478.000000	14.934214
479.000000	15.029219
480.000000	15.144135
481.000000	15.276618
482.000000	15.423163
483.000000	15.566199
484.000000	15.696279
485.000000	15.830447
486.000000	15.972027
487.000000	16.112623
488.000000	16.254587
489.000000	16.402048
490.000000	16.562844
491.000000	16.731834
492.000000	16.904267
493.000000	17.078318
494.000000	17.253576
495.000000	17.441613
496.000000	17.634761
497.000000	17.841107
498.000000	18.057257
499.000000	18.286813
500.000000	18.535733
501.000000	18.794631
502.000000	19.068017
503.000000	19.358062
504.000000	19.658586
505.000000	19.962458
506.000000	20.283076
507.000000	20.610640
508.000000	20.935155
509.000000	21.272886
510.000000	21.619234
511.000000	21.957621
512.000000	22.305821
513.000000	22.651724
514.000000	22.993347
515.000000	23.331451
516.000000	23.661276
517.000000	23.987611
518.000000	24.298144
519.000000	24.615949
520.000000	24.926774
521.000000	25.232505
522.000000	25.527739
523.000000	25.820736
524.000000	26.119816
525.000000	26.411454
526.000000	26.688924
527.000000	26.956724
528.000000	27.230742
529.000000	27.495196
530.000000	27.757486
531.000000	28.014543
532.000000	28.270983
533.000000	28.513261
534.000000	28.760465
535.000000	29.007081
536.000000	29.246284
537.000000	29.476618
538.000000	29.698765
539.000000	29.915843
540.000000	30.114475
541.000000	30.302810
542.000000	30.492156
543.000000	30.692997
544.000000	30.884176
545.000000	31.069583
546.000000	31.235343
547.000000	31.402508
548.000000	31.572764
549.000000	31.726099
550.000000	31.886113
551.000000	32.014390
552.000000	32.168384
553.000000	32.293464
554.000000	32.413041
555.000000	32.543509
556.000000	32.658051
557.000000	32.745742
558.000000	32.836000
559.000000	32.929331
560.000000	32.906207
561.000000	32.985232
562.000000	33.075381
563.000000	33.158561
564.000000	33.225901
565.000000	33.289166
566.000000	33.349335
567.000000	33.399777
568.000000	33.451397
569.000000	33.474287
570.000000	33.495342
571.000000	33.500602
572.000000	33.497286
573.000000	33.505362
574.000000	33.500558
575.000000	33.480470
576.000000	33.453598
577.000000	33.424673
578.000000	33.390644
579.000000	33.369795
580.000000	33.353704
581.000000	33.326604
582.000000	33.275007
583.000000	33.237636
584.000000	33.194827
585.000000	33.172698
586.000000	33.123092
587.000000	33.095239
588.000000	33.040604
589.000000	32.999623
590.000000	32.948148
591.000000	32.915049
592.000000	32.881400
593.000000	32.833070
594.000000	32.810952
595.000000	32.781478
596.000000	32.732224
597.000000	32.662629
598.000000	32.629208
599.000000	32.581643
600.000000	32.535525
601.000000	32.478326
602.000000	32.431722
603.000000	32.375478
604.000000	32.315068
605.000000	32.278641
606.000000	32.225505
607.000000	32.161906
608.000000	32.109188
609.000000	32.064462
610.000000	32.025493
611.000000	31.989130
612.000000	31.936653
613.000000	31.912393
614.000000	31.876784
615.000000	31.872156
616.000000	31.851235
617.000000	31.806190
618.000000	31.808484
619.000000	31.819670
620.000000	31.822426
621.000000	31.825751
622.000000	31.831838
623.000000	31.855916
624.000000	31.883776
625.000000	31.909621
626.000000	31.942738
627.000000	31.991657
628.000000	32.011510
629.000000	32.056802
630.000000	32.113345
631.000000	32.166098
632.000000	32.230213
633.000000	32.283852
634.000000	32.345055
635.000000	32.425604
636.000000	32.510145
637.000000	32.567314
638.000000	32.633149
639.000000	32.707492
640.000000	32.772315
641.000000	32.848619
642.000000	32.915900
643.000000	32.998772
644.000000	33.092742
645.000000	33.191514
646.000000	33.281395
647.000000	33.366005
648.000000	33.466661
649.000000	33.558921
650.000000	33.675212
651.000000	33.825339
652.000000	33.934816
653.000000	34.051249
654.000000	34.178015
655.000000	34.319550
656.000000	34.481330
657.000000	34.624556
658.000000	34.793555
659.000000	34.971170
660.000000	35.147503
661.000000	35.355910
662.000000	35.566978
663.000000	35.734547
664.000000	35.932411
665.000000	36.138654
666.000000	36.339526
667.000000	36.550046
668.000000	36.781169
669.000000	36.966636
670.000000	37.171630
671.000000	37.394503
672.000000	37.604527
673.000000	37.816108
674.000000	37.996186
675.000000	38.209805
676.000000	38.407190
677.000000	38.604995
678.000000	38.811141
679.000000	39.012065
680.000000	39.208591
681.000000	39.391007
682.000000	39.593151
683.000000	39.797813
684.000000	39.985662
685.000000	40.178539
686.000000	40.357885
687.000000	40.541092
688.000000	40.678211
689.000000	40.840541
690.000000	40.998519
691.000000	41.173094
692.000000	41.334317
693.000000	41.502475
694.000000	41.644718
695.000000	41.809840
696.000000	41.976940
697.000000	42.156166
698.000000	42.316329
699.000000	42.477564
700.000000	42.649103
701.000000	42.837823
702.000000	43.018650
703.000000	43.193280
704.000000	43.399300
705.000000	43.615804
706.000000	43.822651
707.000000	44.026278
708.000000	44.217808
709.000000	44.386663
710.000000	44.583147
711.000000	44.781517
712.000000	44.979331
713.000000	45.167919
714.000000	45.357722
715.000000	45.558182
716.000000	45.723417
717.000000	45.883629
718.000000	46.084508
719.000000	46.257169
720.000000	46.401588
721.000000	46.553826
722.000000	46.713204
723.000000	46.873304
724.000000	47.037886
725.000000	47.200236
726.000000	47.331530
727.000000	47.452310
728.000000	47.590463
729.000000	47.714416
730.000000	47.847178
731.000000	47.951188
732.000000	48.043968
733.000000	48.165229
734.000000	48.285983
735.000000	48.376839
736.000000	48.479410
737.000000	48.553878
738.000000	48.603008
739.000000	48.708711
740.000000	48.775372
741.000000	48.844541
742.000000	48.930291
743.000000	48.994812
744.000000	49.065600
745.000000	49.112879
746.000000	49.139074
747.000000	49.194506
748.000000	49.243125
749.000000	49.268478
750.000000	49.341756
751.000000	49.417280
752.000000	49.398410
753.000000	49.402989
754.000000	49.470723
755.000000	49.490132
756.000000	49.482536
757.000000	49.501031
758.000000	49.546442
759.000000	49.577568
760.000000	49.603583
761.000000	49.571662
762.000000	49.560333
763.000000	49.573625
764.000000	49.553614
765.000000	49.531920
766.000000	49.532832
767.000000	49.519789
768.000000	49.527107
769.000000	49.521083
770.000000	49.459404
771.000000	49.442401
772.000000	49.414921
773.000000	49.357241
774.000000	49.329163
775.000000	49.272431
776.000000	49.240981
777.000000	49.201253
778.000000	49.144452
779.000000	49.089138
780.000000	49.020242
781.000000	48.959565
782.000000	48.937931
783.000000	48.862903
784.000000	48.815138
785.000000	48.748509
786.000000	48.689544
787.000000	48.613929
788.000000	48.517595
789.000000	48.423443
790.000000	48.342360
791.000000	48.270979
792.000000	48.196197
793.000000	48.124532
794.000000	48.008304
795.000000	47.895493
796.000000	47.819062
797.000000	47.711892
798.000000	47.567155
799.000000	47.457828
800.000000	47.374480
801.000000	47.300897
802.000000	47.140290
803.000000	47.051364
804.000000	46.924159
805.000000	46.839700
806.000000	46.725607
807.000000	46.648137
808.000000	46.573587
809.000000	46.436829
810.000000	46.260518
811.000000	46.158920
812.000000	46.102272
813.000000	46.014710
814.000000	45.926665
815.000000	45.830601
816.000000	45.709185
817.000000	45.569519
818.000000	45.433210
819.000000	45.299861
820.000000	45.184927
821.000000	45.100339
822.000000	45.054948
823.000000	44.952075
824.000000	44.783774
825.000000	44.667020
826.000000	44.621615
827.000000	44.469337
828.000000	44.398897
829.000000	44.248834
830.000000	44.115158
831.000000	43.947729
832.000000	43.832127
833.000000	43.743435
834.000000	43.617366
835.000000	43.503992
836.000000	43.417241
837.000000	43.268006
838.000000	43.158270
839.000000	43.009279
840.000000	42.923244
841.000000	42.824827
842.000000	42.611798
843.000000	42.500323
844.000000	42.402529
845.000000	42.230423
846.000000	42.136574
847.000000	41.961537
848.000000	41.828705
849.000000	41.829533
850.000000	41.719020
851.000000	41.394111
852.000000	41.348804
853.000000	41.264988
854.000000	40.997697
855.000000	40.748228
856.000000	40.687866
857.000000	40.769650
858.000000	40.882175
859.000000	40.805550
860.000000	40.720175
861.000000	40.645975
862.000000	40.546850
863.000000	40.430425
864.000000	40.298725
865.000000	40.193475
866.000000	40.068925
867.000000	39.948500
868.000000	39.817225
869.000000	39.708850
870.000000	39.590500
871.000000	39.483400
872.000000	39.372125
873.000000	39.257400
874.000000	39.156050
875.000000	39.044025
876.000000	38.944550
877.000000	38.847375
878.000000	38.725275
879.000000	38.639550
880.000000	38.546325
881.000000	38.457075
882.000000	38.356825
883.000000	38.266175
884.000000	38.183800
885.000000	38.075600
886.000000	37.991000
887.000000	37.917450
888.000000	37.844300
889.000000	37.778975
890.000000	37.699025
891.000000	37.623650
892.000000	37.539175
893.000000	37.463575
894.000000	37.386625
895.000000	37.328250
896.000000	37.256000
897.000000	37.183600
898.000000	37.131150
899.000000	37.068925
900.000000	37.019800
901.000000	36.966400
902.000000	36.897150
903.000000	36.848375
904.000000	36.821550
905.000000	36.780600
906.000000	36.734750
907.000000	36.699075
908.000000	36.657700
909.000000	36.639800
910.000000	36.626375
911.000000	36.614175
912.000000	36.606800
913.000000	36.617950
914.000000	36.593575
915.000000	36.606800
916.000000	36.602150
917.000000	36.601225
918.000000	36.593400
919.000000	36.598275
920.000000	36.599900
921.000000	36.619100
922.000000	36.620625
923.000000	36.618700
924.000000	36.622525
925.000000	36.652800
926.000000	36.667725
927.000000	36.685350
928.000000	36.695000
929.000000	36.718525
930.000000	36.741500
931.000000	36.765800
932.000000	36.794375
933.000000	36.822475
934.000000	36.826875
935.000000	36.842500
936.000000	36.868325
937.000000	36.901200
938.000000	36.921225
939.000000	36.954800
940.000000	37.004225
941.000000	37.035850
942.000000	37.086275
943.000000	37.117875
944.000000	37.167700
945.000000	37.195675
946.000000	37.236550
947.000000	37.281700
948.000000	37.341050
949.000000	37.371600
950.000000	37.428550
951.000000	37.467250
952.000000	37.512175
953.000000	37.571125
954.000000	37.607500
955.000000	37.645450
956.000000	37.705775
957.000000	37.760850
958.000000	37.792150
959.000000	37.826150
960.000000	37.875550
961.000000	37.930425
962.000000	37.983950
963.000000	38.014875
964.000000	38.046500
965.000000	38.105875
966.000000	38.166625
967.000000	38.221550
968.000000	38.265500
969.000000	38.313300
970.000000	38.367375
971.000000	38.429900
972.000000	38.476100
973.000000	38.521050
974.000000	38.571000
975.000000	38.631650
976.000000	38.677200
977.000000	38.722550
978.000000	38.779725
979.000000	38.834700
980.000000	38.879700
981.000000	38.919875
982.000000	38.967750
983.000000	39.028325
984.000000	39.071750
985.000000	39.121550
986.000000	39.162850
987.000000	39.214025
988.000000	39.272600
989.000000	39.311150
990.000000	39.362800
991.000000	39.418050
992.000000	39.472825
993.000000	39.521150
994.000000	39.571250
995.000000	39.623200
996.000000	39.676075
997.000000	39.717950
998.000000	39.768025
999.000000	39.823100
1000.000000	39.873625
1001.000000	39.921825
1002.000000	39.975675
1003.000000	40.033175
1004.000000	40.082650
1005.000000	40.128150
1006.000000	40.173700
1007.000000	40.213325
1008.000000	40.254225
1009.000000	40.296025
1010.000000	40.345300
1011.000000	40.404150
1012.000000	40.452850
1013.000000	40.507350
1014.000000	40.556600
1015.000000	40.609600
1016.000000	40.681025
1017.000000	40.751850
1018.000000	40.819950
1019.000000	40.890750
1020.000000	40.953375
1021.000000	41.014925
1022.000000	41.095950
1023.000000	41.173600
1024.000000	41.249250
1025.000000	41.332700
1026.000000	41.406125
1027.000000	41.472625
1028.000000	41.544625
1029.000000	41.616200
1030.000000	41.684450
1031.000000	41.763950
1032.000000	41.836725
1033.000000	41.905250
1034.000000	41.968050
1035.000000	42.037550
1036.000000	42.105025
1037.000000	42.164150
1038.000000	42.228250
1039.000000	42.300425
1040.000000	42.367100
1041.000000	42.426425
1042.000000	42.488725
1043.000000	42.548225
1044.000000	42.612575
1045.000000	42.683025
1046.000000	42.743300
1047.000000	42.802450
1048.000000	42.865125
1049.000000	42.925225
1050.000000	42.991150
1051.000000	43.053475
1052.000000	43.123125
1053.000000	43.188525
1054.000000	43.257750
1055.000000	43.330750
1056.000000	43.396575
1057.000000	43.459825
1058.000000	43.533800
1059.000000	43.603600
1060.000000	43.667675
1061.000000	43.734975
1062.000000	43.794625
1063.000000	43.854750
1064.000000	43.920000
1065.000000	43.978275
1066.000000	44.036675
1067.000000	44.098525
1068.000000	44.163700
1069.000000	44.218450
1070.000000	44.283850
1071.000000	44.343350
1072.000000	44.401225
1073.000000	44.462400
1074.000000	44.519000
1075.000000	44.572625
1076.000000	44.630450
1077.000000	44.688250
1078.000000	44.753750
1079.000000	44.813125
1080.000000	44.881775
1081.000000	44.937450
1082.000000	44.995200
1083.000000	45.044050
1084.000000	45.107800
1085.000000	45.171625
1086.000000	45.229100
1087.000000	45.290425
1088.000000	45.353675
1089.000000	45.417850
1090.000000	45.475150
1091.000000	45.532525
1092.000000	45.580700
1093.000000	45.642175
1094.000000	45.702650
1095.000000	45.748750
1096.000000	45.797500
1097.000000	45.850325
1098.000000	45.897825
1099.000000	45.937600
1100.000000	45.988075
1101.000000	46.032425
1102.000000	46.076150
1103.000000	46.108650
1104.000000	46.139025
1105.000000	46.192125
1106.000000	46.235050
1107.000000	46.267100
1108.000000	46.301700
1109.000000	46.337975
1110.000000	46.377000
1111.000000	46.411500
1112.000000	46.442000
1113.000000	46.481450
1114.000000	46.516725
1115.000000	46.540400
1116.000000	46.574675
1117.000000	46.596025
1118.000000	46.616650
1119.000000	46.631125
1120.000000	46.646150
1121.000000	46.654625
1122.000000	46.655825
1123.000000	46.634100
1124.000000	46.613125
1125.000000	46.604300
1126.000000	46.575100
1127.000000	46.524900
1128.000000	46.490575
1129.000000	46.413975
1130.000000	46.313850
1131.000000	46.218950
1132.000000	46.116950
1133.000000	46.015075
1134.000000	45.891500
1135.000000	45.710350
1136.000000	45.524200
1137.000000	45.348500
1138.000000	45.183800
1139.000000	45.015300
1140.000000	44.865025
1141.000000	44.704900
1142.000000	44.560875
1143.000000	44.417950
1144.000000	44.313925
1145.000000	44.197775
1146.000000	44.114575
1147.000000	44.070475
1148.000000	44.054425
1149.000000	44.058175
1150.000000	44.070750
1151.000000	44.088250
1152.000000	44.089075
1153.000000	44.068200
1154.000000	44.027550
1155.000000	43.965600
1156.000000	43.866225
1157.000000	43.732150
1158.000000	43.581925
1159.000000	43.409150
1160.000000	43.230025
1161.000000	43.042325
1162.000000	42.853675
1163.000000	42.643400
1164.000000	42.436350
1165.000000	42.233875
1166.000000	42.025950
1167.000000	41.826175
1168.000000	41.624600
