PE UV       SUBTECH     SPECTRUM    ASCII       PEDS        4.00        
   -1
CICIMAUCR0009-3.Sample.ASC
24/04/17
14:06:27.00
24/04/17
14:06:27.00
Vinicio Soto Monge
C. kalinini
250,000000
1
Lambda 1050
1050L1511233
PerkinElmer UV WinLab 6.3.2.0749 / 2.02.05 Lambda 900 UV/VIS/NIR, Aug  7 2015 09:38:08

0
0
3350/servo 860,8/2
0
0
UV/VIS
1
1
1
DoubleDePol,CommonBeamDepol,RBeamAtt,SBeamAtt,60mm sphere, WB InGaAs Detector
0
0
0
0
Program
Program
3350/servo 860,8/2
3350/0,2 860,8/0,2
3350/0,2 860,8/0,2
0
15.00
 
 
 
0
 
860,8
319,2
860,8
Front
100
on
S:100 R:100
0
0
0
0
 
0
 
 
 
0
 
 
0
0
0
0
0
 
 
 
 
0
0


0
0
#HDR
-1
-1
#GR
nm
%R
1.0
0.0
2500,000000
-1,000000
2251
8
78,444600
4,431300
#DATA
250.000000	5.223481
251.000000	5.203283
252.000000	5.222667
253.000000	5.188114
254.000000	5.182120
255.000000	5.172550
256.000000	5.182247
257.000000	5.148262
258.000000	5.156268
259.000000	5.139838
260.000000	5.124220
261.000000	5.095406
262.000000	5.107067
263.000000	5.067178
264.000000	5.041525
265.000000	5.045159
266.000000	5.010984
267.000000	4.988727
268.000000	4.978026
269.000000	4.955480
270.000000	4.948806
271.000000	4.941779
272.000000	4.925584
273.000000	4.907234
274.000000	4.898638
275.000000	4.897614
276.000000	4.883782
277.000000	4.887547
278.000000	4.879094
279.000000	4.863408
280.000000	4.836103
281.000000	4.864370
282.000000	4.845801
283.000000	4.825307
284.000000	4.839195
285.000000	4.797424
286.000000	4.840199
287.000000	4.810021
288.000000	4.803861
289.000000	4.812382
290.000000	4.788079
291.000000	4.789433
292.000000	4.785550
293.000000	4.769239
294.000000	4.795463
295.000000	4.794834
296.000000	4.757964
297.000000	4.772204
298.000000	4.787335
299.000000	4.751944
300.000000	4.765841
301.000000	4.779718
302.000000	4.754364
303.000000	4.725163
304.000000	4.720390
305.000000	4.745955
306.000000	4.748480
307.000000	4.749402
308.000000	4.736988
309.000000	4.757488
310.000000	4.742711
311.000000	4.735698
312.000000	4.752421
313.000000	4.753762
314.000000	4.745461
315.000000	4.736935
316.000000	4.773780
317.000000	5.017437
318.000000	4.903668
319.000000	4.862794
320.000000	4.965398
321.000000	4.959959
322.000000	4.869363
323.000000	4.731527
324.000000	4.879876
325.000000	4.911670
326.000000	4.971461
327.000000	4.909420
328.000000	4.905710
329.000000	4.946110
330.000000	4.938932
331.000000	4.915394
332.000000	5.001572
333.000000	4.943084
334.000000	4.972318
335.000000	4.950030
336.000000	4.987804
337.000000	4.981173
338.000000	4.975006
339.000000	4.929985
340.000000	4.979081
341.000000	4.941524
342.000000	4.957199
343.000000	4.962578
344.000000	5.013788
345.000000	5.028586
346.000000	5.005617
347.000000	5.035787
348.000000	5.024919
349.000000	5.064126
350.000000	5.033781
351.000000	5.097718
352.000000	5.149669
353.000000	5.231034
354.000000	5.246136
355.000000	5.292273
356.000000	5.308516
357.000000	5.327682
358.000000	5.400758
359.000000	5.409891
360.000000	5.462623
361.000000	5.526609
362.000000	5.524965
363.000000	5.591813
364.000000	5.617525
365.000000	5.640735
366.000000	5.704816
367.000000	5.752265
368.000000	5.808738
369.000000	5.850611
370.000000	5.917374
371.000000	5.981605
372.000000	6.023804
373.000000	6.047198
374.000000	6.086639
375.000000	6.195044
376.000000	6.342100
377.000000	6.409568
378.000000	6.513469
379.000000	6.629778
380.000000	6.758591
381.000000	6.903670
382.000000	7.058768
383.000000	7.226890
384.000000	7.400066
385.000000	7.584289
386.000000	7.785799
387.000000	8.005303
388.000000	8.225335
389.000000	8.464893
390.000000	8.727282
391.000000	9.004181
392.000000	9.283646
393.000000	9.579946
394.000000	9.898086
395.000000	10.228649
396.000000	10.566843
397.000000	10.915333
398.000000	11.272860
399.000000	11.635407
400.000000	12.013065
401.000000	12.396188
402.000000	12.786760
403.000000	13.199708
404.000000	13.603695
405.000000	14.003048
406.000000	14.418157
407.000000	14.822370
408.000000	15.222901
409.000000	15.631349
410.000000	16.026713
411.000000	16.428294
412.000000	16.827255
413.000000	17.211129
414.000000	17.584447
415.000000	17.949353
416.000000	18.311390
417.000000	18.662118
418.000000	18.991797
419.000000	19.313640
420.000000	19.628522
421.000000	19.926799
422.000000	20.217321
423.000000	20.483418
424.000000	20.739195
425.000000	20.994484
426.000000	21.228564
427.000000	21.432223
428.000000	21.631177
429.000000	21.834006
430.000000	22.018761
431.000000	22.187074
432.000000	22.347160
433.000000	22.497093
434.000000	22.633108
435.000000	22.763642
436.000000	22.871238
437.000000	22.974236
438.000000	23.066380
439.000000	23.139791
440.000000	23.220485
441.000000	23.287687
442.000000	23.338289
443.000000	23.384254
444.000000	23.425813
445.000000	23.456358
446.000000	23.483438
447.000000	23.511299
448.000000	23.546505
449.000000	23.585360
450.000000	23.615764
451.000000	23.653529
452.000000	23.705529
453.000000	23.766811
454.000000	23.836034
455.000000	23.913230
456.000000	24.001545
457.000000	24.100120
458.000000	24.220818
459.000000	24.354250
460.000000	24.501905
461.000000	24.664262
462.000000	24.844051
463.000000	25.031547
464.000000	25.232030
465.000000	25.443845
466.000000	25.663491
467.000000	25.887014
468.000000	26.119029
469.000000	26.362453
470.000000	26.605048
471.000000	26.853523
472.000000	27.089290
473.000000	27.320247
474.000000	27.560012
475.000000	27.795119
476.000000	28.015027
477.000000	28.236800
478.000000	28.452097
479.000000	28.664505
480.000000	28.873086
481.000000	29.082415
482.000000	29.279493
483.000000	29.471265
484.000000	29.674763
485.000000	29.880054
486.000000	30.082185
487.000000	30.294500
488.000000	30.511138
489.000000	30.749268
490.000000	30.980894
491.000000	31.241486
492.000000	31.521399
493.000000	31.810572
494.000000	32.096681
495.000000	32.412529
496.000000	32.751069
497.000000	33.081231
498.000000	33.440722
499.000000	33.814424
500.000000	34.205582
501.000000	34.608786
502.000000	35.009818
503.000000	35.454832
504.000000	35.892038
505.000000	36.339833
506.000000	36.798770
507.000000	37.269277
508.000000	37.748394
509.000000	38.228002
510.000000	38.727280
511.000000	39.240412
512.000000	39.776084
513.000000	40.322163
514.000000	40.900087
515.000000	41.468837
516.000000	42.055067
517.000000	42.650638
518.000000	43.266148
519.000000	43.902593
520.000000	44.555942
521.000000	45.208466
522.000000	45.888762
523.000000	46.589561
524.000000	47.297393
525.000000	48.023865
526.000000	48.745183
527.000000	49.478286
528.000000	50.218383
529.000000	50.976035
530.000000	51.718415
531.000000	52.470061
532.000000	53.219533
533.000000	53.962569
534.000000	54.689158
535.000000	55.393951
536.000000	56.081190
537.000000	56.750169
538.000000	57.406678
539.000000	58.016283
540.000000	58.633869
541.000000	59.250361
542.000000	59.832698
543.000000	60.407651
544.000000	60.980993
545.000000	61.524499
546.000000	62.030442
547.000000	62.535062
548.000000	63.021419
549.000000	63.485072
550.000000	63.955095
551.000000	64.366664
552.000000	64.796426
553.000000	65.214747
554.000000	65.595745
555.000000	65.949455
556.000000	66.280919
557.000000	66.573266
558.000000	66.842881
559.000000	67.128756
560.000000	67.309022
561.000000	67.557411
562.000000	67.795100
563.000000	68.028433
564.000000	68.236690
565.000000	68.424339
566.000000	68.606311
567.000000	68.741353
568.000000	68.890949
569.000000	69.028024
570.000000	69.155343
571.000000	69.268962
572.000000	69.380570
573.000000	69.509838
574.000000	69.571047
575.000000	69.628353
576.000000	69.661552
577.000000	69.666709
578.000000	69.662478
579.000000	69.639476
580.000000	69.619892
581.000000	69.588178
582.000000	69.568469
583.000000	69.476005
584.000000	69.404597
585.000000	69.318820
586.000000	69.223631
587.000000	69.069405
588.000000	68.925491
589.000000	68.754196
590.000000	68.556089
591.000000	68.313547
592.000000	68.116005
593.000000	67.894099
594.000000	67.651119
595.000000	67.399530
596.000000	67.147094
597.000000	66.883052
598.000000	66.594342
599.000000	66.332664
600.000000	65.971838
601.000000	65.625752
602.000000	65.260170
603.000000	64.895961
604.000000	64.508867
605.000000	64.118469
606.000000	63.712127
607.000000	63.320548
608.000000	62.889618
609.000000	62.450663
610.000000	62.023871
611.000000	61.563031
612.000000	61.110903
613.000000	60.660916
614.000000	60.179512
615.000000	59.691095
616.000000	59.230192
617.000000	58.772811
618.000000	58.338260
619.000000	57.891716
620.000000	57.449838
621.000000	57.022984
622.000000	56.651913
623.000000	56.313376
624.000000	55.966021
625.000000	55.666086
626.000000	55.378256
627.000000	55.139857
628.000000	54.897622
629.000000	54.738034
630.000000	54.554572
631.000000	54.412488
632.000000	54.291493
633.000000	54.198452
634.000000	54.176713
635.000000	54.141786
636.000000	54.124821
637.000000	54.107654
638.000000	54.145273
639.000000	54.165625
640.000000	54.223569
641.000000	54.274150
642.000000	54.338167
643.000000	54.384501
644.000000	54.468712
645.000000	54.520783
646.000000	54.569843
647.000000	54.656437
648.000000	54.728342
649.000000	54.807782
650.000000	54.889194
651.000000	54.927974
652.000000	55.032853
653.000000	55.098575
654.000000	55.185590
655.000000	55.255684
656.000000	55.324367
657.000000	55.391827
658.000000	55.486198
659.000000	55.551360
660.000000	55.658605
661.000000	55.772383
662.000000	55.887626
663.000000	56.005264
664.000000	56.156978
665.000000	56.307244
666.000000	56.469219
667.000000	56.653121
668.000000	56.859642
669.000000	57.053084
670.000000	57.243278
671.000000	57.508281
672.000000	57.771394
673.000000	58.020752
674.000000	58.315600
675.000000	58.579370
676.000000	58.862144
677.000000	59.189440
678.000000	59.496486
679.000000	59.803862
680.000000	60.121198
681.000000	60.417495
682.000000	60.719608
683.000000	61.010593
684.000000	61.276063
685.000000	61.534861
686.000000	61.785651
687.000000	62.007187
688.000000	62.219888
689.000000	62.426406
690.000000	62.630772
691.000000	62.825782
692.000000	63.002725
693.000000	63.176336
694.000000	63.355188
695.000000	63.523240
696.000000	63.689688
697.000000	63.857847
698.000000	64.010140
699.000000	64.205017
700.000000	64.368545
701.000000	64.579463
702.000000	64.747093
703.000000	64.940304
704.000000	65.156986
705.000000	65.362183
706.000000	65.573996
707.000000	65.822604
708.000000	66.080098
709.000000	66.340653
710.000000	66.620246
711.000000	66.928694
712.000000	67.228476
713.000000	67.546466
714.000000	67.866643
715.000000	68.231403
716.000000	68.642176
717.000000	69.032506
718.000000	69.456135
719.000000	69.920770
720.000000	70.354783
721.000000	70.823300
722.000000	71.298414
723.000000	71.763215
724.000000	72.263492
725.000000	72.774145
726.000000	73.272938
727.000000	73.744801
728.000000	74.186756
729.000000	74.682228
730.000000	75.163093
731.000000	75.593295
732.000000	76.051282
733.000000	76.470159
734.000000	76.877268
735.000000	77.295179
736.000000	77.675963
737.000000	78.004233
738.000000	78.346581
739.000000	78.661247
740.000000	78.991133
741.000000	79.299707
742.000000	79.542791
743.000000	79.773913
744.000000	80.061000
745.000000	80.358778
746.000000	80.560115
747.000000	80.743888
748.000000	80.961089
749.000000	81.164533
750.000000	81.336534
751.000000	81.501270
752.000000	81.699987
753.000000	81.843488
754.000000	82.000929
755.000000	82.178978
756.000000	82.336031
757.000000	82.422153
758.000000	82.572200
759.000000	82.688427
760.000000	82.749952
761.000000	82.904680
762.000000	83.012363
763.000000	83.105022
764.000000	83.201433
765.000000	83.280945
766.000000	83.351350
767.000000	83.384085
768.000000	83.455244
769.000000	83.530568
770.000000	83.577253
771.000000	83.619086
772.000000	83.632266
773.000000	83.660751
774.000000	83.692503
775.000000	83.783916
776.000000	83.819095
777.000000	83.835960
778.000000	83.915301
779.000000	83.996944
780.000000	84.010561
781.000000	84.040144
782.000000	84.062057
783.000000	84.136258
784.000000	84.173545
785.000000	84.275845
786.000000	84.338843
787.000000	84.336882
788.000000	84.362105
789.000000	84.354867
790.000000	84.404206
791.000000	84.469040
792.000000	84.515029
793.000000	84.448804
794.000000	84.523260
795.000000	84.541027
796.000000	84.528731
797.000000	84.574415
798.000000	84.471747
799.000000	84.438708
800.000000	84.407624
801.000000	84.424058
802.000000	84.328282
803.000000	84.227727
804.000000	84.151301
805.000000	84.090627
806.000000	83.993264
807.000000	83.874703
808.000000	83.810511
809.000000	83.772929
810.000000	83.647746
811.000000	83.509693
812.000000	83.217680
813.000000	83.057306
814.000000	82.928236
815.000000	82.719414
816.000000	82.476381
817.000000	82.254607
818.000000	82.020951
819.000000	81.867254
820.000000	81.630277
821.000000	81.298994
822.000000	80.998271
823.000000	80.778187
824.000000	80.444922
825.000000	80.157794
826.000000	79.815048
827.000000	79.519144
828.000000	79.271645
829.000000	78.961596
830.000000	78.577988
831.000000	78.300874
832.000000	77.948886
833.000000	77.647191
834.000000	77.428107
835.000000	77.135755
836.000000	76.690653
837.000000	76.364325
838.000000	76.093463
839.000000	75.734947
840.000000	75.410224
841.000000	75.246432
842.000000	74.772625
843.000000	74.608244
844.000000	74.237159
845.000000	74.046975
846.000000	73.628807
847.000000	73.338776
848.000000	72.953363
849.000000	72.512153
850.000000	72.240706
851.000000	71.869892
852.000000	71.647869
853.000000	71.254926
854.000000	71.196686
855.000000	70.858412
856.000000	70.510143
857.000000	70.158947
858.000000	70.661133
859.000000	70.057500
860.000000	70.025367
861.000000	69.991400
862.000000	69.966267
863.000000	69.906700
864.000000	69.795467
865.000000	69.674000
866.000000	69.564900
867.000000	69.451500
868.000000	69.313700
869.000000	69.201567
870.000000	69.067267
871.000000	68.902700
872.000000	68.794467
873.000000	68.649533
874.000000	68.527700
875.000000	68.380300
876.000000	68.246833
877.000000	68.119933
878.000000	67.997467
879.000000	67.845533
880.000000	67.733400
881.000000	67.587067
882.000000	67.470267
883.000000	67.340600
884.000000	67.211233
885.000000	67.085767
886.000000	66.962100
887.000000	66.820067
888.000000	66.676133
889.000000	66.568200
890.000000	66.432800
891.000000	66.302467
892.000000	66.168500
893.000000	66.016233
894.000000	65.885933
895.000000	65.740667
896.000000	65.595300
897.000000	65.459667
898.000000	65.317333
899.000000	65.177100
900.000000	64.996033
901.000000	64.846400
902.000000	64.713067
903.000000	64.567700
904.000000	64.413533
905.000000	64.290200
906.000000	64.130567
907.000000	64.005033
908.000000	63.889167
909.000000	63.793167
910.000000	63.682133
911.000000	63.556667
912.000000	63.449867
913.000000	63.350600
914.000000	63.255633
915.000000	63.144833
916.000000	63.043567
917.000000	62.946100
918.000000	62.839567
919.000000	62.728400
920.000000	62.612000
921.000000	62.514667
922.000000	62.373400
923.000000	62.263033
924.000000	62.157867
925.000000	62.053000
926.000000	61.950000
927.000000	61.819633
928.000000	61.718467
929.000000	61.619367
930.000000	61.514833
931.000000	61.419567
932.000000	61.312467
933.000000	61.180400
934.000000	61.075500
935.000000	60.950933
936.000000	60.853000
937.000000	60.753300
938.000000	60.646000
939.000000	60.537967
940.000000	60.454067
941.000000	60.370133
942.000000	60.276967
943.000000	60.188200
944.000000	60.117067
945.000000	60.019233
946.000000	59.945967
947.000000	59.876467
948.000000	59.795667
949.000000	59.724600
950.000000	59.644133
951.000000	59.573300
952.000000	59.494100
953.000000	59.422767
954.000000	59.351533
955.000000	59.257633
956.000000	59.157833
957.000000	59.076667
958.000000	58.983133
959.000000	58.896667
960.000000	58.797167
961.000000	58.702233
962.000000	58.613533
963.000000	58.534933
964.000000	58.455667
965.000000	58.376233
966.000000	58.316267
967.000000	58.251333
968.000000	58.194633
969.000000	58.135467
970.000000	58.082633
971.000000	58.009100
972.000000	57.962500
973.000000	57.908133
974.000000	57.843067
975.000000	57.809300
976.000000	57.767233
977.000000	57.716033
978.000000	57.667767
979.000000	57.639533
980.000000	57.597433
981.000000	57.551100
982.000000	57.504767
983.000000	57.479667
984.000000	57.442467
985.000000	57.419233
986.000000	57.388400
987.000000	57.361767
988.000000	57.335467
989.000000	57.311533
990.000000	57.302900
991.000000	57.286433
992.000000	57.276567
993.000000	57.276367
994.000000	57.270300
995.000000	57.265100
996.000000	57.262833
997.000000	57.248833
998.000000	57.239733
999.000000	57.248967
1000.000000	57.249833
1001.000000	57.247967
1002.000000	57.245533
1003.000000	57.252233
1004.000000	57.268100
1005.000000	57.269700
1006.000000	57.269433
1007.000000	57.282933
1008.000000	57.280533
1009.000000	57.290233
1010.000000	57.299300
1011.000000	57.309700
1012.000000	57.331767
1013.000000	57.359367
1014.000000	57.395933
1015.000000	57.453700
1016.000000	57.516000
1017.000000	57.577533
1018.000000	57.652000
1019.000000	57.720167
1020.000000	57.799800
1021.000000	57.889200
1022.000000	57.973967
1023.000000	58.064767
1024.000000	58.160533
1025.000000	58.254567
1026.000000	58.339733
1027.000000	58.436933
1028.000000	58.531733
1029.000000	58.622633
1030.000000	58.705733
1031.000000	58.786567
1032.000000	58.866200
1033.000000	58.946767
1034.000000	59.035000
1035.000000	59.113600
1036.000000	59.190500
1037.000000	59.269033
1038.000000	59.344767
1039.000000	59.411300
1040.000000	59.486000
1041.000000	59.561400
1042.000000	59.626200
1043.000000	59.694633
1044.000000	59.767133
1045.000000	59.848267
1046.000000	59.921433
1047.000000	59.992433
1048.000000	60.074367
1049.000000	60.162167
1050.000000	60.240667
1051.000000	60.318000
1052.000000	60.405567
1053.000000	60.505667
1054.000000	60.600533
1055.000000	60.699800
1056.000000	60.793633
1057.000000	60.890733
1058.000000	60.984667
1059.000000	61.070400
1060.000000	61.161533
1061.000000	61.249200
1062.000000	61.345800
1063.000000	61.444767
1064.000000	61.533800
1065.000000	61.620100
1066.000000	61.714567
1067.000000	61.804467
1068.000000	61.883267
1069.000000	61.970200
1070.000000	62.063033
1071.000000	62.144167
1072.000000	62.222667
1073.000000	62.311633
1074.000000	62.394467
1075.000000	62.478100
1076.000000	62.558400
1077.000000	62.641733
1078.000000	62.720067
1079.000000	62.804200
1080.000000	62.898000
1081.000000	62.984600
1082.000000	63.074533
1083.000000	63.158567
1084.000000	63.243133
1085.000000	63.339400
1086.000000	63.428967
1087.000000	63.525633
1088.000000	63.608400
1089.000000	63.694967
1090.000000	63.776400
1091.000000	63.867267
1092.000000	63.947333
1093.000000	64.027300
1094.000000	64.095800
1095.000000	64.172100
1096.000000	64.247233
1097.000000	64.316233
1098.000000	64.377800
1099.000000	64.439467
1100.000000	64.498867
1101.000000	64.556367
1102.000000	64.605567
1103.000000	64.654700
1104.000000	64.707133
1105.000000	64.751600
1106.000000	64.805533
1107.000000	64.844167
1108.000000	64.882333
1109.000000	64.925567
1110.000000	64.965467
1111.000000	65.006267
1112.000000	65.030733
1113.000000	65.068400
1114.000000	65.109067
1115.000000	65.150900
1116.000000	65.178567
1117.000000	65.205600
1118.000000	65.221200
1119.000000	65.221267
1120.000000	65.220433
1121.000000	65.192733
1122.000000	65.159067
1123.000000	65.105933
1124.000000	65.050800
1125.000000	64.973767
1126.000000	64.900333
1127.000000	64.782067
1128.000000	64.648967
1129.000000	64.492333
1130.000000	64.263167
1131.000000	63.995600
1132.000000	63.693767
1133.000000	63.393500
1134.000000	63.086433
1135.000000	62.676367
1136.000000	62.244367
1137.000000	61.793533
1138.000000	61.363500
1139.000000	60.945267
1140.000000	60.538033
1141.000000	60.165800
1142.000000	59.787733
1143.000000	59.414700
1144.000000	59.101833
1145.000000	58.839000
1146.000000	58.651500
1147.000000	58.554167
1148.000000	58.549367
1149.000000	58.575100
1150.000000	58.619633
1151.000000	58.671700
1152.000000	58.697433
1153.000000	58.681733
1154.000000	58.609733
1155.000000	58.450967
1156.000000	58.236067
1157.000000	57.955400
1158.000000	57.603333
1159.000000	57.244100
1160.000000	56.842767
1161.000000	56.439533
1162.000000	56.031600
1163.000000	55.587667
1164.000000	55.159267
1165.000000	54.728633
1166.000000	54.305333
