PE UV       SUBTECH     SPECTRUM    ASCII       PEDS        4.00        
   -1
CICIMAUCR0112-3.Sample.ASC
24/04/22
10:19:40.00
24/04/22
10:19:40.00
Vinicio Soto Monge
C. resplendens
250,000000
1
Lambda 1050
1050L1511233
PerkinElmer UV WinLab 6.3.2.0749 / 2.02.05 Lambda 900 UV/VIS/NIR, Aug  7 2015 09:38:08

0
0
3350/servo 860,8/2
0
0
UV/VIS
1
1
1
DoubleDePol,CommonBeamDepol,RBeamAtt,SBeamAtt,60mm sphere, WB InGaAs Detector
0
0
0
0
Program
Program
3350/servo 860,8/2
3350/0,2 860,8/0,2
3350/0,2 860,8/0,2
0
15.00
 
 
 
0
 
860,8
319,2
860,8
Front
100
on
S:100 R:100
0
0
0
0
 
0
 
 
 
0
 
 
0
0
0
0
0
 
 
 
 
0
0


0
0
#HDR
-1
-1
#GR
nm
%R
1.0
0.0
2500,000000
-1,000000
2251
8
88,787000
5,681000
#DATA
250.000000	6.123697
251.000000	6.128167
252.000000	6.108501
253.000000	6.086225
254.000000	6.075934
255.000000	6.049477
256.000000	6.073504
257.000000	6.052546
258.000000	6.033303
259.000000	6.009224
260.000000	5.963277
261.000000	5.936225
262.000000	5.911347
263.000000	5.899448
264.000000	5.901508
265.000000	5.889795
266.000000	5.839515
267.000000	5.840436
268.000000	5.793495
269.000000	5.773937
270.000000	5.752417
271.000000	5.727368
272.000000	5.697719
273.000000	5.697569
274.000000	5.693560
275.000000	5.668297
276.000000	5.653935
277.000000	5.658883
278.000000	5.618591
279.000000	5.618458
280.000000	5.604992
281.000000	5.563081
282.000000	5.600251
283.000000	5.557861
284.000000	5.568294
285.000000	5.555922
286.000000	5.539314
287.000000	5.515151
288.000000	5.515356
289.000000	5.524480
290.000000	5.523563
291.000000	5.510351
292.000000	5.534167
293.000000	5.531728
294.000000	5.511760
295.000000	5.512016
296.000000	5.493061
297.000000	5.512070
298.000000	5.487348
299.000000	5.486027
300.000000	5.478136
301.000000	5.498542
302.000000	5.465830
303.000000	5.500825
304.000000	5.479817
305.000000	5.479995
306.000000	5.475826
307.000000	5.476055
308.000000	5.496988
309.000000	5.506223
310.000000	5.467276
311.000000	5.489092
312.000000	5.487113
313.000000	5.464833
314.000000	5.450681
315.000000	5.448619
316.000000	5.437118
317.000000	5.425501
318.000000	5.393608
319.000000	5.547751
320.000000	5.468542
321.000000	5.375234
322.000000	5.582771
323.000000	5.471744
324.000000	5.462246
325.000000	5.527120
326.000000	5.472612
327.000000	5.468510
328.000000	5.477516
329.000000	5.475766
330.000000	5.428177
331.000000	5.435549
332.000000	5.488873
333.000000	5.404886
334.000000	5.456440
335.000000	5.514349
336.000000	5.478849
337.000000	5.470074
338.000000	5.399753
339.000000	5.465967
340.000000	5.443385
341.000000	5.470422
342.000000	5.483468
343.000000	5.484409
344.000000	5.431081
345.000000	5.458489
346.000000	5.474825
347.000000	5.477915
348.000000	5.471600
349.000000	5.469535
350.000000	5.475398
351.000000	5.541336
352.000000	5.542168
353.000000	5.545764
354.000000	5.576439
355.000000	5.576546
356.000000	5.581623
357.000000	5.620071
358.000000	5.651348
359.000000	5.676350
360.000000	5.675334
361.000000	5.684371
362.000000	5.686614
363.000000	5.681832
364.000000	5.726288
365.000000	5.762435
366.000000	5.780485
367.000000	5.789361
368.000000	5.819901
369.000000	5.798976
370.000000	5.832168
371.000000	5.859845
372.000000	5.836515
373.000000	5.841515
374.000000	5.852420
375.000000	5.886428
376.000000	5.928171
377.000000	5.984782
378.000000	6.010036
379.000000	6.034055
380.000000	6.051787
381.000000	6.079977
382.000000	6.102905
383.000000	6.131089
384.000000	6.165609
385.000000	6.193254
386.000000	6.216028
387.000000	6.242519
388.000000	6.280830
389.000000	6.310695
390.000000	6.333013
391.000000	6.369446
392.000000	6.409633
393.000000	6.452057
394.000000	6.488212
395.000000	6.532504
396.000000	6.580395
397.000000	6.625557
398.000000	6.677938
399.000000	6.734256
400.000000	6.801715
401.000000	6.874151
402.000000	6.952182
403.000000	7.037590
404.000000	7.136760
405.000000	7.243478
406.000000	7.352026
407.000000	7.473359
408.000000	7.609880
409.000000	7.763968
410.000000	7.936420
411.000000	8.117594
412.000000	8.317168
413.000000	8.534234
414.000000	8.766924
415.000000	9.014395
416.000000	9.287707
417.000000	9.583281
418.000000	9.891282
419.000000	10.221925
420.000000	10.567620
421.000000	10.931842
422.000000	11.322951
423.000000	11.727150
424.000000	12.148691
425.000000	12.591046
426.000000	13.045800
427.000000	13.509256
428.000000	13.982042
429.000000	14.473248
430.000000	14.978146
431.000000	15.481876
432.000000	15.983958
433.000000	16.496734
434.000000	17.016532
435.000000	17.520830
436.000000	18.022571
437.000000	18.519528
438.000000	19.006887
439.000000	19.493211
440.000000	19.967042
441.000000	20.431298
442.000000	20.883850
443.000000	21.314424
444.000000	21.740879
445.000000	22.154360
446.000000	22.545937
447.000000	22.916295
448.000000	23.257245
449.000000	23.600503
450.000000	23.929041
451.000000	24.238347
452.000000	24.539021
453.000000	24.818406
454.000000	25.087475
455.000000	25.352410
456.000000	25.596321
457.000000	25.823959
458.000000	26.057524
459.000000	26.282682
460.000000	26.483827
461.000000	26.694474
462.000000	26.891582
463.000000	27.071894
464.000000	27.263328
465.000000	27.446888
466.000000	27.616763
467.000000	27.775443
468.000000	27.931299
469.000000	28.087333
470.000000	28.250929
471.000000	28.400651
472.000000	28.545455
473.000000	28.690727
474.000000	28.824993
475.000000	28.948507
476.000000	29.067911
477.000000	29.182931
478.000000	29.279145
479.000000	29.360523
480.000000	29.447642
481.000000	29.525477
482.000000	29.589313
483.000000	29.640262
484.000000	29.666604
485.000000	29.683482
486.000000	29.694831
487.000000	29.705466
488.000000	29.718345
489.000000	29.736958
490.000000	29.760587
491.000000	29.797385
492.000000	29.852204
493.000000	29.929871
494.000000	30.023368
495.000000	30.139461
496.000000	30.293873
497.000000	30.490669
498.000000	30.709271
499.000000	30.982752
500.000000	31.307444
501.000000	31.701138
502.000000	32.160235
503.000000	32.689761
504.000000	33.300069
505.000000	34.000076
506.000000	34.775048
507.000000	35.634945
508.000000	36.569717
509.000000	37.587178
510.000000	38.669564
511.000000	39.839820
512.000000	41.042223
513.000000	42.278687
514.000000	43.552557
515.000000	44.812650
516.000000	46.090042
517.000000	47.380894
518.000000	48.634208
519.000000	49.890484
520.000000	51.133133
521.000000	52.399238
522.000000	53.635281
523.000000	54.874821
524.000000	56.106175
525.000000	57.314067
526.000000	58.498923
527.000000	59.646016
528.000000	60.800223
529.000000	61.932676
530.000000	63.040614
531.000000	64.145365
532.000000	65.220646
533.000000	66.259005
534.000000	67.289968
535.000000	68.291546
536.000000	69.232989
537.000000	70.135916
538.000000	70.988495
539.000000	71.844278
540.000000	72.656404
541.000000	73.460052
542.000000	74.228578
543.000000	74.972984
544.000000	75.665080
545.000000	76.363448
546.000000	77.034132
547.000000	77.660779
548.000000	78.269118
549.000000	78.862571
550.000000	79.421024
551.000000	79.982128
552.000000	80.516635
553.000000	80.987968
554.000000	81.472052
555.000000	81.911181
556.000000	82.329113
557.000000	82.678759
558.000000	83.051409
559.000000	83.367723
560.000000	83.722630
561.000000	83.999141
562.000000	84.272202
563.000000	84.513124
564.000000	84.723361
565.000000	84.943516
566.000000	85.118687
567.000000	85.305417
568.000000	85.463448
569.000000	85.608159
570.000000	85.745568
571.000000	85.861252
572.000000	85.948923
573.000000	86.067296
574.000000	86.163733
575.000000	86.253626
576.000000	86.317211
577.000000	86.362613
578.000000	86.381171
579.000000	86.413042
580.000000	86.392398
581.000000	86.378271
582.000000	86.377275
583.000000	86.307778
584.000000	86.209980
585.000000	86.103156
586.000000	85.973194
587.000000	85.841242
588.000000	85.641989
589.000000	85.481132
590.000000	85.240115
591.000000	84.974640
592.000000	84.674295
593.000000	84.391709
594.000000	84.049529
595.000000	83.689375
596.000000	83.296940
597.000000	82.856917
598.000000	82.434562
599.000000	81.933956
600.000000	81.453954
601.000000	80.897447
602.000000	80.352115
603.000000	79.752395
604.000000	79.156011
605.000000	78.541916
606.000000	77.928764
607.000000	77.267001
608.000000	76.590394
609.000000	75.918079
610.000000	75.168038
611.000000	74.428985
612.000000	73.608289
613.000000	72.738129
614.000000	71.839811
615.000000	70.856215
616.000000	69.886054
617.000000	68.838377
618.000000	67.788067
619.000000	66.744409
620.000000	65.687673
621.000000	64.627197
622.000000	63.621427
623.000000	62.664820
624.000000	61.754281
625.000000	60.920270
626.000000	60.118509
627.000000	59.362601
628.000000	58.645293
629.000000	57.936596
630.000000	57.206564
631.000000	56.458386
632.000000	55.741446
633.000000	54.974895
634.000000	54.232925
635.000000	53.499241
636.000000	52.799759
637.000000	52.174205
638.000000	51.578122
639.000000	51.083309
640.000000	50.704681
641.000000	50.441113
642.000000	50.282489
643.000000	50.287686
644.000000	50.409638
645.000000	50.639539
646.000000	50.969970
647.000000	51.369710
648.000000	51.820681
649.000000	52.302375
650.000000	52.798641
651.000000	53.339153
652.000000	53.826433
653.000000	54.308855
654.000000	54.791649
655.000000	55.280265
656.000000	55.736463
657.000000	56.205853
658.000000	56.716942
659.000000	57.250279
660.000000	57.821324
661.000000	58.409013
662.000000	59.053653
663.000000	59.719822
664.000000	60.380874
665.000000	61.059585
666.000000	61.718029
667.000000	62.326655
668.000000	62.917507
669.000000	63.454161
670.000000	63.919010
671.000000	64.336130
672.000000	64.667930
673.000000	64.998524
674.000000	65.237492
675.000000	65.437079
676.000000	65.597438
677.000000	65.748519
678.000000	65.932808
679.000000	66.128511
680.000000	66.290504
681.000000	66.490792
682.000000	66.709447
683.000000	66.893098
684.000000	67.139575
685.000000	67.375390
686.000000	67.596138
687.000000	67.792276
688.000000	67.950368
689.000000	68.079865
690.000000	68.194454
691.000000	68.257886
692.000000	68.262601
693.000000	68.253276
694.000000	68.228617
695.000000	68.182522
696.000000	68.110375
697.000000	68.071225
698.000000	67.996968
699.000000	67.949445
700.000000	67.936583
701.000000	67.930564
702.000000	67.937541
703.000000	67.955612
704.000000	68.026921
705.000000	68.065610
706.000000	68.134937
707.000000	68.188333
708.000000	68.249118
709.000000	68.351406
710.000000	68.437349
711.000000	68.514752
712.000000	68.583164
713.000000	68.677027
714.000000	68.762441
715.000000	68.853741
716.000000	68.968065
717.000000	69.080624
718.000000	69.223848
719.000000	69.397858
720.000000	69.624759
721.000000	69.895676
722.000000	70.156521
723.000000	70.443161
724.000000	70.760647
725.000000	71.113563
726.000000	71.484474
727.000000	71.862741
728.000000	72.256827
729.000000	72.680951
730.000000	73.117715
731.000000	73.571677
732.000000	73.997588
733.000000	74.443138
734.000000	74.900473
735.000000	75.321050
736.000000	75.739245
737.000000	76.148008
738.000000	76.544008
739.000000	76.939281
740.000000	77.341828
741.000000	77.749881
742.000000	78.173121
743.000000	78.609836
744.000000	79.008218
745.000000	79.388473
746.000000	79.804527
747.000000	80.185952
748.000000	80.576479
749.000000	80.973864
750.000000	81.322246
751.000000	81.673279
752.000000	82.026555
753.000000	82.363741
754.000000	82.618171
755.000000	82.868768
756.000000	83.125108
757.000000	83.322941
758.000000	83.543356
759.000000	83.719883
760.000000	83.913488
761.000000	84.129060
762.000000	84.291473
763.000000	84.454161
764.000000	84.562925
765.000000	84.620327
766.000000	84.692698
767.000000	84.802144
768.000000	84.914445
769.000000	84.990117
770.000000	85.061327
771.000000	85.090113
772.000000	85.180002
773.000000	85.280218
774.000000	85.276164
775.000000	85.308370
776.000000	85.379829
777.000000	85.378867
778.000000	85.415369
779.000000	85.526370
780.000000	85.563752
781.000000	85.579309
782.000000	85.607011
783.000000	85.672787
784.000000	85.747971
785.000000	85.804295
786.000000	85.868186
787.000000	85.877541
788.000000	85.977811
789.000000	86.075440
790.000000	86.095703
791.000000	86.213972
792.000000	86.275732
793.000000	86.231173
794.000000	86.284323
795.000000	86.353706
796.000000	86.392896
797.000000	86.419276
798.000000	86.460394
799.000000	86.516118
800.000000	86.556177
801.000000	86.500881
802.000000	86.485321
803.000000	86.492030
804.000000	86.460140
805.000000	86.499350
806.000000	86.519870
807.000000	86.502942
808.000000	86.408344
809.000000	86.412737
810.000000	86.482671
811.000000	86.413949
812.000000	86.336260
813.000000	86.352321
814.000000	86.300452
815.000000	86.309116
816.000000	86.431527
817.000000	86.378087
818.000000	86.364869
819.000000	86.327350
820.000000	86.350068
821.000000	86.366754
822.000000	86.324256
823.000000	86.371356
824.000000	86.491732
825.000000	86.541778
826.000000	86.505572
827.000000	86.532003
828.000000	86.453890
829.000000	86.426909
830.000000	86.376695
831.000000	86.392974
832.000000	86.364705
833.000000	86.245120
834.000000	86.322439
835.000000	86.234172
836.000000	85.941260
837.000000	85.853047
838.000000	85.681686
839.000000	85.591310
840.000000	85.497025
841.000000	85.189311
842.000000	84.972477
843.000000	84.957072
844.000000	84.636601
845.000000	84.385082
846.000000	84.181152
847.000000	84.023508
848.000000	83.760028
849.000000	83.377645
850.000000	83.155972
851.000000	83.077282
852.000000	82.800988
853.000000	82.392454
854.000000	82.333064
855.000000	82.096112
856.000000	81.860964
857.000000	81.513080
858.000000	81.728800
859.000000	81.462600
860.000000	81.458000
861.000000	81.426367
862.000000	81.331200
863.000000	81.249867
864.000000	81.161933
865.000000	81.059967
866.000000	80.966867
867.000000	80.856033
868.000000	80.770500
869.000000	80.684067
870.000000	80.594433
871.000000	80.509633
872.000000	80.465433
873.000000	80.412333
874.000000	80.379300
875.000000	80.342267
876.000000	80.303967
877.000000	80.252367
878.000000	80.217333
879.000000	80.205300
880.000000	80.180367
881.000000	80.160733
882.000000	80.147900
883.000000	80.102367
884.000000	80.068067
885.000000	80.036467
886.000000	80.017800
887.000000	79.975567
888.000000	79.918300
889.000000	79.870933
890.000000	79.798200
891.000000	79.731067
892.000000	79.643867
893.000000	79.567367
894.000000	79.494900
895.000000	79.417600
896.000000	79.336467
897.000000	79.227800
898.000000	79.131633
899.000000	79.031500
900.000000	78.919533
901.000000	78.815533
902.000000	78.709233
903.000000	78.607733
904.000000	78.498767
905.000000	78.433033
906.000000	78.326333
907.000000	78.258100
908.000000	78.168700
909.000000	78.109933
910.000000	78.049100
911.000000	77.996367
912.000000	77.949267
913.000000	77.891300
914.000000	77.875333
915.000000	77.778967
916.000000	77.743000
917.000000	77.732433
918.000000	77.700933
919.000000	77.672000
920.000000	77.585433
921.000000	77.542967
922.000000	77.495533
923.000000	77.453800
924.000000	77.413533
925.000000	77.395700
926.000000	77.318267
927.000000	77.278267
928.000000	77.242133
929.000000	77.224000
930.000000	77.153367
931.000000	77.111033
932.000000	77.095500
933.000000	77.027967
934.000000	76.982800
935.000000	76.938833
936.000000	76.906400
937.000000	76.847700
938.000000	76.777600
939.000000	76.757367
940.000000	76.732000
941.000000	76.652400
942.000000	76.612500
943.000000	76.584567
944.000000	76.545967
945.000000	76.507667
946.000000	76.467067
947.000000	76.419300
948.000000	76.362333
949.000000	76.322000
950.000000	76.267567
951.000000	76.202900
952.000000	76.162800
953.000000	76.080767
954.000000	76.030900
955.000000	75.976600
956.000000	75.897133
957.000000	75.811367
958.000000	75.734800
959.000000	75.649433
960.000000	75.551833
961.000000	75.466933
962.000000	75.378767
963.000000	75.278633
964.000000	75.200267
965.000000	75.109433
966.000000	75.026200
967.000000	74.949533
968.000000	74.872200
969.000000	74.782900
970.000000	74.707567
971.000000	74.630267
972.000000	74.549567
973.000000	74.460633
974.000000	74.378800
975.000000	74.295333
976.000000	74.209867
977.000000	74.118867
978.000000	74.041800
979.000000	73.954400
980.000000	73.859667
981.000000	73.776000
982.000000	73.694367
983.000000	73.620667
984.000000	73.539067
985.000000	73.446033
986.000000	73.360400
987.000000	73.283133
988.000000	73.202400
989.000000	73.121867
990.000000	73.053633
991.000000	72.976733
992.000000	72.901200
993.000000	72.837533
994.000000	72.765700
995.000000	72.700533
996.000000	72.630400
997.000000	72.559067
998.000000	72.500467
999.000000	72.438433
1000.000000	72.384000
1001.000000	72.335667
1002.000000	72.281267
1003.000000	72.218800
1004.000000	72.162267
1005.000000	72.113233
1006.000000	72.056533
1007.000000	71.998000
1008.000000	71.940000
1009.000000	71.879267
1010.000000	71.829000
1011.000000	71.777567
1012.000000	71.737800
1013.000000	71.703000
1014.000000	71.669700
1015.000000	71.651667
1016.000000	71.638167
1017.000000	71.628767
1018.000000	71.627833
1019.000000	71.622633
1020.000000	71.616300
1021.000000	71.630033
1022.000000	71.649433
1023.000000	71.662833
1024.000000	71.679433
1025.000000	71.693333
1026.000000	71.710567
1027.000000	71.740867
1028.000000	71.761433
1029.000000	71.770133
1030.000000	71.786600
1031.000000	71.815633
1032.000000	71.833733
1033.000000	71.835767
1034.000000	71.853200
1035.000000	71.875233
1036.000000	71.879267
1037.000000	71.893333
1038.000000	71.911400
1039.000000	71.914433
1040.000000	71.917733
1041.000000	71.930300
1042.000000	71.943033
1043.000000	71.947300
1044.000000	71.956500
1045.000000	71.976900
1046.000000	72.001133
1047.000000	72.014767
1048.000000	72.025900
1049.000000	72.054467
1050.000000	72.090300
1051.000000	72.114833
1052.000000	72.143433
1053.000000	72.185567
1054.000000	72.237900
1055.000000	72.285067
1056.000000	72.323633
1057.000000	72.370533
1058.000000	72.432400
1059.000000	72.489133
1060.000000	72.535800
1061.000000	72.586500
1062.000000	72.639733
1063.000000	72.687833
1064.000000	72.736033
1065.000000	72.790033
1066.000000	72.841467
1067.000000	72.886733
1068.000000	72.941900
1069.000000	72.994733
1070.000000	73.047267
1071.000000	73.105033
1072.000000	73.153300
1073.000000	73.198233
1074.000000	73.239900
1075.000000	73.293733
1076.000000	73.353267
1077.000000	73.408367
1078.000000	73.465200
1079.000000	73.510200
1080.000000	73.560800
1081.000000	73.622900
1082.000000	73.682300
1083.000000	73.733167
1084.000000	73.784000
1085.000000	73.839267
1086.000000	73.902067
1087.000000	73.957867
1088.000000	74.008033
1089.000000	74.053200
1090.000000	74.114333
1091.000000	74.165033
1092.000000	74.219200
1093.000000	74.268067
1094.000000	74.315833
1095.000000	74.359733
1096.000000	74.402167
1097.000000	74.448433
1098.000000	74.473300
1099.000000	74.504067
1100.000000	74.544833
1101.000000	74.584300
1102.000000	74.606433
1103.000000	74.630967
1104.000000	74.665067
1105.000000	74.691267
1106.000000	74.711467
1107.000000	74.727300
1108.000000	74.738100
1109.000000	74.759433
1110.000000	74.792333
1111.000000	74.812200
1112.000000	74.826333
1113.000000	74.857800
1114.000000	74.864000
1115.000000	74.889167
1116.000000	74.905500
1117.000000	74.922367
1118.000000	74.931000
1119.000000	74.945200
1120.000000	74.925167
1121.000000	74.898100
1122.000000	74.875733
1123.000000	74.831233
1124.000000	74.773233
1125.000000	74.706133
1126.000000	74.639400
1127.000000	74.543100
1128.000000	74.429967
1129.000000	74.289900
1130.000000	74.114133
1131.000000	73.886967
1132.000000	73.626733
1133.000000	73.350267
1134.000000	73.123167
1135.000000	72.807200
1136.000000	72.434600
1137.000000	72.033533
1138.000000	71.629433
1139.000000	71.257167
1140.000000	70.905900
1141.000000	70.565033
1142.000000	70.211000
1143.000000	69.880133
1144.000000	69.594300
1145.000000	69.329200
1146.000000	69.125233
1147.000000	68.993300
1148.000000	68.941933
1149.000000	68.916600
1150.000000	68.929267
1151.000000	68.944900
1152.000000	68.956433
1153.000000	68.942033
1154.000000	68.861567
1155.000000	68.730700
1156.000000	68.541967
1157.000000	68.302433
1158.000000	68.015333
1159.000000	67.677567
1160.000000	67.317767
1161.000000	66.969700
1162.000000	66.582500
1163.000000	66.200967
1164.000000	65.798767
1165.000000	65.403100
1166.000000	65.008667
1167.000000	64.617033
