PE UV       SUBTECH     SPECTRUM    ASCII       PEDS        4.00        
   -1
CICIMAUCR0071-3.Sample.ASC
24/04/18
16:44:28.00
24/04/18
16:44:28.00
Vinicio Soto Monge
C. resplendens
250,000000
1
Lambda 1050
1050L1511233
PerkinElmer UV WinLab 6.3.2.0749 / 2.02.05 Lambda 900 UV/VIS/NIR, Aug  7 2015 09:38:08

0
0
3350/servo 860,8/2
0
0
UV/VIS
1
1
1
DoubleDePol,CommonBeamDepol,RBeamAtt,SBeamAtt,60mm sphere, WB InGaAs Detector
0
0
0
0
Program
Program
3350/servo 860,8/2
3350/0,2 860,8/0,2
3350/0,2 860,8/0,2
0
15.00
 
 
 
0
 
860,8
319,2
860,8
Front
100
on
S:100 R:100
0
0
0
0
 
0
 
 
 
0
 
 
0
0
0
0
0
 
 
 
 
0
0


0
0
#HDR
-1
-1
#GR
nm
%R
1.0
0.0
2500,000000
-1,000000
2251
8
72,832800
4,915400
#DATA
250.000000	5.985045
251.000000	5.957429
252.000000	5.959193
253.000000	5.924955
254.000000	5.912240
255.000000	5.871055
256.000000	5.882402
257.000000	5.880417
258.000000	5.856531
259.000000	5.824666
260.000000	5.816400
261.000000	5.798403
262.000000	5.725721
263.000000	5.739022
264.000000	5.701361
265.000000	5.657802
266.000000	5.629011
267.000000	5.624702
268.000000	5.602493
269.000000	5.572044
270.000000	5.578329
271.000000	5.560154
272.000000	5.501156
273.000000	5.526367
274.000000	5.492044
275.000000	5.500674
276.000000	5.482721
277.000000	5.448908
278.000000	5.422551
279.000000	5.440714
280.000000	5.439068
281.000000	5.406514
282.000000	5.424298
283.000000	5.390334
284.000000	5.391359
285.000000	5.384519
286.000000	5.361111
287.000000	5.371402
288.000000	5.368216
289.000000	5.363148
290.000000	5.369177
291.000000	5.412734
292.000000	5.381158
293.000000	5.390095
294.000000	5.398790
295.000000	5.413607
296.000000	5.387281
297.000000	5.382554
298.000000	5.387722
299.000000	5.358467
300.000000	5.387915
301.000000	5.379210
302.000000	5.403334
303.000000	5.391237
304.000000	5.371426
305.000000	5.377571
306.000000	5.366728
307.000000	5.367459
308.000000	5.362934
309.000000	5.359946
310.000000	5.375831
311.000000	5.358983
312.000000	5.339402
313.000000	5.372579
314.000000	5.346989
315.000000	5.319560
316.000000	5.375758
317.000000	5.741609
318.000000	5.758427
319.000000	5.700611
320.000000	5.584702
321.000000	5.757555
322.000000	5.560658
323.000000	5.627351
324.000000	5.504766
325.000000	5.508755
326.000000	5.585287
327.000000	5.522158
328.000000	5.461614
329.000000	5.509651
330.000000	5.564893
331.000000	5.468306
332.000000	5.418093
333.000000	5.519344
334.000000	5.608825
335.000000	5.597250
336.000000	5.550181
337.000000	5.540757
338.000000	5.506775
339.000000	5.512122
340.000000	5.511208
341.000000	5.554567
342.000000	5.557906
343.000000	5.517643
344.000000	5.517725
345.000000	5.531702
346.000000	5.539862
347.000000	5.549610
348.000000	5.582153
349.000000	5.593402
350.000000	5.556628
351.000000	5.666673
352.000000	5.647480
353.000000	5.720853
354.000000	5.716783
355.000000	5.755406
356.000000	5.773455
357.000000	5.830534
358.000000	5.868246
359.000000	5.901307
360.000000	5.949529
361.000000	5.991733
362.000000	6.032555
363.000000	6.048357
364.000000	6.095490
365.000000	6.101623
366.000000	6.124432
367.000000	6.162647
368.000000	6.230535
369.000000	6.286538
370.000000	6.296379
371.000000	6.343784
372.000000	6.431239
373.000000	6.475870
374.000000	6.453730
375.000000	6.536062
376.000000	6.798228
377.000000	6.854881
378.000000	6.943697
379.000000	7.044281
380.000000	7.150799
381.000000	7.270991
382.000000	7.399251
383.000000	7.525221
384.000000	7.660666
385.000000	7.811285
386.000000	7.957581
387.000000	8.134199
388.000000	8.306517
389.000000	8.486258
390.000000	8.683536
391.000000	8.888189
392.000000	9.102969
393.000000	9.334672
394.000000	9.577575
395.000000	9.828024
396.000000	10.085227
397.000000	10.345913
398.000000	10.618367
399.000000	10.907421
400.000000	11.204014
401.000000	11.506876
402.000000	11.824483
403.000000	12.147460
404.000000	12.469017
405.000000	12.804567
406.000000	13.151626
407.000000	13.497652
408.000000	13.847027
409.000000	14.197454
410.000000	14.559089
411.000000	14.921793
412.000000	15.283807
413.000000	15.647582
414.000000	16.017296
415.000000	16.368705
416.000000	16.719870
417.000000	17.065892
418.000000	17.404623
419.000000	17.731099
420.000000	18.057966
421.000000	18.385640
422.000000	18.712514
423.000000	19.022493
424.000000	19.310169
425.000000	19.593607
426.000000	19.879736
427.000000	20.150112
428.000000	20.402315
429.000000	20.651621
430.000000	20.893664
431.000000	21.130666
432.000000	21.364083
433.000000	21.577301
434.000000	21.789783
435.000000	21.998430
436.000000	22.189829
437.000000	22.385070
438.000000	22.572496
439.000000	22.751846
440.000000	22.934638
441.000000	23.104451
442.000000	23.267839
443.000000	23.422470
444.000000	23.556110
445.000000	23.675542
446.000000	23.789827
447.000000	23.905876
448.000000	23.997090
449.000000	24.084213
450.000000	24.182452
451.000000	24.264599
452.000000	24.339027
453.000000	24.413949
454.000000	24.478329
455.000000	24.541268
456.000000	24.596230
457.000000	24.638402
458.000000	24.687781
459.000000	24.738483
460.000000	24.797461
461.000000	24.851601
462.000000	24.915475
463.000000	24.990467
464.000000	25.061727
465.000000	25.148997
466.000000	25.235566
467.000000	25.342716
468.000000	25.468740
469.000000	25.596410
470.000000	25.745795
471.000000	25.918303
472.000000	26.101860
473.000000	26.304861
474.000000	26.524330
475.000000	26.768855
476.000000	27.016906
477.000000	27.276573
478.000000	27.569752
479.000000	27.881706
480.000000	28.209756
481.000000	28.551513
482.000000	28.915235
483.000000	29.302597
484.000000	29.703777
485.000000	30.124882
486.000000	30.543447
487.000000	30.970076
488.000000	31.416704
489.000000	31.877304
490.000000	32.359517
491.000000	32.844341
492.000000	33.328648
493.000000	33.825228
494.000000	34.338288
495.000000	34.861362
496.000000	35.390443
497.000000	35.939743
498.000000	36.506372
499.000000	37.080517
500.000000	37.668082
501.000000	38.279353
502.000000	38.921387
503.000000	39.573212
504.000000	40.253224
505.000000	40.926706
506.000000	41.637546
507.000000	42.372456
508.000000	43.110893
509.000000	43.862335
510.000000	44.661793
511.000000	45.465664
512.000000	46.300331
513.000000	47.141126
514.000000	48.001349
515.000000	48.843218
516.000000	49.699881
517.000000	50.560913
518.000000	51.433886
519.000000	52.322123
520.000000	53.224040
521.000000	54.124477
522.000000	55.011257
523.000000	55.885061
524.000000	56.752759
525.000000	57.601339
526.000000	58.422881
527.000000	59.213211
528.000000	59.962895
529.000000	60.689967
530.000000	61.396578
531.000000	62.078237
532.000000	62.753452
533.000000	63.410938
534.000000	64.025273
535.000000	64.628045
536.000000	65.212297
537.000000	65.782255
538.000000	66.321095
539.000000	66.840596
540.000000	67.344913
541.000000	67.838392
542.000000	68.287718
543.000000	68.742639
544.000000	69.189719
545.000000	69.581636
546.000000	69.966865
547.000000	70.328871
548.000000	70.681869
549.000000	71.014011
550.000000	71.330947
551.000000	71.647709
552.000000	71.942654
553.000000	72.248914
554.000000	72.538839
555.000000	72.804190
556.000000	73.051416
557.000000	73.295147
558.000000	73.521069
559.000000	73.720826
560.000000	73.813388
561.000000	74.000607
562.000000	74.176399
563.000000	74.332681
564.000000	74.477445
565.000000	74.594822
566.000000	74.711228
567.000000	74.823175
568.000000	74.905455
569.000000	74.959045
570.000000	75.030031
571.000000	75.053931
572.000000	75.083029
573.000000	75.063845
574.000000	75.076744
575.000000	75.045982
576.000000	75.009623
577.000000	74.970806
578.000000	74.955485
579.000000	74.885053
580.000000	74.810050
581.000000	74.711610
582.000000	74.616051
583.000000	74.529453
584.000000	74.413914
585.000000	74.298991
586.000000	74.162795
587.000000	74.027440
588.000000	73.875044
589.000000	73.690225
590.000000	73.468088
591.000000	73.272582
592.000000	73.023391
593.000000	72.778241
594.000000	72.486448
595.000000	72.231080
596.000000	71.917395
597.000000	71.603466
598.000000	71.229274
599.000000	70.892482
600.000000	70.542215
601.000000	70.130660
602.000000	69.728283
603.000000	69.336744
604.000000	68.905482
605.000000	68.472506
606.000000	68.058864
607.000000	67.626814
608.000000	67.176856
609.000000	66.699390
610.000000	66.254167
611.000000	65.764615
612.000000	65.339005
613.000000	64.820900
614.000000	64.342926
615.000000	63.861879
616.000000	63.359196
617.000000	62.884228
618.000000	62.414267
619.000000	61.940329
620.000000	61.479396
621.000000	61.020810
622.000000	60.579541
623.000000	60.155356
624.000000	59.711883
625.000000	59.319490
626.000000	58.941723
627.000000	58.583332
628.000000	58.254625
629.000000	57.931464
630.000000	57.652092
631.000000	57.390909
632.000000	57.206727
633.000000	57.001949
634.000000	56.859600
635.000000	56.732154
636.000000	56.666208
637.000000	56.656922
638.000000	56.669846
639.000000	56.747326
640.000000	56.852055
641.000000	57.018483
642.000000	57.210194
643.000000	57.463400
644.000000	57.763029
645.000000	58.118281
646.000000	58.503259
647.000000	58.924403
648.000000	59.398449
649.000000	59.907578
650.000000	60.445974
651.000000	61.018415
652.000000	61.620900
653.000000	62.215837
654.000000	62.863445
655.000000	63.473713
656.000000	64.088467
657.000000	64.730021
658.000000	65.338255
659.000000	65.932016
660.000000	66.535523
661.000000	67.102699
662.000000	67.652032
663.000000	68.200647
664.000000	68.680353
665.000000	69.191681
666.000000	69.659138
667.000000	70.072952
668.000000	70.489961
669.000000	70.896528
670.000000	71.275106
671.000000	71.624398
672.000000	71.978584
673.000000	72.303761
674.000000	72.609487
675.000000	72.922552
676.000000	73.189647
677.000000	73.440596
678.000000	73.687858
679.000000	73.948402
680.000000	74.188421
681.000000	74.409853
682.000000	74.593473
683.000000	74.810050
684.000000	74.981562
685.000000	75.143697
686.000000	75.330556
687.000000	75.492518
688.000000	75.635384
689.000000	75.834124
690.000000	75.985153
691.000000	76.156421
692.000000	76.332541
693.000000	76.513563
694.000000	76.665861
695.000000	76.856655
696.000000	77.016595
697.000000	77.215660
698.000000	77.358811
699.000000	77.535696
700.000000	77.732143
701.000000	77.911394
702.000000	78.068329
703.000000	78.228439
704.000000	78.374271
705.000000	78.537193
706.000000	78.718085
707.000000	78.861048
708.000000	79.020062
709.000000	79.149210
710.000000	79.262930
711.000000	79.364036
712.000000	79.511929
713.000000	79.648266
714.000000	79.718135
715.000000	79.794272
716.000000	79.928156
717.000000	80.027286
718.000000	80.097672
719.000000	80.215589
720.000000	80.317365
721.000000	80.375875
722.000000	80.456197
723.000000	80.554721
724.000000	80.628119
725.000000	80.722474
726.000000	80.839277
727.000000	80.974858
728.000000	81.070052
729.000000	81.156425
730.000000	81.237369
731.000000	81.346392
732.000000	81.434813
733.000000	81.501621
734.000000	81.563121
735.000000	81.654368
736.000000	81.733227
737.000000	81.765350
738.000000	81.772527
739.000000	81.786283
740.000000	81.818700
741.000000	81.820539
742.000000	81.753516
743.000000	81.686932
744.000000	81.654523
745.000000	81.595908
746.000000	81.518742
747.000000	81.416681
748.000000	81.344289
749.000000	81.271074
750.000000	81.124234
751.000000	80.985384
752.000000	80.844132
753.000000	80.693161
754.000000	80.562285
755.000000	80.448939
756.000000	80.335556
757.000000	80.199070
758.000000	80.105482
759.000000	80.003727
760.000000	79.879453
761.000000	79.761589
762.000000	79.649672
763.000000	79.562277
764.000000	79.443121
765.000000	79.333500
766.000000	79.236260
767.000000	79.103505
768.000000	78.983570
769.000000	78.944439
770.000000	78.864515
771.000000	78.740477
772.000000	78.601005
773.000000	78.453169
774.000000	78.345986
775.000000	78.223671
776.000000	78.114775
777.000000	77.948012
778.000000	77.800584
779.000000	77.705718
780.000000	77.570797
781.000000	77.366561
782.000000	77.184920
783.000000	76.982921
784.000000	76.799424
785.000000	76.657295
786.000000	76.457665
787.000000	76.207631
788.000000	76.026794
789.000000	75.829874
790.000000	75.628430
791.000000	75.383509
792.000000	75.223093
793.000000	75.063376
794.000000	74.841807
795.000000	74.700669
796.000000	74.571944
797.000000	74.434219
798.000000	74.255603
799.000000	74.091758
800.000000	73.926429
801.000000	73.794952
802.000000	73.711191
803.000000	73.565234
804.000000	73.450654
805.000000	73.253344
806.000000	73.139037
807.000000	72.990498
808.000000	72.905488
809.000000	72.822262
810.000000	72.561043
811.000000	72.388849
812.000000	72.268220
813.000000	72.095477
814.000000	71.927541
815.000000	71.757125
816.000000	71.496626
817.000000	71.310704
818.000000	71.155836
819.000000	70.915534
820.000000	70.785381
821.000000	70.474403
822.000000	70.368653
823.000000	70.261836
824.000000	70.016761
825.000000	69.876138
826.000000	69.722596
827.000000	69.623511
828.000000	69.505809
829.000000	69.332847
830.000000	69.113079
831.000000	69.170302
832.000000	69.050835
833.000000	68.928338
834.000000	68.807422
835.000000	68.780353
836.000000	68.711038
837.000000	68.795175
838.000000	68.646400
839.000000	68.566978
840.000000	68.506965
841.000000	68.483035
842.000000	68.450704
843.000000	68.442858
844.000000	68.313192
845.000000	68.383749
846.000000	68.267233
847.000000	68.230082
848.000000	68.060677
849.000000	68.071824
850.000000	68.210336
851.000000	68.081663
852.000000	68.107165
853.000000	67.974853
854.000000	67.880881
855.000000	67.804015
856.000000	67.700662
857.000000	67.807693
858.000000	68.072267
859.000000	67.595000
860.000000	67.790400
861.000000	67.976433
862.000000	68.131167
863.000000	68.230000
864.000000	68.335500
865.000000	68.402667
866.000000	68.456633
867.000000	68.503733
868.000000	68.548333
869.000000	68.587800
870.000000	68.597500
871.000000	68.596833
872.000000	68.632533
873.000000	68.651533
874.000000	68.683233
875.000000	68.674967
876.000000	68.680033
877.000000	68.682400
878.000000	68.695433
879.000000	68.688533
880.000000	68.696933
881.000000	68.704133
882.000000	68.698200
883.000000	68.688333
884.000000	68.687600
885.000000	68.682400
886.000000	68.681300
887.000000	68.689767
888.000000	68.673200
889.000000	68.684900
890.000000	68.659633
891.000000	68.655033
892.000000	68.656500
893.000000	68.642367
894.000000	68.629833
895.000000	68.609833
896.000000	68.591767
897.000000	68.580267
898.000000	68.555667
899.000000	68.540400
900.000000	68.520200
901.000000	68.487633
902.000000	68.465767
903.000000	68.429467
904.000000	68.403400
905.000000	68.360500
906.000000	68.330833
907.000000	68.302367
908.000000	68.273567
909.000000	68.252233
910.000000	68.199700
911.000000	68.147233
912.000000	68.106900
913.000000	68.076233
914.000000	68.028567
915.000000	67.987300
916.000000	67.956367
917.000000	67.893967
918.000000	67.849567
919.000000	67.805900
920.000000	67.785200
921.000000	67.705800
922.000000	67.668100
923.000000	67.636233
924.000000	67.571600
925.000000	67.538633
926.000000	67.507100
927.000000	67.453933
928.000000	67.405333
929.000000	67.363633
930.000000	67.325433
931.000000	67.278633
932.000000	67.249667
933.000000	67.190400
934.000000	67.141533
935.000000	67.100767
936.000000	67.046567
937.000000	67.005400
938.000000	66.943500
939.000000	66.909233
940.000000	66.876533
941.000000	66.851667
942.000000	66.799467
943.000000	66.762233
944.000000	66.739400
945.000000	66.690233
946.000000	66.632833
947.000000	66.612533
948.000000	66.560133
949.000000	66.526400
950.000000	66.496933
951.000000	66.461100
952.000000	66.425367
953.000000	66.382167
954.000000	66.344400
955.000000	66.317100
956.000000	66.282100
957.000000	66.233600
958.000000	66.212700
959.000000	66.167767
960.000000	66.129300
961.000000	66.108733
962.000000	66.088833
963.000000	66.051467
964.000000	66.021300
965.000000	65.998300
966.000000	65.978767
967.000000	65.946067
968.000000	65.933500
969.000000	65.908000
970.000000	65.893067
971.000000	65.875267
972.000000	65.854400
973.000000	65.837733
974.000000	65.828533
975.000000	65.821800
976.000000	65.794400
977.000000	65.784933
978.000000	65.783433
979.000000	65.779600
980.000000	65.757967
981.000000	65.751500
982.000000	65.740333
983.000000	65.735967
984.000000	65.729500
985.000000	65.731133
986.000000	65.732333
987.000000	65.735733
988.000000	65.745700
989.000000	65.752000
990.000000	65.759600
991.000000	65.770667
992.000000	65.775700
993.000000	65.785067
994.000000	65.802967
995.000000	65.822667
996.000000	65.839733
997.000000	65.852900
998.000000	65.874400
999.000000	65.882200
1000.000000	65.907567
1001.000000	65.935500
1002.000000	65.967633
1003.000000	65.984233
1004.000000	65.996000
1005.000000	66.021800
1006.000000	66.053267
1007.000000	66.090000
1008.000000	66.120667
1009.000000	66.151367
1010.000000	66.188167
1011.000000	66.216467
1012.000000	66.244667
1013.000000	66.287333
1014.000000	66.326467
1015.000000	66.358167
1016.000000	66.400500
1017.000000	66.437533
1018.000000	66.477933
1019.000000	66.530500
1020.000000	66.576633
1021.000000	66.625800
1022.000000	66.681733
1023.000000	66.723567
1024.000000	66.763967
1025.000000	66.816700
1026.000000	66.867700
1027.000000	66.915467
1028.000000	66.965533
1029.000000	67.003967
1030.000000	67.051533
1031.000000	67.109033
1032.000000	67.157000
1033.000000	67.206667
1034.000000	67.258900
1035.000000	67.302467
1036.000000	67.348567
1037.000000	67.394900
1038.000000	67.440133
1039.000000	67.493367
1040.000000	67.541933
1041.000000	67.584467
1042.000000	67.628067
1043.000000	67.675000
1044.000000	67.722200
1045.000000	67.773700
1046.000000	67.825400
1047.000000	67.873567
1048.000000	67.915467
1049.000000	67.971333
1050.000000	68.025933
1051.000000	68.075567
1052.000000	68.128433
1053.000000	68.177600
1054.000000	68.237967
1055.000000	68.298333
1056.000000	68.354067
1057.000000	68.411767
1058.000000	68.470367
1059.000000	68.528367
1060.000000	68.590500
1061.000000	68.655400
1062.000000	68.719367
1063.000000	68.779333
1064.000000	68.835100
1065.000000	68.894533
1066.000000	68.962800
1067.000000	69.021967
1068.000000	69.072400
1069.000000	69.126933
1070.000000	69.186333
1071.000000	69.248233
1072.000000	69.299100
1073.000000	69.369233
1074.000000	69.426900
1075.000000	69.478500
1076.000000	69.528667
1077.000000	69.588300
1078.000000	69.640867
1079.000000	69.689367
1080.000000	69.741733
1081.000000	69.788000
1082.000000	69.844033
1083.000000	69.900767
1084.000000	69.948000
1085.000000	69.988967
1086.000000	70.036267
1087.000000	70.079067
1088.000000	70.119167
1089.000000	70.174900
1090.000000	70.214800
1091.000000	70.265333
1092.000000	70.295267
1093.000000	70.338400
1094.000000	70.375133
1095.000000	70.412400
1096.000000	70.440667
1097.000000	70.465867
1098.000000	70.512167
1099.000000	70.541400
1100.000000	70.570433
1101.000000	70.601300
1102.000000	70.634633
1103.000000	70.666433
1104.000000	70.694367
1105.000000	70.724700
1106.000000	70.746500
1107.000000	70.784967
1108.000000	70.805500
1109.000000	70.841167
1110.000000	70.868500
1111.000000	70.887233
1112.000000	70.913033
1113.000000	70.927500
1114.000000	70.948267
1115.000000	70.979367
1116.000000	71.004900
1117.000000	71.026500
1118.000000	71.036067
1119.000000	71.050100
1120.000000	71.067033
1121.000000	71.069133
1122.000000	71.086400
1123.000000	71.069633
1124.000000	71.041967
1125.000000	71.017233
1126.000000	70.983433
1127.000000	70.938567
1128.000000	70.900100
1129.000000	70.844900
1130.000000	70.764733
1131.000000	70.686033
1132.000000	70.580000
1133.000000	70.518867
1134.000000	70.479133
1135.000000	70.365867
1136.000000	70.251500
1137.000000	70.113567
1138.000000	69.997700
1139.000000	69.892233
1140.000000	69.803967
1141.000000	69.719233
1142.000000	69.625600
1143.000000	69.559900
1144.000000	69.493333
1145.000000	69.435267
1146.000000	69.354367
1147.000000	69.285833
1148.000000	69.197433
1149.000000	69.120267
1150.000000	69.042200
1151.000000	68.980400
1152.000000	68.898500
1153.000000	68.808767
1154.000000	68.717000
1155.000000	68.587367
1156.000000	68.470467
1157.000000	68.343833
1158.000000	68.204667
1159.000000	68.070800
1160.000000	67.922267
1161.000000	67.767300
1162.000000	67.607033
1163.000000	67.460867
1164.000000	67.303933
1165.000000	67.171533
1166.000000	67.021133
