PE UV       SUBTECH     SPECTRUM    ASCII       PEDS        4.00        
   -1
CICIMAUCR0019-3.Sample.ASC
24/04/17
14:35:40.00
24/04/17
14:35:40.00
Vinicio Soto Monge
C. cupreomarginata
250,000000
1
Lambda 1050
1050L1511233
PerkinElmer UV WinLab 6.3.2.0749 / 2.02.05 Lambda 900 UV/VIS/NIR, Aug  7 2015 09:38:08

0
0
3350/servo 860,8/2
0
0
UV/VIS
1
1
1
DoubleDePol,CommonBeamDepol,RBeamAtt,SBeamAtt,60mm sphere, WB InGaAs Detector
0
0
0
0
Program
Program
3350/servo 860,8/2
3350/0,2 860,8/0,2
3350/0,2 860,8/0,2
0
15.00
 
 
 
0
 
860,8
319,2
860,8
Front
100
on
S:100 R:100
0
0
0
0
 
0
 
 
 
0
 
 
0
0
0
0
0
 
 
 
 
0
0


0
0
#HDR
-1
-1
#GR
nm
%R
1.0
0.0
2500,000000
-1,000000
2251
8
48,289000
3,625600
#DATA
250.000000	3.095411
251.000000	3.085525
252.000000	3.086466
253.000000	3.075517
254.000000	3.066824
255.000000	3.080548
256.000000	3.048671
257.000000	3.038153
258.000000	3.038448
259.000000	3.022795
260.000000	3.040071
261.000000	3.002467
262.000000	2.997618
263.000000	2.997902
264.000000	2.967613
265.000000	2.941153
266.000000	2.951550
267.000000	2.967545
268.000000	2.930836
269.000000	2.915351
270.000000	2.918138
271.000000	2.917286
272.000000	2.914351
273.000000	2.914960
274.000000	2.919988
275.000000	2.895210
276.000000	2.903059
277.000000	2.888769
278.000000	2.869333
279.000000	2.896837
280.000000	2.885468
281.000000	2.914889
282.000000	2.886132
283.000000	2.860141
284.000000	2.865361
285.000000	2.876858
286.000000	2.874430
287.000000	2.938039
288.000000	2.895532
289.000000	2.869586
290.000000	2.881381
291.000000	2.891346
292.000000	2.879538
293.000000	2.876234
294.000000	2.841844
295.000000	2.856848
296.000000	2.836063
297.000000	2.866918
298.000000	2.858551
299.000000	2.834702
300.000000	2.863184
301.000000	2.868397
302.000000	2.874571
303.000000	2.876658
304.000000	2.841407
305.000000	2.879928
306.000000	2.889702
307.000000	2.821180
308.000000	2.839887
309.000000	2.879458
310.000000	2.857589
311.000000	2.865302
312.000000	2.855632
313.000000	2.840296
314.000000	2.866278
315.000000	2.868532
316.000000	2.952323
317.000000	3.403561
318.000000	3.162061
319.000000	3.212706
320.000000	3.210192
321.000000	3.100718
322.000000	3.061784
323.000000	3.068741
324.000000	3.144330
325.000000	3.145354
326.000000	3.133648
327.000000	3.125423
328.000000	3.073905
329.000000	3.032428
330.000000	3.014564
331.000000	2.965891
332.000000	2.982130
333.000000	3.027517
334.000000	3.013911
335.000000	3.026816
336.000000	2.983441
337.000000	3.019271
338.000000	2.941533
339.000000	2.931993
340.000000	2.960598
341.000000	3.053003
342.000000	3.029584
343.000000	3.015996
344.000000	3.023472
345.000000	3.041244
346.000000	2.988910
347.000000	2.919680
348.000000	2.994507
349.000000	3.024013
350.000000	3.031506
351.000000	3.067130
352.000000	3.066355
353.000000	3.024744
354.000000	2.978131
355.000000	3.022368
356.000000	3.045811
357.000000	3.108586
358.000000	3.142525
359.000000	3.134461
360.000000	3.127686
361.000000	3.152085
362.000000	3.141579
363.000000	3.228700
364.000000	3.245008
365.000000	3.261950
366.000000	3.296653
367.000000	3.269475
368.000000	3.263951
369.000000	3.302319
370.000000	3.344501
371.000000	3.399400
372.000000	3.477704
373.000000	3.438461
374.000000	3.438317
375.000000	3.579427
376.000000	3.776862
377.000000	3.682211
378.000000	3.735936
379.000000	3.799179
380.000000	3.875246
381.000000	3.942496
382.000000	4.015748
383.000000	4.086440
384.000000	4.162302
385.000000	4.241392
386.000000	4.324085
387.000000	4.413379
388.000000	4.499023
389.000000	4.580900
390.000000	4.672397
391.000000	4.758956
392.000000	4.846473
393.000000	4.940468
394.000000	5.031512
395.000000	5.116811
396.000000	5.208847
397.000000	5.289791
398.000000	5.373811
399.000000	5.455496
400.000000	5.533400
401.000000	5.606225
402.000000	5.677595
403.000000	5.748060
404.000000	5.814100
405.000000	5.871925
406.000000	5.925570
407.000000	5.979976
408.000000	6.030096
409.000000	6.073868
410.000000	6.119369
411.000000	6.162756
412.000000	6.203160
413.000000	6.236248
414.000000	6.266596
415.000000	6.299423
416.000000	6.328207
417.000000	6.356508
418.000000	6.383639
419.000000	6.408016
420.000000	6.424656
421.000000	6.449297
422.000000	6.474057
423.000000	6.493236
424.000000	6.514856
425.000000	6.539752
426.000000	6.561951
427.000000	6.586457
428.000000	6.617339
429.000000	6.636802
430.000000	6.659801
431.000000	6.692767
432.000000	6.722998
433.000000	6.754911
434.000000	6.791101
435.000000	6.825264
436.000000	6.859783
437.000000	6.899888
438.000000	6.941685
439.000000	6.982319
440.000000	7.025905
441.000000	7.074116
442.000000	7.125918
443.000000	7.187935
444.000000	7.255459
445.000000	7.312617
446.000000	7.365862
447.000000	7.431634
448.000000	7.511323
449.000000	7.585176
450.000000	7.659567
451.000000	7.740762
452.000000	7.824289
453.000000	7.911227
454.000000	7.999539
455.000000	8.095264
456.000000	8.192774
457.000000	8.292923
458.000000	8.395381
459.000000	8.500905
460.000000	8.609155
461.000000	8.723896
462.000000	8.843554
463.000000	8.966705
464.000000	9.091975
465.000000	9.215732
466.000000	9.347026
467.000000	9.476221
468.000000	9.605883
469.000000	9.733887
470.000000	9.867433
471.000000	10.007034
472.000000	10.141763
473.000000	10.278703
474.000000	10.417176
475.000000	10.561748
476.000000	10.707611
477.000000	10.860995
478.000000	11.008417
479.000000	11.158181
480.000000	11.353207
481.000000	11.584278
482.000000	11.819926
483.000000	12.044639
484.000000	12.258398
485.000000	12.468580
486.000000	12.685391
487.000000	12.908238
488.000000	13.122827
489.000000	13.348428
490.000000	13.574569
491.000000	13.810040
492.000000	14.047777
493.000000	14.282967
494.000000	14.516165
495.000000	14.762899
496.000000	15.002330
497.000000	15.244612
498.000000	15.500266
499.000000	15.762652
500.000000	16.039544
501.000000	16.330585
502.000000	16.617343
503.000000	16.923883
504.000000	17.249340
505.000000	17.592376
506.000000	17.935777
507.000000	18.274609
508.000000	18.630502
509.000000	19.002540
510.000000	19.372068
511.000000	19.757140
512.000000	20.157160
513.000000	20.554255
514.000000	20.964039
515.000000	21.364981
516.000000	21.763478
517.000000	22.155837
518.000000	22.555361
519.000000	22.963408
520.000000	23.389279
521.000000	23.801068
522.000000	24.220184
523.000000	24.620032
524.000000	25.005977
525.000000	25.396793
526.000000	25.780575
527.000000	26.144539
528.000000	26.509675
529.000000	26.876035
530.000000	27.217026
531.000000	27.552502
532.000000	27.863669
533.000000	28.157042
534.000000	28.432160
535.000000	28.698598
536.000000	28.937215
537.000000	29.177500
538.000000	29.384450
539.000000	29.577627
540.000000	29.745102
541.000000	29.872532
542.000000	29.998389
543.000000	30.102500
544.000000	30.184364
545.000000	30.258530
546.000000	30.328159
547.000000	30.373652
548.000000	30.419506
549.000000	30.457856
550.000000	30.496173
551.000000	30.530627
552.000000	30.566840
553.000000	30.600978
554.000000	30.612949
555.000000	30.638880
556.000000	30.655323
557.000000	30.649723
558.000000	30.637256
559.000000	30.626606
560.000000	30.354325
561.000000	30.316392
562.000000	30.294256
563.000000	30.248878
564.000000	30.176804
565.000000	30.115417
566.000000	30.028798
567.000000	29.949363
568.000000	29.839047
569.000000	29.718924
570.000000	29.609405
571.000000	29.481155
572.000000	29.376532
573.000000	29.258170
574.000000	29.141898
575.000000	29.041359
576.000000	28.938572
577.000000	28.841398
578.000000	28.738093
579.000000	28.640925
580.000000	28.525125
581.000000	28.412514
582.000000	28.284309
583.000000	28.149056
584.000000	28.018275
585.000000	27.885440
586.000000	27.744834
587.000000	27.601442
588.000000	27.458899
589.000000	27.288670
590.000000	27.116084
591.000000	26.944446
592.000000	26.744573
593.000000	26.552557
594.000000	26.361787
595.000000	26.155775
596.000000	25.964494
597.000000	25.761686
598.000000	25.577401
599.000000	25.380869
600.000000	25.205864
601.000000	25.028798
602.000000	24.837326
603.000000	24.655863
604.000000	24.472419
605.000000	24.284573
606.000000	24.109377
607.000000	23.947750
608.000000	23.804022
609.000000	23.636011
610.000000	23.487280
611.000000	23.355162
612.000000	23.222215
613.000000	23.102692
614.000000	22.985308
615.000000	22.881461
616.000000	22.798669
617.000000	22.731158
618.000000	22.667315
619.000000	22.633745
620.000000	22.609957
621.000000	22.591205
622.000000	22.588608
623.000000	22.598537
624.000000	22.612984
625.000000	22.625690
626.000000	22.645565
627.000000	22.665498
628.000000	22.726099
629.000000	22.787259
630.000000	22.846459
631.000000	22.912827
632.000000	22.995853
633.000000	23.085905
634.000000	23.187643
635.000000	23.281627
636.000000	23.406809
637.000000	23.541884
638.000000	23.677252
639.000000	23.798051
640.000000	23.912561
641.000000	24.040811
642.000000	24.174929
643.000000	24.293795
644.000000	24.409989
645.000000	24.529352
646.000000	24.630876
647.000000	24.727179
648.000000	24.823021
649.000000	24.915308
650.000000	25.008482
651.000000	25.096724
652.000000	25.188540
653.000000	25.270000
654.000000	25.347964
655.000000	25.415105
656.000000	25.461998
657.000000	25.531062
658.000000	25.596580
659.000000	25.669103
660.000000	25.734421
661.000000	25.789979
662.000000	25.847083
663.000000	25.900689
664.000000	25.937562
665.000000	25.978746
666.000000	26.024578
667.000000	26.091294
668.000000	26.140391
669.000000	26.167050
670.000000	26.197496
671.000000	26.238335
672.000000	26.284301
673.000000	26.333053
674.000000	26.379204
675.000000	26.418390
676.000000	26.479425
677.000000	26.542449
678.000000	26.591525
679.000000	26.652412
680.000000	26.721712
681.000000	26.776604
682.000000	26.837103
683.000000	26.905433
684.000000	26.947402
685.000000	26.997860
686.000000	27.073346
687.000000	27.115484
688.000000	27.137898
689.000000	27.194019
690.000000	27.248879
691.000000	27.318602
692.000000	27.392328
693.000000	27.454084
694.000000	27.533647
695.000000	27.576982
696.000000	27.619072
697.000000	27.680348
698.000000	27.743405
699.000000	27.789564
700.000000	27.828859
701.000000	27.883591
702.000000	27.931374
703.000000	27.992759
704.000000	28.043030
705.000000	28.092979
706.000000	28.129512
707.000000	28.165296
708.000000	28.208283
709.000000	28.253757
710.000000	28.314042
711.000000	28.383456
712.000000	28.437532
713.000000	28.475750
714.000000	28.514782
715.000000	28.545954
716.000000	28.555929
717.000000	28.593946
718.000000	28.650350
719.000000	28.676329
720.000000	28.701706
721.000000	28.737809
722.000000	28.768012
723.000000	28.809539
724.000000	28.844426
725.000000	28.872651
726.000000	28.896041
727.000000	28.926593
728.000000	28.947063
729.000000	28.981491
730.000000	29.019929
731.000000	29.054145
732.000000	29.097557
733.000000	29.121753
734.000000	29.148388
735.000000	29.188541
736.000000	29.233035
737.000000	29.259663
738.000000	29.287283
739.000000	29.337754
740.000000	29.363254
741.000000	29.412850
742.000000	29.463545
743.000000	29.501832
744.000000	29.568590
745.000000	29.648388
746.000000	29.687017
747.000000	29.710937
748.000000	29.766274
749.000000	29.852988
750.000000	29.918259
751.000000	29.972416
752.000000	30.041094
753.000000	30.078133
754.000000	30.125048
755.000000	30.175485
756.000000	30.228984
757.000000	30.260430
758.000000	30.286314
759.000000	30.352571
760.000000	30.385045
761.000000	30.378365
762.000000	30.425986
763.000000	30.488602
764.000000	30.523703
765.000000	30.564866
766.000000	30.598904
767.000000	30.644755
768.000000	30.682611
769.000000	30.715628
770.000000	30.764136
771.000000	30.823579
772.000000	30.861501
773.000000	30.900661
774.000000	30.971074
775.000000	31.021372
776.000000	31.057418
777.000000	31.111535
778.000000	31.164829
779.000000	31.209144
780.000000	31.268229
781.000000	31.320756
782.000000	31.381438
783.000000	31.455098
784.000000	31.507257
785.000000	31.577326
786.000000	31.629822
787.000000	31.701527
788.000000	31.783418
789.000000	31.828148
790.000000	31.891514
791.000000	31.978439
792.000000	32.025481
793.000000	32.099137
794.000000	32.123232
795.000000	32.210467
796.000000	32.271027
797.000000	32.267486
798.000000	32.296227
799.000000	32.366365
800.000000	32.429627
801.000000	32.477506
802.000000	32.504400
803.000000	32.519977
804.000000	32.536850
805.000000	32.609577
806.000000	32.661855
807.000000	32.715965
808.000000	32.676654
809.000000	32.725102
810.000000	32.775298
811.000000	32.764964
812.000000	32.797199
813.000000	32.882562
814.000000	32.896091
815.000000	32.909766
816.000000	33.005516
817.000000	33.036248
818.000000	33.012822
819.000000	33.043888
820.000000	33.070648
821.000000	33.121145
822.000000	33.135039
823.000000	33.213510
824.000000	33.289599
825.000000	33.243135
826.000000	33.283030
827.000000	33.335294
828.000000	33.396407
829.000000	33.446219
830.000000	33.480805
831.000000	33.460993
832.000000	33.459068
833.000000	33.516630
834.000000	33.585056
835.000000	33.551477
836.000000	33.581886
837.000000	33.653782
838.000000	33.624333
839.000000	33.670702
840.000000	33.703775
841.000000	33.692422
842.000000	33.686455
843.000000	33.677837
844.000000	33.752474
845.000000	33.672880
846.000000	33.638915
847.000000	33.792287
848.000000	33.633056
849.000000	33.593311
850.000000	33.636833
851.000000	33.557537
852.000000	33.621032
853.000000	33.631535
854.000000	33.691704
855.000000	33.567502
856.000000	33.446515
857.000000	33.683073
858.000000	34.169800
859.000000	33.482467
860.000000	33.587700
861.000000	33.708333
862.000000	33.812900
863.000000	33.909833
864.000000	33.988533
865.000000	34.069900
866.000000	34.132133
867.000000	34.200367
868.000000	34.264900
869.000000	34.355767
870.000000	34.414200
871.000000	34.491067
872.000000	34.544100
873.000000	34.628300
874.000000	34.686600
875.000000	34.731433
876.000000	34.804033
877.000000	34.847933
878.000000	34.885267
879.000000	34.929633
880.000000	34.963267
881.000000	34.991833
882.000000	35.040600
883.000000	35.067400
884.000000	35.093700
885.000000	35.099467
886.000000	35.144200
887.000000	35.166467
888.000000	35.162300
889.000000	35.172667
890.000000	35.189900
891.000000	35.175467
892.000000	35.177700
893.000000	35.194800
894.000000	35.189700
895.000000	35.182800
896.000000	35.174933
897.000000	35.155133
898.000000	35.140267
899.000000	35.128000
900.000000	35.134900
901.000000	35.113267
902.000000	35.100033
903.000000	35.078433
904.000000	35.072333
905.000000	35.057800
906.000000	35.047700
907.000000	35.046767
908.000000	35.054133
909.000000	35.073000
910.000000	35.095967
911.000000	35.113533
912.000000	35.139533
913.000000	35.175300
914.000000	35.201033
915.000000	35.237933
916.000000	35.246800
917.000000	35.286500
918.000000	35.313567
919.000000	35.354500
920.000000	35.397333
921.000000	35.401567
922.000000	35.433133
923.000000	35.456200
924.000000	35.484367
925.000000	35.529967
926.000000	35.561533
927.000000	35.620700
928.000000	35.668167
929.000000	35.694633
930.000000	35.740033
931.000000	35.786467
932.000000	35.818267
933.000000	35.840000
934.000000	35.856667
935.000000	35.870100
936.000000	35.880733
937.000000	35.900167
938.000000	35.939333
939.000000	36.013933
940.000000	36.082967
941.000000	36.125467
942.000000	36.154333
943.000000	36.201867
944.000000	36.248267
945.000000	36.299767
946.000000	36.323200
947.000000	36.375533
948.000000	36.431500
949.000000	36.481800
950.000000	36.527067
951.000000	36.553667
952.000000	36.611833
953.000000	36.639433
954.000000	36.684167
955.000000	36.726667
956.000000	36.738833
957.000000	36.777133
958.000000	36.821200
959.000000	36.829067
960.000000	36.865167
961.000000	36.896900
962.000000	36.918767
963.000000	36.961533
964.000000	36.985167
965.000000	37.016833
966.000000	37.043467
967.000000	37.080633
968.000000	37.122000
969.000000	37.154833
970.000000	37.181700
971.000000	37.221967
972.000000	37.262900
973.000000	37.303900
974.000000	37.329133
975.000000	37.350533
976.000000	37.376867
977.000000	37.393667
978.000000	37.413200
979.000000	37.434000
980.000000	37.464933
981.000000	37.486567
982.000000	37.510500
983.000000	37.554433
984.000000	37.573800
985.000000	37.582367
986.000000	37.603367
987.000000	37.638600
988.000000	37.649833
989.000000	37.651533
990.000000	37.675033
991.000000	37.698700
992.000000	37.728833
993.000000	37.756000
994.000000	37.779033
995.000000	37.810800
996.000000	37.839767
997.000000	37.863233
998.000000	37.885967
999.000000	37.914000
1000.000000	37.928933
1001.000000	37.950467
1002.000000	37.968667
1003.000000	38.000300
1004.000000	38.039567
1005.000000	38.050833
1006.000000	38.062967
1007.000000	38.074000
1008.000000	38.096000
1009.000000	38.122967
1010.000000	38.153533
1011.000000	38.188767
1012.000000	38.228200
1013.000000	38.264233
1014.000000	38.296133
1015.000000	38.327200
1016.000000	38.368200
1017.000000	38.406567
1018.000000	38.458433
1019.000000	38.525500
1020.000000	38.576567
1021.000000	38.615400
1022.000000	38.663233
1023.000000	38.716367
1024.000000	38.778667
1025.000000	38.846000
1026.000000	38.892833
1027.000000	38.946100
1028.000000	39.007067
1029.000000	39.051667
1030.000000	39.100933
1031.000000	39.162667
1032.000000	39.215733
1033.000000	39.258400
1034.000000	39.303100
1035.000000	39.350967
1036.000000	39.399367
1037.000000	39.441733
1038.000000	39.476700
1039.000000	39.513267
1040.000000	39.547300
1041.000000	39.589367
1042.000000	39.636367
1043.000000	39.677800
1044.000000	39.713067
1045.000000	39.746133
1046.000000	39.786133
1047.000000	39.828267
1048.000000	39.871133
1049.000000	39.913900
1050.000000	39.957200
1051.000000	39.996733
1052.000000	40.028133
1053.000000	40.062233
1054.000000	40.112200
1055.000000	40.151233
1056.000000	40.186667
1057.000000	40.226500
1058.000000	40.280167
1059.000000	40.330000
1060.000000	40.372000
1061.000000	40.395833
1062.000000	40.448700
1063.000000	40.513367
1064.000000	40.564833
1065.000000	40.609133
1066.000000	40.644400
1067.000000	40.676600
1068.000000	40.715300
1069.000000	40.750233
1070.000000	40.786800
1071.000000	40.817233
1072.000000	40.853333
1073.000000	40.894000
1074.000000	40.935800
1075.000000	40.969300
1076.000000	40.996967
1077.000000	41.035600
1078.000000	41.074867
1079.000000	41.113200
1080.000000	41.143067
1081.000000	41.177800
1082.000000	41.218700
1083.000000	41.252900
1084.000000	41.286300
1085.000000	41.322200
1086.000000	41.362700
1087.000000	41.409033
1088.000000	41.437833
1089.000000	41.466433
1090.000000	41.504800
1091.000000	41.550467
1092.000000	41.583567
1093.000000	41.614467
1094.000000	41.638533
1095.000000	41.669633
1096.000000	41.707767
1097.000000	41.733667
1098.000000	41.771733
1099.000000	41.783333
1100.000000	41.804200
1101.000000	41.836600
1102.000000	41.868800
1103.000000	41.883800
1104.000000	41.891733
1105.000000	41.910100
1106.000000	41.931700
1107.000000	41.943100
1108.000000	41.974700
1109.000000	41.992100
1110.000000	42.006333
1111.000000	42.015767
1112.000000	42.034800
1113.000000	42.054133
1114.000000	42.070000
1115.000000	42.097633
1116.000000	42.111100
1117.000000	42.134533
1118.000000	42.143167
1119.000000	42.131567
1120.000000	42.150000
1121.000000	42.152600
1122.000000	42.133033
1123.000000	42.093500
1124.000000	42.065667
1125.000000	42.022667
1126.000000	41.982700
1127.000000	41.944933
1128.000000	41.902533
1129.000000	41.812233
1130.000000	41.701267
1131.000000	41.569300
1132.000000	41.486167
1133.000000	41.394733
1134.000000	41.239400
1135.000000	41.010167
1136.000000	40.791467
1137.000000	40.605067
1138.000000	40.434833
1139.000000	40.237167
1140.000000	40.060900
1141.000000	39.875100
1142.000000	39.704833
1143.000000	39.550967
1144.000000	39.407067
1145.000000	39.273233
1146.000000	39.145033
1147.000000	39.077467
1148.000000	39.070500
1149.000000	39.092733
1150.000000	39.103167
1151.000000	39.122067
1152.000000	39.112267
1153.000000	39.078100
1154.000000	39.034133
1155.000000	38.958533
1156.000000	38.822700
1157.000000	38.679967
1158.000000	38.505167
1159.000000	38.311933
1160.000000	38.083467
1161.000000	37.896200
1162.000000	37.683633
1163.000000	37.456633
1164.000000	37.233033
1165.000000	37.009933
1166.000000	36.776833
1167.000000	36.559033
1168.000000	36.345867
1169.000000	36.120067
1170.000000	35.911667
