PE UV       SUBTECH     SPECTRUM    ASCII       PEDS        4.00        
   -1
CICIMAUCR0098-3.Sample.ASC
24/04/18
13:56:50.00
24/04/18
13:56:50.00
Vinicio Soto Monge
C. cupreomarginata
250,000000
1
Lambda 1050
1050L1511233
PerkinElmer UV WinLab 6.3.2.0749 / 2.02.05 Lambda 900 UV/VIS/NIR, Aug  7 2015 09:38:08

0
0
3350/servo 860,8/2
0
0
UV/VIS
1
1
1
DoubleDePol,CommonBeamDepol,RBeamAtt,SBeamAtt,60mm sphere, WB InGaAs Detector
0
0
0
0
Program
Program
3350/servo 860,8/2
3350/0,2 860,8/0,2
3350/0,2 860,8/0,2
0
15.00
 
 
 
0
 
860,8
319,2
860,8
Front
100
on
S:100 R:100
0
0
0
0
 
0
 
 
 
0
 
 
0
0
0
0
0
 
 
 
 
0
0


0
0
#HDR
-1
-1
#GR
nm
%R
1.0
0.0
2500,000000
-1,000000
2251
8
63,481300
4,596200
#DATA
250.000000	5.737726
251.000000	5.716588
252.000000	5.700132
253.000000	5.712301
254.000000	5.682805
255.000000	5.671463
256.000000	5.666683
257.000000	5.642182
258.000000	5.643726
259.000000	5.634844
260.000000	5.587438
261.000000	5.560952
262.000000	5.547564
263.000000	5.545195
264.000000	5.475141
265.000000	5.457534
266.000000	5.450246
267.000000	5.412071
268.000000	5.377991
269.000000	5.375560
270.000000	5.368259
271.000000	5.360103
272.000000	5.340254
273.000000	5.348707
274.000000	5.318262
275.000000	5.304867
276.000000	5.264533
277.000000	5.286635
278.000000	5.280002
279.000000	5.258152
280.000000	5.260343
281.000000	5.189266
282.000000	5.241322
283.000000	5.211746
284.000000	5.241931
285.000000	5.233158
286.000000	5.177599
287.000000	5.189281
288.000000	5.196035
289.000000	5.211412
290.000000	5.172210
291.000000	5.185337
292.000000	5.160923
293.000000	5.161059
294.000000	5.161896
295.000000	5.160023
296.000000	5.149319
297.000000	5.166265
298.000000	5.172194
299.000000	5.097504
300.000000	5.105519
301.000000	5.126595
302.000000	5.140966
303.000000	5.151667
304.000000	5.095183
305.000000	5.102528
306.000000	5.087954
307.000000	5.110553
308.000000	5.152029
309.000000	5.134185
310.000000	5.125038
311.000000	5.097376
312.000000	5.087075
313.000000	5.087794
314.000000	5.139729
315.000000	5.090358
316.000000	5.103605
317.000000	5.346024
318.000000	5.368261
319.000000	5.285188
320.000000	5.477529
321.000000	5.290107
322.000000	5.287769
323.000000	5.225734
324.000000	5.239275
325.000000	5.269624
326.000000	5.252586
327.000000	5.176991
328.000000	5.139340
329.000000	5.270417
330.000000	5.198607
331.000000	5.217154
332.000000	5.098958
333.000000	5.082993
334.000000	5.183779
335.000000	5.102355
336.000000	5.160304
337.000000	5.113372
338.000000	5.147442
339.000000	5.073988
340.000000	5.183824
341.000000	5.160216
342.000000	5.096049
343.000000	5.074350
344.000000	5.063942
345.000000	5.078960
346.000000	5.110158
347.000000	5.070970
348.000000	5.055238
349.000000	5.044873
350.000000	5.004720
351.000000	5.056894
352.000000	5.089766
353.000000	5.086779
354.000000	5.080222
355.000000	5.055041
356.000000	5.006666
357.000000	5.036538
358.000000	5.052104
359.000000	5.079072
360.000000	5.098504
361.000000	5.107161
362.000000	5.099880
363.000000	5.102863
364.000000	5.075784
365.000000	5.098209
366.000000	5.091846
367.000000	5.119157
368.000000	5.088208
369.000000	5.086579
370.000000	5.056526
371.000000	5.045842
372.000000	5.071337
373.000000	5.018829
374.000000	4.975921
375.000000	5.012177
376.000000	5.131019
377.000000	5.146738
378.000000	5.164472
379.000000	5.182376
380.000000	5.194170
381.000000	5.196721
382.000000	5.211160
383.000000	5.230053
384.000000	5.244255
385.000000	5.253123
386.000000	5.271860
387.000000	5.288189
388.000000	5.301576
389.000000	5.315047
390.000000	5.339880
391.000000	5.360490
392.000000	5.375787
393.000000	5.408727
394.000000	5.429846
395.000000	5.456819
396.000000	5.483516
397.000000	5.513576
398.000000	5.556469
399.000000	5.601250
400.000000	5.650580
401.000000	5.698137
402.000000	5.753887
403.000000	5.815334
404.000000	5.882271
405.000000	5.959169
406.000000	6.039704
407.000000	6.127380
408.000000	6.225436
409.000000	6.331737
410.000000	6.443487
411.000000	6.563803
412.000000	6.695834
413.000000	6.833850
414.000000	6.981813
415.000000	7.139718
416.000000	7.302388
417.000000	7.472714
418.000000	7.651605
419.000000	7.832876
420.000000	8.034410
421.000000	8.247578
422.000000	8.462064
423.000000	8.681431
424.000000	8.910163
425.000000	9.139438
426.000000	9.370845
427.000000	9.609590
428.000000	9.851750
429.000000	10.092295
430.000000	10.337958
431.000000	10.594443
432.000000	10.848382
433.000000	11.099323
434.000000	11.360561
435.000000	11.621210
436.000000	11.878289
437.000000	12.138180
438.000000	12.397986
439.000000	12.647572
440.000000	12.896281
441.000000	13.147707
442.000000	13.397805
443.000000	13.644819
444.000000	13.885117
445.000000	14.122209
446.000000	14.362973
447.000000	14.588301
448.000000	14.806191
449.000000	15.021184
450.000000	15.218193
451.000000	15.421303
452.000000	15.618371
453.000000	15.803553
454.000000	15.992593
455.000000	16.177216
456.000000	16.349236
457.000000	16.514544
458.000000	16.672443
459.000000	16.835617
460.000000	16.997536
461.000000	17.146340
462.000000	17.291712
463.000000	17.427839
464.000000	17.561195
465.000000	17.689315
466.000000	17.811962
467.000000	17.929476
468.000000	18.039607
469.000000	18.146376
470.000000	18.244362
471.000000	18.342315
472.000000	18.442892
473.000000	18.530159
474.000000	18.612660
475.000000	18.698918
476.000000	18.775367
477.000000	18.850711
478.000000	18.919323
479.000000	18.992324
480.000000	19.054412
481.000000	19.103314
482.000000	19.146258
483.000000	19.211963
484.000000	19.289657
485.000000	19.374343
486.000000	19.471414
487.000000	19.577196
488.000000	19.711508
489.000000	19.858949
490.000000	20.037857
491.000000	20.244366
492.000000	20.471216
493.000000	20.734824
494.000000	21.022562
495.000000	21.330177
496.000000	21.670962
497.000000	22.035979
498.000000	22.420241
499.000000	22.836078
500.000000	23.259710
501.000000	23.704609
502.000000	24.162025
503.000000	24.635848
504.000000	25.129627
505.000000	25.634338
506.000000	26.141457
507.000000	26.664283
508.000000	27.194890
509.000000	27.739105
510.000000	28.312214
511.000000	28.913037
512.000000	29.527025
513.000000	30.165911
514.000000	30.832848
515.000000	31.520308
516.000000	32.220689
517.000000	32.940487
518.000000	33.679562
519.000000	34.437985
520.000000	35.215111
521.000000	36.019692
522.000000	36.821026
523.000000	37.648325
524.000000	38.479716
525.000000	39.312596
526.000000	40.137114
527.000000	40.961031
528.000000	41.792168
529.000000	42.622989
530.000000	43.468554
531.000000	44.300051
532.000000	45.125105
533.000000	45.933960
534.000000	46.761149
535.000000	47.558450
536.000000	48.337429
537.000000	49.088620
538.000000	49.811494
539.000000	50.507048
540.000000	51.172030
541.000000	51.838995
542.000000	52.459554
543.000000	53.042288
544.000000	53.571121
545.000000	54.103825
546.000000	54.563383
547.000000	55.000081
548.000000	55.420627
549.000000	55.789374
550.000000	56.114767
551.000000	56.438106
552.000000	56.738744
553.000000	57.013897
554.000000	57.231461
555.000000	57.441315
556.000000	57.645776
557.000000	57.806517
558.000000	57.954416
559.000000	58.060450
560.000000	58.218324
561.000000	58.288525
562.000000	58.338454
563.000000	58.377781
564.000000	58.380174
565.000000	58.403257
566.000000	58.396702
567.000000	58.387292
568.000000	58.387439
569.000000	58.389073
570.000000	58.366913
571.000000	58.349910
572.000000	58.342474
573.000000	58.323566
574.000000	58.288575
575.000000	58.252193
576.000000	58.208242
577.000000	58.137878
578.000000	58.066293
579.000000	57.938035
580.000000	57.813981
581.000000	57.614046
582.000000	57.420534
583.000000	57.214070
584.000000	56.990370
585.000000	56.730429
586.000000	56.470659
587.000000	56.194348
588.000000	55.875576
589.000000	55.588756
590.000000	55.267486
591.000000	54.945146
592.000000	54.637762
593.000000	54.314123
594.000000	53.981935
595.000000	53.647276
596.000000	53.271867
597.000000	52.901308
598.000000	52.492343
599.000000	52.062847
600.000000	51.597729
601.000000	51.143020
602.000000	50.616483
603.000000	50.077039
604.000000	49.527936
605.000000	48.931130
606.000000	48.324635
607.000000	47.696350
608.000000	47.101661
609.000000	46.452789
610.000000	45.868035
611.000000	45.271628
612.000000	44.686995
613.000000	44.151230
614.000000	43.645305
615.000000	43.204499
616.000000	42.777504
617.000000	42.406035
618.000000	42.074133
619.000000	41.823108
620.000000	41.580582
621.000000	41.409863
622.000000	41.258114
623.000000	41.196109
624.000000	41.135928
625.000000	41.134740
626.000000	41.152993
627.000000	41.221174
628.000000	41.345147
629.000000	41.477426
630.000000	41.643457
631.000000	41.813834
632.000000	42.009643
633.000000	42.225752
634.000000	42.432524
635.000000	42.672760
636.000000	42.905885
637.000000	43.149856
638.000000	43.335259
639.000000	43.567517
640.000000	43.759886
641.000000	43.946534
642.000000	44.109503
643.000000	44.265736
644.000000	44.398823
645.000000	44.515266
646.000000	44.595163
647.000000	44.649894
648.000000	44.716474
649.000000	44.780172
650.000000	44.795548
651.000000	44.810781
652.000000	44.851790
653.000000	44.865618
654.000000	44.869791
655.000000	44.900446
656.000000	44.870529
657.000000	44.870678
658.000000	44.891836
659.000000	44.880662
660.000000	44.875512
661.000000	44.908290
662.000000	44.946703
663.000000	44.944991
664.000000	44.980890
665.000000	45.027737
666.000000	45.087828
667.000000	45.160161
668.000000	45.269099
669.000000	45.373399
670.000000	45.484873
671.000000	45.611996
672.000000	45.763940
673.000000	45.926063
674.000000	46.104925
675.000000	46.278653
676.000000	46.447776
677.000000	46.658704
678.000000	46.837101
679.000000	47.054453
680.000000	47.252070
681.000000	47.466491
682.000000	47.670247
683.000000	47.879461
684.000000	48.084187
685.000000	48.296596
686.000000	48.488160
687.000000	48.706449
688.000000	48.917888
689.000000	49.076056
690.000000	49.257730
691.000000	49.429907
692.000000	49.624860
693.000000	49.786533
694.000000	49.970063
695.000000	50.142387
696.000000	50.295512
697.000000	50.426528
698.000000	50.552606
699.000000	50.695808
700.000000	50.835106
701.000000	50.963671
702.000000	51.063688
703.000000	51.173396
704.000000	51.276058
705.000000	51.381772
706.000000	51.438808
707.000000	51.505394
708.000000	51.594268
709.000000	51.659122
710.000000	51.722856
711.000000	51.806758
712.000000	51.864388
713.000000	51.921317
714.000000	51.967099
715.000000	52.028331
716.000000	52.107936
717.000000	52.180709
718.000000	52.240871
719.000000	52.315128
720.000000	52.369736
721.000000	52.431449
722.000000	52.494895
723.000000	52.572664
724.000000	52.623599
725.000000	52.675659
726.000000	52.753907
727.000000	52.813874
728.000000	52.875000
729.000000	52.956586
730.000000	53.008163
731.000000	53.104402
732.000000	53.206330
733.000000	53.275736
734.000000	53.345071
735.000000	53.416138
736.000000	53.511983
737.000000	53.610783
738.000000	53.706681
739.000000	53.769774
740.000000	53.831743
741.000000	53.893734
742.000000	53.986598
743.000000	54.080576
744.000000	54.153779
745.000000	54.223370
746.000000	54.312571
747.000000	54.402689
748.000000	54.490610
749.000000	54.599675
750.000000	54.689634
751.000000	54.782328
752.000000	54.886061
753.000000	54.999289
754.000000	55.112307
755.000000	55.198687
756.000000	55.271666
757.000000	55.369158
758.000000	55.465757
759.000000	55.532538
760.000000	55.643151
761.000000	55.759326
762.000000	55.821894
763.000000	55.890430
764.000000	55.992088
765.000000	56.061581
766.000000	56.141144
767.000000	56.234971
768.000000	56.362337
769.000000	56.441133
770.000000	56.468140
771.000000	56.572209
772.000000	56.696635
773.000000	56.786555
774.000000	56.864029
775.000000	56.962511
776.000000	57.019666
777.000000	57.088725
778.000000	57.139830
779.000000	57.190432
780.000000	57.266804
781.000000	57.370939
782.000000	57.454877
783.000000	57.524913
784.000000	57.595438
785.000000	57.676125
786.000000	57.766082
787.000000	57.838033
788.000000	57.923075
789.000000	58.030963
790.000000	58.064661
791.000000	58.166845
792.000000	58.294816
793.000000	58.368688
794.000000	58.438224
795.000000	58.520903
796.000000	58.642248
797.000000	58.752847
798.000000	58.843117
799.000000	58.912563
800.000000	59.038081
801.000000	59.153647
802.000000	59.220001
803.000000	59.335855
804.000000	59.455622
805.000000	59.590036
806.000000	59.735173
807.000000	59.780190
808.000000	59.893370
809.000000	60.027281
810.000000	60.183759
811.000000	60.305243
812.000000	60.434253
813.000000	60.581824
814.000000	60.722384
815.000000	60.879209
816.000000	60.876559
817.000000	61.074376
818.000000	61.189053
819.000000	61.225859
820.000000	61.374059
821.000000	61.536409
822.000000	61.658460
823.000000	61.759378
824.000000	61.810440
825.000000	61.897020
826.000000	62.001354
827.000000	61.978750
828.000000	62.078301
829.000000	62.150470
830.000000	62.191796
831.000000	62.362166
832.000000	62.417614
833.000000	62.517746
834.000000	62.493901
835.000000	62.550811
836.000000	62.617290
837.000000	62.556939
838.000000	62.593136
839.000000	62.647950
840.000000	62.730515
841.000000	62.732270
842.000000	62.684213
843.000000	62.703241
844.000000	62.715195
845.000000	62.906157
846.000000	62.786531
847.000000	62.703500
848.000000	62.816022
849.000000	62.773985
850.000000	62.796240
851.000000	62.806448
852.000000	62.602854
853.000000	62.812889
854.000000	62.695731
855.000000	62.589841
856.000000	62.741299
857.000000	62.845320
858.000000	62.998067
859.000000	62.717733
860.000000	62.836933
861.000000	62.933500
862.000000	63.004633
863.000000	63.046467
864.000000	63.101733
865.000000	63.117500
866.000000	63.143167
867.000000	63.149767
868.000000	63.153033
869.000000	63.150433
870.000000	63.168967
871.000000	63.172933
872.000000	63.186400
873.000000	63.184300
874.000000	63.171800
875.000000	63.184800
876.000000	63.186433
877.000000	63.198100
878.000000	63.199033
879.000000	63.191267
880.000000	63.175433
881.000000	63.174467
882.000000	63.172567
883.000000	63.154267
884.000000	63.145433
885.000000	63.122400
886.000000	63.093200
887.000000	63.043400
888.000000	63.009167
889.000000	62.976367
890.000000	62.929200
891.000000	62.874533
892.000000	62.808533
893.000000	62.749100
894.000000	62.684100
895.000000	62.608200
896.000000	62.544000
897.000000	62.469867
898.000000	62.406700
899.000000	62.325533
900.000000	62.246700
901.000000	62.173000
902.000000	62.089467
903.000000	62.003900
904.000000	61.930833
905.000000	61.844567
906.000000	61.785267
907.000000	61.723133
908.000000	61.674933
909.000000	61.634467
910.000000	61.605300
911.000000	61.538867
912.000000	61.507267
913.000000	61.487700
914.000000	61.479267
915.000000	61.469400
916.000000	61.435400
917.000000	61.411967
918.000000	61.392067
919.000000	61.393767
920.000000	61.377633
921.000000	61.336033
922.000000	61.318933
923.000000	61.301667
924.000000	61.267667
925.000000	61.248333
926.000000	61.214933
927.000000	61.199133
928.000000	61.177100
929.000000	61.167533
930.000000	61.141500
931.000000	61.117600
932.000000	61.085800
933.000000	61.068067
934.000000	61.062500
935.000000	61.036233
936.000000	61.030133
937.000000	61.030500
938.000000	60.993567
939.000000	60.958567
940.000000	60.941533
941.000000	60.905867
942.000000	60.897033
943.000000	60.876433
944.000000	60.852333
945.000000	60.829533
946.000000	60.817200
947.000000	60.789500
948.000000	60.762467
949.000000	60.735233
950.000000	60.721833
951.000000	60.701100
952.000000	60.690300
953.000000	60.662133
954.000000	60.642667
955.000000	60.611033
956.000000	60.570133
957.000000	60.547000
958.000000	60.521500
959.000000	60.495000
960.000000	60.464333
961.000000	60.419767
962.000000	60.387000
963.000000	60.366533
964.000000	60.352667
965.000000	60.341067
966.000000	60.323667
967.000000	60.310733
968.000000	60.294667
969.000000	60.285100
970.000000	60.279667
971.000000	60.266333
972.000000	60.274800
973.000000	60.264200
974.000000	60.264567
975.000000	60.257833
976.000000	60.263400
977.000000	60.266200
978.000000	60.274833
979.000000	60.264167
980.000000	60.254267
981.000000	60.273500
982.000000	60.282767
983.000000	60.281633
984.000000	60.278967
985.000000	60.282700
986.000000	60.297100
987.000000	60.320067
988.000000	60.323433
989.000000	60.331200
990.000000	60.356167
991.000000	60.381700
992.000000	60.398333
993.000000	60.417367
994.000000	60.438200
995.000000	60.462267
996.000000	60.487567
997.000000	60.507833
998.000000	60.522433
999.000000	60.540767
1000.000000	60.571733
1001.000000	60.607500
1002.000000	60.629767
1003.000000	60.646900
1004.000000	60.668467
1005.000000	60.692933
1006.000000	60.714933
1007.000000	60.738100
1008.000000	60.760067
1009.000000	60.779267
1010.000000	60.801300
1011.000000	60.824867
1012.000000	60.853100
1013.000000	60.888267
1014.000000	60.923200
1015.000000	60.972233
1016.000000	61.028000
1017.000000	61.074467
1018.000000	61.119800
1019.000000	61.165533
1020.000000	61.220033
1021.000000	61.284633
1022.000000	61.346333
1023.000000	61.407600
1024.000000	61.466033
1025.000000	61.522767
1026.000000	61.582100
1027.000000	61.646600
1028.000000	61.710200
1029.000000	61.766200
1030.000000	61.818100
1031.000000	61.872400
1032.000000	61.927767
1033.000000	61.971267
1034.000000	62.022067
1035.000000	62.077700
1036.000000	62.123767
1037.000000	62.166733
1038.000000	62.213800
1039.000000	62.267567
1040.000000	62.309367
1041.000000	62.349100
1042.000000	62.394167
1043.000000	62.425000
1044.000000	62.460567
1045.000000	62.508667
1046.000000	62.555700
1047.000000	62.600367
1048.000000	62.644300
1049.000000	62.684867
1050.000000	62.731300
1051.000000	62.778467
1052.000000	62.818567
1053.000000	62.865100
1054.000000	62.924400
1055.000000	62.983400
1056.000000	63.030567
1057.000000	63.073467
1058.000000	63.123000
1059.000000	63.181200
1060.000000	63.229033
1061.000000	63.277967
1062.000000	63.335367
1063.000000	63.380333
1064.000000	63.428033
1065.000000	63.476133
1066.000000	63.525767
1067.000000	63.574700
1068.000000	63.626333
1069.000000	63.667667
1070.000000	63.713533
1071.000000	63.758833
1072.000000	63.804767
1073.000000	63.853333
1074.000000	63.896500
1075.000000	63.939867
1076.000000	63.979500
1077.000000	64.025000
1078.000000	64.065900
1079.000000	64.113267
1080.000000	64.158167
1081.000000	64.200767
1082.000000	64.246367
1083.000000	64.292500
1084.000000	64.343367
1085.000000	64.382900
1086.000000	64.418433
1087.000000	64.461033
1088.000000	64.508033
1089.000000	64.552767
1090.000000	64.592300
1091.000000	64.637200
1092.000000	64.677900
1093.000000	64.713433
1094.000000	64.738867
1095.000000	64.771733
1096.000000	64.821400
1097.000000	64.849533
1098.000000	64.874233
1099.000000	64.905900
1100.000000	64.923800
1101.000000	64.945967
1102.000000	64.980867
1103.000000	64.992033
1104.000000	65.019367
1105.000000	65.032733
1106.000000	65.054733
1107.000000	65.069800
1108.000000	65.095500
1109.000000	65.121433
1110.000000	65.137867
1111.000000	65.153700
1112.000000	65.171000
1113.000000	65.185133
1114.000000	65.203767
1115.000000	65.220067
1116.000000	65.250000
1117.000000	65.265167
1118.000000	65.265900
1119.000000	65.254033
1120.000000	65.263500
1121.000000	65.250433
1122.000000	65.243733
1123.000000	65.217100
1124.000000	65.188000
1125.000000	65.139400
1126.000000	65.083733
1127.000000	65.011167
1128.000000	64.939467
1129.000000	64.857033
1130.000000	64.731533
1131.000000	64.575000
1132.000000	64.404200
1133.000000	64.271300
1134.000000	64.117100
1135.000000	63.900933
1136.000000	63.683933
1137.000000	63.424967
1138.000000	63.192267
1139.000000	62.976767
1140.000000	62.772700
1141.000000	62.574600
1142.000000	62.382067
1143.000000	62.198567
1144.000000	62.047700
1145.000000	61.910467
1146.000000	61.792067
1147.000000	61.735133
1148.000000	61.692233
1149.000000	61.684500
1150.000000	61.668600
1151.000000	61.653500
1152.000000	61.632967
1153.000000	61.602933
1154.000000	61.534500
1155.000000	61.418567
1156.000000	61.289300
1157.000000	61.130700
1158.000000	60.943400
1159.000000	60.741467
1160.000000	60.516433
1161.000000	60.299933
1162.000000	60.055967
1163.000000	59.819767
1164.000000	59.575500
1165.000000	59.334433
1166.000000	59.089033
1167.000000	58.856933
1168.000000	58.629267
