PE UV       SUBTECH     SPECTRUM    ASCII       PEDS        4.00        
   -1
CICIMAUCR0021-3.Sample.ASC
24/04/17
14:19:58.00
24/04/17
14:19:58.00
Vinicio Soto Monge
C. resplendens. 
250,000000
1
Lambda 1050
1050L1511233
PerkinElmer UV WinLab 6.3.2.0749 / 2.02.05 Lambda 900 UV/VIS/NIR, Aug  7 2015 09:38:08

0
0
3350/servo 860,8/2
0
0
UV/VIS
1
1
1
DoubleDePol,CommonBeamDepol,RBeamAtt,SBeamAtt,60mm sphere, WB InGaAs Detector
0
0
0
0
Program
Program
3350/servo 860,8/2
3350/0,2 860,8/0,2
3350/0,2 860,8/0,2
0
15.00
 
 
 
0
 
860,8
319,2
860,8
Front
100
on
S:100 R:100
0
0
0
0
 
0
 
 
 
0
 
 
0
0
0
0
0
 
 
 
 
0
0


0
0
#HDR
-1
-1
#GR
nm
%R
1.0
0.0
2500,000000
-1,000000
2251
8
79,251800
5,023200
#DATA
250.000000	4.252835
251.000000	4.253735
252.000000	4.234209
253.000000	4.231252
254.000000	4.237926
255.000000	4.227036
256.000000	4.214961
257.000000	4.231688
258.000000	4.196842
259.000000	4.212655
260.000000	4.179152
261.000000	4.162721
262.000000	4.161275
263.000000	4.121699
264.000000	4.117208
265.000000	4.111707
266.000000	4.063967
267.000000	4.088990
268.000000	4.072843
269.000000	4.070791
270.000000	4.017427
271.000000	4.012936
272.000000	4.025509
273.000000	4.002273
274.000000	3.968383
275.000000	3.996380
276.000000	3.988095
277.000000	3.973656
278.000000	4.008111
279.000000	3.999177
280.000000	3.918803
281.000000	3.944714
282.000000	3.954115
283.000000	3.961833
284.000000	3.948267
285.000000	3.946391
286.000000	3.960686
287.000000	3.972649
288.000000	3.957269
289.000000	3.951022
290.000000	3.913475
291.000000	3.948788
292.000000	3.956009
293.000000	3.926837
294.000000	3.912779
295.000000	3.921544
296.000000	3.918998
297.000000	3.935447
298.000000	3.905607
299.000000	3.887834
300.000000	3.888209
301.000000	3.891798
302.000000	3.921075
303.000000	3.921251
304.000000	3.866976
305.000000	3.869198
306.000000	3.891347
307.000000	3.890331
308.000000	3.870557
309.000000	3.903630
310.000000	3.889672
311.000000	3.866516
312.000000	3.873421
313.000000	3.868437
314.000000	3.870044
315.000000	3.880237
316.000000	3.862290
317.000000	4.172697
318.000000	4.222614
319.000000	4.042683
320.000000	4.172649
321.000000	4.313523
322.000000	4.062052
323.000000	4.074652
324.000000	4.263738
325.000000	4.172805
326.000000	4.208900
327.000000	4.103360
328.000000	4.130389
329.000000	4.038561
330.000000	4.053972
331.000000	4.040496
332.000000	4.035740
333.000000	4.070459
334.000000	4.070673
335.000000	4.016833
336.000000	4.044677
337.000000	4.144756
338.000000	4.062808
339.000000	4.105057
340.000000	4.116573
341.000000	4.130056
342.000000	4.123929
343.000000	4.146179
344.000000	4.116287
345.000000	4.121614
346.000000	4.138129
347.000000	4.077248
348.000000	4.163450
349.000000	4.177936
350.000000	4.199400
351.000000	4.212849
352.000000	4.236439
353.000000	4.192529
354.000000	4.280811
355.000000	4.343849
356.000000	4.303673
357.000000	4.357445
358.000000	4.367767
359.000000	4.454076
360.000000	4.453421
361.000000	4.486724
362.000000	4.548554
363.000000	4.569403
364.000000	4.607890
365.000000	4.614496
366.000000	4.596076
367.000000	4.631724
368.000000	4.669375
369.000000	4.690772
370.000000	4.682797
371.000000	4.765449
372.000000	4.833136
373.000000	4.829550
374.000000	4.900975
375.000000	4.926997
376.000000	4.993763
377.000000	4.918685
378.000000	4.979851
379.000000	5.046404
380.000000	5.127146
381.000000	5.213018
382.000000	5.309650
383.000000	5.387170
384.000000	5.476432
385.000000	5.577187
386.000000	5.689244
387.000000	5.798020
388.000000	5.925383
389.000000	6.059977
390.000000	6.193469
391.000000	6.334896
392.000000	6.481335
393.000000	6.629708
394.000000	6.791193
395.000000	6.956607
396.000000	7.130950
397.000000	7.315751
398.000000	7.494681
399.000000	7.682912
400.000000	7.881305
401.000000	8.081761
402.000000	8.288247
403.000000	8.506641
404.000000	8.728757
405.000000	8.948978
406.000000	9.174923
407.000000	9.409425
408.000000	9.643760
409.000000	9.881338
410.000000	10.115985
411.000000	10.363877
412.000000	10.621601
413.000000	10.874192
414.000000	11.126099
415.000000	11.379474
416.000000	11.637509
417.000000	11.893416
418.000000	12.156035
419.000000	12.408259
420.000000	12.662851
421.000000	12.929828
422.000000	13.185731
423.000000	13.447307
424.000000	13.706592
425.000000	13.951635
426.000000	14.196370
427.000000	14.436566
428.000000	14.661884
429.000000	14.884062
430.000000	15.105793
431.000000	15.319155
432.000000	15.533935
433.000000	15.749390
434.000000	15.953080
435.000000	16.152676
436.000000	16.343113
437.000000	16.520329
438.000000	16.688376
439.000000	16.854951
440.000000	17.018421
441.000000	17.171069
442.000000	17.308296
443.000000	17.450115
444.000000	17.585753
445.000000	17.683660
446.000000	17.771228
447.000000	17.860778
448.000000	17.941300
449.000000	18.022082
450.000000	18.103987
451.000000	18.175642
452.000000	18.230292
453.000000	18.282495
454.000000	18.337046
455.000000	18.376314
456.000000	18.405378
457.000000	18.446399
458.000000	18.476103
459.000000	18.493735
460.000000	18.517372
461.000000	18.532554
462.000000	18.545581
463.000000	18.558343
464.000000	18.570095
465.000000	18.580478
466.000000	18.588589
467.000000	18.588535
468.000000	18.599264
469.000000	18.605754
470.000000	18.607983
471.000000	18.610843
472.000000	18.607879
473.000000	18.598151
474.000000	18.595423
475.000000	18.604340
476.000000	18.606579
477.000000	18.604698
478.000000	18.615052
479.000000	18.630277
480.000000	18.685304
481.000000	18.767537
482.000000	18.860377
483.000000	18.965626
484.000000	19.064269
485.000000	19.173830
486.000000	19.308430
487.000000	19.476725
488.000000	19.666309
489.000000	19.869311
490.000000	20.107165
491.000000	20.372648
492.000000	20.665829
493.000000	20.991312
494.000000	21.349569
495.000000	21.721527
496.000000	22.110678
497.000000	22.527705
498.000000	22.969157
499.000000	23.429040
500.000000	23.918550
501.000000	24.409487
502.000000	24.908503
503.000000	25.421717
504.000000	25.945661
505.000000	26.488067
506.000000	27.019356
507.000000	27.541677
508.000000	28.074642
509.000000	28.604153
510.000000	29.135921
511.000000	29.671519
512.000000	30.213305
513.000000	30.740687
514.000000	31.264525
515.000000	31.792757
516.000000	32.319539
517.000000	32.845854
518.000000	33.374022
519.000000	33.904694
520.000000	34.451279
521.000000	34.997848
522.000000	35.544415
523.000000	36.105246
524.000000	36.677286
525.000000	37.267747
526.000000	37.849789
527.000000	38.431282
528.000000	39.006920
529.000000	39.598670
530.000000	40.194950
531.000000	40.803717
532.000000	41.412891
533.000000	42.009120
534.000000	42.597894
535.000000	43.194059
536.000000	43.779200
537.000000	44.357342
538.000000	44.909925
539.000000	45.443335
540.000000	46.019359
541.000000	46.547743
542.000000	47.083454
543.000000	47.599013
544.000000	48.084364
545.000000	48.557185
546.000000	48.997472
547.000000	49.421617
548.000000	49.841442
549.000000	50.254328
550.000000	50.638131
551.000000	50.993871
552.000000	51.355495
553.000000	51.652601
554.000000	51.960976
555.000000	52.257956
556.000000	52.527659
557.000000	52.794413
558.000000	53.035647
559.000000	53.254035
560.000000	52.988939
561.000000	53.137884
562.000000	53.326722
563.000000	53.477145
564.000000	53.641223
565.000000	53.799897
566.000000	53.935862
567.000000	54.073994
568.000000	54.171816
569.000000	54.298437
570.000000	54.369521
571.000000	54.453692
572.000000	54.525071
573.000000	54.572310
574.000000	54.593535
575.000000	54.638778
576.000000	54.647251
577.000000	54.679584
578.000000	54.676605
579.000000	54.671580
580.000000	54.662882
581.000000	54.629434
582.000000	54.590825
583.000000	54.552016
584.000000	54.481893
585.000000	54.420402
586.000000	54.363969
587.000000	54.310677
588.000000	54.197293
589.000000	54.101744
590.000000	53.980282
591.000000	53.851512
592.000000	53.689749
593.000000	53.541917
594.000000	53.393828
595.000000	53.217475
596.000000	53.024108
597.000000	52.830303
598.000000	52.601832
599.000000	52.397567
600.000000	52.188431
601.000000	51.932233
602.000000	51.711272
603.000000	51.468924
604.000000	51.207144
605.000000	50.924086
606.000000	50.690404
607.000000	50.455412
608.000000	50.188867
609.000000	49.918627
610.000000	49.654672
611.000000	49.387405
612.000000	49.125731
613.000000	48.844200
614.000000	48.568183
615.000000	48.328174
616.000000	48.036174
617.000000	47.746901
618.000000	47.457705
619.000000	47.162730
620.000000	46.904751
621.000000	46.596346
622.000000	46.306717
623.000000	46.003164
624.000000	45.690347
625.000000	45.388293
626.000000	45.086173
627.000000	44.787522
628.000000	44.504654
629.000000	44.202126
630.000000	43.886623
631.000000	43.576137
632.000000	43.275179
633.000000	42.966436
634.000000	42.696804
635.000000	42.459667
636.000000	42.230250
637.000000	41.983623
638.000000	41.755038
639.000000	41.500959
640.000000	41.293264
641.000000	41.058094
642.000000	40.827163
643.000000	40.590168
644.000000	40.394705
645.000000	40.170839
646.000000	39.955858
647.000000	39.708615
648.000000	39.483931
649.000000	39.254706
650.000000	39.024832
651.000000	38.854293
652.000000	38.659456
653.000000	38.478545
654.000000	38.309467
655.000000	38.179542
656.000000	38.072620
657.000000	37.972238
658.000000	37.900690
659.000000	37.820215
660.000000	37.762976
661.000000	37.743826
662.000000	37.726189
663.000000	37.706446
664.000000	37.718862
665.000000	37.751545
666.000000	37.779977
667.000000	37.818538
668.000000	37.891132
669.000000	37.960534
670.000000	38.034442
671.000000	38.127019
672.000000	38.227426
673.000000	38.350481
674.000000	38.502329
675.000000	38.690632
676.000000	38.855283
677.000000	39.028639
678.000000	39.206527
679.000000	39.407610
680.000000	39.627911
681.000000	39.857579
682.000000	40.084548
683.000000	40.344123
684.000000	40.587113
685.000000	40.832023
686.000000	41.087125
687.000000	41.305825
688.000000	41.510823
689.000000	41.775844
690.000000	42.023172
691.000000	42.299887
692.000000	42.539162
693.000000	42.765087
694.000000	43.016645
695.000000	43.230261
696.000000	43.430759
697.000000	43.646946
698.000000	43.844628
699.000000	44.045304
700.000000	44.250478
701.000000	44.432459
702.000000	44.608412
703.000000	44.785384
704.000000	44.971845
705.000000	45.136917
706.000000	45.298062
707.000000	45.457803
708.000000	45.638263
709.000000	45.778382
710.000000	45.922434
711.000000	46.083549
712.000000	46.210063
713.000000	46.330780
714.000000	46.464008
715.000000	46.594409
716.000000	46.728773
717.000000	46.847599
718.000000	46.976934
719.000000	47.104604
720.000000	47.223958
721.000000	47.338433
722.000000	47.436015
723.000000	47.551479
724.000000	47.659524
725.000000	47.763278
726.000000	47.867348
727.000000	47.976992
728.000000	48.075888
729.000000	48.178990
730.000000	48.265394
731.000000	48.362136
732.000000	48.481203
733.000000	48.599441
734.000000	48.718089
735.000000	48.815358
736.000000	48.899015
737.000000	49.011414
738.000000	49.137488
739.000000	49.251474
740.000000	49.371457
741.000000	49.475676
742.000000	49.584386
743.000000	49.700304
744.000000	49.794669
745.000000	49.886261
746.000000	49.989375
747.000000	50.101118
748.000000	50.221196
749.000000	50.333929
750.000000	50.425108
751.000000	50.530276
752.000000	50.664283
753.000000	50.747439
754.000000	50.867471
755.000000	51.012553
756.000000	51.097777
757.000000	51.207688
758.000000	51.311313
759.000000	51.439685
760.000000	51.606733
761.000000	51.706888
762.000000	51.817550
763.000000	51.973327
764.000000	52.107542
765.000000	52.230985
766.000000	52.360920
767.000000	52.491999
768.000000	52.597186
769.000000	52.705237
770.000000	52.847319
771.000000	52.998033
772.000000	53.124977
773.000000	53.247580
774.000000	53.415875
775.000000	53.545210
776.000000	53.655938
777.000000	53.811685
778.000000	53.941814
779.000000	54.061270
780.000000	54.186542
781.000000	54.305407
782.000000	54.446807
783.000000	54.541987
784.000000	54.685552
785.000000	54.820708
786.000000	54.940996
787.000000	55.001557
788.000000	55.117516
789.000000	55.193070
790.000000	55.245410
791.000000	55.326737
792.000000	55.395214
793.000000	55.500363
794.000000	55.544020
795.000000	55.613577
796.000000	55.635459
797.000000	55.715735
798.000000	55.722115
799.000000	55.780900
800.000000	55.848972
801.000000	55.838984
802.000000	55.866675
803.000000	55.885959
804.000000	55.875633
805.000000	55.874963
806.000000	55.856406
807.000000	55.802987
808.000000	55.851491
809.000000	55.873596
810.000000	55.798892
811.000000	55.732006
812.000000	55.676551
813.000000	55.654646
814.000000	55.572105
815.000000	55.538662
816.000000	55.511383
817.000000	55.408628
818.000000	55.391485
819.000000	55.307807
820.000000	55.212011
821.000000	55.180628
822.000000	55.104488
823.000000	54.997813
824.000000	54.882466
825.000000	54.894716
826.000000	54.760165
827.000000	54.677464
828.000000	54.643969
829.000000	54.510382
830.000000	54.335577
831.000000	54.268961
832.000000	54.173986
833.000000	54.014004
834.000000	53.901198
835.000000	53.856465
836.000000	53.755141
837.000000	53.593342
838.000000	53.552720
839.000000	53.388066
840.000000	53.258271
841.000000	53.094654
842.000000	52.976735
843.000000	52.770249
844.000000	52.723037
845.000000	52.633568
846.000000	52.394874
847.000000	52.169366
848.000000	52.120272
849.000000	51.800114
850.000000	51.672651
851.000000	51.593405
852.000000	51.492447
853.000000	51.177262
854.000000	51.008420
855.000000	50.779960
856.000000	50.609620
857.000000	50.589100
858.000000	51.445867
859.000000	50.389633
860.000000	50.370000
861.000000	50.372367
862.000000	50.398667
863.000000	50.402267
864.000000	50.373833
865.000000	50.356733
866.000000	50.319567
867.000000	50.280100
868.000000	50.251733
869.000000	50.218400
870.000000	50.178633
871.000000	50.123133
872.000000	50.107033
873.000000	50.029933
874.000000	50.024467
875.000000	49.963567
876.000000	49.934600
877.000000	49.874367
878.000000	49.823300
879.000000	49.754267
880.000000	49.718500
881.000000	49.656300
882.000000	49.553000
883.000000	49.479100
884.000000	49.431200
885.000000	49.342467
886.000000	49.261067
887.000000	49.163933
888.000000	49.061033
889.000000	49.013900
890.000000	48.933933
891.000000	48.830767
892.000000	48.736700
893.000000	48.649900
894.000000	48.562100
895.000000	48.467200
896.000000	48.359533
897.000000	48.276200
898.000000	48.186567
899.000000	48.022767
900.000000	47.920267
901.000000	47.831633
902.000000	47.756733
903.000000	47.666900
904.000000	47.587500
905.000000	47.467400
906.000000	47.375867
907.000000	47.286767
908.000000	47.218100
909.000000	47.132967
910.000000	47.012733
911.000000	46.969900
912.000000	46.920733
913.000000	46.875433
914.000000	46.814400
915.000000	46.737433
916.000000	46.675367
917.000000	46.607667
918.000000	46.546900
919.000000	46.499500
920.000000	46.443633
921.000000	46.381333
922.000000	46.324067
923.000000	46.261767
924.000000	46.215167
925.000000	46.179967
926.000000	46.163067
927.000000	46.092067
928.000000	46.047633
929.000000	46.025667
930.000000	45.987933
931.000000	45.935567
932.000000	45.902500
933.000000	45.840267
934.000000	45.793133
935.000000	45.747400
936.000000	45.707733
937.000000	45.669733
938.000000	45.652433
939.000000	45.621567
940.000000	45.601533
941.000000	45.603933
942.000000	45.610633
943.000000	45.596367
944.000000	45.575167
945.000000	45.555533
946.000000	45.527400
947.000000	45.557033
948.000000	45.564300
949.000000	45.541633
950.000000	45.532133
951.000000	45.538433
952.000000	45.517833
953.000000	45.504300
954.000000	45.505233
955.000000	45.505767
956.000000	45.497633
957.000000	45.471267
958.000000	45.459500
959.000000	45.443333
960.000000	45.436700
961.000000	45.407667
962.000000	45.372933
963.000000	45.364700
964.000000	45.354267
965.000000	45.350000
966.000000	45.327533
967.000000	45.309200
968.000000	45.316300
969.000000	45.314967
970.000000	45.293533
971.000000	45.281800
972.000000	45.265733
973.000000	45.258000
974.000000	45.257700
975.000000	45.241500
976.000000	45.210200
977.000000	45.200467
978.000000	45.190833
979.000000	45.184300
980.000000	45.176533
981.000000	45.163133
982.000000	45.153467
983.000000	45.149133
984.000000	45.138600
985.000000	45.123167
986.000000	45.107467
987.000000	45.102000
988.000000	45.104100
989.000000	45.091433
990.000000	45.085733
991.000000	45.083233
992.000000	45.086200
993.000000	45.087933
994.000000	45.095933
995.000000	45.103700
996.000000	45.101633
997.000000	45.102100
998.000000	45.113933
999.000000	45.113567
1000.000000	45.111567
1001.000000	45.125300
1002.000000	45.132267
1003.000000	45.145133
1004.000000	45.156800
1005.000000	45.156600
1006.000000	45.162767
1007.000000	45.176700
1008.000000	45.185900
1009.000000	45.199933
1010.000000	45.202700
1011.000000	45.212167
1012.000000	45.229833
1013.000000	45.253567
1014.000000	45.281300
1015.000000	45.308733
1016.000000	45.338533
1017.000000	45.379133
1018.000000	45.429167
1019.000000	45.461500
1020.000000	45.503467
1021.000000	45.560167
1022.000000	45.604667
1023.000000	45.655900
1024.000000	45.713733
1025.000000	45.756367
1026.000000	45.806600
1027.000000	45.859633
1028.000000	45.901633
1029.000000	45.943500
1030.000000	45.992867
1031.000000	46.041433
1032.000000	46.082267
1033.000000	46.127367
1034.000000	46.176067
1035.000000	46.218733
1036.000000	46.253300
1037.000000	46.290967
1038.000000	46.329567
1039.000000	46.366800
1040.000000	46.401667
1041.000000	46.436733
1042.000000	46.470567
1043.000000	46.502133
1044.000000	46.543800
1045.000000	46.587700
1046.000000	46.624867
1047.000000	46.673633
1048.000000	46.723467
1049.000000	46.760700
1050.000000	46.805133
1051.000000	46.847900
1052.000000	46.889033
1053.000000	46.923100
1054.000000	46.970267
1055.000000	47.024033
1056.000000	47.078533
1057.000000	47.136533
1058.000000	47.187600
1059.000000	47.246500
1060.000000	47.299433
1061.000000	47.349767
1062.000000	47.401867
1063.000000	47.453100
1064.000000	47.508400
1065.000000	47.553233
1066.000000	47.602333
1067.000000	47.651133
1068.000000	47.705900
1069.000000	47.754233
1070.000000	47.801900
1071.000000	47.855667
1072.000000	47.900800
1073.000000	47.942600
1074.000000	47.997667
1075.000000	48.046800
1076.000000	48.093667
1077.000000	48.147600
1078.000000	48.202400
1079.000000	48.248367
1080.000000	48.297167
1081.000000	48.353733
1082.000000	48.406767
1083.000000	48.459967
1084.000000	48.505267
1085.000000	48.569300
1086.000000	48.621567
1087.000000	48.668233
1088.000000	48.713067
1089.000000	48.767000
1090.000000	48.815400
1091.000000	48.860867
1092.000000	48.903500
1093.000000	48.944100
1094.000000	49.002967
1095.000000	49.035733
1096.000000	49.072733
1097.000000	49.109200
1098.000000	49.162767
1099.000000	49.207667
1100.000000	49.236567
1101.000000	49.267267
1102.000000	49.309500
1103.000000	49.343133
1104.000000	49.383900
1105.000000	49.410267
1106.000000	49.443700
1107.000000	49.466733
1108.000000	49.490767
1109.000000	49.528567
1110.000000	49.557300
1111.000000	49.581000
1112.000000	49.596367
1113.000000	49.627467
1114.000000	49.651400
1115.000000	49.679000
1116.000000	49.721900
1117.000000	49.732300
1118.000000	49.745267
1119.000000	49.746800
1120.000000	49.744933
1121.000000	49.750833
1122.000000	49.742333
1123.000000	49.711067
1124.000000	49.678400
1125.000000	49.643333
1126.000000	49.588833
1127.000000	49.541267
1128.000000	49.483567
1129.000000	49.388967
1130.000000	49.264167
1131.000000	49.123867
1132.000000	48.998933
1133.000000	48.873333
1134.000000	48.724600
1135.000000	48.465133
1136.000000	48.203067
1137.000000	48.007200
1138.000000	47.807933
1139.000000	47.590300
1140.000000	47.375567
1141.000000	47.164233
1142.000000	46.967467
1143.000000	46.783200
1144.000000	46.602767
1145.000000	46.451433
1146.000000	46.339600
1147.000000	46.262133
1148.000000	46.258400
1149.000000	46.270367
1150.000000	46.279367
1151.000000	46.285167
1152.000000	46.293300
1153.000000	46.264267
1154.000000	46.228867
1155.000000	46.124700
1156.000000	45.989233
1157.000000	45.795800
1158.000000	45.593033
1159.000000	45.394100
1160.000000	45.163100
1161.000000	44.916800
1162.000000	44.679000
1163.000000	44.424700
1164.000000	44.173000
1165.000000	43.926233
1166.000000	43.666767
1167.000000	43.415533
