PE UV       SUBTECH     SPECTRUM    ASCII       PEDS        4.00        
   -1
CICIMAUCR0100-3.Sample.ASC
24/04/18
17:00:45.00
24/04/18
17:00:45.00
Vinicio Soto Monge
C. cupreomarginata
250,000000
1
Lambda 1050
1050L1511233
PerkinElmer UV WinLab 6.3.2.0749 / 2.02.05 Lambda 900 UV/VIS/NIR, Aug  7 2015 09:38:08

0
0
3350/servo 860,8/2
0
0
UV/VIS
1
1
1
DoubleDePol,CommonBeamDepol,RBeamAtt,SBeamAtt,60mm sphere, WB InGaAs Detector
0
0
0
0
Program
Program
3350/servo 860,8/2
3350/0,2 860,8/0,2
3350/0,2 860,8/0,2
0
15.00
 
 
 
0
 
860,8
319,2
860,8
Front
100
on
S:100 R:100
0
0
0
0
 
0
 
 
 
0
 
 
0
0
0
0
0
 
 
 
 
0
0


0
0
#HDR
-1
-1
#GR
nm
%R
1.0
0.0
2500,000000
-1,000000
2251
8
64,613100
4,484200
#DATA
250.000000	4.943845
251.000000	4.944036
252.000000	4.945865
253.000000	4.940591
254.000000	4.944682
255.000000	4.936256
256.000000	4.926578
257.000000	4.897870
258.000000	4.893077
259.000000	4.878576
260.000000	4.876852
261.000000	4.883629
262.000000	4.855465
263.000000	4.809923
264.000000	4.806184
265.000000	4.797356
266.000000	4.786179
267.000000	4.754195
268.000000	4.714648
269.000000	4.725580
270.000000	4.718650
271.000000	4.732402
272.000000	4.684222
273.000000	4.698011
274.000000	4.685657
275.000000	4.668414
276.000000	4.665502
277.000000	4.630520
278.000000	4.613261
279.000000	4.654705
280.000000	4.621780
281.000000	4.605160
282.000000	4.602536
283.000000	4.576424
284.000000	4.583728
285.000000	4.554881
286.000000	4.560735
287.000000	4.571707
288.000000	4.576341
289.000000	4.521608
290.000000	4.550413
291.000000	4.534430
292.000000	4.544951
293.000000	4.517630
294.000000	4.522644
295.000000	4.533364
296.000000	4.520390
297.000000	4.498762
298.000000	4.524573
299.000000	4.510427
300.000000	4.480435
301.000000	4.481327
302.000000	4.483978
303.000000	4.484292
304.000000	4.470943
305.000000	4.434862
306.000000	4.463071
307.000000	4.486734
308.000000	4.462229
309.000000	4.457197
310.000000	4.475444
311.000000	4.474226
312.000000	4.442994
313.000000	4.482077
314.000000	4.475317
315.000000	4.461634
316.000000	4.524989
317.000000	4.760921
318.000000	4.776938
319.000000	4.695754
320.000000	4.685925
321.000000	4.688021
322.000000	4.637560
323.000000	4.627462
324.000000	4.637489
325.000000	4.671443
326.000000	4.645617
327.000000	4.663801
328.000000	4.629251
329.000000	4.717096
330.000000	4.612514
331.000000	4.642480
332.000000	4.571379
333.000000	4.586829
334.000000	4.527963
335.000000	4.640074
336.000000	4.610173
337.000000	4.608557
338.000000	4.565802
339.000000	4.650617
340.000000	4.597777
341.000000	4.603552
342.000000	4.602824
343.000000	4.628594
344.000000	4.620250
345.000000	4.602200
346.000000	4.625082
347.000000	4.652260
348.000000	4.631016
349.000000	4.608405
350.000000	4.602507
351.000000	4.617022
352.000000	4.682674
353.000000	4.701964
354.000000	4.665788
355.000000	4.687023
356.000000	4.702040
357.000000	4.708595
358.000000	4.729844
359.000000	4.744369
360.000000	4.730002
361.000000	4.765164
362.000000	4.799884
363.000000	4.768734
364.000000	4.786740
365.000000	4.822588
366.000000	4.847349
367.000000	4.844862
368.000000	4.896221
369.000000	4.901619
370.000000	4.928878
371.000000	4.935316
372.000000	4.947878
373.000000	4.959888
374.000000	4.968047
375.000000	5.062431
376.000000	5.185002
377.000000	5.217664
378.000000	5.273014
379.000000	5.345359
380.000000	5.404401
381.000000	5.478292
382.000000	5.561916
383.000000	5.643294
384.000000	5.729258
385.000000	5.832077
386.000000	5.939219
387.000000	6.030824
388.000000	6.142287
389.000000	6.276660
390.000000	6.412160
391.000000	6.545274
392.000000	6.684309
393.000000	6.839776
394.000000	6.997606
395.000000	7.162367
396.000000	7.326751
397.000000	7.491780
398.000000	7.669313
399.000000	7.851624
400.000000	8.034601
401.000000	8.224374
402.000000	8.413139
403.000000	8.606831
404.000000	8.796818
405.000000	8.991421
406.000000	9.184860
407.000000	9.381422
408.000000	9.570510
409.000000	9.754256
410.000000	9.937728
411.000000	10.126730
412.000000	10.307816
413.000000	10.486429
414.000000	10.675540
415.000000	10.854681
416.000000	11.023762
417.000000	11.193263
418.000000	11.359057
419.000000	11.526339
420.000000	11.697808
421.000000	11.867978
422.000000	12.040897
423.000000	12.203905
424.000000	12.358525
425.000000	12.522536
426.000000	12.672530
427.000000	12.822066
428.000000	12.969411
429.000000	13.111637
430.000000	13.255937
431.000000	13.394104
432.000000	13.544221
433.000000	13.689104
434.000000	13.825549
435.000000	13.966100
436.000000	14.098165
437.000000	14.218164
438.000000	14.340005
439.000000	14.464192
440.000000	14.582931
441.000000	14.692040
442.000000	14.795800
443.000000	14.897805
444.000000	14.990596
445.000000	15.070776
446.000000	15.152594
447.000000	15.225953
448.000000	15.293041
449.000000	15.369488
450.000000	15.452680
451.000000	15.536496
452.000000	15.616312
453.000000	15.698575
454.000000	15.794266
455.000000	15.891054
456.000000	15.988362
457.000000	16.096401
458.000000	16.222721
459.000000	16.346588
460.000000	16.480090
461.000000	16.628623
462.000000	16.777666
463.000000	16.931966
464.000000	17.094048
465.000000	17.263024
466.000000	17.440095
467.000000	17.617416
468.000000	17.790866
469.000000	17.974205
470.000000	18.163527
471.000000	18.359228
472.000000	18.550721
473.000000	18.733421
474.000000	18.933494
475.000000	19.139201
476.000000	19.341368
477.000000	19.544199
478.000000	19.750666
479.000000	19.970864
480.000000	20.190436
481.000000	20.415811
482.000000	20.651352
483.000000	20.890886
484.000000	21.137757
485.000000	21.393315
486.000000	21.651225
487.000000	21.925069
488.000000	22.225398
489.000000	22.528325
490.000000	22.839354
491.000000	23.163792
492.000000	23.512141
493.000000	23.864305
494.000000	24.218342
495.000000	24.577507
496.000000	24.951055
497.000000	25.328285
498.000000	25.699963
499.000000	26.089589
500.000000	26.475367
501.000000	26.859542
502.000000	27.264224
503.000000	27.662447
504.000000	28.067589
505.000000	28.486243
506.000000	28.884699
507.000000	29.307307
508.000000	29.729254
509.000000	30.170519
510.000000	30.625657
511.000000	31.097959
512.000000	31.601164
513.000000	32.133939
514.000000	32.669779
515.000000	33.223192
516.000000	33.811840
517.000000	34.418081
518.000000	35.058881
519.000000	35.725954
520.000000	36.419585
521.000000	37.146115
522.000000	37.901551
523.000000	38.692338
524.000000	39.504991
525.000000	40.328082
526.000000	41.162264
527.000000	42.014038
528.000000	42.860684
529.000000	43.715476
530.000000	44.582494
531.000000	45.442073
532.000000	46.306696
533.000000	47.145017
534.000000	47.966790
535.000000	48.751487
536.000000	49.522258
537.000000	50.260563
538.000000	50.955398
539.000000	51.642453
540.000000	52.296487
541.000000	52.922801
542.000000	53.501264
543.000000	54.040932
544.000000	54.560507
545.000000	55.049350
546.000000	55.496446
547.000000	55.928595
548.000000	56.306812
549.000000	56.685318
550.000000	57.002416
551.000000	57.286567
552.000000	57.575061
553.000000	57.819239
554.000000	58.011079
555.000000	58.213095
556.000000	58.380338
557.000000	58.510703
558.000000	58.639053
559.000000	58.723785
560.000000	58.702233
561.000000	58.756986
562.000000	58.811938
563.000000	58.849144
564.000000	58.911091
565.000000	58.938462
566.000000	58.978211
567.000000	59.020883
568.000000	59.029805
569.000000	59.032078
570.000000	59.046779
571.000000	59.022538
572.000000	58.977453
573.000000	58.918624
574.000000	58.843549
575.000000	58.767751
576.000000	58.632916
577.000000	58.515796
578.000000	58.389321
579.000000	58.215395
580.000000	58.061941
581.000000	57.879344
582.000000	57.701741
583.000000	57.508285
584.000000	57.334244
585.000000	57.156784
586.000000	56.971490
587.000000	56.807000
588.000000	56.632552
589.000000	56.471872
590.000000	56.289616
591.000000	56.137203
592.000000	55.951871
593.000000	55.785851
594.000000	55.593461
595.000000	55.378961
596.000000	55.185475
597.000000	54.979498
598.000000	54.755761
599.000000	54.496728
600.000000	54.246225
601.000000	53.982033
602.000000	53.695502
603.000000	53.388292
604.000000	53.083010
605.000000	52.785399
606.000000	52.473659
607.000000	52.121556
608.000000	51.811159
609.000000	51.459889
610.000000	51.092709
611.000000	50.724219
612.000000	50.357462
613.000000	49.981424
614.000000	49.579720
615.000000	49.195744
616.000000	48.826517
617.000000	48.405697
618.000000	48.027611
619.000000	47.644018
620.000000	47.263311
621.000000	46.865541
622.000000	46.507092
623.000000	46.185607
624.000000	45.865590
625.000000	45.567633
626.000000	45.312832
627.000000	45.070789
628.000000	44.862317
629.000000	44.683716
630.000000	44.539681
631.000000	44.429674
632.000000	44.365459
633.000000	44.329622
634.000000	44.323810
635.000000	44.366049
636.000000	44.441718
637.000000	44.552101
638.000000	44.694153
639.000000	44.819257
640.000000	45.020031
641.000000	45.228296
642.000000	45.423221
643.000000	45.647148
644.000000	45.860045
645.000000	46.092072
646.000000	46.292622
647.000000	46.484934
648.000000	46.682284
649.000000	46.864347
650.000000	47.021303
651.000000	47.194309
652.000000	47.347709
653.000000	47.485950
654.000000	47.626988
655.000000	47.745665
656.000000	47.837668
657.000000	47.957473
658.000000	48.046599
659.000000	48.120179
660.000000	48.180419
661.000000	48.219728
662.000000	48.266474
663.000000	48.286755
664.000000	48.314798
665.000000	48.346662
666.000000	48.352796
667.000000	48.385293
668.000000	48.373737
669.000000	48.366878
670.000000	48.353685
671.000000	48.352443
672.000000	48.335124
673.000000	48.317033
674.000000	48.315983
675.000000	48.319145
676.000000	48.327008
677.000000	48.315323
678.000000	48.310765
679.000000	48.328282
680.000000	48.329291
681.000000	48.342352
682.000000	48.366388
683.000000	48.402657
684.000000	48.418615
685.000000	48.454911
686.000000	48.496471
687.000000	48.537766
688.000000	48.558642
689.000000	48.603840
690.000000	48.669697
691.000000	48.728385
692.000000	48.781130
693.000000	48.874204
694.000000	48.931342
695.000000	48.985621
696.000000	49.061742
697.000000	49.176359
698.000000	49.256895
699.000000	49.338529
700.000000	49.457528
701.000000	49.547072
702.000000	49.642853
703.000000	49.748935
704.000000	49.825511
705.000000	49.911818
706.000000	50.008887
707.000000	50.094610
708.000000	50.167859
709.000000	50.247626
710.000000	50.329802
711.000000	50.406131
712.000000	50.486540
713.000000	50.564840
714.000000	50.640087
715.000000	50.701627
716.000000	50.781661
717.000000	50.860933
718.000000	50.939084
719.000000	50.991605
720.000000	51.052366
721.000000	51.147041
722.000000	51.204104
723.000000	51.233579
724.000000	51.289170
725.000000	51.373418
726.000000	51.424680
727.000000	51.438824
728.000000	51.457455
729.000000	51.515882
730.000000	51.590064
731.000000	51.630508
732.000000	51.680025
733.000000	51.759319
734.000000	51.798106
735.000000	51.816668
736.000000	51.877605
737.000000	51.950662
738.000000	51.997699
739.000000	52.060285
740.000000	52.100309
741.000000	52.151544
742.000000	52.238322
743.000000	52.304171
744.000000	52.346880
745.000000	52.368333
746.000000	52.438334
747.000000	52.550505
748.000000	52.608595
749.000000	52.681142
750.000000	52.771269
751.000000	52.833660
752.000000	52.921415
753.000000	53.040663
754.000000	53.127139
755.000000	53.207508
756.000000	53.321716
757.000000	53.429978
758.000000	53.535625
759.000000	53.650663
760.000000	53.756282
761.000000	53.858785
762.000000	53.989233
763.000000	54.107581
764.000000	54.202928
765.000000	54.330829
766.000000	54.448616
767.000000	54.561318
768.000000	54.683388
769.000000	54.831503
770.000000	54.964839
771.000000	55.109351
772.000000	55.228766
773.000000	55.335438
774.000000	55.438001
775.000000	55.615683
776.000000	55.783470
777.000000	55.866995
778.000000	55.997373
779.000000	56.122279
780.000000	56.262439
781.000000	56.384825
782.000000	56.527924
783.000000	56.703334
784.000000	56.835244
785.000000	56.951809
786.000000	57.091062
787.000000	57.253890
788.000000	57.390259
789.000000	57.543095
790.000000	57.610323
791.000000	57.720072
792.000000	57.876191
793.000000	57.992957
794.000000	58.134648
795.000000	58.238614
796.000000	58.339567
797.000000	58.479711
798.000000	58.586870
799.000000	58.652295
800.000000	58.771518
801.000000	58.915156
802.000000	58.983430
803.000000	59.065256
804.000000	59.168369
805.000000	59.253202
806.000000	59.356066
807.000000	59.482296
808.000000	59.558999
809.000000	59.568339
810.000000	59.665397
811.000000	59.720550
812.000000	59.808606
813.000000	59.878126
814.000000	59.946654
815.000000	60.065455
816.000000	60.112399
817.000000	60.094578
818.000000	60.133542
819.000000	60.238534
820.000000	60.264074
821.000000	60.273999
822.000000	60.338907
823.000000	60.459052
824.000000	60.422034
825.000000	60.484346
826.000000	60.581138
827.000000	60.615318
828.000000	60.640132
829.000000	60.689083
830.000000	60.728614
831.000000	60.771813
832.000000	60.786163
833.000000	60.779639
834.000000	60.784003
835.000000	60.801394
836.000000	60.878425
837.000000	60.979061
838.000000	61.050541
839.000000	61.072194
840.000000	61.102003
841.000000	61.192127
842.000000	61.013925
843.000000	61.239264
844.000000	61.210995
845.000000	61.277300
846.000000	61.376822
847.000000	61.347568
848.000000	61.172235
849.000000	61.378008
850.000000	61.214795
851.000000	61.280431
852.000000	61.001865
853.000000	61.166716
854.000000	61.269251
855.000000	61.290552
856.000000	61.260823
857.000000	61.184933
858.000000	61.340067
859.000000	61.005400
860.000000	61.193067
861.000000	61.385900
862.000000	61.538300
863.000000	61.661367
864.000000	61.757000
865.000000	61.861067
866.000000	61.935933
867.000000	62.025033
868.000000	62.098533
869.000000	62.162533
870.000000	62.214267
871.000000	62.280167
872.000000	62.331833
873.000000	62.394267
874.000000	62.425067
875.000000	62.473600
876.000000	62.507733
877.000000	62.531000
878.000000	62.559400
879.000000	62.581900
880.000000	62.616067
881.000000	62.621500
882.000000	62.666767
883.000000	62.684767
884.000000	62.672300
885.000000	62.683400
886.000000	62.686233
887.000000	62.695667
888.000000	62.684667
889.000000	62.684200
890.000000	62.663400
891.000000	62.656100
892.000000	62.639567
893.000000	62.618900
894.000000	62.609033
895.000000	62.607733
896.000000	62.599367
897.000000	62.583600
898.000000	62.565667
899.000000	62.544567
900.000000	62.521867
901.000000	62.515300
902.000000	62.499333
903.000000	62.488367
904.000000	62.476367
905.000000	62.467900
906.000000	62.458467
907.000000	62.465900
908.000000	62.455567
909.000000	62.447733
910.000000	62.470267
911.000000	62.485833
912.000000	62.489533
913.000000	62.511133
914.000000	62.529200
915.000000	62.509133
916.000000	62.528500
917.000000	62.535067
918.000000	62.533033
919.000000	62.527800
920.000000	62.522000
921.000000	62.510400
922.000000	62.509900
923.000000	62.482500
924.000000	62.488800
925.000000	62.463033
926.000000	62.453800
927.000000	62.438967
928.000000	62.406200
929.000000	62.403567
930.000000	62.379867
931.000000	62.338300
932.000000	62.314100
933.000000	62.294500
934.000000	62.258300
935.000000	62.214600
936.000000	62.188633
937.000000	62.157167
938.000000	62.115433
939.000000	62.107267
940.000000	62.056833
941.000000	62.048300
942.000000	62.017567
943.000000	61.978367
944.000000	61.956067
945.000000	61.935233
946.000000	61.897167
947.000000	61.875933
948.000000	61.856567
949.000000	61.820233
950.000000	61.797300
951.000000	61.780667
952.000000	61.740833
953.000000	61.735100
954.000000	61.710767
955.000000	61.686933
956.000000	61.661600
957.000000	61.641867
958.000000	61.613600
959.000000	61.594500
960.000000	61.574100
961.000000	61.550633
962.000000	61.522200
963.000000	61.508933
964.000000	61.489367
965.000000	61.477800
966.000000	61.462100
967.000000	61.438367
968.000000	61.433100
969.000000	61.420333
970.000000	61.408567
971.000000	61.387700
972.000000	61.369267
973.000000	61.357867
974.000000	61.349933
975.000000	61.337000
976.000000	61.321733
977.000000	61.304967
978.000000	61.289700
979.000000	61.283433
980.000000	61.263667
981.000000	61.242033
982.000000	61.224967
983.000000	61.203533
984.000000	61.193033
985.000000	61.178167
986.000000	61.153000
987.000000	61.133300
988.000000	61.118933
989.000000	61.097567
990.000000	61.077167
991.000000	61.064700
992.000000	61.043467
993.000000	61.030033
994.000000	61.016600
995.000000	61.009433
996.000000	60.995733
997.000000	60.977733
998.000000	60.965433
999.000000	60.951367
1000.000000	60.948100
1001.000000	60.942233
1002.000000	60.928167
1003.000000	60.917667
1004.000000	60.916933
1005.000000	60.915133
1006.000000	60.900267
1007.000000	60.887633
1008.000000	60.879667
1009.000000	60.876100
1010.000000	60.875600
1011.000000	60.875067
1012.000000	60.879733
1013.000000	60.889333
1014.000000	60.894233
1015.000000	60.907367
1016.000000	60.930267
1017.000000	60.957700
1018.000000	60.990033
1019.000000	61.022700
1020.000000	61.057700
1021.000000	61.098800
1022.000000	61.141633
1023.000000	61.183700
1024.000000	61.228967
1025.000000	61.268600
1026.000000	61.304900
1027.000000	61.356533
1028.000000	61.397700
1029.000000	61.433667
1030.000000	61.483500
1031.000000	61.523633
1032.000000	61.559967
1033.000000	61.597067
1034.000000	61.643100
1035.000000	61.684867
1036.000000	61.722700
1037.000000	61.760533
1038.000000	61.795067
1039.000000	61.827133
1040.000000	61.867067
1041.000000	61.905133
1042.000000	61.932500
1043.000000	61.963867
1044.000000	62.002067
1045.000000	62.035767
1046.000000	62.068400
1047.000000	62.095733
1048.000000	62.131700
1049.000000	62.180233
1050.000000	62.221733
1051.000000	62.255900
1052.000000	62.296167
1053.000000	62.334933
1054.000000	62.381533
1055.000000	62.428867
1056.000000	62.473400
1057.000000	62.517233
1058.000000	62.563833
1059.000000	62.612800
1060.000000	62.658133
1061.000000	62.700133
1062.000000	62.740800
1063.000000	62.789500
1064.000000	62.836567
1065.000000	62.884567
1066.000000	62.937067
1067.000000	62.977633
1068.000000	63.027467
1069.000000	63.072433
1070.000000	63.112600
1071.000000	63.159400
1072.000000	63.205700
1073.000000	63.246400
1074.000000	63.286633
1075.000000	63.332367
1076.000000	63.370767
1077.000000	63.419600
1078.000000	63.465733
1079.000000	63.508333
1080.000000	63.546100
1081.000000	63.594433
1082.000000	63.641567
1083.000000	63.685133
1084.000000	63.725200
1085.000000	63.766667
1086.000000	63.813333
1087.000000	63.861100
1088.000000	63.896800
1089.000000	63.935900
1090.000000	63.970967
1091.000000	64.000567
1092.000000	64.043967
1093.000000	64.072867
1094.000000	64.107200
1095.000000	64.145533
1096.000000	64.173333
1097.000000	64.202633
1098.000000	64.226367
1099.000000	64.249900
1100.000000	64.274433
1101.000000	64.295733
1102.000000	64.307400
1103.000000	64.327000
1104.000000	64.340233
1105.000000	64.360067
1106.000000	64.370933
1107.000000	64.385400
1108.000000	64.402733
1109.000000	64.418333
1110.000000	64.423467
1111.000000	64.430200
1112.000000	64.449700
1113.000000	64.452333
1114.000000	64.464167
1115.000000	64.474600
1116.000000	64.484667
1117.000000	64.487600
1118.000000	64.496000
1119.000000	64.475433
1120.000000	64.455133
1121.000000	64.439533
1122.000000	64.428033
1123.000000	64.380733
1124.000000	64.345933
1125.000000	64.295200
1126.000000	64.221867
1127.000000	64.148267
1128.000000	64.060967
1129.000000	63.955900
1130.000000	63.812133
1131.000000	63.645900
1132.000000	63.479733
1133.000000	63.326600
1134.000000	63.163267
1135.000000	62.945033
1136.000000	62.711100
1137.000000	62.462533
1138.000000	62.237800
1139.000000	62.016733
1140.000000	61.816000
1141.000000	61.618667
1142.000000	61.426133
1143.000000	61.241267
1144.000000	61.083167
1145.000000	60.953400
1146.000000	60.842300
1147.000000	60.774100
1148.000000	60.721200
1149.000000	60.690500
1150.000000	60.679933
1151.000000	60.661933
1152.000000	60.634767
1153.000000	60.583667
1154.000000	60.504333
1155.000000	60.398333
1156.000000	60.259900
1157.000000	60.080233
1158.000000	59.875800
1159.000000	59.661633
1160.000000	59.426467
1161.000000	59.183333
1162.000000	58.934700
1163.000000	58.669133
1164.000000	58.414667
1165.000000	58.149733
1166.000000	57.880433
1167.000000	57.623767
