PE UV       SUBTECH     SPECTRUM    ASCII       PEDS        4.00        
   -1
CICIMAUCR0158-3.Sample.ASC
24/04/11
14:00:06.00
24/04/11
14:00:06.00
Vinicio Soto Monge
C.cupreomarginata
250,000000
1
Lambda 1050
1050L1511233
PerkinElmer UV WinLab 6.3.2.0749 / 2.02.05 Lambda 900 UV/VIS/NIR, Aug  7 2015 09:38:08

0
0
3350/2 860,8/2
0
0
UV/VIS
1
1
1
DoubleDePol,CommonBeamDepol,RBeamAtt,SBeamAtt,60mm sphere, WB InGaAs Detector
0
0
0
0
Program
Program
3350/2 860,8/2
3350/0,2 860,8/0,2
3350/0,2 860,8/0,2
0
15.00
 
 
 
0
 
860,8
319,2
860,8
Front
100
on
S:100 R:100
0
0
0
0
 
0
 
 
 
0
 
 
0
0
0
0
0
 
 
 
 
0
0


0
0
#HDR
-1
-1
#GR
nm
%R
1.0
0.0
2400,000000
-1,000000
2151
8
47,716700
2,683800
#DATA
250.000000	4.603083
251.000000	4.585351
252.000000	4.552850
253.000000	4.574714
254.000000	4.554185
255.000000	4.545656
256.000000	4.563080
257.000000	4.563836
258.000000	4.536007
259.000000	4.516692
260.000000	4.495074
261.000000	4.480708
262.000000	4.477304
263.000000	4.438484
264.000000	4.439291
265.000000	4.415001
266.000000	4.390632
267.000000	4.373046
268.000000	4.352597
269.000000	4.348057
270.000000	4.334108
271.000000	4.344605
272.000000	4.332349
273.000000	4.317868
274.000000	4.307433
275.000000	4.281946
276.000000	4.260114
277.000000	4.240477
278.000000	4.245452
279.000000	4.240816
280.000000	4.225943
281.000000	4.230243
282.000000	4.219741
283.000000	4.203473
284.000000	4.207208
285.000000	4.219865
286.000000	4.212981
287.000000	4.212059
288.000000	4.203347
289.000000	4.178858
290.000000	4.186947
291.000000	4.209725
292.000000	4.228159
293.000000	4.206115
294.000000	4.247156
295.000000	4.185833
296.000000	4.218601
297.000000	4.208198
298.000000	4.203975
299.000000	4.232660
300.000000	4.218635
301.000000	4.208839
302.000000	4.214591
303.000000	4.217067
304.000000	4.232351
305.000000	4.243277
306.000000	4.230947
307.000000	4.227712
308.000000	4.240381
309.000000	4.261479
310.000000	4.258906
311.000000	4.220134
312.000000	4.267367
313.000000	4.261288
314.000000	4.232217
315.000000	4.292960
316.000000	4.420236
317.000000	4.725118
318.000000	4.676687
319.000000	4.544462
320.000000	4.502071
321.000000	4.580878
322.000000	4.673797
323.000000	4.560551
324.000000	4.540028
325.000000	4.489253
326.000000	4.532282
327.000000	4.501399
328.000000	4.408712
329.000000	4.505343
330.000000	4.559911
331.000000	4.446343
332.000000	4.348987
333.000000	4.360903
334.000000	4.369890
335.000000	4.371427
336.000000	4.384961
337.000000	4.388850
338.000000	4.401239
339.000000	4.403240
340.000000	4.421283
341.000000	4.426201
342.000000	4.460656
343.000000	4.466294
344.000000	4.470055
345.000000	4.453587
346.000000	4.437207
347.000000	4.429836
348.000000	4.434125
349.000000	4.463986
350.000000	4.499254
351.000000	4.535014
352.000000	4.553103
353.000000	4.598943
354.000000	4.577333
355.000000	4.643619
356.000000	4.706400
357.000000	4.683601
358.000000	4.686753
359.000000	4.771825
360.000000	4.901711
361.000000	4.828938
362.000000	4.904062
363.000000	4.956348
364.000000	5.016051
365.000000	5.065141
366.000000	5.138476
367.000000	5.208263
368.000000	5.269491
369.000000	5.338906
370.000000	5.428210
371.000000	5.462561
372.000000	5.516558
373.000000	5.602607
374.000000	5.642586
375.000000	5.835745
376.000000	6.110354
377.000000	6.198259
378.000000	6.317029
379.000000	6.461842
380.000000	6.595012
381.000000	6.743611
382.000000	6.893600
383.000000	7.035405
384.000000	7.190810
385.000000	7.360210
386.000000	7.501894
387.000000	7.660651
388.000000	7.817549
389.000000	7.971424
390.000000	8.122131
391.000000	8.268639
392.000000	8.413702
393.000000	8.550382
394.000000	8.673814
395.000000	8.814214
396.000000	8.933181
397.000000	9.058617
398.000000	9.170857
399.000000	9.287843
400.000000	9.384056
401.000000	9.473278
402.000000	9.562590
403.000000	9.646018
404.000000	9.722103
405.000000	9.793858
406.000000	9.859045
407.000000	9.920373
408.000000	9.973405
409.000000	10.023432
410.000000	10.069357
411.000000	10.111500
412.000000	10.151094
413.000000	10.179040
414.000000	10.209219
415.000000	10.236439
416.000000	10.253564
417.000000	10.259259
418.000000	10.274755
419.000000	10.283184
420.000000	10.288175
421.000000	10.290935
422.000000	10.293928
423.000000	10.298436
424.000000	10.300556
425.000000	10.303529
426.000000	10.312368
427.000000	10.327813
428.000000	10.335138
429.000000	10.358042
430.000000	10.399845
431.000000	10.441451
432.000000	10.490441
433.000000	10.543518
434.000000	10.614493
435.000000	10.701253
436.000000	10.809103
437.000000	10.918957
438.000000	11.029714
439.000000	11.175304
440.000000	11.312029
441.000000	11.461067
442.000000	11.625555
443.000000	11.809263
444.000000	12.013293
445.000000	12.191783
446.000000	12.368075
447.000000	12.558145
448.000000	12.743192
449.000000	12.946448
450.000000	13.132870
451.000000	13.315332
452.000000	13.492197
453.000000	13.679126
454.000000	13.842124
455.000000	13.994093
456.000000	14.150211
457.000000	14.290601
458.000000	14.443016
459.000000	14.566596
460.000000	14.701291
461.000000	14.843475
462.000000	14.976069
463.000000	15.097671
464.000000	15.236489
465.000000	15.372652
466.000000	15.505890
467.000000	15.643638
468.000000	15.795414
469.000000	15.949422
470.000000	16.106855
471.000000	16.271996
472.000000	16.460321
473.000000	16.641212
474.000000	16.837095
475.000000	17.033904
476.000000	17.238390
477.000000	17.453648
478.000000	17.675501
479.000000	17.900269
480.000000	18.144139
481.000000	18.409177
482.000000	18.703132
483.000000	18.981753
484.000000	19.259380
485.000000	19.516701
486.000000	19.788436
487.000000	20.066178
488.000000	20.348290
489.000000	20.651658
490.000000	20.947359
491.000000	21.267830
492.000000	21.560090
493.000000	21.856985
494.000000	22.156353
495.000000	22.472909
496.000000	22.810252
497.000000	23.113247
498.000000	23.431751
499.000000	23.759106
500.000000	24.103963
501.000000	24.452095
502.000000	24.790872
503.000000	25.153631
504.000000	25.515878
505.000000	25.881915
506.000000	26.265359
507.000000	26.647127
508.000000	27.047191
509.000000	27.466316
510.000000	27.905490
511.000000	28.348181
512.000000	28.808291
513.000000	29.280828
514.000000	29.757367
515.000000	30.227760
516.000000	30.708617
517.000000	31.201047
518.000000	31.694731
519.000000	32.204238
520.000000	32.714833
521.000000	33.230282
522.000000	33.762337
523.000000	34.274881
524.000000	34.796318
525.000000	35.326037
526.000000	35.852126
527.000000	36.364642
528.000000	36.864367
529.000000	37.359620
530.000000	37.876092
531.000000	38.362440
532.000000	38.849249
533.000000	39.340919
534.000000	39.812409
535.000000	40.260730
536.000000	40.696122
537.000000	41.098375
538.000000	41.486867
539.000000	41.842388
540.000000	42.185096
541.000000	42.497203
542.000000	42.799390
543.000000	43.061635
544.000000	43.310947
545.000000	43.534741
546.000000	43.736107
547.000000	43.932019
548.000000	44.086424
549.000000	44.219623
550.000000	44.345476
551.000000	44.474039
552.000000	44.560113
553.000000	44.625281
554.000000	44.666772
555.000000	44.722517
556.000000	44.765973
557.000000	44.801943
558.000000	44.781099
559.000000	44.747752
560.000000	44.640283
561.000000	44.626703
562.000000	44.582342
563.000000	44.550186
564.000000	44.511840
565.000000	44.466740
566.000000	44.426580
567.000000	44.371570
568.000000	44.311530
569.000000	44.236462
570.000000	44.158734
571.000000	44.079320
572.000000	43.994526
573.000000	43.915207
574.000000	43.826733
575.000000	43.749816
576.000000	43.638240
577.000000	43.539466
578.000000	43.452939
579.000000	43.336162
580.000000	43.215987
581.000000	43.079230
582.000000	42.972705
583.000000	42.841494
584.000000	42.701960
585.000000	42.578117
586.000000	42.429697
587.000000	42.328140
588.000000	42.207811
589.000000	42.093233
590.000000	41.962766
591.000000	41.850446
592.000000	41.737530
593.000000	41.607716
594.000000	41.507228
595.000000	41.372707
596.000000	41.225865
597.000000	41.067771
598.000000	40.905644
599.000000	40.755939
600.000000	40.563467
601.000000	40.388156
602.000000	40.192333
603.000000	39.980772
604.000000	39.786980
605.000000	39.583384
606.000000	39.399183
607.000000	39.205691
608.000000	39.005247
609.000000	38.839000
610.000000	38.649409
611.000000	38.462003
612.000000	38.273614
613.000000	38.090705
614.000000	37.930673
615.000000	37.764399
616.000000	37.601210
617.000000	37.429476
618.000000	37.283670
619.000000	37.135926
620.000000	36.984057
621.000000	36.861618
622.000000	36.741320
623.000000	36.628664
624.000000	36.525323
625.000000	36.446418
626.000000	36.400017
627.000000	36.380563
628.000000	36.360985
629.000000	36.369544
630.000000	36.387304
631.000000	36.431770
632.000000	36.498538
633.000000	36.572601
634.000000	36.683771
635.000000	36.807702
636.000000	36.930859
637.000000	37.080670
638.000000	37.254497
639.000000	37.417463
640.000000	37.592228
641.000000	37.783676
642.000000	37.988824
643.000000	38.177878
644.000000	38.370389
645.000000	38.565426
646.000000	38.777525
647.000000	38.977224
648.000000	39.146809
649.000000	39.344251
650.000000	39.534080
651.000000	39.709360
652.000000	39.893944
653.000000	40.061327
654.000000	40.227221
655.000000	40.381790
656.000000	40.534841
657.000000	40.670048
658.000000	40.808320
659.000000	40.922231
660.000000	41.060971
661.000000	41.173349
662.000000	41.261287
663.000000	41.361602
664.000000	41.456665
665.000000	41.546565
666.000000	41.639331
667.000000	41.707955
668.000000	41.784735
669.000000	41.855921
670.000000	41.920292
671.000000	42.003621
672.000000	42.062412
673.000000	42.125702
674.000000	42.181750
675.000000	42.242688
676.000000	42.309915
677.000000	42.381947
678.000000	42.460955
679.000000	42.513790
680.000000	42.578126
681.000000	42.647201
682.000000	42.726393
683.000000	42.792871
684.000000	42.859100
685.000000	42.958419
686.000000	43.019400
687.000000	43.080319
688.000000	43.160448
689.000000	43.274975
690.000000	43.375700
691.000000	43.456736
692.000000	43.556608
693.000000	43.676868
694.000000	43.781583
695.000000	43.912507
696.000000	44.052719
697.000000	44.171436
698.000000	44.275224
699.000000	44.397295
700.000000	44.521380
701.000000	44.650870
702.000000	44.771385
703.000000	44.900535
704.000000	45.025620
705.000000	45.149332
706.000000	45.272240
707.000000	45.391779
708.000000	45.490331
709.000000	45.607809
710.000000	45.728611
711.000000	45.839941
712.000000	45.957823
713.000000	46.029573
714.000000	46.117107
715.000000	46.251094
716.000000	46.357387
717.000000	46.432557
718.000000	46.515545
719.000000	46.616932
720.000000	46.668909
721.000000	46.736966
722.000000	46.844189
723.000000	46.935564
724.000000	46.988854
725.000000	47.060198
726.000000	47.119139
727.000000	47.181588
728.000000	47.255503
729.000000	47.326197
730.000000	47.417144
731.000000	47.485736
732.000000	47.546952
733.000000	47.654171
734.000000	47.710459
735.000000	47.783773
736.000000	47.848701
737.000000	47.918674
738.000000	47.986761
739.000000	48.041254
740.000000	48.133721
741.000000	48.227256
742.000000	48.296299
743.000000	48.359536
744.000000	48.430604
745.000000	48.536874
746.000000	48.577761
747.000000	48.662275
748.000000	48.761299
749.000000	48.834759
750.000000	48.947028
751.000000	49.039135
752.000000	49.124959
753.000000	49.207958
754.000000	49.290904
755.000000	49.402896
756.000000	49.496663
757.000000	49.591816
758.000000	49.680097
759.000000	49.805231
760.000000	49.899510
761.000000	50.037251
762.000000	50.098041
763.000000	50.187887
764.000000	50.278346
765.000000	50.365073
766.000000	50.455111
767.000000	50.583232
768.000000	50.663203
769.000000	50.756123
770.000000	50.863020
771.000000	50.983599
772.000000	51.054255
773.000000	51.177246
774.000000	51.283001
775.000000	51.356079
776.000000	51.417587
777.000000	51.483912
778.000000	51.614778
779.000000	51.662562
780.000000	51.729284
781.000000	51.804208
782.000000	51.857637
783.000000	51.905896
784.000000	51.993966
785.000000	52.063627
786.000000	52.218116
787.000000	52.237280
788.000000	52.243824
789.000000	52.346795
790.000000	52.406795
791.000000	52.471765
792.000000	52.546851
793.000000	52.598111
794.000000	52.660691
795.000000	52.706057
796.000000	52.755092
797.000000	52.836079
798.000000	52.847829
799.000000	52.934140
800.000000	52.966821
801.000000	53.012424
802.000000	53.113021
803.000000	53.153730
804.000000	53.250355
805.000000	53.297943
806.000000	53.283093
807.000000	53.332498
808.000000	53.346947
809.000000	53.489185
810.000000	53.599803
811.000000	53.592561
812.000000	53.648008
813.000000	53.698748
814.000000	53.702984
815.000000	53.811182
816.000000	53.919012
817.000000	53.922651
818.000000	53.921733
819.000000	53.949198
820.000000	54.052984
821.000000	54.107187
822.000000	54.167438
823.000000	54.186171
824.000000	54.099585
825.000000	54.258790
826.000000	54.234268
827.000000	54.280789
828.000000	54.230040
829.000000	54.267838
830.000000	54.238300
831.000000	54.287688
832.000000	54.274530
833.000000	54.306774
834.000000	54.280381
835.000000	54.330543
836.000000	54.311875
837.000000	54.230171
838.000000	54.247116
839.000000	54.268397
840.000000	54.424313
841.000000	54.270904
842.000000	54.245352
843.000000	54.383857
844.000000	54.306558
845.000000	54.095179
846.000000	54.186716
847.000000	53.916976
848.000000	53.959219
849.000000	53.957781
850.000000	53.945937
851.000000	53.957307
852.000000	54.024301
853.000000	54.008987
854.000000	53.814469
855.000000	53.942610
856.000000	53.942306
857.000000	54.067433
858.000000	54.097633
859.000000	53.586933
860.000000	54.217533
861.000000	54.240033
862.000000	53.855600
863.000000	54.077967
864.000000	54.442633
865.000000	53.942800
866.000000	54.005200
867.000000	54.369600
868.000000	54.426633
869.000000	54.424733
870.000000	54.160167
871.000000	54.146567
872.000000	54.008433
873.000000	54.436567
874.000000	54.255700
875.000000	54.135700
876.000000	54.342767
877.000000	54.374167
878.000000	54.273000
879.000000	54.344567
880.000000	54.280167
881.000000	54.299833
882.000000	54.306433
883.000000	54.359567
884.000000	54.564900
885.000000	54.535600
886.000000	54.209967
887.000000	54.342867
888.000000	54.346933
889.000000	54.302833
890.000000	54.418100
891.000000	54.244700
892.000000	54.314167
893.000000	54.308267
894.000000	54.394167
895.000000	54.343500
896.000000	54.359633
897.000000	54.326367
898.000000	54.323767
899.000000	54.237600
900.000000	54.170633
901.000000	54.383800
902.000000	54.307767
903.000000	54.282167
904.000000	54.267400
905.000000	54.235500
906.000000	54.255200
907.000000	54.267100
908.000000	54.283900
909.000000	54.328467
910.000000	54.302600
911.000000	54.324733
912.000000	54.300433
913.000000	54.283900
914.000000	54.283733
915.000000	54.360967
916.000000	54.506000
917.000000	54.496967
918.000000	54.512033
919.000000	54.576367
920.000000	54.615500
921.000000	54.616467
922.000000	54.600067
923.000000	54.681133
924.000000	54.697567
925.000000	54.698233
926.000000	54.724767
927.000000	54.808700
928.000000	54.885633
929.000000	54.939300
930.000000	54.949767
931.000000	54.937833
932.000000	54.967800
933.000000	55.075200
934.000000	55.090267
935.000000	55.098333
936.000000	55.139633
937.000000	55.123333
938.000000	55.165133
939.000000	55.199900
940.000000	55.246000
941.000000	55.273233
942.000000	55.303000
943.000000	55.339967
944.000000	55.349733
945.000000	55.335367
946.000000	55.389133
947.000000	55.432167
948.000000	55.481367
949.000000	55.508967
950.000000	55.544800
951.000000	55.597567
952.000000	55.555867
953.000000	55.547667
954.000000	55.577733
955.000000	55.614533
956.000000	55.670500
957.000000	55.664733
958.000000	55.670300
959.000000	55.679033
960.000000	55.689800
961.000000	55.710333
962.000000	55.755133
963.000000	55.774667
964.000000	55.863167
965.000000	55.868333
966.000000	55.887200
967.000000	55.911600
968.000000	55.943533
969.000000	55.970267
970.000000	56.022900
971.000000	56.075600
972.000000	56.106200
973.000000	56.183800
974.000000	56.192833
975.000000	56.218200
976.000000	56.282467
977.000000	56.298733
978.000000	56.319767
979.000000	56.410433
980.000000	56.414900
981.000000	56.456333
982.000000	56.532433
983.000000	56.599767
984.000000	56.628967
985.000000	56.674200
986.000000	56.703500
987.000000	56.717100
988.000000	56.769467
989.000000	56.814433
990.000000	56.882600
991.000000	56.945467
992.000000	56.970500
993.000000	57.009167
994.000000	57.057700
995.000000	57.116167
996.000000	57.149067
997.000000	57.169667
998.000000	57.224267
999.000000	57.274300
1000.000000	57.312333
1001.000000	57.336467
1002.000000	57.367533
1003.000000	57.416800
1004.000000	57.470233
1005.000000	57.531967
1006.000000	57.559933
1007.000000	57.592367
1008.000000	57.643700
1009.000000	57.670233
1010.000000	57.700100
1011.000000	57.720733
1012.000000	57.768100
1013.000000	57.785767
1014.000000	57.840933
1015.000000	57.888733
1016.000000	57.891733
1017.000000	57.970400
1018.000000	58.009967
1019.000000	58.024400
1020.000000	58.074000
1021.000000	58.108433
1022.000000	58.131400
1023.000000	58.180267
1024.000000	58.203367
1025.000000	58.234000
1026.000000	58.277000
1027.000000	58.327200
1028.000000	58.380367
1029.000000	58.421933
1030.000000	58.471833
1031.000000	58.493767
1032.000000	58.512067
1033.000000	58.546600
1034.000000	58.606600
1035.000000	58.641267
1036.000000	58.714633
1037.000000	58.738000
1038.000000	58.746400
1039.000000	58.767567
1040.000000	58.802733
1041.000000	58.845400
1042.000000	58.899533
1043.000000	58.918233
1044.000000	58.957267
1045.000000	58.980733
1046.000000	59.035400
1047.000000	59.065867
1048.000000	59.087400
1049.000000	59.154500
1050.000000	59.180100
1051.000000	59.221133
1052.000000	59.279033
1053.000000	59.304267
1054.000000	59.354767
1055.000000	59.402867
1056.000000	59.407100
1057.000000	59.440900
1058.000000	59.496500
1059.000000	59.563067
1060.000000	59.605933
1061.000000	59.619600
1062.000000	59.683000
1063.000000	59.701733
1064.000000	59.773133
1065.000000	59.792067
1066.000000	59.858967
1067.000000	59.876733
1068.000000	59.921733
1069.000000	59.981533
1070.000000	60.009567
1071.000000	60.059533
1072.000000	60.082533
1073.000000	60.126800
1074.000000	60.178967
1075.000000	60.218500
1076.000000	60.271300
1077.000000	60.283267
1078.000000	60.327833
1079.000000	60.371267
1080.000000	60.405533
1081.000000	60.447433
1082.000000	60.477133
1083.000000	60.500067
1084.000000	60.547133
1085.000000	60.580367
1086.000000	60.624800
1087.000000	60.652800
1088.000000	60.705967
1089.000000	60.718067
1090.000000	60.751300
1091.000000	60.766767
1092.000000	60.790433
1093.000000	60.841233
1094.000000	60.844600
1095.000000	60.869400
1096.000000	60.896433
1097.000000	60.894633
1098.000000	60.933600
1099.000000	60.960967
1100.000000	60.983200
1101.000000	61.002067
1102.000000	61.024767
1103.000000	61.026300
1104.000000	61.038000
1105.000000	61.052967
1106.000000	61.093767
1107.000000	61.103900
1108.000000	61.116300
1109.000000	61.120000
1110.000000	61.132067
1111.000000	61.153667
1112.000000	61.168400
1113.000000	61.170700
1114.000000	61.191133
1115.000000	61.197500
1116.000000	61.218233
1117.000000	61.222167
1118.000000	61.236667
1119.000000	61.248300
1120.000000	61.241167
1121.000000	61.233967
1122.000000	61.253800
1123.000000	61.263667
1124.000000	61.251667
1125.000000	61.221400
1126.000000	61.208133
1127.000000	61.162900
1128.000000	61.137833
1129.000000	61.109733
1130.000000	61.057800
1131.000000	60.997400
1132.000000	60.945433
1133.000000	60.890533
1134.000000	60.889033
1135.000000	60.867967
1136.000000	60.754033
1137.000000	60.657900
1138.000000	60.591867
1139.000000	60.519000
1140.000000	60.454833
1141.000000	60.410700
1142.000000	60.348767
1143.000000	60.294333
1144.000000	60.263867
1145.000000	60.231667
1146.000000	60.190900
1147.000000	60.157000
1148.000000	60.092000
1149.000000	60.053733
1150.000000	60.015633
1151.000000	59.961867
1152.000000	59.930500
1153.000000	59.894967
1154.000000	59.817767
1155.000000	59.769867
1156.000000	59.709533
1157.000000	59.655467
1158.000000	59.571833
1159.000000	59.487833
1160.000000	59.400933
1161.000000	59.307267
1162.000000	59.236667
1163.000000	59.153967
1164.000000	59.062667
1165.000000	58.978133
1166.000000	58.891267
1167.000000	58.806167
