PE UV       SUBTECH     SPECTRUM    ASCII       PEDS        4.00        
   -1
CICIMAUCR0097-3.Sample.ASC
24/04/18
13:31:23.00
24/04/18
13:31:23.00
Vinicio Soto Monge
C. kalinini
250,000000
1
Lambda 1050
1050L1511233
PerkinElmer UV WinLab 6.3.2.0749 / 2.02.05 Lambda 900 UV/VIS/NIR, Aug  7 2015 09:38:08

0
0
3350/servo 860,8/2
0
0
UV/VIS
1
1
1
DoubleDePol,CommonBeamDepol,RBeamAtt,SBeamAtt,60mm sphere, WB InGaAs Detector
0
0
0
0
Program
Program
3350/servo 860,8/2
3350/0,2 860,8/0,2
3350/0,2 860,8/0,2
0
15.00
 
 
 
0
 
860,8
319,2
860,8
Front
100
on
S:100 R:100
0
0
0
0
 
0
 
 
 
0
 
 
0
0
0
0
0
 
 
 
 
0
0


0
0
#HDR
-1
-1
#GR
nm
%R
1.0
0.0
2500,000000
-1,000000
2251
8
97,988000
5,671400
#DATA
250.000000	5.353328
251.000000	5.330548
252.000000	5.327408
253.000000	5.325602
254.000000	5.290053
255.000000	5.290606
256.000000	5.283591
257.000000	5.294156
258.000000	5.278946
259.000000	5.237836
260.000000	5.217449
261.000000	5.195500
262.000000	5.152213
263.000000	5.153211
264.000000	5.135858
265.000000	5.136100
266.000000	5.133060
267.000000	5.066613
268.000000	5.039544
269.000000	5.017809
270.000000	4.995779
271.000000	5.019640
272.000000	4.984187
273.000000	4.965522
274.000000	4.940793
275.000000	4.931863
276.000000	4.949127
277.000000	4.896155
278.000000	4.876069
279.000000	4.879327
280.000000	4.891995
281.000000	4.874764
282.000000	4.849344
283.000000	4.869209
284.000000	4.848637
285.000000	4.837931
286.000000	4.819821
287.000000	4.832070
288.000000	4.833018
289.000000	4.818171
290.000000	4.811559
291.000000	4.807150
292.000000	4.788490
293.000000	4.820211
294.000000	4.791924
295.000000	4.791577
296.000000	4.811444
297.000000	4.823855
298.000000	4.799608
299.000000	4.794236
300.000000	4.797784
301.000000	4.769538
302.000000	4.752352
303.000000	4.767959
304.000000	4.797786
305.000000	4.773343
306.000000	4.785812
307.000000	4.760202
308.000000	4.766686
309.000000	4.748989
310.000000	4.744339
311.000000	4.762172
312.000000	4.744917
313.000000	4.788857
314.000000	4.749034
315.000000	4.758209
316.000000	4.800837
317.000000	5.027430
318.000000	4.906359
319.000000	4.890054
320.000000	4.868779
321.000000	4.948618
322.000000	4.894292
323.000000	4.979521
324.000000	4.871534
325.000000	4.722038
326.000000	4.815779
327.000000	4.965603
328.000000	4.852742
329.000000	4.833608
330.000000	4.863475
331.000000	4.910711
332.000000	4.853662
333.000000	4.910769
334.000000	4.858309
335.000000	4.857341
336.000000	4.917171
337.000000	4.949148
338.000000	4.900816
339.000000	4.927705
340.000000	5.122570
341.000000	4.927285
342.000000	4.878187
343.000000	4.919921
344.000000	4.938076
345.000000	4.897488
346.000000	4.904139
347.000000	4.936237
348.000000	4.870892
349.000000	4.905560
350.000000	4.968768
351.000000	4.946997
352.000000	4.986176
353.000000	5.004304
354.000000	5.079618
355.000000	5.090544
356.000000	5.061498
357.000000	5.087621
358.000000	5.070451
359.000000	5.111687
360.000000	5.172406
361.000000	5.141269
362.000000	5.167101
363.000000	5.211121
364.000000	5.205564
365.000000	5.239394
366.000000	5.199617
367.000000	5.210622
368.000000	5.248201
369.000000	5.304520
370.000000	5.280777
371.000000	5.293300
372.000000	5.348965
373.000000	5.388719
374.000000	5.390247
375.000000	5.413020
376.000000	5.485695
377.000000	5.406177
378.000000	5.434072
379.000000	5.474631
380.000000	5.510042
381.000000	5.540827
382.000000	5.572476
383.000000	5.615619
384.000000	5.664530
385.000000	5.700369
386.000000	5.736318
387.000000	5.786910
388.000000	5.838779
389.000000	5.886288
390.000000	5.938088
391.000000	5.990936
392.000000	6.050739
393.000000	6.123053
394.000000	6.193681
395.000000	6.275392
396.000000	6.368035
397.000000	6.452972
398.000000	6.537766
399.000000	6.635384
400.000000	6.746051
401.000000	6.861414
402.000000	6.983061
403.000000	7.117027
404.000000	7.257045
405.000000	7.405513
406.000000	7.567203
407.000000	7.738701
408.000000	7.918161
409.000000	8.108334
410.000000	8.313392
411.000000	8.532888
412.000000	8.761777
413.000000	9.002990
414.000000	9.255607
415.000000	9.522029
416.000000	9.796916
417.000000	10.082418
418.000000	10.383959
419.000000	10.690101
420.000000	11.009992
421.000000	11.344575
422.000000	11.691037
423.000000	12.042451
424.000000	12.402139
425.000000	12.764009
426.000000	13.127512
427.000000	13.493526
428.000000	13.863665
429.000000	14.234648
430.000000	14.607723
431.000000	14.994851
432.000000	15.372002
433.000000	15.742766
434.000000	16.116866
435.000000	16.484925
436.000000	16.840816
437.000000	17.190632
438.000000	17.533931
439.000000	17.872041
440.000000	18.204447
441.000000	18.531582
442.000000	18.853171
443.000000	19.159450
444.000000	19.456153
445.000000	19.744434
446.000000	20.024550
447.000000	20.291494
448.000000	20.545669
449.000000	20.789919
450.000000	21.026755
451.000000	21.250339
452.000000	21.472423
453.000000	21.684198
454.000000	21.876915
455.000000	22.065238
456.000000	22.244411
457.000000	22.409044
458.000000	22.568867
459.000000	22.724840
460.000000	22.869113
461.000000	23.002988
462.000000	23.129048
463.000000	23.249064
464.000000	23.358563
465.000000	23.464994
466.000000	23.557611
467.000000	23.642627
468.000000	23.716105
469.000000	23.774394
470.000000	23.834621
471.000000	23.886557
472.000000	23.921769
473.000000	23.951483
474.000000	23.972637
475.000000	23.979549
476.000000	23.970026
477.000000	23.961918
478.000000	23.950769
479.000000	23.923601
480.000000	23.903926
481.000000	23.879016
482.000000	23.846491
483.000000	23.799180
484.000000	23.741789
485.000000	23.681104
486.000000	23.637796
487.000000	23.592386
488.000000	23.536758
489.000000	23.491454
490.000000	23.465449
491.000000	23.446870
492.000000	23.444681
493.000000	23.449623
494.000000	23.478685
495.000000	23.525143
496.000000	23.603842
497.000000	23.704825
498.000000	23.820389
499.000000	23.983180
500.000000	24.190300
501.000000	24.411913
502.000000	24.671299
503.000000	24.956441
504.000000	25.285713
505.000000	25.639779
506.000000	26.010425
507.000000	26.416833
508.000000	26.843461
509.000000	27.295543
510.000000	27.767616
511.000000	28.259916
512.000000	28.770575
513.000000	29.295218
514.000000	29.831100
515.000000	30.368451
516.000000	30.918341
517.000000	31.479397
518.000000	32.045071
519.000000	32.598097
520.000000	33.176662
521.000000	33.757352
522.000000	34.343639
523.000000	34.941584
524.000000	35.546873
525.000000	36.147147
526.000000	36.734871
527.000000	37.335884
528.000000	37.934512
529.000000	38.540032
530.000000	39.151820
531.000000	39.757091
532.000000	40.362017
533.000000	40.971948
534.000000	41.580078
535.000000	42.191615
536.000000	42.793571
537.000000	43.393879
538.000000	43.991695
539.000000	44.588802
540.000000	45.199243
541.000000	45.795668
542.000000	46.385941
543.000000	46.981901
544.000000	47.577762
545.000000	48.152983
546.000000	48.721851
547.000000	49.277492
548.000000	49.838759
549.000000	50.376515
550.000000	50.899424
551.000000	51.425357
552.000000	51.919598
553.000000	52.424565
554.000000	52.893686
555.000000	53.373882
556.000000	53.830959
557.000000	54.278106
558.000000	54.688152
559.000000	55.105532
560.000000	55.498079
561.000000	55.874620
562.000000	56.252168
563.000000	56.633933
564.000000	56.966424
565.000000	57.307138
566.000000	57.641911
567.000000	57.947593
568.000000	58.264255
569.000000	58.545372
570.000000	58.816867
571.000000	59.096213
572.000000	59.361551
573.000000	59.621188
574.000000	59.835412
575.000000	60.061532
576.000000	60.245510
577.000000	60.446050
578.000000	60.632798
579.000000	60.815531
580.000000	60.974414
581.000000	61.145192
582.000000	61.323297
583.000000	61.470450
584.000000	61.612203
585.000000	61.712654
586.000000	61.848363
587.000000	61.979397
588.000000	62.075395
589.000000	62.181946
590.000000	62.288945
591.000000	62.349612
592.000000	62.447197
593.000000	62.451625
594.000000	62.509666
595.000000	62.549764
596.000000	62.576910
597.000000	62.565515
598.000000	62.561951
599.000000	62.501220
600.000000	62.465621
601.000000	62.409947
602.000000	62.297367
603.000000	62.189554
604.000000	62.061896
605.000000	61.910908
606.000000	61.761704
607.000000	61.556475
608.000000	61.361454
609.000000	61.140665
610.000000	60.901012
611.000000	60.673864
612.000000	60.401124
613.000000	60.148404
614.000000	59.843373
615.000000	59.535456
616.000000	59.277997
617.000000	58.951657
618.000000	58.664539
619.000000	58.351351
620.000000	58.032842
621.000000	57.707948
622.000000	57.388336
623.000000	57.045953
624.000000	56.704066
625.000000	56.392541
626.000000	56.034021
627.000000	55.690116
628.000000	55.320756
629.000000	54.960664
630.000000	54.605630
631.000000	54.291590
632.000000	53.949649
633.000000	53.612181
634.000000	53.295320
635.000000	53.012164
636.000000	52.725135
637.000000	52.492052
638.000000	52.280289
639.000000	52.073443
640.000000	51.918409
641.000000	51.816140
642.000000	51.705895
643.000000	51.662887
644.000000	51.633547
645.000000	51.636502
646.000000	51.685691
647.000000	51.726443
648.000000	51.828636
649.000000	51.938498
650.000000	52.056996
651.000000	52.177702
652.000000	52.323688
653.000000	52.439712
654.000000	52.589298
655.000000	52.745670
656.000000	52.876795
657.000000	53.039643
658.000000	53.188119
659.000000	53.341669
660.000000	53.478063
661.000000	53.623610
662.000000	53.794568
663.000000	53.965301
664.000000	54.122571
665.000000	54.278022
666.000000	54.458868
667.000000	54.651522
668.000000	54.829855
669.000000	55.021680
670.000000	55.208445
671.000000	55.430950
672.000000	55.646080
673.000000	55.860723
674.000000	56.051695
675.000000	56.269313
676.000000	56.482948
677.000000	56.682928
678.000000	56.900509
679.000000	57.077533
680.000000	57.291758
681.000000	57.485343
682.000000	57.668972
683.000000	57.868034
684.000000	58.096435
685.000000	58.307396
686.000000	58.493117
687.000000	58.720082
688.000000	58.921176
689.000000	59.131322
690.000000	59.368481
691.000000	59.633233
692.000000	59.882096
693.000000	60.132403
694.000000	60.424040
695.000000	60.711314
696.000000	60.978817
697.000000	61.255502
698.000000	61.547521
699.000000	61.847988
700.000000	62.143389
701.000000	62.440095
702.000000	62.793225
703.000000	63.136964
704.000000	63.440990
705.000000	63.778795
706.000000	64.083679
707.000000	64.392150
708.000000	64.738724
709.000000	65.092747
710.000000	65.447469
711.000000	65.776598
712.000000	66.125697
713.000000	66.470928
714.000000	66.849665
715.000000	67.247629
716.000000	67.624211
717.000000	67.949617
718.000000	68.336028
719.000000	68.753383
720.000000	69.147616
721.000000	69.582988
722.000000	69.989144
723.000000	70.402297
724.000000	70.853002
725.000000	71.301865
726.000000	71.715782
727.000000	72.070019
728.000000	72.491609
729.000000	72.914064
730.000000	73.308329
731.000000	73.744684
732.000000	74.158033
733.000000	74.539537
734.000000	74.909289
735.000000	75.268388
736.000000	75.609100
737.000000	75.980304
738.000000	76.338515
739.000000	76.651989
740.000000	76.938482
741.000000	77.226617
742.000000	77.528555
743.000000	77.780334
744.000000	78.021522
745.000000	78.277839
746.000000	78.518490
747.000000	78.747901
748.000000	78.979336
749.000000	79.190359
750.000000	79.356261
751.000000	79.517697
752.000000	79.706878
753.000000	79.884804
754.000000	80.045641
755.000000	80.218669
756.000000	80.345693
757.000000	80.446940
758.000000	80.607905
759.000000	80.741537
760.000000	80.805185
761.000000	80.905100
762.000000	81.023731
763.000000	81.108530
764.000000	81.167280
765.000000	81.170186
766.000000	81.184139
767.000000	81.230530
768.000000	81.260164
769.000000	81.271606
770.000000	81.327403
771.000000	81.390777
772.000000	81.403732
773.000000	81.398799
774.000000	81.440477
775.000000	81.434714
776.000000	81.447393
777.000000	81.487945
778.000000	81.508144
779.000000	81.554470
780.000000	81.647807
781.000000	81.698932
782.000000	81.713269
783.000000	81.747007
784.000000	81.786349
785.000000	81.838923
786.000000	81.875649
787.000000	81.913632
788.000000	81.976244
789.000000	81.995402
790.000000	82.031158
791.000000	82.082794
792.000000	82.039563
793.000000	82.134632
794.000000	82.167146
795.000000	82.142645
796.000000	82.238888
797.000000	82.225676
798.000000	82.232420
799.000000	82.304015
800.000000	82.325634
801.000000	82.326528
802.000000	82.438663
803.000000	82.512479
804.000000	82.469979
805.000000	82.466192
806.000000	82.477228
807.000000	82.456487
808.000000	82.467303
809.000000	82.498601
810.000000	82.423610
811.000000	82.422025
812.000000	82.413228
813.000000	82.446118
814.000000	82.495919
815.000000	82.456255
816.000000	82.342486
817.000000	82.420757
818.000000	82.318319
819.000000	82.293550
820.000000	82.228851
821.000000	82.112023
822.000000	81.991317
823.000000	82.024346
824.000000	81.960807
825.000000	81.843261
826.000000	81.647148
827.000000	81.551655
828.000000	81.320019
829.000000	81.263792
830.000000	81.128641
831.000000	80.956812
832.000000	80.833759
833.000000	80.729289
834.000000	80.406930
835.000000	80.237772
836.000000	79.948120
837.000000	79.802405
838.000000	79.627633
839.000000	79.346096
840.000000	78.994523
841.000000	78.915183
842.000000	78.706279
843.000000	78.326943
844.000000	77.933253
845.000000	77.644774
846.000000	77.404697
847.000000	77.214248
848.000000	76.980291
849.000000	76.511995
850.000000	76.160160
851.000000	75.848115
852.000000	75.475969
853.000000	75.349274
854.000000	74.898427
855.000000	74.424242
856.000000	74.294651
857.000000	73.923013
858.000000	74.738767
859.000000	73.668700
860.000000	73.735867
861.000000	73.796433
862.000000	73.879233
863.000000	73.880267
864.000000	73.841633
865.000000	73.795233
866.000000	73.747467
867.000000	73.681667
868.000000	73.613300
869.000000	73.549533
870.000000	73.483233
871.000000	73.366033
872.000000	73.317133
873.000000	73.186133
874.000000	73.111167
875.000000	73.014833
876.000000	72.924300
877.000000	72.823367
878.000000	72.670300
879.000000	72.519833
880.000000	72.401533
881.000000	72.251700
882.000000	72.156267
883.000000	72.048667
884.000000	71.903133
885.000000	71.786500
886.000000	71.636333
887.000000	71.493100
888.000000	71.339833
889.000000	71.223500
890.000000	71.082300
891.000000	70.953367
892.000000	70.802600
893.000000	70.694200
894.000000	70.563467
895.000000	70.418133
896.000000	70.276100
897.000000	70.138500
898.000000	70.024533
899.000000	69.869333
900.000000	69.731700
901.000000	69.602667
902.000000	69.478400
903.000000	69.334500
904.000000	69.204700
905.000000	69.065100
906.000000	68.965900
907.000000	68.839767
908.000000	68.694500
909.000000	68.555533
910.000000	68.452933
911.000000	68.289367
912.000000	68.164633
913.000000	68.048700
914.000000	67.938967
915.000000	67.821933
916.000000	67.664467
917.000000	67.534533
918.000000	67.421367
919.000000	67.274533
920.000000	67.148700
921.000000	67.001600
922.000000	66.871067
923.000000	66.733033
924.000000	66.574600
925.000000	66.449067
926.000000	66.307600
927.000000	66.171533
928.000000	66.012167
929.000000	65.879600
930.000000	65.718767
931.000000	65.593133
932.000000	65.413233
933.000000	65.276533
934.000000	65.120867
935.000000	64.951133
936.000000	64.770233
937.000000	64.607367
938.000000	64.441567
939.000000	64.286067
940.000000	64.137367
941.000000	63.945100
942.000000	63.777900
943.000000	63.614200
944.000000	63.426300
945.000000	63.279333
946.000000	63.103033
947.000000	62.921300
948.000000	62.764367
949.000000	62.592900
950.000000	62.435133
951.000000	62.256767
952.000000	62.071333
953.000000	61.899633
954.000000	61.750767
955.000000	61.580867
956.000000	61.412367
957.000000	61.230467
958.000000	61.052500
959.000000	60.888567
960.000000	60.720733
961.000000	60.546533
962.000000	60.362733
963.000000	60.181733
964.000000	60.023400
965.000000	59.851400
966.000000	59.656567
967.000000	59.469500
968.000000	59.306967
969.000000	59.133733
970.000000	58.940667
971.000000	58.773433
972.000000	58.598667
973.000000	58.421367
974.000000	58.255900
975.000000	58.069000
976.000000	57.884867
977.000000	57.707967
978.000000	57.541367
979.000000	57.363567
980.000000	57.175067
981.000000	56.987300
982.000000	56.819567
983.000000	56.644700
984.000000	56.463100
985.000000	56.289433
986.000000	56.126600
987.000000	55.958300
988.000000	55.778900
989.000000	55.591267
990.000000	55.427900
991.000000	55.264467
992.000000	55.101067
993.000000	54.936533
994.000000	54.773600
995.000000	54.610033
996.000000	54.450267
997.000000	54.302133
998.000000	54.152567
999.000000	54.000167
1000.000000	53.852767
1001.000000	53.708600
1002.000000	53.561067
1003.000000	53.406500
1004.000000	53.264067
1005.000000	53.129967
1006.000000	52.995400
1007.000000	52.864033
1008.000000	52.737433
1009.000000	52.610733
1010.000000	52.481200
1011.000000	52.353200
1012.000000	52.240400
1013.000000	52.130667
1014.000000	52.027900
1015.000000	51.919300
1016.000000	51.815667
1017.000000	51.720500
1018.000000	51.623633
1019.000000	51.528433
1020.000000	51.444900
1021.000000	51.369567
1022.000000	51.294333
1023.000000	51.222700
1024.000000	51.153600
1025.000000	51.091633
1026.000000	51.029933
1027.000000	50.967400
1028.000000	50.914333
1029.000000	50.870033
1030.000000	50.826800
1031.000000	50.789467
1032.000000	50.754467
1033.000000	50.713100
1034.000000	50.680733
1035.000000	50.665200
1036.000000	50.646833
1037.000000	50.622433
1038.000000	50.594600
1039.000000	50.574467
1040.000000	50.555333
1041.000000	50.544833
1042.000000	50.536100
1043.000000	50.529267
1044.000000	50.525867
1045.000000	50.520500
1046.000000	50.513733
1047.000000	50.512600
1048.000000	50.514433
1049.000000	50.513267
1050.000000	50.516600
1051.000000	50.528700
1052.000000	50.543767
1053.000000	50.555900
1054.000000	50.561933
1055.000000	50.579267
1056.000000	50.603733
1057.000000	50.630400
1058.000000	50.657433
1059.000000	50.675467
1060.000000	50.694767
1061.000000	50.719867
1062.000000	50.743500
1063.000000	50.769867
1064.000000	50.795533
1065.000000	50.826000
1066.000000	50.851567
1067.000000	50.877900
1068.000000	50.915967
1069.000000	50.955667
1070.000000	50.988667
1071.000000	51.029567
1072.000000	51.061367
1073.000000	51.094133
1074.000000	51.133233
1075.000000	51.170333
1076.000000	51.202333
1077.000000	51.232967
1078.000000	51.283133
1079.000000	51.321200
1080.000000	51.363600
1081.000000	51.405567
1082.000000	51.448933
1083.000000	51.486667
1084.000000	51.522200
1085.000000	51.574167
1086.000000	51.613200
1087.000000	51.661667
1088.000000	51.708633
1089.000000	51.745000
1090.000000	51.789267
1091.000000	51.838933
1092.000000	51.880533
1093.000000	51.929900
1094.000000	51.973833
1095.000000	52.018000
1096.000000	52.060733
1097.000000	52.103733
1098.000000	52.154200
1099.000000	52.199333
1100.000000	52.242033
1101.000000	52.276067
1102.000000	52.315300
1103.000000	52.363833
1104.000000	52.407633
1105.000000	52.438967
1106.000000	52.479433
1107.000000	52.528267
1108.000000	52.572033
1109.000000	52.614200
1110.000000	52.648800
1111.000000	52.686667
1112.000000	52.729200
1113.000000	52.768533
1114.000000	52.811033
1115.000000	52.847033
1116.000000	52.882067
1117.000000	52.924233
1118.000000	52.956600
1119.000000	52.990800
1120.000000	53.038067
1121.000000	53.068133
1122.000000	53.110233
1123.000000	53.129033
1124.000000	53.148633
1125.000000	53.164600
1126.000000	53.167967
1127.000000	53.180433
1128.000000	53.194867
1129.000000	53.204033
1130.000000	53.185267
1131.000000	53.158100
1132.000000	53.136533
1133.000000	53.122567
1134.000000	53.143267
1135.000000	53.099567
1136.000000	53.043900
1137.000000	52.985867
1138.000000	52.941233
1139.000000	52.897600
1140.000000	52.857867
1141.000000	52.821367
1142.000000	52.781100
1143.000000	52.756767
1144.000000	52.742900
1145.000000	52.726733
1146.000000	52.721067
1147.000000	52.726767
1148.000000	52.725600
1149.000000	52.738800
1150.000000	52.759500
1151.000000	52.790100
1152.000000	52.800667
1153.000000	52.806967
1154.000000	52.804733
1155.000000	52.782033
1156.000000	52.750633
1157.000000	52.704433
1158.000000	52.646767
1159.000000	52.593267
1160.000000	52.522200
1161.000000	52.455000
1162.000000	52.383100
1163.000000	52.310733
1164.000000	52.218800
1165.000000	52.124367
1166.000000	52.056200
1167.000000	51.985600
