PE UV       SUBTECH     SPECTRUM    ASCII       PEDS        4.00        
   -1
CICIMAUCR0116-3.Sample.ASC
24/04/11
14:13:42.00
24/04/11
14:13:42.00
Vinicio Soto Monge
C. kalinini
250,000000
1
Lambda 1050
1050L1511233
PerkinElmer UV WinLab 6.3.2.0749 / 2.02.05 Lambda 900 UV/VIS/NIR, Aug  7 2015 09:38:08

0
0
3350/2 860,8/2
0
0
UV/VIS
1
1
1
DoubleDePol,CommonBeamDepol,RBeamAtt,SBeamAtt,60mm sphere, WB InGaAs Detector
0
0
0
0
Program
Program
3350/2 860,8/2
3350/0,2 860,8/0,2
3350/0,2 860,8/0,2
0
15.00
 
 
 
0
 
860,8
319,2
860,8
Front
100
on
S:100 R:100
0
0
0
0
 
0
 
 
 
0
 
 
0
0
0
0
0
 
 
 
 
0
0


0
0
#HDR
-1
-1
#GR
nm
%R
1.0
0.0
2400,000000
-1,000000
2151
8
95,435400
5,183200
#DATA
250.000000	6.078253
251.000000	6.043541
252.000000	6.015865
253.000000	6.005318
254.000000	6.013430
255.000000	5.987328
256.000000	6.002051
257.000000	6.012671
258.000000	5.977171
259.000000	5.971004
260.000000	5.932021
261.000000	5.894165
262.000000	5.885170
263.000000	5.870164
264.000000	5.838481
265.000000	5.828068
266.000000	5.786769
267.000000	5.790512
268.000000	5.771842
269.000000	5.755016
270.000000	5.721711
271.000000	5.705785
272.000000	5.668558
273.000000	5.688383
274.000000	5.675685
275.000000	5.648198
276.000000	5.687950
277.000000	5.633442
278.000000	5.640230
279.000000	5.634009
280.000000	5.623621
281.000000	5.599113
282.000000	5.582114
283.000000	5.561050
284.000000	5.580077
285.000000	5.593715
286.000000	5.561358
287.000000	5.527786
288.000000	5.517832
289.000000	5.532230
290.000000	5.507569
291.000000	5.529166
292.000000	5.529336
293.000000	5.524260
294.000000	5.539994
295.000000	5.515692
296.000000	5.511910
297.000000	5.503792
298.000000	5.479826
299.000000	5.488875
300.000000	5.510220
301.000000	5.493166
302.000000	5.495739
303.000000	5.490253
304.000000	5.471907
305.000000	5.483213
306.000000	5.467367
307.000000	5.504745
308.000000	5.486793
309.000000	5.448640
310.000000	5.434540
311.000000	5.446095
312.000000	5.440891
313.000000	5.446667
314.000000	5.449522
315.000000	5.469700
316.000000	5.594229
317.000000	5.849724
318.000000	5.720093
319.000000	5.827289
320.000000	5.793507
321.000000	5.834581
322.000000	5.706363
323.000000	5.559418
324.000000	6.030158
325.000000	6.080638
326.000000	5.701815
327.000000	5.696073
328.000000	5.644050
329.000000	5.584322
330.000000	5.582594
331.000000	5.657913
332.000000	5.612343
333.000000	5.588764
334.000000	5.561298
335.000000	5.600221
336.000000	5.608048
337.000000	5.587076
338.000000	5.652446
339.000000	5.641648
340.000000	5.603830
341.000000	5.627090
342.000000	5.643788
343.000000	5.678545
344.000000	5.689599
345.000000	5.689175
346.000000	5.701654
347.000000	5.669712
348.000000	5.710389
349.000000	5.708945
350.000000	5.712556
351.000000	5.793599
352.000000	5.824367
353.000000	5.829264
354.000000	5.813368
355.000000	5.804777
356.000000	5.852835
357.000000	5.887283
358.000000	5.925811
359.000000	6.013387
360.000000	6.001354
361.000000	5.986172
362.000000	5.988194
363.000000	6.015614
364.000000	6.040483
365.000000	6.098198
366.000000	6.095129
367.000000	6.068965
368.000000	6.135282
369.000000	6.141810
370.000000	6.116440
371.000000	6.133391
372.000000	6.146078
373.000000	6.119889
374.000000	6.134034
375.000000	6.279158
376.000000	6.346737
377.000000	6.373307
378.000000	6.411320
379.000000	6.444437
380.000000	6.482042
381.000000	6.521193
382.000000	6.566947
383.000000	6.619099
384.000000	6.666806
385.000000	6.716844
386.000000	6.770570
387.000000	6.829777
388.000000	6.888626
389.000000	6.958470
390.000000	7.035005
391.000000	7.106838
392.000000	7.194671
393.000000	7.289729
394.000000	7.376362
395.000000	7.481512
396.000000	7.593148
397.000000	7.708660
398.000000	7.829987
399.000000	7.966488
400.000000	8.101003
401.000000	8.248224
402.000000	8.420673
403.000000	8.596261
404.000000	8.776750
405.000000	8.968722
406.000000	9.168232
407.000000	9.391945
408.000000	9.617105
409.000000	9.858830
410.000000	10.119544
411.000000	10.389434
412.000000	10.666975
413.000000	10.968202
414.000000	11.285538
415.000000	11.615259
416.000000	11.957600
417.000000	12.300659
418.000000	12.658939
419.000000	13.029716
420.000000	13.420013
421.000000	13.822538
422.000000	14.233182
423.000000	14.665903
424.000000	15.092096
425.000000	15.533410
426.000000	15.985074
427.000000	16.442606
428.000000	16.903895
429.000000	17.373573
430.000000	17.851249
431.000000	18.329264
432.000000	18.826608
433.000000	19.318831
434.000000	19.814975
435.000000	20.298861
436.000000	20.784001
437.000000	21.264963
438.000000	21.728140
439.000000	22.187413
440.000000	22.661924
441.000000	23.115775
442.000000	23.564914
443.000000	23.999789
444.000000	24.410936
445.000000	24.813993
446.000000	25.212142
447.000000	25.570392
448.000000	25.935174
449.000000	26.292685
450.000000	26.622971
451.000000	26.936064
452.000000	27.246964
453.000000	27.525898
454.000000	27.801322
455.000000	28.071261
456.000000	28.304350
457.000000	28.550752
458.000000	28.767596
459.000000	28.976307
460.000000	29.179624
461.000000	29.351032
462.000000	29.531551
463.000000	29.705704
464.000000	29.869017
465.000000	30.027703
466.000000	30.172507
467.000000	30.316796
468.000000	30.441633
469.000000	30.577161
470.000000	30.687064
471.000000	30.788155
472.000000	30.903190
473.000000	31.007829
474.000000	31.093853
475.000000	31.198773
476.000000	31.282429
477.000000	31.357793
478.000000	31.448064
479.000000	31.515076
480.000000	31.634290
481.000000	31.732847
482.000000	31.826568
483.000000	31.924541
484.000000	31.994124
485.000000	32.058753
486.000000	32.131143
487.000000	32.200154
488.000000	32.301299
489.000000	32.393389
490.000000	32.496545
491.000000	32.595866
492.000000	32.717164
493.000000	32.864328
494.000000	33.016196
495.000000	33.198020
496.000000	33.401620
497.000000	33.631083
498.000000	33.854308
499.000000	34.135238
500.000000	34.462795
501.000000	34.785929
502.000000	35.148966
503.000000	35.547415
504.000000	35.973972
505.000000	36.419031
506.000000	36.898646
507.000000	37.391695
508.000000	37.909649
509.000000	38.466357
510.000000	39.053682
511.000000	39.659192
512.000000	40.291385
513.000000	40.931432
514.000000	41.599205
515.000000	42.280604
516.000000	42.979979
517.000000	43.684011
518.000000	44.389270
519.000000	45.107682
520.000000	45.811701
521.000000	46.520505
522.000000	47.223139
523.000000	47.905749
524.000000	48.578416
525.000000	49.246916
526.000000	49.901751
527.000000	50.519940
528.000000	51.137919
529.000000	51.739131
530.000000	52.319063
531.000000	52.910944
532.000000	53.481125
533.000000	54.035834
534.000000	54.602120
535.000000	55.128874
536.000000	55.668675
537.000000	56.195282
538.000000	56.705489
539.000000	57.217164
540.000000	57.721000
541.000000	58.234269
542.000000	58.749718
543.000000	59.258889
544.000000	59.742067
545.000000	60.218929
546.000000	60.700894
547.000000	61.171926
548.000000	61.635488
549.000000	62.092304
550.000000	62.536402
551.000000	62.984380
552.000000	63.441856
553.000000	63.833614
554.000000	64.249909
555.000000	64.638699
556.000000	65.010120
557.000000	65.375753
558.000000	65.706930
559.000000	66.026565
560.000000	66.342078
561.000000	66.633416
562.000000	66.917599
563.000000	67.162711
564.000000	67.404886
565.000000	67.621812
566.000000	67.854414
567.000000	68.059480
568.000000	68.259363
569.000000	68.416170
570.000000	68.565132
571.000000	68.706753
572.000000	68.825736
573.000000	68.917134
574.000000	69.037521
575.000000	69.132535
576.000000	69.189575
577.000000	69.254076
578.000000	69.296696
579.000000	69.344680
580.000000	69.360395
581.000000	69.376085
582.000000	69.348142
583.000000	69.305379
584.000000	69.258191
585.000000	69.224733
586.000000	69.148898
587.000000	69.069524
588.000000	68.963266
589.000000	68.876653
590.000000	68.762294
591.000000	68.623958
592.000000	68.450850
593.000000	68.282227
594.000000	68.091302
595.000000	67.904279
596.000000	67.676710
597.000000	67.459617
598.000000	67.246760
599.000000	67.027893
600.000000	66.775796
601.000000	66.501987
602.000000	66.209188
603.000000	65.919817
604.000000	65.611152
605.000000	65.308077
606.000000	65.000806
607.000000	64.699026
608.000000	64.378847
609.000000	64.086131
610.000000	63.788011
611.000000	63.508933
612.000000	63.207632
613.000000	62.932970
614.000000	62.663353
615.000000	62.407126
616.000000	62.160200
617.000000	61.925030
618.000000	61.679800
619.000000	61.453664
620.000000	61.278448
621.000000	61.095272
622.000000	60.934880
623.000000	60.802556
624.000000	60.661616
625.000000	60.532448
626.000000	60.436317
627.000000	60.358371
628.000000	60.302912
629.000000	60.245275
630.000000	60.215497
631.000000	60.185638
632.000000	60.200042
633.000000	60.212328
634.000000	60.254295
635.000000	60.297312
636.000000	60.369967
637.000000	60.470797
638.000000	60.595457
639.000000	60.732450
640.000000	60.864902
641.000000	61.014458
642.000000	61.192329
643.000000	61.365523
644.000000	61.545721
645.000000	61.711352
646.000000	61.877467
647.000000	62.041293
648.000000	62.209644
649.000000	62.367572
650.000000	62.538734
651.000000	62.713680
652.000000	62.859543
653.000000	63.009654
654.000000	63.182530
655.000000	63.354990
656.000000	63.538913
657.000000	63.730600
658.000000	63.938536
659.000000	64.127710
660.000000	64.350042
661.000000	64.543659
662.000000	64.717651
663.000000	64.924043
664.000000	65.120271
665.000000	65.320756
666.000000	65.520100
667.000000	65.684215
668.000000	65.852901
669.000000	66.025330
670.000000	66.229430
671.000000	66.416988
672.000000	66.621208
673.000000	66.841187
674.000000	67.070351
675.000000	67.307315
676.000000	67.537171
677.000000	67.836225
678.000000	68.136592
679.000000	68.431367
680.000000	68.781337
681.000000	69.137561
682.000000	69.472766
683.000000	69.841538
684.000000	70.195699
685.000000	70.584769
686.000000	71.020957
687.000000	71.407764
688.000000	71.801431
689.000000	72.213389
690.000000	72.624569
691.000000	73.032213
692.000000	73.473186
693.000000	73.874082
694.000000	74.281951
695.000000	74.720861
696.000000	75.162781
697.000000	75.609037
698.000000	76.021179
699.000000	76.454654
700.000000	76.920641
701.000000	77.371819
702.000000	77.806361
703.000000	78.238654
704.000000	78.695089
705.000000	79.116980
706.000000	79.511473
707.000000	79.945849
708.000000	80.383849
709.000000	80.752145
710.000000	81.135900
711.000000	81.512496
712.000000	81.878012
713.000000	82.227458
714.000000	82.580569
715.000000	82.922983
716.000000	83.289337
717.000000	83.625842
718.000000	83.946574
719.000000	84.280133
720.000000	84.617509
721.000000	84.940042
722.000000	85.258229
723.000000	85.601721
724.000000	85.896158
725.000000	86.211056
726.000000	86.556001
727.000000	86.849164
728.000000	87.118249
729.000000	87.453132
730.000000	87.702228
731.000000	88.036936
732.000000	88.285445
733.000000	88.586425
734.000000	88.774784
735.000000	89.029562
736.000000	89.281725
737.000000	89.527522
738.000000	89.768147
739.000000	89.987613
740.000000	90.282639
741.000000	90.532260
742.000000	90.744551
743.000000	91.038476
744.000000	91.249394
745.000000	91.476226
746.000000	91.692121
747.000000	91.900198
748.000000	92.123017
749.000000	92.298532
750.000000	92.523229
751.000000	92.749065
752.000000	92.945031
753.000000	93.117133
754.000000	93.375697
755.000000	93.554882
756.000000	93.698052
757.000000	93.902602
758.000000	94.106429
759.000000	94.252181
760.000000	94.510119
761.000000	94.622440
762.000000	94.822725
763.000000	94.959425
764.000000	95.054228
765.000000	95.231539
766.000000	95.345716
767.000000	95.564125
768.000000	95.704549
769.000000	95.861995
770.000000	96.032246
771.000000	96.124201
772.000000	96.278338
773.000000	96.392546
774.000000	96.448874
775.000000	96.616316
776.000000	96.791412
777.000000	96.814372
778.000000	96.955840
779.000000	97.081202
780.000000	97.121755
781.000000	97.203007
782.000000	97.337183
783.000000	97.339777
784.000000	97.431745
785.000000	97.565970
786.000000	97.574787
787.000000	97.595172
788.000000	97.551467
789.000000	97.640683
790.000000	97.701462
791.000000	97.564516
792.000000	97.650473
793.000000	97.619567
794.000000	97.570917
795.000000	97.504936
796.000000	97.445710
797.000000	97.440260
798.000000	97.422915
799.000000	97.399702
800.000000	97.319395
801.000000	97.100795
802.000000	96.952273
803.000000	96.951797
804.000000	96.804214
805.000000	96.675887
806.000000	96.638584
807.000000	96.445579
808.000000	96.221543
809.000000	96.102697
810.000000	95.952354
811.000000	95.747275
812.000000	95.615263
813.000000	95.381493
814.000000	95.031541
815.000000	94.896533
816.000000	94.658231
817.000000	94.452658
818.000000	94.235428
819.000000	93.997661
820.000000	93.624927
821.000000	93.336248
822.000000	93.046011
823.000000	92.712161
824.000000	92.456940
825.000000	92.080095
826.000000	91.883184
827.000000	91.668768
828.000000	91.228392
829.000000	91.066757
830.000000	90.708493
831.000000	90.423906
832.000000	90.156009
833.000000	89.818348
834.000000	89.344832
835.000000	89.141699
836.000000	88.862051
837.000000	88.390062
838.000000	88.073202
839.000000	87.704466
840.000000	87.357476
841.000000	87.044526
842.000000	86.737349
843.000000	86.408978
844.000000	86.133006
845.000000	85.653753
846.000000	85.320204
847.000000	85.147358
848.000000	84.808493
849.000000	84.305314
850.000000	84.103630
851.000000	83.691147
852.000000	83.307795
853.000000	83.074301
854.000000	82.697487
855.000000	82.384623
856.000000	82.133532
857.000000	81.828307
858.000000	81.037433
859.000000	82.166100
860.000000	81.979333
861.000000	81.964667
862.000000	81.654967
863.000000	81.570467
864.000000	81.265067
865.000000	80.847167
866.000000	80.460500
867.000000	80.426533
868.000000	80.322467
869.000000	80.127300
870.000000	79.938033
871.000000	79.552633
872.000000	79.209400
873.000000	79.148100
874.000000	79.091867
875.000000	78.824367
876.000000	78.482800
877.000000	78.095867
878.000000	78.099900
879.000000	77.789967
880.000000	77.425600
881.000000	77.448633
882.000000	77.371000
883.000000	77.130233
884.000000	76.919800
885.000000	76.686233
886.000000	76.453033
887.000000	76.159733
888.000000	75.938033
889.000000	75.892833
890.000000	75.726500
891.000000	75.510467
892.000000	75.240333
893.000000	75.061067
894.000000	74.862300
895.000000	74.619400
896.000000	74.409333
897.000000	74.381967
898.000000	74.117833
899.000000	73.697833
900.000000	73.538233
901.000000	73.335300
902.000000	73.199233
903.000000	73.044633
904.000000	72.785967
905.000000	72.490400
906.000000	72.281133
907.000000	72.158500
908.000000	71.936600
909.000000	71.633133
910.000000	71.453500
911.000000	71.350400
912.000000	71.295267
913.000000	71.128267
914.000000	70.866067
915.000000	70.677700
916.000000	70.533967
917.000000	70.411833
918.000000	70.282133
919.000000	70.117967
920.000000	69.954667
921.000000	69.699067
922.000000	69.523967
923.000000	69.472333
924.000000	69.259000
925.000000	69.073700
926.000000	68.974600
927.000000	68.834333
928.000000	68.687133
929.000000	68.501167
930.000000	68.336700
931.000000	68.259533
932.000000	68.203900
933.000000	68.061633
934.000000	67.945200
935.000000	67.821500
936.000000	67.635600
937.000000	67.469467
938.000000	67.326333
939.000000	67.205567
940.000000	67.063367
941.000000	66.955067
942.000000	66.852600
943.000000	66.732067
944.000000	66.573267
945.000000	66.409300
946.000000	66.302600
947.000000	66.183733
948.000000	66.017133
949.000000	65.923733
950.000000	65.832167
951.000000	65.706733
952.000000	65.582467
953.000000	65.434600
954.000000	65.352833
955.000000	65.228167
956.000000	65.093000
957.000000	64.959433
958.000000	64.837033
959.000000	64.717667
960.000000	64.627500
961.000000	64.490167
962.000000	64.376433
963.000000	64.271033
964.000000	64.143900
965.000000	64.017133
966.000000	63.912500
967.000000	63.784633
968.000000	63.707100
969.000000	63.616233
970.000000	63.495167
971.000000	63.422633
972.000000	63.349767
973.000000	63.250367
974.000000	63.152167
975.000000	63.064367
976.000000	62.963033
977.000000	62.930667
978.000000	62.855733
979.000000	62.782533
980.000000	62.707900
981.000000	62.664800
982.000000	62.574433
983.000000	62.518567
984.000000	62.476667
985.000000	62.414733
986.000000	62.350633
987.000000	62.305700
988.000000	62.260233
989.000000	62.188233
990.000000	62.146533
991.000000	62.136300
992.000000	62.075733
993.000000	62.015100
994.000000	61.958067
995.000000	61.927733
996.000000	61.890233
997.000000	61.878433
998.000000	61.827767
999.000000	61.780333
1000.000000	61.751333
1001.000000	61.723233
1002.000000	61.707133
1003.000000	61.683933
1004.000000	61.657000
1005.000000	61.607400
1006.000000	61.562067
1007.000000	61.551900
1008.000000	61.532700
1009.000000	61.508700
1010.000000	61.496033
1011.000000	61.488833
1012.000000	61.445633
1013.000000	61.458400
1014.000000	61.458000
1015.000000	61.462133
1016.000000	61.476733
1017.000000	61.492967
1018.000000	61.515167
1019.000000	61.544867
1020.000000	61.576367
1021.000000	61.643100
1022.000000	61.680000
1023.000000	61.705733
1024.000000	61.751600
1025.000000	61.815333
1026.000000	61.866633
1027.000000	61.930833
1028.000000	61.965033
1029.000000	62.035900
1030.000000	62.080067
1031.000000	62.144800
1032.000000	62.207433
1033.000000	62.243933
1034.000000	62.304767
1035.000000	62.349033
1036.000000	62.411967
1037.000000	62.461300
1038.000000	62.523167
1039.000000	62.613767
1040.000000	62.641733
1041.000000	62.697867
1042.000000	62.774033
1043.000000	62.842133
1044.000000	62.868767
1045.000000	62.931333
1046.000000	62.987700
1047.000000	63.084367
1048.000000	63.130300
1049.000000	63.190200
1050.000000	63.270367
1051.000000	63.344100
1052.000000	63.395300
1053.000000	63.465700
1054.000000	63.543333
1055.000000	63.594533
1056.000000	63.692600
1057.000000	63.780600
1058.000000	63.872000
1059.000000	63.910233
1060.000000	63.989267
1061.000000	64.065767
1062.000000	64.121400
1063.000000	64.211367
1064.000000	64.259667
1065.000000	64.338067
1066.000000	64.395733
1067.000000	64.506867
1068.000000	64.561000
1069.000000	64.630833
1070.000000	64.688500
1071.000000	64.765633
1072.000000	64.839733
1073.000000	64.901700
1074.000000	64.992667
1075.000000	65.042967
1076.000000	65.120567
1077.000000	65.189833
1078.000000	65.268200
1079.000000	65.329567
1080.000000	65.413000
1081.000000	65.489467
1082.000000	65.527300
1083.000000	65.607567
1084.000000	65.678200
1085.000000	65.756167
1086.000000	65.843800
1087.000000	65.899367
1088.000000	65.979000
1089.000000	66.047133
1090.000000	66.124000
1091.000000	66.196433
1092.000000	66.277400
1093.000000	66.332500
1094.000000	66.398067
1095.000000	66.441733
1096.000000	66.509067
1097.000000	66.570700
1098.000000	66.647167
1099.000000	66.686000
1100.000000	66.749167
1101.000000	66.809233
1102.000000	66.842000
1103.000000	66.909033
1104.000000	66.954100
1105.000000	67.006833
1106.000000	67.047533
1107.000000	67.095233
1108.000000	67.143200
1109.000000	67.193000
1110.000000	67.226933
1111.000000	67.273733
1112.000000	67.323500
1113.000000	67.364700
1114.000000	67.398833
1115.000000	67.441567
1116.000000	67.477500
1117.000000	67.518500
1118.000000	67.552900
1119.000000	67.576767
1120.000000	67.574033
1121.000000	67.578133
1122.000000	67.594867
1123.000000	67.594233
1124.000000	67.555633
1125.000000	67.524067
1126.000000	67.482000
1127.000000	67.418333
1128.000000	67.344300
1129.000000	67.248867
1130.000000	67.107733
1131.000000	66.922467
1132.000000	66.720733
1133.000000	66.515267
1134.000000	66.338600
1135.000000	66.136833
1136.000000	65.842833
1137.000000	65.555567
1138.000000	65.276467
1139.000000	65.015767
1140.000000	64.793400
1141.000000	64.565067
1142.000000	64.329933
1143.000000	64.110300
1144.000000	63.920767
1145.000000	63.755133
1146.000000	63.628167
1147.000000	63.558767
1148.000000	63.499333
1149.000000	63.501067
1150.000000	63.513300
1151.000000	63.504667
1152.000000	63.492433
1153.000000	63.455867
1154.000000	63.381433
1155.000000	63.272933
1156.000000	63.138633
1157.000000	62.942933
1158.000000	62.741433
1159.000000	62.513633
1160.000000	62.273100
1161.000000	62.008633
1162.000000	61.741200
1163.000000	61.465533
1164.000000	61.195133
1165.000000	60.916633
1166.000000	60.648267
1167.000000	60.395733
1168.000000	60.143333
