PE UV       SUBTECH     SPECTRUM    ASCII       PEDS        4.00        
   -1
CICIMAUCR0104-3.Sample.ASC
24/04/22
09:54:19.00
24/04/22
09:54:19.00
Vinicio Soto Monge
C. resplendens
250,000000
1
Lambda 1050
1050L1511233
PerkinElmer UV WinLab 6.3.2.0749 / 2.02.05 Lambda 900 UV/VIS/NIR, Aug  7 2015 09:38:08

0
0
3350/servo 860,8/2
0
0
UV/VIS
1
1
1
DoubleDePol,CommonBeamDepol,RBeamAtt,SBeamAtt,60mm sphere, WB InGaAs Detector
0
0
0
0
Program
Program
3350/servo 860,8/2
3350/0,2 860,8/0,2
3350/0,2 860,8/0,2
0
15.00
 
 
 
0
 
860,8
319,2
860,8
Front
100
on
S:100 R:100
0
0
0
0
 
0
 
 
 
0
 
 
0
0
0
0
0
 
 
 
 
0
0


0
0
#HDR
-1
-1
#GR
nm
%R
1.0
0.0
2500,000000
-1,000000
2251
8
90,434600
6,014800
#DATA
250.000000	6.058921
251.000000	6.074509
252.000000	6.043916
253.000000	6.041888
254.000000	6.019726
255.000000	6.001950
256.000000	5.998368
257.000000	5.999370
258.000000	5.976247
259.000000	5.975360
260.000000	5.971880
261.000000	5.945327
262.000000	5.880237
263.000000	5.880125
264.000000	5.844768
265.000000	5.825457
266.000000	5.811169
267.000000	5.797833
268.000000	5.809131
269.000000	5.803517
270.000000	5.738916
271.000000	5.749082
272.000000	5.702968
273.000000	5.728852
274.000000	5.704041
275.000000	5.701688
276.000000	5.706939
277.000000	5.689499
278.000000	5.704221
279.000000	5.663463
280.000000	5.660889
281.000000	5.688771
282.000000	5.680734
283.000000	5.678322
284.000000	5.671644
285.000000	5.633866
286.000000	5.632369
287.000000	5.632700
288.000000	5.627878
289.000000	5.604062
290.000000	5.636267
291.000000	5.607975
292.000000	5.612792
293.000000	5.603037
294.000000	5.579491
295.000000	5.586698
296.000000	5.593023
297.000000	5.536799
298.000000	5.538460
299.000000	5.551719
300.000000	5.534626
301.000000	5.557307
302.000000	5.565466
303.000000	5.547659
304.000000	5.552943
305.000000	5.518871
306.000000	5.500026
307.000000	5.466894
308.000000	5.509168
309.000000	5.509483
310.000000	5.530046
311.000000	5.487349
312.000000	5.472252
313.000000	5.466458
314.000000	5.463409
315.000000	5.449634
316.000000	5.467292
317.000000	5.652461
318.000000	5.618259
319.000000	5.664300
320.000000	5.686757
321.000000	5.619945
322.000000	5.686951
323.000000	5.657341
324.000000	5.567709
325.000000	5.612890
326.000000	5.662698
327.000000	5.580261
328.000000	5.577767
329.000000	5.561885
330.000000	5.512607
331.000000	5.618204
332.000000	5.591706
333.000000	5.548669
334.000000	5.516246
335.000000	5.591055
336.000000	5.606158
337.000000	5.640032
338.000000	5.606898
339.000000	5.581414
340.000000	5.660739
341.000000	5.645576
342.000000	5.648232
343.000000	5.685939
344.000000	5.683052
345.000000	5.706296
346.000000	5.688948
347.000000	5.719231
348.000000	5.694863
349.000000	5.752135
350.000000	5.711242
351.000000	5.783219
352.000000	5.818487
353.000000	5.889296
354.000000	5.922686
355.000000	5.952635
356.000000	5.964105
357.000000	6.059319
358.000000	6.066773
359.000000	6.128133
360.000000	6.147277
361.000000	6.178935
362.000000	6.262655
363.000000	6.278132
364.000000	6.292414
365.000000	6.387932
366.000000	6.441504
367.000000	6.486984
368.000000	6.520910
369.000000	6.540802
370.000000	6.600660
371.000000	6.740480
372.000000	6.759655
373.000000	6.831390
374.000000	6.892319
375.000000	6.950075
376.000000	7.145243
377.000000	7.285909
378.000000	7.403582
379.000000	7.537932
380.000000	7.676341
381.000000	7.830377
382.000000	7.996020
383.000000	8.182181
384.000000	8.383547
385.000000	8.583044
386.000000	8.787425
387.000000	9.021086
388.000000	9.273831
389.000000	9.531731
390.000000	9.811878
391.000000	10.111989
392.000000	10.429547
393.000000	10.759175
394.000000	11.099440
395.000000	11.466577
396.000000	11.842354
397.000000	12.223982
398.000000	12.628387
399.000000	13.040298
400.000000	13.462996
401.000000	13.894205
402.000000	14.335825
403.000000	14.791456
404.000000	15.239029
405.000000	15.702282
406.000000	16.177526
407.000000	16.624957
408.000000	17.062081
409.000000	17.523118
410.000000	17.973101
411.000000	18.420053
412.000000	18.873993
413.000000	19.303593
414.000000	19.723437
415.000000	20.138871
416.000000	20.540027
417.000000	20.921887
418.000000	21.284453
419.000000	21.643795
420.000000	21.994759
421.000000	22.331758
422.000000	22.658485
423.000000	22.968380
424.000000	23.263439
425.000000	23.538548
426.000000	23.801998
427.000000	24.045387
428.000000	24.270257
429.000000	24.480833
430.000000	24.686302
431.000000	24.878791
432.000000	25.048706
433.000000	25.199963
434.000000	25.331671
435.000000	25.448282
436.000000	25.553576
437.000000	25.632416
438.000000	25.688319
439.000000	25.735535
440.000000	25.755987
441.000000	25.744544
442.000000	25.720139
443.000000	25.679696
444.000000	25.606616
445.000000	25.490231
446.000000	25.338472
447.000000	25.175516
448.000000	25.004922
449.000000	24.813759
450.000000	24.598182
451.000000	24.366621
452.000000	24.126015
453.000000	23.875975
454.000000	23.626362
455.000000	23.373232
456.000000	23.120943
457.000000	22.893667
458.000000	22.702691
459.000000	22.538715
460.000000	22.403594
461.000000	22.320453
462.000000	22.291673
463.000000	22.323586
464.000000	22.424282
465.000000	22.590472
466.000000	22.828853
467.000000	23.128284
468.000000	23.500441
469.000000	23.951689
470.000000	24.439552
471.000000	24.981149
472.000000	25.581571
473.000000	26.208843
474.000000	26.855754
475.000000	27.518296
476.000000	28.185464
477.000000	28.842719
478.000000	29.477782
479.000000	30.091419
480.000000	30.686193
481.000000	31.253312
482.000000	31.775919
483.000000	32.259084
484.000000	32.697594
485.000000	33.085209
486.000000	33.424996
487.000000	33.729058
488.000000	33.977627
489.000000	34.171301
490.000000	34.330843
491.000000	34.439458
492.000000	34.482817
493.000000	34.494916
494.000000	34.458535
495.000000	34.418976
496.000000	34.351752
497.000000	34.256489
498.000000	34.152495
499.000000	34.058373
500.000000	33.997543
501.000000	33.950274
502.000000	33.942187
503.000000	34.005902
504.000000	34.105589
505.000000	34.281157
506.000000	34.531834
507.000000	34.842711
508.000000	35.238016
509.000000	35.721729
510.000000	36.286521
511.000000	36.951613
512.000000	37.686714
513.000000	38.505280
514.000000	39.402588
515.000000	40.373990
516.000000	41.414375
517.000000	42.496455
518.000000	43.621942
519.000000	44.807178
520.000000	46.041650
521.000000	47.302394
522.000000	48.586688
523.000000	49.896993
524.000000	51.210823
525.000000	52.524889
526.000000	53.840815
527.000000	55.130696
528.000000	56.413029
529.000000	57.678387
530.000000	58.922890
531.000000	60.131554
532.000000	61.305351
533.000000	62.440706
534.000000	63.527062
535.000000	64.549285
536.000000	65.529654
537.000000	66.459860
538.000000	67.331356
539.000000	68.189801
540.000000	69.015293
541.000000	69.819436
542.000000	70.568089
543.000000	71.308861
544.000000	72.048915
545.000000	72.718457
546.000000	73.391370
547.000000	74.049412
548.000000	74.658596
549.000000	75.263083
550.000000	75.847070
551.000000	76.408700
552.000000	76.942429
553.000000	77.443766
554.000000	77.930523
555.000000	78.371109
556.000000	78.783175
557.000000	79.129588
558.000000	79.526329
559.000000	79.842802
560.000000	80.151729
561.000000	80.456007
562.000000	80.718831
563.000000	80.987131
564.000000	81.242774
565.000000	81.487047
566.000000	81.717996
567.000000	81.933048
568.000000	82.146593
569.000000	82.363747
570.000000	82.536713
571.000000	82.715706
572.000000	82.881266
573.000000	83.044828
574.000000	83.216712
575.000000	83.357744
576.000000	83.485071
577.000000	83.625622
578.000000	83.708087
579.000000	83.808945
580.000000	83.854641
581.000000	83.966731
582.000000	83.987493
583.000000	84.018213
584.000000	84.060310
585.000000	84.039534
586.000000	84.065535
587.000000	84.060622
588.000000	83.996187
589.000000	83.964974
590.000000	83.887207
591.000000	83.776463
592.000000	83.687353
593.000000	83.589110
594.000000	83.439803
595.000000	83.278553
596.000000	83.074791
597.000000	82.881961
598.000000	82.661322
599.000000	82.403433
600.000000	82.157251
601.000000	81.847901
602.000000	81.552684
603.000000	81.214066
604.000000	80.829257
605.000000	80.452094
606.000000	80.046603
607.000000	79.620473
608.000000	79.185244
609.000000	78.682041
610.000000	78.211125
611.000000	77.632367
612.000000	77.059786
613.000000	76.442894
614.000000	75.840413
615.000000	75.178246
616.000000	74.504557
617.000000	73.816647
618.000000	73.148027
619.000000	72.419582
620.000000	71.689386
621.000000	70.963582
622.000000	70.226433
623.000000	69.462236
624.000000	68.668066
625.000000	67.904306
626.000000	67.089873
627.000000	66.295496
628.000000	65.465462
629.000000	64.599934
630.000000	63.756804
631.000000	62.892894
632.000000	62.022755
633.000000	61.161859
634.000000	60.257762
635.000000	59.413730
636.000000	58.573726
637.000000	57.761156
638.000000	56.983295
639.000000	56.232024
640.000000	55.546131
641.000000	54.926513
642.000000	54.355073
643.000000	53.836007
644.000000	53.441616
645.000000	53.184838
646.000000	52.988927
647.000000	52.945389
648.000000	52.992038
649.000000	53.137773
650.000000	53.391133
651.000000	53.775292
652.000000	54.248512
653.000000	54.787661
654.000000	55.399007
655.000000	56.069422
656.000000	56.781556
657.000000	57.517322
658.000000	58.273257
659.000000	59.088391
660.000000	59.901170
661.000000	60.735587
662.000000	61.545126
663.000000	62.365297
664.000000	63.146945
665.000000	63.937131
666.000000	64.637199
667.000000	65.332646
668.000000	65.984478
669.000000	66.613812
670.000000	67.219731
671.000000	67.747528
672.000000	68.257404
673.000000	68.724504
674.000000	69.133086
675.000000	69.500754
676.000000	69.837865
677.000000	70.163061
678.000000	70.432279
679.000000	70.665735
680.000000	70.892657
681.000000	71.061670
682.000000	71.232069
683.000000	71.407857
684.000000	71.536397
685.000000	71.652371
686.000000	71.759184
687.000000	71.900616
688.000000	71.987435
689.000000	72.070906
690.000000	72.149824
691.000000	72.258355
692.000000	72.337059
693.000000	72.420979
694.000000	72.492445
695.000000	72.551332
696.000000	72.635887
697.000000	72.745553
698.000000	72.818050
699.000000	72.900161
700.000000	72.990134
701.000000	73.110642
702.000000	73.208022
703.000000	73.277542
704.000000	73.334501
705.000000	73.446631
706.000000	73.601815
707.000000	73.710712
708.000000	73.834735
709.000000	73.971039
710.000000	74.134722
711.000000	74.288850
712.000000	74.451995
713.000000	74.618803
714.000000	74.813103
715.000000	75.038347
716.000000	75.245577
717.000000	75.483173
718.000000	75.726771
719.000000	75.980318
720.000000	76.282487
721.000000	76.555807
722.000000	76.838192
723.000000	77.178980
724.000000	77.517788
725.000000	77.809663
726.000000	78.072860
727.000000	78.374190
728.000000	78.682427
729.000000	78.982124
730.000000	79.226329
731.000000	79.543146
732.000000	79.835670
733.000000	80.074784
734.000000	80.342079
735.000000	80.603961
736.000000	80.895491
737.000000	81.121795
738.000000	81.297399
739.000000	81.488095
740.000000	81.682920
741.000000	81.869999
742.000000	82.065183
743.000000	82.238343
744.000000	82.381615
745.000000	82.520294
746.000000	82.643230
747.000000	82.773289
748.000000	82.917210
749.000000	82.983844
750.000000	83.079803
751.000000	83.189340
752.000000	83.234113
753.000000	83.269974
754.000000	83.306856
755.000000	83.335633
756.000000	83.368833
757.000000	83.363989
758.000000	83.334065
759.000000	83.312816
760.000000	83.287432
761.000000	83.254019
762.000000	83.225789
763.000000	83.165201
764.000000	83.037691
765.000000	82.928966
766.000000	82.820455
767.000000	82.703876
768.000000	82.590190
769.000000	82.472598
770.000000	82.336482
771.000000	82.210955
772.000000	82.106733
773.000000	81.951215
774.000000	81.844684
775.000000	81.718297
776.000000	81.578489
777.000000	81.471437
778.000000	81.392779
779.000000	81.350843
780.000000	81.263272
781.000000	81.136210
782.000000	81.000115
783.000000	80.892060
784.000000	80.823368
785.000000	80.818554
786.000000	80.702123
787.000000	80.586546
788.000000	80.580886
789.000000	80.470021
790.000000	80.388343
791.000000	80.368118
792.000000	80.286398
793.000000	80.226050
794.000000	80.197367
795.000000	80.073978
796.000000	79.970525
797.000000	79.934074
798.000000	79.795209
799.000000	79.657176
800.000000	79.580106
801.000000	79.443636
802.000000	79.299009
803.000000	79.121518
804.000000	78.966718
805.000000	78.890486
806.000000	78.651261
807.000000	78.551479
808.000000	78.446052
809.000000	78.173443
810.000000	78.005264
811.000000	77.948853
812.000000	77.742304
813.000000	77.481393
814.000000	77.346386
815.000000	77.125946
816.000000	76.970073
817.000000	76.871396
818.000000	76.686115
819.000000	76.484982
820.000000	76.272467
821.000000	76.148382
822.000000	75.976112
823.000000	75.773276
824.000000	75.570793
825.000000	75.387721
826.000000	75.202152
827.000000	74.956260
828.000000	74.772189
829.000000	74.459071
830.000000	74.210174
831.000000	74.030852
832.000000	73.797215
833.000000	73.536324
834.000000	73.300960
835.000000	72.863044
836.000000	72.670044
837.000000	72.492202
838.000000	72.164485
839.000000	71.906471
840.000000	71.655609
841.000000	71.223873
842.000000	70.894389
843.000000	70.712966
844.000000	70.650414
845.000000	70.374458
846.000000	69.988258
847.000000	69.814234
848.000000	69.695417
849.000000	69.549335
850.000000	69.253441
851.000000	69.177092
852.000000	68.957292
853.000000	69.015967
854.000000	68.697333
855.000000	68.768148
856.000000	68.712817
857.000000	68.602087
858.000000	69.305033
859.000000	68.206300
860.000000	68.499700
861.000000	68.886833
862.000000	69.279333
863.000000	69.568100
864.000000	69.838033
865.000000	70.107433
866.000000	70.363700
867.000000	70.559800
868.000000	70.771567
869.000000	70.928733
870.000000	71.109933
871.000000	71.204700
872.000000	71.366533
873.000000	71.469733
874.000000	71.519867
875.000000	71.624367
876.000000	71.677833
877.000000	71.758967
878.000000	71.785633
879.000000	71.774733
880.000000	71.802633
881.000000	71.811433
882.000000	71.782133
883.000000	71.786667
884.000000	71.770467
885.000000	71.723633
886.000000	71.640500
887.000000	71.597367
888.000000	71.527100
889.000000	71.460933
890.000000	71.389167
891.000000	71.292867
892.000000	71.193567
893.000000	71.111867
894.000000	71.023967
895.000000	70.919367
896.000000	70.810400
897.000000	70.724400
898.000000	70.628067
899.000000	70.546133
900.000000	70.455767
901.000000	70.335767
902.000000	70.200467
903.000000	70.120100
904.000000	70.029133
905.000000	69.945867
906.000000	69.884467
907.000000	69.788300
908.000000	69.732400
909.000000	69.599567
910.000000	69.533600
911.000000	69.489067
912.000000	69.424900
913.000000	69.395367
914.000000	69.318100
915.000000	69.238367
916.000000	69.182067
917.000000	69.130867
918.000000	69.064667
919.000000	69.013133
920.000000	68.956100
921.000000	68.904167
922.000000	68.834700
923.000000	68.773000
924.000000	68.692733
925.000000	68.617967
926.000000	68.543867
927.000000	68.487967
928.000000	68.400000
929.000000	68.316067
930.000000	68.250500
931.000000	68.152067
932.000000	68.043133
933.000000	67.963167
934.000000	67.865933
935.000000	67.754433
936.000000	67.640433
937.000000	67.532167
938.000000	67.429400
939.000000	67.341367
940.000000	67.226367
941.000000	67.116000
942.000000	67.031733
943.000000	66.919300
944.000000	66.811867
945.000000	66.726167
946.000000	66.623933
947.000000	66.520300
948.000000	66.423400
949.000000	66.322667
950.000000	66.230067
951.000000	66.155800
952.000000	66.062167
953.000000	65.958733
954.000000	65.854133
955.000000	65.777167
956.000000	65.687933
957.000000	65.592400
958.000000	65.505633
959.000000	65.421600
960.000000	65.340500
961.000000	65.264567
962.000000	65.183367
963.000000	65.111300
964.000000	65.054733
965.000000	64.992433
966.000000	64.920300
967.000000	64.857233
968.000000	64.808367
969.000000	64.759833
970.000000	64.701167
971.000000	64.646533
972.000000	64.588433
973.000000	64.539867
974.000000	64.484933
975.000000	64.442567
976.000000	64.382700
977.000000	64.334000
978.000000	64.293267
979.000000	64.249133
980.000000	64.203000
981.000000	64.160267
982.000000	64.109867
983.000000	64.071467
984.000000	64.032567
985.000000	63.983233
986.000000	63.944267
987.000000	63.909900
988.000000	63.873233
989.000000	63.840733
990.000000	63.803233
991.000000	63.768400
992.000000	63.727700
993.000000	63.697533
994.000000	63.667733
995.000000	63.640667
996.000000	63.602100
997.000000	63.570367
998.000000	63.544600
999.000000	63.515167
1000.000000	63.494900
1001.000000	63.462367
1002.000000	63.435200
1003.000000	63.420033
1004.000000	63.394167
1005.000000	63.364833
1006.000000	63.333033
1007.000000	63.300900
1008.000000	63.274033
1009.000000	63.251600
1010.000000	63.219500
1011.000000	63.196933
1012.000000	63.180367
1013.000000	63.156567
1014.000000	63.145233
1015.000000	63.147933
1016.000000	63.145900
1017.000000	63.152100
1018.000000	63.161900
1019.000000	63.171833
1020.000000	63.191167
1021.000000	63.213633
1022.000000	63.227800
1023.000000	63.254633
1024.000000	63.279200
1025.000000	63.308367
1026.000000	63.347500
1027.000000	63.384433
1028.000000	63.420467
1029.000000	63.463100
1030.000000	63.504367
1031.000000	63.544433
1032.000000	63.587933
1033.000000	63.631033
1034.000000	63.671000
1035.000000	63.715000
1036.000000	63.764467
1037.000000	63.807333
1038.000000	63.855600
1039.000000	63.905600
1040.000000	63.956733
1041.000000	64.003900
1042.000000	64.052300
1043.000000	64.110900
1044.000000	64.170567
1045.000000	64.219200
1046.000000	64.276467
1047.000000	64.340967
1048.000000	64.401600
1049.000000	64.465700
1050.000000	64.525133
1051.000000	64.588767
1052.000000	64.661067
1053.000000	64.728867
1054.000000	64.798133
1055.000000	64.872033
1056.000000	64.944000
1057.000000	65.016133
1058.000000	65.084967
1059.000000	65.152500
1060.000000	65.224467
1061.000000	65.295500
1062.000000	65.366500
1063.000000	65.428133
1064.000000	65.495167
1065.000000	65.555233
1066.000000	65.612367
1067.000000	65.677100
1068.000000	65.733667
1069.000000	65.782433
1070.000000	65.841867
1071.000000	65.902333
1072.000000	65.956100
1073.000000	66.009900
1074.000000	66.062967
1075.000000	66.113233
1076.000000	66.173000
1077.000000	66.221100
1078.000000	66.264800
1079.000000	66.317833
1080.000000	66.366467
1081.000000	66.421000
1082.000000	66.470667
1083.000000	66.524133
1084.000000	66.583133
1085.000000	66.635167
1086.000000	66.688133
1087.000000	66.742867
1088.000000	66.801167
1089.000000	66.852767
1090.000000	66.901900
1091.000000	66.946967
1092.000000	67.001300
1093.000000	67.053667
1094.000000	67.102967
1095.000000	67.153833
1096.000000	67.205733
1097.000000	67.252533
1098.000000	67.295233
1099.000000	67.343967
1100.000000	67.382333
1101.000000	67.427467
1102.000000	67.473733
1103.000000	67.509200
1104.000000	67.552700
1105.000000	67.586233
1106.000000	67.630200
1107.000000	67.660867
1108.000000	67.702733
1109.000000	67.733200
1110.000000	67.764100
1111.000000	67.808067
1112.000000	67.847700
1113.000000	67.881333
1114.000000	67.920233
1115.000000	67.966833
1116.000000	68.011133
1117.000000	68.043800
1118.000000	68.074200
1119.000000	68.101900
1120.000000	68.110467
1121.000000	68.119367
1122.000000	68.125500
1123.000000	68.127033
1124.000000	68.108533
1125.000000	68.081533
1126.000000	68.053100
1127.000000	68.000600
1128.000000	67.950200
1129.000000	67.872467
1130.000000	67.773533
1131.000000	67.620433
1132.000000	67.454467
1133.000000	67.278733
1134.000000	67.133100
1135.000000	66.938833
1136.000000	66.695067
1137.000000	66.427633
1138.000000	66.147633
1139.000000	65.900267
1140.000000	65.654167
1141.000000	65.426467
1142.000000	65.203900
1143.000000	64.979867
1144.000000	64.772867
1145.000000	64.603133
1146.000000	64.466100
1147.000000	64.392600
1148.000000	64.347400
1149.000000	64.346833
1150.000000	64.361100
1151.000000	64.380533
1152.000000	64.389833
1153.000000	64.380967
1154.000000	64.322867
1155.000000	64.238467
1156.000000	64.106067
1157.000000	63.932500
1158.000000	63.718800
1159.000000	63.473333
1160.000000	63.232167
1161.000000	62.964733
1162.000000	62.675300
1163.000000	62.398267
1164.000000	62.099100
1165.000000	61.801067
1166.000000	61.498100
