PE UV       SUBTECH     SPECTRUM    ASCII       PEDS        4.00        
   -1
CICIMAUCR0260-2.ASC
24/07/01
15:14:50.00
24/07/01
15:14:50.00
Vinicio Soto Monge
C. resplendens. Sex F. Ventral
250,000000
1
Lambda 1050
1050L1511233
PerkinElmer UV WinLab 6.3.2.0749 / 2.02.05 Lambda 900 UV/VIS/NIR, Aug  7 2015 09:38:08

0
0
3350/servo 860,8/2
0
0
UV/VIS
1
1
1
DoubleDePol,CommonBeamDepol,RBeamAtt,SBeamAtt,60mm sphere, WB InGaAs Detector
0
0
0
0
Program
Program
3350/servo 860,8/2
3350/0,2 860,8/0,2
3350/0,2 860,8/0,2
0
15.00
 
 
 
0
 
860,8
319,2
860,8
Front
100
on
S:100 R:100
0
0
0
0
 
0
 
 
 
0
 
 
0
0
0
0
0
 
 
 
 
0
0


0
0
#HDR
-1
-1
#GR
nm
%R
1.0
0.0
2500,000000
-1,000000
2251
8
59,946500
4,199100
#DATA
2482.000000	5.564498
2481.000000	5.485583
2480.000000	5.478149
2479.000000	5.532741
2478.000000	5.530935
2477.000000	5.462217
2476.000000	5.527749
2475.000000	5.509375
2474.000000	5.531573
2473.000000	5.503321
2472.000000	5.490469
2471.000000	5.484840
2470.000000	5.464341
2469.000000	5.513729
2468.000000	5.456694
2467.000000	5.451277
2466.000000	5.459774
2465.000000	5.497798
2464.000000	5.491425
2463.000000	5.529661
2462.000000	5.540813
2461.000000	5.542619
2460.000000	5.533803
2459.000000	5.562586
2458.000000	5.575969
2457.000000	5.615692
2456.000000	5.616542
2455.000000	5.645750
2454.000000	5.660938
2453.000000	5.669328
2452.000000	5.688553
2451.000000	5.699598
2450.000000	5.735073
2449.000000	5.745800
2448.000000	5.775539
2447.000000	5.801880
2446.000000	5.841178
2445.000000	5.843621
2444.000000	5.852011
2443.000000	5.861783
2442.000000	5.913720
2441.000000	5.950787
2440.000000	5.948238
2439.000000	5.967994
2438.000000	6.014833
2437.000000	6.068363
2436.000000	6.063371
2435.000000	6.078241
2434.000000	6.114034
2433.000000	6.135701
2432.000000	6.146428
2431.000000	6.175955
2430.000000	6.202083
2429.000000	6.203251
2428.000000	6.239363
2427.000000	6.264216
2426.000000	6.272076
2425.000000	6.310205
2424.000000	6.322951
2423.000000	6.339626
2422.000000	6.356513
2421.000000	6.382960
2420.000000	6.404096
2419.000000	6.410893
2418.000000	6.414292
2417.000000	6.435853
2416.000000	6.451466
2415.000000	6.460281
2414.000000	6.477700
2413.000000	6.525707
2412.000000	6.528681
2411.000000	6.531018
2410.000000	6.553641
2409.000000	6.552579
2408.000000	6.569466
2407.000000	6.588159
2406.000000	6.600161
2405.000000	6.593682
2404.000000	6.599205
2403.000000	6.631493
2402.000000	6.644982
2401.000000	6.659958
2400.000000	6.663675
2399.000000	6.674827
2398.000000	6.673553
2397.000000	6.707009
2396.000000	6.730057
2395.000000	6.731438
2394.000000	6.747582
2393.000000	6.748750
2392.000000	6.752043
2391.000000	6.757247
2390.000000	6.766594
2389.000000	6.778171
2388.000000	6.796120
2387.000000	6.808228
2386.000000	6.805998
2385.000000	6.811733
2384.000000	6.822779
2383.000000	6.818106
2382.000000	6.802812
2381.000000	6.810990
2380.000000	6.827877
2379.000000	6.825541
2378.000000	6.830214
2377.000000	6.843490
2376.000000	6.824797
2375.000000	6.807591
2374.000000	6.811202
2373.000000	6.815663
2372.000000	6.803449
2371.000000	6.798563
2370.000000	6.793146
2369.000000	6.795271
2368.000000	6.793253
2367.000000	6.779127
2366.000000	6.761283
2365.000000	6.750025
2364.000000	6.735580
2363.000000	6.738554
2362.000000	6.741953
2361.000000	6.725278
2360.000000	6.711258
2359.000000	6.697132
2358.000000	6.686936
2357.000000	6.671323
2356.000000	6.651886
2355.000000	6.656028
2354.000000	6.643070
2353.000000	6.621510
2352.000000	6.620872
2351.000000	6.625333
2350.000000	6.631918
2349.000000	6.636379
2348.000000	6.635423
2347.000000	6.649337
2346.000000	6.665375
2345.000000	6.674615
2344.000000	6.685130
2343.000000	6.693202
2342.000000	6.700849
2341.000000	6.714126
2340.000000	6.715719
2339.000000	6.719011
2338.000000	6.744608
2337.000000	6.752680
2336.000000	6.763726
2335.000000	6.755760
2334.000000	6.739298
2333.000000	6.744289
2332.000000	6.736536
2331.000000	6.750131
2330.000000	6.746414
2329.000000	6.737704
2328.000000	6.729526
2327.000000	6.720180
2326.000000	6.710514
2325.000000	6.686298
2324.000000	6.680244
2323.000000	6.652311
2322.000000	6.632556
2321.000000	6.622147
2320.000000	6.600374
2319.000000	6.591452
2318.000000	6.566705
2317.000000	6.519547
2316.000000	6.498199
2315.000000	6.471752
2314.000000	6.441163
2313.000000	6.415142
2312.000000	6.388058
2311.000000	6.357788
2310.000000	6.331872
2309.000000	6.319021
2308.000000	6.285246
2307.000000	6.265597
2306.000000	6.276749
2305.000000	6.250621
2304.000000	6.246372
2303.000000	6.244779
2302.000000	6.262410
2301.000000	6.269102
2300.000000	6.289069
2299.000000	6.309674
2298.000000	6.326774
2297.000000	6.328049
2296.000000	6.361611
2295.000000	6.382641
2294.000000	6.387102
2293.000000	6.442863
2292.000000	6.483329
2291.000000	6.490551
2290.000000	6.502978
2289.000000	6.520822
2288.000000	6.519972
2287.000000	6.530593
2286.000000	6.549074
2285.000000	6.537072
2284.000000	6.543869
2283.000000	6.562562
2282.000000	6.538028
2281.000000	6.540895
2280.000000	6.516255
2279.000000	6.501173
2278.000000	6.494056
2277.000000	6.468460
2276.000000	6.465273
2275.000000	6.469415
2274.000000	6.438402
2273.000000	6.449766
2272.000000	6.442119
2271.000000	6.447005
2270.000000	6.453909
2269.000000	6.443712
2268.000000	6.450298
2267.000000	6.460812
2266.000000	6.516892
2265.000000	6.524327
2264.000000	6.575945
2263.000000	6.615987
2262.000000	6.646363
2261.000000	6.723472
2260.000000	6.775940
2259.000000	6.831807
2258.000000	6.911041
2257.000000	7.020863
2256.000000	7.085545
2255.000000	7.187720
2254.000000	7.284054
2253.000000	7.395575
2252.000000	7.463762
2251.000000	7.541296
2250.000000	7.654411
2249.000000	7.746284
2248.000000	7.841873
2247.000000	7.920363
2246.000000	7.973044
2245.000000	8.049091
2244.000000	8.123014
2243.000000	8.175588
2242.000000	8.268098
2241.000000	8.319929
2240.000000	8.359864
2239.000000	8.411058
2238.000000	8.458322
2237.000000	8.493796
2236.000000	8.545309
2235.000000	8.563152
2234.000000	8.609991
2233.000000	8.623267
2232.000000	8.660547
2231.000000	8.672656
2230.000000	8.678922
2229.000000	8.703882
2228.000000	8.715990
2227.000000	8.704306
2226.000000	8.722150
2225.000000	8.710467
2224.000000	8.714290
2223.000000	8.719919
2222.000000	8.703775
2221.000000	8.680834
2220.000000	8.680409
2219.000000	8.685932
2218.000000	8.638243
2217.000000	8.632402
2216.000000	8.627303
2215.000000	8.590236
2214.000000	8.581845
2213.000000	8.578234
2212.000000	8.560178
2211.000000	8.542653
2210.000000	8.514826
2209.000000	8.492628
2208.000000	8.482538
2207.000000	8.480307
2206.000000	8.474678
2205.000000	8.456729
2204.000000	8.430919
2203.000000	8.429857
2202.000000	8.415200
2201.000000	8.408934
2200.000000	8.423485
2199.000000	8.405535
2198.000000	8.399906
2197.000000	8.370485
2196.000000	8.367087
2195.000000	8.369742
2194.000000	8.371229
2193.000000	8.350518
2192.000000	8.360395
2191.000000	8.355085
2190.000000	8.351367
2189.000000	8.349668
2188.000000	8.318973
2187.000000	8.320354
2186.000000	8.318230
2185.000000	8.293058
2184.000000	8.290296
2183.000000	8.266399
2182.000000	8.267567
2181.000000	8.271815
2180.000000	8.261513
2179.000000	8.245369
2178.000000	8.243245
2177.000000	8.235279
2176.000000	8.239633
2175.000000	8.223277
2174.000000	8.225507
2173.000000	8.236022
2172.000000	8.233579
2171.000000	8.237084
2170.000000	8.238784
2169.000000	8.237615
2168.000000	8.235916
2167.000000	8.240696
2166.000000	8.252485
2165.000000	8.266611
2164.000000	8.264912
2163.000000	8.286791
2162.000000	8.313450
2161.000000	8.282330
2160.000000	8.308033
2159.000000	8.327470
2158.000000	8.349349
2157.000000	8.364431
2156.000000	8.373459
2155.000000	8.392259
2154.000000	8.411377
2153.000000	8.422423
2152.000000	8.442284
2151.000000	8.471811
2150.000000	8.495814
2149.000000	8.515570
2148.000000	8.549557
2147.000000	8.564851
2146.000000	8.578765
2145.000000	8.608504
2144.000000	8.621462
2143.000000	8.649077
2142.000000	8.669894
2141.000000	8.690818
2140.000000	8.711210
2139.000000	8.731072
2138.000000	8.733302
2137.000000	8.763147
2136.000000	8.779929
2135.000000	8.805101
2134.000000	8.814129
2133.000000	8.819545
2132.000000	8.839194
2131.000000	8.866384
2130.000000	8.876687
2129.000000	8.853108
2128.000000	8.862773
2127.000000	8.880935
2126.000000	8.894105
2125.000000	8.898566
2124.000000	8.889326
2123.000000	8.884334
2122.000000	8.890919
2121.000000	8.892512
2120.000000	8.889857
2119.000000	8.873819
2118.000000	8.872651
2117.000000	8.866597
2116.000000	8.872757
2115.000000	8.871270
2114.000000	8.864048
2113.000000	8.856188
2112.000000	8.838026
2111.000000	8.839194
2110.000000	8.825174
2109.000000	8.800852
2108.000000	8.789806
2107.000000	8.779079
2106.000000	8.761235
2105.000000	8.749552
2104.000000	8.742861
2103.000000	8.732240
2102.000000	8.725867
2101.000000	8.722362
2100.000000	8.695491
2099.000000	8.675417
2098.000000	8.665221
2097.000000	8.659804
2096.000000	8.649289
2095.000000	8.629959
2094.000000	8.620825
2093.000000	8.610522
2092.000000	8.602238
2091.000000	8.593953
2090.000000	8.595653
2089.000000	8.580889
2088.000000	8.559116
2087.000000	8.545309
2086.000000	8.541804
2085.000000	8.544459
2084.000000	8.529696
2083.000000	8.517800
2082.000000	8.501337
2081.000000	8.476803
2080.000000	8.459172
2079.000000	8.430919
2078.000000	8.416156
2077.000000	8.403517
2076.000000	8.369848
2075.000000	8.349349
2074.000000	8.330550
2073.000000	8.304422
2072.000000	8.272771
2071.000000	8.244201
2070.000000	8.214355
2069.000000	8.169428
2068.000000	8.136396
2067.000000	8.122801
2066.000000	8.110693
2065.000000	8.072139
2064.000000	8.024875
2063.000000	7.998110
2062.000000	7.981859
2061.000000	7.947341
2060.000000	7.912079
2059.000000	7.899121
2058.000000	7.879791
2057.000000	7.854725
2056.000000	7.850158
2055.000000	7.844316
2054.000000	7.838900
2053.000000	7.819569
2052.000000	7.833589
2051.000000	7.844847
2050.000000	7.855893
2049.000000	7.878941
2048.000000	7.901033
2047.000000	7.915690
2046.000000	7.937994
2045.000000	7.972619
2044.000000	8.011492
2043.000000	8.027318
2042.000000	8.058119
2041.000000	8.095399
2040.000000	8.128324
2039.000000	8.172933
2038.000000	8.203097
2037.000000	8.219772
2036.000000	8.254078
2035.000000	8.279356
2034.000000	8.315043
2033.000000	8.335648
2032.000000	8.342021
2031.000000	8.364538
2030.000000	8.389178
2029.000000	8.401924
2028.000000	8.406491
2027.000000	8.400012
2026.000000	8.420298
2025.000000	8.440160
2024.000000	8.458428
2023.000000	8.460340
2022.000000	8.445789
2021.000000	8.459596
2020.000000	8.476271
2019.000000	8.460977
2018.000000	8.468199
2017.000000	8.476803
2016.000000	8.463208
2015.000000	8.444302
2014.000000	8.457047
2013.000000	8.454286
2012.000000	8.432300
2011.000000	8.419449
2010.000000	8.413395
2009.000000	8.415200
2008.000000	8.388647
2007.000000	8.360289
2006.000000	8.350624
2005.000000	8.337135
2004.000000	8.317167
2003.000000	8.294863
2002.000000	8.260345
2001.000000	8.245900
2000.000000	8.218604
1999.000000	8.199486
1998.000000	8.166454
1997.000000	8.138308
1996.000000	8.111649
1995.000000	8.080529
1994.000000	8.053233
1993.000000	8.027105
1992.000000	7.983877
1991.000000	7.960723
1990.000000	7.929391
1989.000000	7.881703
1988.000000	7.857168
1987.000000	7.824880
1986.000000	7.793972
1985.000000	7.749364
1984.000000	7.718350
1983.000000	7.677671
1982.000000	7.644640
1981.000000	7.620424
1980.000000	7.586967
1979.000000	7.539703
1978.000000	7.508902
1977.000000	7.488510
1976.000000	7.450167
1975.000000	7.427013
1974.000000	7.377625
1973.000000	7.329937
1972.000000	7.326007
1971.000000	7.289895
1970.000000	7.253783
1969.000000	7.221814
1968.000000	7.191331
1967.000000	7.166159
1966.000000	7.152564
1965.000000	7.124312
1964.000000	7.078854
1963.000000	7.058355
1962.000000	7.042530
1961.000000	7.016614
1960.000000	6.973599
1959.000000	6.959685
1958.000000	6.928247
1957.000000	6.907961
1956.000000	6.889586
1955.000000	6.851669
1954.000000	6.841472
1953.000000	6.810777
1952.000000	6.761602
1951.000000	6.774028
1950.000000	6.756185
1949.000000	6.712214
1948.000000	6.719117
1947.000000	6.679288
1946.000000	6.668455
1945.000000	6.658790
1944.000000	6.659746
1943.000000	6.608977
1942.000000	6.627670
1941.000000	6.621616
1940.000000	6.607277
1939.000000	6.584123
1938.000000	6.590071
1937.000000	6.588053
1936.000000	6.584867
1935.000000	6.576795
1934.000000	6.590602
1933.000000	6.601117
1932.000000	6.587416
1931.000000	6.618854
1930.000000	6.640096
1929.000000	6.657196
1928.000000	6.679713
1927.000000	6.688529
1926.000000	6.705204
1925.000000	6.755442
1924.000000	6.758628
1923.000000	6.798032
1922.000000	6.850500
1921.000000	6.878328
1920.000000	6.897977
1919.000000	6.969032
1918.000000	7.003338
1917.000000	7.052514
1916.000000	7.105725
1915.000000	7.180498
1914.000000	7.236896
1913.000000	7.299348
1912.000000	7.407046
1911.000000	7.430412
1910.000000	7.519205
1909.000000	7.606298
1908.000000	7.711977
1907.000000	7.792804
1906.000000	7.902945
1905.000000	7.988763
1904.000000	8.124501
1903.000000	8.246219
1902.000000	8.346482
1901.000000	8.474891
1900.000000	8.610628
1899.000000	8.747747
1898.000000	8.905789
1897.000000	9.077638
1896.000000	9.234830
1895.000000	9.417832
1894.000000	9.577042
1893.000000	9.798916
1892.000000	9.999230
1891.000000	10.209953
1890.000000	10.458168
1889.000000	10.710419
1888.000000	10.950349
1887.000000	11.221506
1886.000000	11.468128
1885.000000	11.781450
1884.000000	12.092967
1883.000000	12.415636
1882.000000	12.736924
1881.000000	13.090182
1880.000000	13.456822
1879.000000	13.786182
1878.000000	14.152291
1877.000000	14.526791
1876.000000	14.883341
1875.000000	15.233625
1874.000000	15.589432
1873.000000	15.925695
1872.000000	16.267270
1871.000000	16.613730
1870.000000	16.922379
1869.000000	17.207343
1868.000000	17.517267
1867.000000	17.754542
1866.000000	17.997340
1865.000000	18.201796
1864.000000	18.404128
1863.000000	18.606354
1862.000000	18.779478
1861.000000	18.941555
1860.000000	19.123282
1859.000000	19.300336
1858.000000	19.433418
1857.000000	19.552056
1856.000000	19.657736
1855.000000	19.765540
1854.000000	19.854439
1853.000000	19.924538
1852.000000	19.954489
1851.000000	20.017366
1850.000000	20.078119
1849.000000	20.124002
1848.000000	20.155547
1847.000000	20.176152
1846.000000	20.180506
1845.000000	20.161176
1844.000000	20.159901
1843.000000	20.155653
1842.000000	20.172009
1841.000000	20.212794
1840.000000	20.213219
1839.000000	20.188791
1838.000000	20.178701
1837.000000	20.166699
1836.000000	20.142695
1835.000000	20.115187
1834.000000	20.077163
1833.000000	20.043494
1832.000000	20.012905
1831.000000	19.963517
1830.000000	19.938558
1829.000000	19.901490
1828.000000	19.851040
1827.000000	19.789650
1826.000000	19.751945
1825.000000	19.717958
1824.000000	19.667826
1823.000000	19.623217
1822.000000	19.606967
1821.000000	19.606330
1820.000000	19.583707
1819.000000	19.534213
1818.000000	19.497251
1817.000000	19.470698
1816.000000	19.456148
1815.000000	19.445845
1814.000000	19.417487
1813.000000	19.394439
1812.000000	19.387323
1811.000000	19.366506
1810.000000	19.336129
1809.000000	19.293645
1808.000000	19.256259
1807.000000	19.240752
1806.000000	19.208995
1805.000000	19.165767
1804.000000	19.127531
1803.000000	19.092056
1802.000000	19.045748
1801.000000	19.003476
1800.000000	18.951964
1799.000000	18.886857
1798.000000	18.851170
1797.000000	18.812934
1796.000000	18.766945
1795.000000	18.736462
1794.000000	18.700032
1793.000000	18.647245
1792.000000	18.592015
1791.000000	18.547407
1790.000000	18.514056
1789.000000	18.482406
1788.000000	18.440240
1787.000000	18.399667
1786.000000	18.371096
1785.000000	18.327231
1784.000000	18.262867
1783.000000	18.215179
1782.000000	18.168658
1781.000000	18.138601
1780.000000	18.093142
1779.000000	18.021662
1778.000000	17.972805
1777.000000	17.915345
1776.000000	17.859691
1775.000000	17.801700
1774.000000	17.749338
1773.000000	17.672866
1772.000000	17.590340
1771.000000	17.533729
1770.000000	17.469047
1769.000000	17.388964
1768.000000	17.321838
1767.000000	17.243986
1766.000000	17.175267
1765.000000	17.132358
1764.000000	17.083076
1763.000000	17.044415
1762.000000	17.036025
1761.000000	17.019668
1760.000000	17.035069
1759.000000	17.075004
1758.000000	17.128534
1757.000000	17.191199
1756.000000	17.242074
1755.000000	17.286470
1754.000000	17.325662
1753.000000	17.379405
1752.000000	17.414454
1751.000000	17.437927
1750.000000	17.442706
1749.000000	17.442175
1748.000000	17.434528
1747.000000	17.418384
1746.000000	17.391831
1745.000000	17.365916
1744.000000	17.306969
1743.000000	17.208086
1742.000000	17.123967
1741.000000	17.025191
1740.000000	16.901349
1739.000000	16.771347
1738.000000	16.628387
1737.000000	16.501890
1736.000000	16.378579
1735.000000	16.279909
1734.000000	16.179221
1733.000000	16.134188
1732.000000	16.097332
1731.000000	16.085543
1730.000000	16.082994
1729.000000	16.121761
1728.000000	16.199295
1727.000000	16.253781
1726.000000	16.320482
1725.000000	16.391430
1724.000000	16.459087
1723.000000	16.510705
1722.000000	16.556376
1721.000000	16.588452
1720.000000	16.639008
1719.000000	16.703903
1718.000000	16.779950
1717.000000	16.821054
1716.000000	16.884037
1715.000000	16.957535
1714.000000	17.031458
1713.000000	17.109098
1712.000000	17.154981
1711.000000	17.230072
1710.000000	17.301552
1709.000000	17.355932
1708.000000	17.370271
1707.000000	17.382060
1706.000000	17.360712
1705.000000	17.337451
1704.000000	17.309306
1703.000000	17.252270
1702.000000	17.208193
1701.000000	17.146590
1700.000000	17.066507
1699.000000	16.966669
1698.000000	16.872460
1697.000000	16.782605
1696.000000	16.665242
1695.000000	16.599923
1694.000000	16.574857
1693.000000	16.567422
1692.000000	16.590576
1691.000000	16.670765
1690.000000	16.763487
1689.000000	16.869061
1688.000000	16.958916
1687.000000	17.054824
1686.000000	17.140111
1685.000000	17.188331
1684.000000	17.259280
1683.000000	17.350091
1682.000000	17.464586
1681.000000	17.669467
1680.000000	17.926710
1679.000000	18.221551
1678.000000	18.574384
1677.000000	18.952283
1676.000000	19.323596
1675.000000	19.690555
1674.000000	20.001222
1673.000000	20.302330
1672.000000	20.595048
1671.000000	20.816391
1670.000000	20.986966
1669.000000	21.177084
1668.000000	21.318663
1667.000000	21.465765
1666.000000	21.586739
1665.000000	21.664486
1664.000000	21.751154
1663.000000	21.855772
1662.000000	21.908771
1661.000000	21.968993
1660.000000	22.022842
1659.000000	22.095915
1658.000000	22.117475
1657.000000	22.151994
1656.000000	22.171749
1655.000000	22.163252
1654.000000	22.191929
1653.000000	22.188318
1652.000000	22.200851
1651.000000	22.160278
1650.000000	22.158473
1649.000000	22.116307
1648.000000	22.084762
1647.000000	22.067025
1646.000000	22.025709
1645.000000	21.992571
1644.000000	21.926827
1643.000000	21.897194
1642.000000	21.813181
1641.000000	21.771653
1640.000000	21.734373
1639.000000	21.715042
1638.000000	21.642288
1637.000000	21.594068
1636.000000	21.535333
1635.000000	21.467995
1634.000000	21.417120
1633.000000	21.350845
1632.000000	21.266620
1631.000000	21.201406
1630.000000	21.157541
1629.000000	21.082981
1628.000000	21.023078
1627.000000	20.941295
1626.000000	20.858982
1625.000000	20.787714
1624.000000	20.703489
1623.000000	20.650915
1622.000000	20.582621
1621.000000	20.494360
1620.000000	20.432439
1619.000000	20.358834
1618.000000	20.284805
1617.000000	20.234568
1616.000000	20.179126
1615.000000	20.108283
1614.000000	20.029899
1613.000000	19.965748
1612.000000	19.904995
1611.000000	19.850934
1610.000000	19.778392
1609.000000	19.718382
1608.000000	19.651682
1607.000000	19.585513
1606.000000	19.511483
1605.000000	19.439791
1604.000000	19.377870
1603.000000	19.304691
1602.000000	19.233742
1601.000000	19.165554
1600.000000	19.100341
1599.000000	19.045005
1598.000000	18.973100
1597.000000	18.893548
1596.000000	18.838212
1595.000000	18.785956
1594.000000	18.721805
1593.000000	18.646926
1592.000000	18.599025
1591.000000	18.541671
1590.000000	18.476670
1589.000000	18.425264
1588.000000	18.360582
1587.000000	18.308963
1586.000000	18.280074
1585.000000	18.215179
1584.000000	18.153364
1583.000000	18.122138
1582.000000	18.078167
1581.000000	18.019963
1580.000000	17.972062
