PE UV       SUBTECH     SPECTRUM    ASCII       PEDS        4.00        
   -1
CICIMAUCR0252-3.ASC
24/06/27
16:45:06.00
24/06/27
16:45:06.00
Vinicio Soto Monge
C. resplendens. Sex F. Ventral
250,000000
1
Lambda 1050
1050L1511233
PerkinElmer UV WinLab 6.3.2.0749 / 2.02.05 Lambda 900 UV/VIS/NIR, Aug  7 2015 09:38:08

0
0
3350/servo 860,8/2
0
0
UV/VIS
1
1
1
DoubleDePol,CommonBeamDepol,RBeamAtt,SBeamAtt,60mm sphere, WB InGaAs Detector
0
0
0
0
Program
Program
3350/servo 860,8/2
3350/0,2 860,8/0,2
3350/0,2 860,8/0,2
0
15.00
 
 
 
0
 
860,8
319,2
860,8
Front
100
on
S:100 R:100
0
0
0
0
 
0
 
 
 
0
 
 
0
0
0
0
0
 
 
 
 
0
0


0
0
#HDR
-1
-1
#GR
nm
%R
1.0
0.0
2500,000000
-1,000000
2251
8
57,604900
4,300200
#DATA
2482.000000	5.069364
2481.000000	5.128038
2480.000000	5.052018
2479.000000	5.034788
2478.000000	5.071576
2477.000000	5.044451
2476.000000	5.029782
2475.000000	5.051203
2474.000000	5.057257
2473.000000	5.014183
2472.000000	5.031762
2471.000000	5.006150
2470.000000	5.063893
2469.000000	5.032809
2468.000000	5.050272
2467.000000	5.054230
2466.000000	5.027454
2465.000000	5.010690
2464.000000	5.058887
2463.000000	5.023380
2462.000000	5.053299
2461.000000	5.042472
2460.000000	5.056093
2459.000000	5.073904
2458.000000	5.097071
2457.000000	5.075301
2456.000000	5.049573
2455.000000	5.067734
2454.000000	5.074836
2453.000000	5.094627
2452.000000	5.117444
2451.000000	5.113835
2450.000000	5.092298
2449.000000	5.123381
2448.000000	5.153883
2447.000000	5.194163
2446.000000	5.153417
2445.000000	5.147945
2444.000000	5.187178
2443.000000	5.196258
2442.000000	5.195560
2441.000000	5.232580
2440.000000	5.211742
2439.000000	5.247482
2438.000000	5.218145
2437.000000	5.260171
2436.000000	5.249810
2435.000000	5.267505
2434.000000	5.286016
2433.000000	5.307087
2432.000000	5.306039
2431.000000	5.308368
2430.000000	5.343060
2429.000000	5.324084
2428.000000	5.321988
2427.000000	5.337821
2426.000000	5.369021
2425.000000	5.376588
2424.000000	5.379149
2423.000000	5.362967
2422.000000	5.395098
2421.000000	5.408835
2420.000000	5.390907
2419.000000	5.392653
2418.000000	5.408253
2417.000000	5.432351
2416.000000	5.439220
2415.000000	5.434098
2414.000000	5.436077
2413.000000	5.445274
2412.000000	5.444109
2411.000000	5.462969
2410.000000	5.482643
2409.000000	5.478336
2408.000000	5.470885
2407.000000	5.495798
2406.000000	5.491491
2405.000000	5.506509
2404.000000	5.531422
2403.000000	5.563320
2402.000000	5.578454
2401.000000	5.591609
2400.000000	5.599176
2399.000000	5.624090
2398.000000	5.626301
2397.000000	5.646209
2396.000000	5.663671
2395.000000	5.657268
2394.000000	5.667397
2393.000000	5.684044
2392.000000	5.690331
2391.000000	5.697781
2390.000000	5.717223
2389.000000	5.731076
2388.000000	5.732357
2387.000000	5.728981
2386.000000	5.742020
2385.000000	5.745046
2384.000000	5.744348
2383.000000	5.766001
2382.000000	5.767282
2381.000000	5.775082
2380.000000	5.789518
2379.000000	5.778109
2378.000000	5.787073
2377.000000	5.793825
2376.000000	5.782998
2375.000000	5.786956
2374.000000	5.790565
2373.000000	5.787771
2372.000000	5.780903
2371.000000	5.779506
2370.000000	5.784512
2369.000000	5.787888
2368.000000	5.795106
2367.000000	5.792312
2366.000000	5.783115
2365.000000	5.779273
2364.000000	5.781019
2363.000000	5.775198
2362.000000	5.767748
2361.000000	5.773918
2360.000000	5.781951
2359.000000	5.767631
2358.000000	5.744930
2357.000000	5.744581
2356.000000	5.734802
2355.000000	5.715011
2354.000000	5.715127
2353.000000	5.732008
2352.000000	5.726071
2351.000000	5.724441
2350.000000	5.717689
2349.000000	5.716408
2348.000000	5.735384
2347.000000	5.741554
2346.000000	5.747026
2345.000000	5.758784
2344.000000	5.776828
2343.000000	5.784628
2342.000000	5.787422
2341.000000	5.791613
2340.000000	5.805001
2339.000000	5.813965
2338.000000	5.812219
2337.000000	5.815246
2336.000000	5.840508
2335.000000	5.835851
2334.000000	5.837714
2333.000000	5.860299
2332.000000	5.862627
2331.000000	5.843069
2330.000000	5.801276
2329.000000	5.820601
2328.000000	5.834920
2327.000000	5.838762
2326.000000	5.815595
2325.000000	5.797434
2324.000000	5.804070
2323.000000	5.802091
2322.000000	5.781019
2321.000000	5.755175
2320.000000	5.738644
2319.000000	5.733754
2318.000000	5.713730
2317.000000	5.698480
2316.000000	5.654940
2315.000000	5.643880
2314.000000	5.645859
2313.000000	5.625952
2312.000000	5.606045
2311.000000	5.599875
2310.000000	5.581481
2309.000000	5.561341
2308.000000	5.549699
2307.000000	5.548186
2306.000000	5.544693
2305.000000	5.546672
2304.000000	5.536544
2303.000000	5.527697
2302.000000	5.534332
2301.000000	5.543296
2300.000000	5.556801
2299.000000	5.566580
2298.000000	5.565765
2297.000000	5.582296
2296.000000	5.612099
2295.000000	5.626185
2294.000000	5.633170
2293.000000	5.656686
2292.000000	5.659597
2291.000000	5.678805
2290.000000	5.670889
2289.000000	5.685441
2288.000000	5.705814
2287.000000	5.699178
2286.000000	5.695220
2285.000000	5.695686
2284.000000	5.696850
2283.000000	5.687071
2282.000000	5.697083
2281.000000	5.685674
2280.000000	5.679038
2279.000000	5.669958
2278.000000	5.667862
2277.000000	5.653776
2276.000000	5.614543
2275.000000	5.616872
2274.000000	5.604648
2273.000000	5.599642
2272.000000	5.587651
2271.000000	5.577174
2270.000000	5.581947
2269.000000	5.567395
2268.000000	5.613612
2267.000000	5.602902
2266.000000	5.616639
2265.000000	5.618734
2264.000000	5.627349
2263.000000	5.664952
2262.000000	5.682880
2261.000000	5.699062
2260.000000	5.740157
2259.000000	5.779971
2258.000000	5.832010
2257.000000	5.866702
2256.000000	5.953199
2255.000000	5.964026
2254.000000	5.996390
2253.000000	6.042840
2252.000000	6.126777
2251.000000	6.170899
2250.000000	6.228525
2249.000000	6.282892
2248.000000	6.324569
2247.000000	6.377888
2246.000000	6.414326
2245.000000	6.453558
2244.000000	6.503967
2243.000000	6.532023
2242.000000	6.588951
2241.000000	6.589300
2240.000000	6.619452
2239.000000	6.665087
2238.000000	6.684995
2237.000000	6.726555
2236.000000	6.714332
2235.000000	6.749722
2234.000000	6.784997
2233.000000	6.808862
2232.000000	6.820737
2231.000000	6.822483
2230.000000	6.830050
2229.000000	6.863578
2228.000000	6.866488
2227.000000	6.883951
2226.000000	6.865906
2225.000000	6.890354
2224.000000	6.900249
2223.000000	6.904207
2222.000000	6.884766
2221.000000	6.884300
2220.000000	6.895942
2219.000000	6.885115
2218.000000	6.899667
2217.000000	6.887909
2216.000000	6.880458
2215.000000	6.874405
2214.000000	6.857873
2213.000000	6.843321
2212.000000	6.848560
2211.000000	6.837151
2210.000000	6.840295
2209.000000	6.818874
2208.000000	6.832611
2207.000000	6.840295
2206.000000	6.801528
2205.000000	6.823414
2204.000000	6.823181
2203.000000	6.796988
2202.000000	6.807581
2201.000000	6.820853
2200.000000	6.784880
2199.000000	6.808862
2198.000000	6.804205
2197.000000	6.801295
2196.000000	6.781038
2195.000000	6.783367
2194.000000	6.777430
2193.000000	6.798734
2192.000000	6.798501
2191.000000	6.770910
2190.000000	6.796173
2189.000000	6.769746
2188.000000	6.768815
2187.000000	6.790701
2186.000000	6.795125
2185.000000	6.782552
2184.000000	6.771725
2183.000000	6.756940
2182.000000	6.763692
2181.000000	6.759152
2180.000000	6.750537
2179.000000	6.745997
2178.000000	6.756242
2177.000000	6.769746
2176.000000	6.756591
2175.000000	6.752516
2174.000000	6.762877
2173.000000	6.763227
2172.000000	6.766486
2171.000000	6.768582
2170.000000	6.765788
2169.000000	6.766603
2168.000000	6.772540
2167.000000	6.781271
2166.000000	6.779292
2165.000000	6.803507
2164.000000	6.812122
2163.000000	6.818175
2162.000000	6.810026
2161.000000	6.816429
2160.000000	6.833542
2159.000000	6.829933
2158.000000	6.832378
2157.000000	6.852751
2156.000000	6.872426
2155.000000	6.877548
2154.000000	6.862530
2153.000000	6.865906
2152.000000	6.874521
2151.000000	6.886745
2150.000000	6.912589
2149.000000	6.912473
2148.000000	6.909097
2147.000000	6.922252
2146.000000	6.930168
2145.000000	6.939365
2144.000000	6.962416
2143.000000	6.948795
2142.000000	6.945302
2141.000000	6.950890
2140.000000	6.967305
2139.000000	6.990123
2138.000000	7.002463
2137.000000	7.013173
2136.000000	6.995245
2135.000000	6.997690
2134.000000	7.003511
2133.000000	6.998272
2132.000000	6.994197
2131.000000	6.992335
2130.000000	6.978248
2129.000000	6.990705
2128.000000	6.998738
2127.000000	7.004791
2126.000000	7.000135
2125.000000	6.981508
2124.000000	6.977201
2123.000000	6.972195
2122.000000	6.959854
2121.000000	6.948562
2120.000000	6.941693
2119.000000	6.938434
2118.000000	6.941810
2117.000000	6.931565
2116.000000	6.916780
2115.000000	6.908631
2114.000000	6.899783
2113.000000	6.875918
2112.000000	6.870679
2111.000000	6.870097
2110.000000	6.854730
2109.000000	6.832145
2108.000000	6.812471
2107.000000	6.826092
2106.000000	6.827954
2105.000000	6.798734
2104.000000	6.781970
2103.000000	6.794659
2102.000000	6.768698
2101.000000	6.729815
2100.000000	6.722947
2099.000000	6.737499
2098.000000	6.730630
2097.000000	6.707114
2096.000000	6.708627
2095.000000	6.695589
2094.000000	6.669977
2093.000000	6.671840
2092.000000	6.676729
2091.000000	6.666252
2090.000000	6.643550
2089.000000	6.634703
2088.000000	6.623760
2087.000000	6.611303
2086.000000	6.615378
2085.000000	6.603736
2084.000000	6.585109
2083.000000	6.579521
2082.000000	6.583945
2081.000000	6.580103
2080.000000	6.555772
2079.000000	6.545295
2078.000000	6.541686
2077.000000	6.529346
2076.000000	6.519683
2075.000000	6.515725
2074.000000	6.498612
2073.000000	6.473931
2072.000000	6.469042
2071.000000	6.465316
2070.000000	6.444827
2069.000000	6.431439
2068.000000	6.411299
2067.000000	6.400705
2066.000000	6.385455
2065.000000	6.381613
2064.000000	6.368923
2063.000000	6.347968
2062.000000	6.336909
2061.000000	6.336327
2060.000000	6.319679
2059.000000	6.305709
2058.000000	6.298026
2057.000000	6.298375
2056.000000	6.292554
2055.000000	6.283590
2054.000000	6.296978
2053.000000	6.294300
2052.000000	6.302682
2051.000000	6.296745
2050.000000	6.291739
2049.000000	6.309784
2048.000000	6.314324
2047.000000	6.311996
2046.000000	6.327479
2045.000000	6.340518
2044.000000	6.352392
2043.000000	6.366362
2042.000000	6.374046
2041.000000	6.387783
2040.000000	6.400123
2039.000000	6.398260
2038.000000	6.398260
2037.000000	6.422242
2036.000000	6.427365
2035.000000	6.429693
2034.000000	6.449367
2033.000000	6.425851
2032.000000	6.436911
2031.000000	6.459030
2030.000000	6.471487
2029.000000	6.453326
2028.000000	6.451114
2027.000000	6.464618
2026.000000	6.474630
2025.000000	6.455887
2024.000000	6.460776
2023.000000	6.451346
2022.000000	6.439123
2021.000000	6.435979
2020.000000	6.447505
2019.000000	6.462988
2018.000000	6.453675
2017.000000	6.430857
2016.000000	6.418633
2015.000000	6.424803
2014.000000	6.418284
2013.000000	6.391858
2012.000000	6.409320
2011.000000	6.411532
2010.000000	6.365780
2009.000000	6.360076
2008.000000	6.377189
2007.000000	6.345524
2006.000000	6.331088
2005.000000	6.321193
2004.000000	6.310948
2003.000000	6.308852
2002.000000	6.284987
2001.000000	6.281145
2000.000000	6.258095
1999.000000	6.226662
1998.000000	6.216650
1997.000000	6.199304
1996.000000	6.180911
1995.000000	6.165893
1994.000000	6.137487
1993.000000	6.136439
1992.000000	6.115135
1991.000000	6.107335
1990.000000	6.075553
1989.000000	6.066357
1988.000000	6.031315
1987.000000	6.042957
1986.000000	6.019906
1985.000000	5.984399
1984.000000	5.960184
1983.000000	5.944352
1982.000000	5.935737
1981.000000	5.932594
1980.000000	5.905934
1979.000000	5.888937
1978.000000	5.899182
1977.000000	5.866818
1976.000000	5.850404
1975.000000	5.816410
1974.000000	5.793941
1973.000000	5.786142
1972.000000	5.767049
1971.000000	5.734103
1970.000000	5.732706
1969.000000	5.711053
1968.000000	5.705814
1967.000000	5.721297
1966.000000	5.687304
1965.000000	5.689050
1964.000000	5.675662
1963.000000	5.647955
1962.000000	5.623973
1961.000000	5.626767
1960.000000	5.596964
1959.000000	5.600224
1958.000000	5.601738
1957.000000	5.575777
1956.000000	5.583227
1955.000000	5.596150
1954.000000	5.554240
1953.000000	5.539804
1952.000000	5.524786
1951.000000	5.517103
1950.000000	5.533983
1949.000000	5.512795
1948.000000	5.483109
1947.000000	5.503948
1946.000000	5.497894
1945.000000	5.486136
1944.000000	5.493470
1943.000000	5.469372
1942.000000	5.485903
1941.000000	5.448300
1940.000000	5.470536
1939.000000	5.462852
1938.000000	5.461106
1937.000000	5.443877
1936.000000	5.440850
1935.000000	5.462736
1934.000000	5.460524
1933.000000	5.478103
1932.000000	5.452142
1931.000000	5.460291
1930.000000	5.460291
1929.000000	5.452724
1928.000000	5.471002
1927.000000	5.492888
1926.000000	5.527464
1925.000000	5.522574
1924.000000	5.511049
1923.000000	5.535147
1922.000000	5.592308
1921.000000	5.589863
1920.000000	5.609305
1919.000000	5.613496
1918.000000	5.655289
1917.000000	5.651680
1916.000000	5.664952
1915.000000	5.710820
1914.000000	5.725721
1913.000000	5.734336
1912.000000	5.791147
1911.000000	5.845281
1910.000000	5.852383
1909.000000	5.868332
1908.000000	5.888006
1907.000000	5.957623
1906.000000	6.000930
1905.000000	6.044121
1904.000000	6.117813
1903.000000	6.150293
1902.000000	6.191272
1901.000000	6.268456
1900.000000	6.319563
1899.000000	6.415839
1898.000000	6.422592
1897.000000	6.512582
1896.000000	6.600476
1895.000000	6.668231
1894.000000	6.756475
1893.000000	6.833426
1892.000000	6.944022
1891.000000	7.058110
1890.000000	7.177786
1889.000000	7.315158
1888.000000	7.442402
1887.000000	7.587922
1886.000000	7.749392
1885.000000	7.934378
1884.000000	8.132170
1883.000000	8.390383
1882.000000	8.580724
1881.000000	8.837655
1880.000000	9.068277
1879.000000	9.359668
1878.000000	9.598555
1877.000000	9.876674
1876.000000	10.149904
1875.000000	10.417080
1874.000000	10.699973
1873.000000	10.970758
1872.000000	11.236887
1871.000000	11.496147
1870.000000	11.762624
1869.000000	11.997670
1868.000000	12.222820
1867.000000	12.428295
1866.000000	12.610836
1865.000000	12.788372
1864.000000	12.935988
1863.000000	13.081392
1862.000000	13.216552
1861.000000	13.363121
1860.000000	13.509340
1859.000000	13.640193
1858.000000	13.748809
1857.000000	13.848578
1856.000000	13.947416
1855.000000	14.016568
1854.000000	14.066743
1853.000000	14.125184
1852.000000	14.146489
1851.000000	14.199807
1850.000000	14.251613
1849.000000	14.285956
1848.000000	14.329496
1847.000000	14.331358
1846.000000	14.342534
1845.000000	14.331242
1844.000000	14.315758
1843.000000	14.315409
1842.000000	14.330311
1841.000000	14.352663
1840.000000	14.349170
1839.000000	14.328914
1838.000000	14.335433
1837.000000	14.341952
1836.000000	14.313779
1835.000000	14.302953
1834.000000	14.266514
1833.000000	14.240204
1832.000000	14.221228
1831.000000	14.200157
1830.000000	14.168142
1829.000000	14.150214
1828.000000	14.102134
1827.000000	14.047651
1826.000000	14.009815
1825.000000	13.962317
1824.000000	13.923784
1823.000000	13.909464
1822.000000	13.897357
1821.000000	13.877566
1820.000000	13.854748
1819.000000	13.828322
1818.000000	13.778961
1817.000000	13.753932
1816.000000	13.741591
1815.000000	13.736120
1814.000000	13.716329
1813.000000	13.707365
1812.000000	13.709228
1811.000000	13.685711
1810.000000	13.671392
1809.000000	13.636467
1808.000000	13.613650
1807.000000	13.594790
1806.000000	13.565569
1805.000000	13.542053
1804.000000	13.511319
1803.000000	13.485824
1802.000000	13.448571
1801.000000	13.404332
1800.000000	13.384542
1799.000000	13.347521
1798.000000	13.291175
1797.000000	13.270220
1796.000000	13.243328
1795.000000	13.215621
1794.000000	13.179066
1793.000000	13.136341
1792.000000	13.117947
1791.000000	13.079064
1790.000000	13.039948
1789.000000	13.001531
1788.000000	12.972310
1787.000000	12.951937
1786.000000	12.912472
1785.000000	12.867302
1784.000000	12.824577
1783.000000	12.788139
1782.000000	12.752865
1781.000000	12.715029
1780.000000	12.665901
1779.000000	12.626785
1778.000000	12.582081
1777.000000	12.527016
1776.000000	12.486853
1775.000000	12.432370
1774.000000	12.387316
1773.000000	12.344708
1772.000000	12.283822
1771.000000	12.220142
1770.000000	12.171014
1769.000000	12.115600
1768.000000	12.066006
1767.000000	12.010010
1766.000000	11.942837
1765.000000	11.899414
1764.000000	11.860065
1763.000000	11.818272
1762.000000	11.815128
1761.000000	11.815710
1760.000000	11.821182
1759.000000	11.833871
1758.000000	11.890683
1757.000000	11.931312
1756.000000	11.989520
1755.000000	12.039463
1754.000000	12.070663
1753.000000	12.121304
1752.000000	12.160420
1751.000000	12.177883
1750.000000	12.196277
1749.000000	12.200118
1748.000000	12.200584
1747.000000	12.204309
1746.000000	12.176719
1745.000000	12.161701
1744.000000	12.135740
1743.000000	12.082887
1742.000000	12.007681
1741.000000	11.927470
1740.000000	11.820251
1739.000000	11.715941
1738.000000	11.629444
1737.000000	11.516985
1736.000000	11.403595
1735.000000	11.319543
1734.000000	11.259937
1733.000000	11.210111
1732.000000	11.169016
1731.000000	11.172974
1730.000000	11.204523
1729.000000	11.242475
1728.000000	11.280077
1727.000000	11.344106
1726.000000	11.424434
1725.000000	11.486833
1724.000000	11.556683
1723.000000	11.592889
1722.000000	11.664369
1721.000000	11.671587
1720.000000	11.701040
1719.000000	11.718968
1718.000000	11.745395
1717.000000	11.777875
1716.000000	11.800460
1715.000000	11.838761
1714.000000	11.865537
1713.000000	11.906166
1712.000000	11.963210
1711.000000	11.990219
1710.000000	12.026774
1709.000000	12.039812
1708.000000	12.063445
1707.000000	12.051454
1706.000000	12.038648
1705.000000	12.027589
1704.000000	11.994992
1703.000000	11.949822
1702.000000	11.914781
1701.000000	11.871008
1700.000000	11.793358
1699.000000	11.714777
1698.000000	11.628978
1697.000000	11.544227
1696.000000	11.498824
1695.000000	11.417100
1694.000000	11.394864
1693.000000	11.402082
1692.000000	11.454586
1691.000000	11.527812
1690.000000	11.606742
1689.000000	11.696500
1688.000000	11.791845
1687.000000	11.882184
1686.000000	11.929333
1685.000000	12.000464
1684.000000	12.031780
1683.000000	12.062164
1682.000000	12.172528
1681.000000	12.286150
1680.000000	12.484175
1679.000000	12.743202
1678.000000	13.038900
1677.000000	13.333784
1676.000000	13.662312
1675.000000	13.952655
1674.000000	14.246956
1673.000000	14.509942
1672.000000	14.741378
1671.000000	14.897260
1670.000000	15.072350
1669.000000	15.224507
1668.000000	15.343136
1667.000000	15.447212
1666.000000	15.520089
1665.000000	15.607052
1664.000000	15.673992
1663.000000	15.712060
1662.000000	15.785053
1661.000000	15.801817
1660.000000	15.853739
1659.000000	15.863751
1658.000000	15.889712
1657.000000	15.917536
1656.000000	15.896464
1655.000000	15.922309
1654.000000	15.933485
1653.000000	15.950132
1652.000000	15.912530
1651.000000	15.904846
1650.000000	15.864682
1649.000000	15.847569
1648.000000	15.834763
1647.000000	15.813110
1646.000000	15.764797
1645.000000	15.717182
1644.000000	15.679580
1643.000000	15.651756
1642.000000	15.604724
1641.000000	15.565375
1640.000000	15.511241
1639.000000	15.490636
1638.000000	15.437317
1637.000000	15.387956
1636.000000	15.352798
1635.000000	15.307745
1634.000000	15.256289
1633.000000	15.181782
1632.000000	15.147439
1631.000000	15.094470
1630.000000	15.038473
1629.000000	14.983059
1628.000000	14.931137
1627.000000	14.870368
1626.000000	14.804126
1625.000000	14.759772
1624.000000	14.670713
1623.000000	14.637534
1622.000000	14.583168
1621.000000	14.538114
1620.000000	14.487357
1619.000000	14.428333
1618.000000	14.366865
1617.000000	14.305747
1616.000000	14.260693
1615.000000	14.204231
1614.000000	14.150796
1613.000000	14.096662
1612.000000	14.076522
1611.000000	14.014589
1610.000000	13.940664
1609.000000	13.919942
1608.000000	13.855331
1607.000000	13.816913
1606.000000	13.778961
1605.000000	13.745084
1604.000000	13.670810
1603.000000	13.630879
1602.000000	13.574068
1601.000000	13.522845
1600.000000	13.483496
1599.000000	13.415974
1598.000000	13.398395
1597.000000	13.334599
1596.000000	13.292805
1595.000000	13.239253
1594.000000	13.207705
1593.000000	13.158344
1592.000000	13.113989
1591.000000	13.067190
1590.000000	13.041694
1589.000000	12.997340
1588.000000	12.956361
1587.000000	12.901878
1586.000000	12.869281
1585.000000	12.845299
1584.000000	12.802225
1583.000000	12.770094
1582.000000	12.730396
1581.000000	12.704435
1580.000000	12.684062
1579.000000	12.644597
