PE UV       SUBTECH     SPECTRUM    ASCII       PEDS        4.00        
   -1
INBUCR0144-3.Sample.ASC
24/04/29
14:11:41.00
24/04/29
14:11:41.00
Vinicio Soto Monge
C. cupreomarginata
250,000000
1
Lambda 1050
1050L1511233
PerkinElmer UV WinLab 6.3.2.0749 / 2.02.05 Lambda 900 UV/VIS/NIR, Aug  7 2015 09:38:08

0
0
3350/servo 860,8/2
0
0
UV/VIS
1
1
1
DoubleDePol,CommonBeamDepol,RBeamAtt,SBeamAtt,60mm sphere, WB InGaAs Detector
0
0
0
0
Program
Program
3350/servo 860,8/2
3350/0,2 860,8/0,2
3350/0,2 860,8/0,2
0
15.00
 
 
 
0
 
860,8
319,2
860,8
Front
100
on
S:100 R:100
0
0
0
0
 
0
 
 
 
0
 
 
0
0
0
0
0
 
 
 
 
0
0


0
0
#HDR
-1
-1
#GR
nm
%R
1.0
0.0
2500,000000
-1,000000
2251
8
83,950500
5,540900
#DATA
2500.000000	16.540787
2499.000000	16.430989
2498.000000	16.362043
2497.000000	16.341349
2496.000000	16.219220
2495.000000	16.326981
2494.000000	16.201743
2493.000000	16.280445
2492.000000	16.263504
2491.000000	16.161962
2490.000000	16.130760
2489.000000	16.149417
2488.000000	16.237127
2487.000000	16.256749
2486.000000	16.112746
2485.000000	16.224152
2484.000000	16.359792
2483.000000	16.256749
2482.000000	16.247742
2481.000000	16.265970
2480.000000	16.280445
2479.000000	16.316473
2478.000000	16.379735
2477.000000	16.373945
2476.000000	16.341456
2475.000000	16.401180
2474.000000	16.417586
2473.000000	16.500149
2472.000000	16.554940
2471.000000	16.604264
2470.000000	16.658090
2469.000000	16.700230
2468.000000	16.775501
2467.000000	16.817641
2466.000000	16.815174
2465.000000	16.935480
2464.000000	17.018579
2463.000000	17.063614
2462.000000	17.149501
2461.000000	17.270557
2460.000000	17.337573
2459.000000	17.425711
2458.000000	17.509025
2457.000000	17.573467
2456.000000	17.705460
2455.000000	17.811827
2454.000000	17.903826
2453.000000	18.026598
2452.000000	18.170815
2451.000000	18.265494
2450.000000	18.362532
2449.000000	18.515220
2448.000000	18.649037
2447.000000	18.793468
2446.000000	18.928142
2445.000000	19.062816
2444.000000	19.189985
2443.000000	19.328197
2442.000000	19.466517
2441.000000	19.616417
2440.000000	19.721068
2439.000000	19.863891
2438.000000	20.015078
2437.000000	20.159831
2436.000000	20.283783
2435.000000	20.413310
2434.000000	20.530614
2433.000000	20.670649
2432.000000	20.798461
2431.000000	20.905578
2430.000000	21.035856
2429.000000	21.149728
2428.000000	21.265102
2427.000000	21.360854
2426.000000	21.492847
2425.000000	21.587097
2424.000000	21.696252
2423.000000	21.794899
2422.000000	21.887005
2421.000000	21.969353
2420.000000	22.060280
2419.000000	22.162786
2418.000000	22.247386
2417.000000	22.320085
2416.000000	22.396536
2415.000000	22.474917
2414.000000	22.520273
2413.000000	22.587610
2412.000000	22.648085
2411.000000	22.698266
2410.000000	22.755953
2409.000000	22.808922
2408.000000	22.843662
2407.000000	22.893844
2406.000000	22.940915
2405.000000	22.980695
2404.000000	23.017688
2403.000000	23.051571
2402.000000	23.088563
2401.000000	23.167052
2400.000000	23.242538
2399.000000	23.313628
2398.000000	23.384182
2397.000000	23.422461
2396.000000	23.437687
2395.000000	23.459346
2394.000000	23.485187
2393.000000	23.492586
2392.000000	23.517569
2391.000000	23.570645
2390.000000	23.597237
2389.000000	23.586300
2388.000000	23.583619
2387.000000	23.610747
2386.000000	23.618146
2385.000000	23.592197
2384.000000	23.609032
2383.000000	23.615036
2382.000000	23.588230
2381.000000	23.591983
2380.000000	23.589517
2379.000000	23.571610
2378.000000	23.572039
2377.000000	23.567428
2376.000000	23.534296
2375.000000	23.506203
2374.000000	23.495052
2373.000000	23.482078
2372.000000	23.477574
2371.000000	23.474465
2370.000000	23.457952
2369.000000	23.443906
2368.000000	23.435328
2367.000000	23.441976
2366.000000	23.457738
2365.000000	23.452698
2364.000000	23.437043
2363.000000	23.425463
2362.000000	23.430717
2361.000000	23.429966
2360.000000	23.425999
2359.000000	23.412274
2358.000000	23.394046
2357.000000	23.385683
2356.000000	23.380321
2355.000000	23.377212
2354.000000	23.355981
2353.000000	23.323707
2352.000000	23.306765
2351.000000	23.302691
2350.000000	23.281353
2349.000000	23.243181
2348.000000	23.222058
2347.000000	23.209513
2346.000000	23.201685
2345.000000	23.180455
2344.000000	23.152576
2343.000000	23.135313
2342.000000	23.139281
2341.000000	23.138101
2340.000000	23.128236
2339.000000	23.133812
2338.000000	23.133705
2337.000000	23.130381
2336.000000	23.126092
2335.000000	23.137672
2334.000000	23.175523
2333.000000	23.190319
2332.000000	23.203723
2331.000000	23.222487
2330.000000	23.260444
2329.000000	23.294327
2328.000000	23.318882
2327.000000	23.354802
2326.000000	23.400158
2325.000000	23.438652
2324.000000	23.468675
2323.000000	23.494301
2322.000000	23.506739
2321.000000	23.528613
2320.000000	23.543088
2319.000000	23.561317
2318.000000	23.554454
2317.000000	23.539657
2316.000000	23.530758
2315.000000	23.512208
2314.000000	23.474894
2313.000000	23.454414
2312.000000	23.436829
2311.000000	23.394475
2310.000000	23.334644
2309.000000	23.310304
2308.000000	23.261946
2307.000000	23.226669
2306.000000	23.178525
2305.000000	23.133812
2304.000000	23.110866
2303.000000	23.093496
2302.000000	23.078270
2301.000000	23.061007
2300.000000	23.058112
2299.000000	23.059291
2298.000000	23.048569
2297.000000	23.071193
2296.000000	23.089099
2295.000000	23.074302
2294.000000	23.083309
2293.000000	23.127271
2292.000000	23.143355
2291.000000	23.189354
2290.000000	23.250580
2289.000000	23.256370
2288.000000	23.297222
2287.000000	23.354159
2286.000000	23.408093
2285.000000	23.442512
2284.000000	23.457309
2283.000000	23.521322
2282.000000	23.577936
2281.000000	23.631013
2280.000000	23.674867
2279.000000	23.721403
2278.000000	23.769225
2277.000000	23.806218
2276.000000	23.848678
2275.000000	23.891568
2274.000000	23.923628
2273.000000	23.960192
2272.000000	24.022490
2271.000000	24.065594
2270.000000	24.144297
2269.000000	24.172711
2268.000000	24.230291
2267.000000	24.335049
2266.000000	24.407962
2265.000000	24.501676
2264.000000	24.608686
2263.000000	24.739715
2262.000000	24.874282
2261.000000	25.035011
2260.000000	25.204962
2259.000000	25.363119
2258.000000	25.565451
2257.000000	25.747733
2256.000000	25.942989
2255.000000	26.139317
2254.000000	26.365883
2253.000000	26.591698
2252.000000	26.788026
2251.000000	27.005692
2250.000000	27.197946
2249.000000	27.418399
2248.000000	27.582131
2247.000000	27.758087
2246.000000	27.922141
2245.000000	28.074721
2244.000000	28.242099
2243.000000	28.378060
2242.000000	28.470809
2241.000000	28.590043
2240.000000	28.683113
2239.000000	28.782403
2238.000000	28.815429
2237.000000	28.871400
2236.000000	28.919008
2235.000000	28.947208
2234.000000	28.962648
2233.000000	28.979268
2232.000000	28.964900
2231.000000	28.946993
2230.000000	28.907856
2229.000000	28.878691
2228.000000	28.836016
2227.000000	28.765998
2226.000000	28.720106
2225.000000	28.638615
2224.000000	28.559805
2223.000000	28.457835
2222.000000	28.390069
2221.000000	28.274373
2220.000000	28.191596
2219.000000	28.094129
2218.000000	28.013174
2217.000000	27.901982
2216.000000	27.796795
2215.000000	27.704153
2214.000000	27.591782
2213.000000	27.507610
2212.000000	27.420544
2211.000000	27.329725
2210.000000	27.252309
2209.000000	27.178431
2208.000000	27.107555
2207.000000	27.062521
2206.000000	26.971380
2205.000000	26.884635
2204.000000	26.857400
2203.000000	26.795103
2202.000000	26.750605
2201.000000	26.717794
2200.000000	26.663753
2199.000000	26.632979
2198.000000	26.572719
2197.000000	26.527363
2196.000000	26.507527
2195.000000	26.476646
2194.000000	26.454987
2193.000000	26.447695
2192.000000	26.408451
2191.000000	26.384969
2190.000000	26.376713
2189.000000	26.345939
2188.000000	26.318704
2187.000000	26.288681
2186.000000	26.264877
2185.000000	26.236570
2184.000000	26.229922
2183.000000	26.205368
2182.000000	26.196790
2181.000000	26.180170
2180.000000	26.168804
2179.000000	26.153685
2178.000000	26.125914
2177.000000	26.141140
2176.000000	26.126987
2175.000000	26.141140
2174.000000	26.124091
2173.000000	26.139853
2172.000000	26.153364
2171.000000	26.168482
2170.000000	26.196897
2169.000000	26.229493
2168.000000	26.286429
2167.000000	26.331142
2166.000000	26.390759
2165.000000	26.436544
2164.000000	26.500986
2163.000000	26.570467
2162.000000	26.647776
2161.000000	26.733556
2160.000000	26.824804
2159.000000	26.925059
2158.000000	27.033356
2157.000000	27.144119
2156.000000	27.240943
2155.000000	27.371113
2154.000000	27.515223
2153.000000	27.651291
2152.000000	27.788324
2151.000000	27.923534
2150.000000	28.063891
2149.000000	28.207787
2148.000000	28.340316
2147.000000	28.502762
2146.000000	28.657701
2145.000000	28.793769
2144.000000	28.940560
2143.000000	29.077914
2142.000000	29.210444
2141.000000	29.333967
2140.000000	29.473788
2139.000000	29.606961
2138.000000	29.733164
2137.000000	29.846822
2136.000000	29.972811
2135.000000	30.094189
2134.000000	30.208169
2133.000000	30.315822
2132.000000	30.414469
2131.000000	30.510971
2130.000000	30.606508
2129.000000	30.681565
2128.000000	30.755443
2127.000000	30.826533
2126.000000	30.896229
2125.000000	30.958098
2124.000000	31.016749
2123.000000	31.061140
2122.000000	31.104566
2121.000000	31.159894
2120.000000	31.193348
2119.000000	31.244387
2118.000000	31.277734
2117.000000	31.289743
2116.000000	31.316978
2115.000000	31.344321
2114.000000	31.347966
2113.000000	31.341425
2112.000000	31.355043
2111.000000	31.369840
2110.000000	31.372949
2109.000000	31.370591
2108.000000	31.365122
2107.000000	31.364908
2106.000000	31.366730
2105.000000	31.366838
2104.000000	31.361798
2103.000000	31.349146
2102.000000	31.341104
2101.000000	31.345286
2100.000000	31.353113
2099.000000	31.346358
2098.000000	31.357080
2097.000000	31.365873
2096.000000	31.365229
2095.000000	31.382921
2094.000000	31.404902
2093.000000	31.421951
2092.000000	31.444790
2091.000000	31.458622
2090.000000	31.475778
2089.000000	31.492719
2088.000000	31.493041
2087.000000	31.506980
2086.000000	31.507731
2085.000000	31.493899
2084.000000	31.475671
2083.000000	31.459158
2082.000000	31.423452
2081.000000	31.369089
2080.000000	31.301860
2079.000000	31.248569
2078.000000	31.180374
2077.000000	31.094702
2076.000000	31.001738
2075.000000	30.899553
2074.000000	30.781391
2073.000000	30.655188
2072.000000	30.530164
2071.000000	30.403425
2070.000000	30.255991
2069.000000	30.105019
2068.000000	29.954797
2067.000000	29.799858
2066.000000	29.639021
2065.000000	29.482044
2064.000000	29.323137
2063.000000	29.164123
2062.000000	29.021193
2061.000000	28.888985
2060.000000	28.765248
2059.000000	28.669818
2058.000000	28.577176
2057.000000	28.500081
2056.000000	28.441751
2055.000000	28.413658
2054.000000	28.402614
2053.000000	28.439928
2052.000000	28.490324
2051.000000	28.570635
2050.000000	28.673892
2049.000000	28.804921
2048.000000	28.954713
2047.000000	29.125522
2046.000000	29.295259
2045.000000	29.483867
2044.000000	29.708931
2043.000000	29.922415
2042.000000	30.119494
2041.000000	30.333300
2040.000000	30.525446
2039.000000	30.723812
2038.000000	30.917352
2037.000000	31.088161
2036.000000	31.260471
2035.000000	31.436855
2034.000000	31.621067
2033.000000	31.781046
2032.000000	31.930410
2031.000000	32.066371
2030.000000	32.182173
2029.000000	32.325533
2028.000000	32.443158
2027.000000	32.556387
2026.000000	32.653640
2025.000000	32.744674
2024.000000	32.843320
2023.000000	32.941216
2022.000000	33.018847
2021.000000	33.088865
2020.000000	33.158561
2019.000000	33.218499
2018.000000	33.291734
2017.000000	33.312321
2016.000000	33.355961
2015.000000	33.379979
2014.000000	33.404212
2013.000000	33.424370
2012.000000	33.423084
2011.000000	33.431125
2010.000000	33.418795
2009.000000	33.409681
2008.000000	33.400245
2007.000000	33.376655
2006.000000	33.338162
2005.000000	33.299454
2004.000000	33.238872
2003.000000	33.174108
2002.000000	33.122426
2001.000000	33.053373
2000.000000	32.971775
1999.000000	32.891571
1998.000000	32.803862
1997.000000	32.726660
1996.000000	32.627799
1995.000000	32.533548
1994.000000	32.412492
1993.000000	32.332395
1992.000000	32.217879
1991.000000	32.113550
1990.000000	32.003537
1989.000000	31.873796
1988.000000	31.731616
1987.000000	31.641869
1986.000000	31.500440
1985.000000	31.377346
1984.000000	31.248355
1983.000000	31.142953
1982.000000	31.025006
1981.000000	30.889152
1980.000000	30.764128
1979.000000	30.634601
1978.000000	30.522659
1977.000000	30.394954
1976.000000	30.289552
1975.000000	30.174929
1974.000000	30.055481
1973.000000	29.947506
1972.000000	29.841032
1971.000000	29.727374
1970.000000	29.640200
1969.000000	29.514426
1968.000000	29.409238
1967.000000	29.321850
1966.000000	29.198757
1965.000000	29.085420
1964.000000	28.991920
1963.000000	28.868290
1962.000000	28.781760
1961.000000	28.650303
1960.000000	28.520132
1959.000000	28.430707
1958.000000	28.325627
1957.000000	28.205964
1956.000000	28.112786
1955.000000	28.012853
1954.000000	27.879894
1953.000000	27.743504
1952.000000	27.649790
1951.000000	27.553074
1950.000000	27.453784
1949.000000	27.357925
1948.000000	27.282975
1947.000000	27.191941
1946.000000	27.132860
1945.000000	27.049225
1944.000000	26.968914
1943.000000	26.911549
1942.000000	26.874878
1941.000000	26.838422
1940.000000	26.808720
1939.000000	26.768511
1938.000000	26.747388
1937.000000	26.742563
1936.000000	26.745458
1935.000000	26.763686
1934.000000	26.802287
1933.000000	26.850538
1932.000000	26.920770
1931.000000	27.003548
1930.000000	27.092651
1929.000000	27.208561
1928.000000	27.317930
1927.000000	27.439094
1926.000000	27.582882
1925.000000	27.745113
1924.000000	27.931147
1923.000000	28.109891
1922.000000	28.333025
1921.000000	28.571922
1920.000000	28.806100
1919.000000	29.067085
1918.000000	29.348013
1917.000000	29.641701
1916.000000	29.957156
1915.000000	30.286014
1914.000000	30.685211
1913.000000	31.089126
1912.000000	31.484463
1911.000000	31.895026
1910.000000	32.329393
1909.000000	32.762795
1908.000000	33.262461
1907.000000	33.807913
1906.000000	34.435820
1905.000000	35.043033
1904.000000	35.654213
1903.000000	36.256386
1902.000000	36.926433
1901.000000	37.604414
1900.000000	38.337187
1899.000000	39.078752
1898.000000	39.790187
1897.000000	40.451763
1896.000000	41.105082
1895.000000	41.761940
1894.000000	42.451180
1893.000000	43.175696
1892.000000	43.968407
1891.000000	44.682952
1890.000000	45.360933
1889.000000	46.043632
1888.000000	46.641516
1887.000000	47.220422
1886.000000	47.784209
1885.000000	48.358825
1884.000000	48.896771
1883.000000	49.377030
1882.000000	49.853322
1881.000000	50.306346
1880.000000	50.693855
1879.000000	51.086512
1878.000000	51.466623
1877.000000	51.825289
1876.000000	52.171517
1875.000000	52.497051
1874.000000	52.829984
1873.000000	53.142222
1872.000000	53.402241
1871.000000	53.632667
1870.000000	53.825564
1869.000000	54.012135
1868.000000	54.132655
1867.000000	54.220365
1866.000000	54.278802
1865.000000	54.367691
1864.000000	54.450576
1863.000000	54.552225
1862.000000	54.685291
1861.000000	54.813424
1860.000000	54.927082
1859.000000	55.011361
1858.000000	55.088884
1857.000000	55.154505
1856.000000	55.177880
1855.000000	55.216696
1854.000000	55.252401
1853.000000	55.256476
1852.000000	55.280280
1851.000000	55.327780
1850.000000	55.400479
1849.000000	55.427928
1848.000000	55.431574
1847.000000	55.403374
1846.000000	55.332069
1845.000000	55.277063
1844.000000	55.245325
1843.000000	55.254439
1842.000000	55.274275
1841.000000	55.265590
1840.000000	55.231385
1839.000000	55.189139
1838.000000	55.146678
1837.000000	55.097247
1836.000000	55.029589
1835.000000	54.937483
1834.000000	54.854813
1833.000000	54.798198
1832.000000	54.765173
1831.000000	54.742334
1830.000000	54.711989
1829.000000	54.685934
1828.000000	54.635324
1827.000000	54.590182
1826.000000	54.556299
1825.000000	54.529922
1824.000000	54.532388
1823.000000	54.558873
1822.000000	54.597688
1821.000000	54.632322
1820.000000	54.619884
1819.000000	54.568737
1818.000000	54.541395
1817.000000	54.537642
1816.000000	54.537321
1815.000000	54.511265
1814.000000	54.497648
1813.000000	54.481778
1812.000000	54.465158
1811.000000	54.421089
1810.000000	54.376162
1809.000000	54.349463
1808.000000	54.313972
1807.000000	54.296816
1806.000000	54.273441
1805.000000	54.223903
1804.000000	54.200635
1803.000000	54.213717
1802.000000	54.206962
1801.000000	54.164608
1800.000000	54.113891
1799.000000	54.084726
1798.000000	54.057705
1797.000000	54.026824
1796.000000	54.002699
1795.000000	53.984900
1794.000000	53.953376
1793.000000	53.937828
1792.000000	53.937399
1791.000000	53.922388
1790.000000	53.914560
1789.000000	53.909628
1788.000000	53.916598
1787.000000	53.938900
1786.000000	53.933753
1785.000000	53.937292
1784.000000	53.939544
1783.000000	53.924210
1782.000000	53.922173
1781.000000	53.891185
1780.000000	53.855801
1779.000000	53.827172
1778.000000	53.789215
1777.000000	53.740535
1776.000000	53.691962
1775.000000	53.641781
1774.000000	53.597712
1773.000000	53.531768
1772.000000	53.486627
1771.000000	53.426796
1770.000000	53.381118
1769.000000	53.324718
1768.000000	53.273143
1767.000000	53.230253
1766.000000	53.191330
1765.000000	53.149942
1764.000000	53.121956
1763.000000	53.087966
1762.000000	53.073062
1761.000000	53.070703
1760.000000	53.070059
1759.000000	53.042717
1758.000000	53.039071
1757.000000	53.018806
1756.000000	53.014088
1755.000000	53.020307
1754.000000	52.999184
1753.000000	52.987282
1752.000000	52.969054
1751.000000	52.948038
1750.000000	52.909973
1749.000000	52.833844
1748.000000	52.767257
1747.000000	52.701100
1746.000000	52.606313
1745.000000	52.518818
1744.000000	52.424246
1743.000000	52.326350
1742.000000	52.213228
1741.000000	52.096675
1740.000000	51.975404
1739.000000	51.880939
1738.000000	51.791084
1737.000000	51.710880
1736.000000	51.616630
1735.000000	51.547899
1734.000000	51.479168
1733.000000	51.415798
1732.000000	51.338811
1731.000000	51.273940
1730.000000	51.208855
1729.000000	51.150096
1728.000000	51.074931
1727.000000	51.020354
1726.000000	50.981432
1725.000000	50.964919
1724.000000	51.000946
1723.000000	51.058419
1722.000000	51.170576
1721.000000	51.370228
1720.000000	51.582104
1719.000000	51.879330
1718.000000	52.135597
1717.000000	52.438507
1716.000000	52.724903
1715.000000	53.019557
1714.000000	53.287404
1713.000000	53.505713
1712.000000	53.715766
1711.000000	53.917134
1710.000000	54.051164
1709.000000	54.258429
1708.000000	54.354181
1707.000000	54.462371
1706.000000	54.574956
1705.000000	54.655053
1704.000000	54.694941
1703.000000	54.744371
1702.000000	54.755308
1701.000000	54.805060
1700.000000	54.793695
1699.000000	54.786618
1698.000000	54.787905
1697.000000	54.772679
1696.000000	54.727644
1695.000000	54.659449
1694.000000	54.588681
1693.000000	54.492715
1692.000000	54.391495
1691.000000	54.313221
1690.000000	54.243525
1689.000000	54.250280
1688.000000	54.295744
1687.000000	54.380451
1686.000000	54.584071
1685.000000	54.802809
1684.000000	55.036237
1683.000000	55.328638
1682.000000	55.621254
1681.000000	55.914192
1680.000000	56.195763
1679.000000	56.461037
1678.000000	56.708833
1677.000000	56.947515
1676.000000	57.198206
1675.000000	57.409546
1674.000000	57.617990
1673.000000	57.851204
1672.000000	58.073588
1671.000000	58.299831
1670.000000	58.513744
1669.000000	58.720795
1668.000000	58.951864
1667.000000	59.171353
1666.000000	59.338730
1665.000000	59.511148
1664.000000	59.681849
1663.000000	59.846653
1662.000000	59.988297
1661.000000	60.113643
1660.000000	60.240382
1659.000000	60.338600
1658.000000	60.431885
1657.000000	60.510910
1656.000000	60.584787
1655.000000	60.638936
1654.000000	60.675821
1653.000000	60.714958
1652.000000	60.745946
1651.000000	60.753988
1650.000000	60.751093
1649.000000	60.769750
1648.000000	60.744659
1647.000000	60.747233
1646.000000	60.737904
1645.000000	60.700161
1644.000000	60.690296
1643.000000	60.680539
1642.000000	60.665206
1641.000000	60.651803
1640.000000	60.630251
1639.000000	60.628857
1638.000000	60.603659
1637.000000	60.596046
1636.000000	60.567524
1635.000000	60.538252
1634.000000	60.506406
1633.000000	60.463624
1632.000000	60.433922
1631.000000	60.392319
1630.000000	60.334847
1629.000000	60.294745
1628.000000	60.249818
1627.000000	60.196206
1626.000000	60.149241
1625.000000	60.102920
1624.000000	60.060566
