PE UV       SUBTECH     SPECTRUM    ASCII       PEDS        4.00        
   -1
INBUCR0145-3.Sample.ASC
24/04/29
15:39:56.00
24/04/29
15:39:56.00
Vinicio Soto Monge
C. kalinini
250,000000
1
Lambda 1050
1050L1511233
PerkinElmer UV WinLab 6.3.2.0749 / 2.02.05 Lambda 900 UV/VIS/NIR, Aug  7 2015 09:38:08

0
0
3350/servo 860,8/2
0
0
UV/VIS
1
1
1
DoubleDePol,CommonBeamDepol,RBeamAtt,SBeamAtt,60mm sphere, WB InGaAs Detector
0
0
0
0
Program
Program
3350/servo 860,8/2
3350/0,2 860,8/0,2
3350/0,2 860,8/0,2
0
15.00
 
 
 
0
 
860,8
319,2
860,8
Front
100
on
S:100 R:100
0
0
0
0
 
0
 
 
 
0
 
 
0
0
0
0
0
 
 
 
 
0
0


0
0
#HDR
-1
-1
#GR
nm
%R
1.0
0.0
2500,000000
-1,000000
2251
8
88,998600
5,964700
#DATA
2500.000000	14.933325
2499.000000	14.817139
2498.000000	14.891620
2497.000000	14.793996
2496.000000	14.764979
2495.000000	14.679690
2494.000000	14.777549
2493.000000	14.792821
2492.000000	14.734200
2491.000000	14.765096
2490.000000	14.716460
2489.000000	14.704830
2488.000000	14.607323
2487.000000	14.636458
2486.000000	14.683919
2485.000000	14.677105
2484.000000	14.687678
2483.000000	14.699661
2482.000000	14.720925
2481.000000	14.742658
2480.000000	14.755111
2479.000000	14.716108
2478.000000	14.772850
2477.000000	14.855084
2476.000000	14.838168
2475.000000	14.922752
2474.000000	14.913823
2473.000000	14.961167
2472.000000	14.993121
2471.000000	15.044224
2470.000000	15.054092
2469.000000	15.119880
2468.000000	15.190954
2467.000000	15.217151
2466.000000	15.254274
2465.000000	15.325701
2464.000000	15.345202
2463.000000	15.430609
2462.000000	15.523886
2461.000000	15.591436
2460.000000	15.631261
2459.000000	15.719957
2458.000000	15.795260
2457.000000	15.893002
2456.000000	15.977939
2455.000000	16.055474
2454.000000	16.147459
2453.000000	16.208665
2452.000000	16.330020
2451.000000	16.417893
2450.000000	16.508586
2449.000000	16.634758
2448.000000	16.736611
2447.000000	16.872650
2446.000000	16.942785
2445.000000	17.071306
2444.000000	17.191603
2443.000000	17.280181
2442.000000	17.373106
2441.000000	17.517957
2440.000000	17.627681
2439.000000	17.724013
2438.000000	17.854296
2437.000000	17.978588
2436.000000	18.069516
2435.000000	18.195922
2434.000000	18.304237
2433.000000	18.393637
2432.000000	18.493728
2431.000000	18.619077
2430.000000	18.733148
2429.000000	18.823019
2428.000000	18.913007
2427.000000	19.003818
2426.000000	19.104261
2425.000000	19.180387
2424.000000	19.284002
2423.000000	19.361538
2422.000000	19.433199
2421.000000	19.503099
2420.000000	19.597199
2419.000000	19.655820
2418.000000	19.697760
2417.000000	19.786456
2416.000000	19.849306
2415.000000	19.916269
2414.000000	19.982761
2413.000000	20.023174
2412.000000	20.079798
2411.000000	20.126672
2410.000000	20.173898
2409.000000	20.207849
2408.000000	20.231697
2407.000000	20.276339
2406.000000	20.325444
2405.000000	20.340012
2404.000000	20.359513
2403.000000	20.411791
2402.000000	20.444097
2401.000000	20.471469
2400.000000	20.515759
2399.000000	20.598111
2398.000000	20.668832
2397.000000	20.729099
2396.000000	20.770686
2395.000000	20.787250
2394.000000	20.785135
2393.000000	20.790187
2392.000000	20.813800
2391.000000	20.863493
2390.000000	20.882525
2389.000000	20.900146
2388.000000	20.925522
2387.000000	20.949135
2386.000000	20.954539
2385.000000	20.955948
2384.000000	20.956771
2383.000000	20.967579
2382.000000	20.988725
2381.000000	20.987315
2380.000000	20.979092
2379.000000	20.966404
2378.000000	20.941146
2377.000000	20.931630
2376.000000	20.942791
2375.000000	20.942203
2374.000000	20.938092
2373.000000	20.909897
2372.000000	20.895917
2371.000000	20.911542
2370.000000	20.911542
2369.000000	20.908135
2368.000000	20.912012
2367.000000	20.921527
2366.000000	20.918121
2365.000000	20.917886
2364.000000	20.920353
2363.000000	20.917886
2362.000000	20.897327
2361.000000	20.910837
2360.000000	20.927636
2359.000000	20.900264
2358.000000	20.907195
2357.000000	20.899559
2356.000000	20.876768
2355.000000	20.881467
2354.000000	20.882055
2353.000000	20.863023
2352.000000	20.831774
2351.000000	20.840233
2350.000000	20.837178
2349.000000	20.811685
2348.000000	20.808749
2347.000000	20.809336
2346.000000	20.789952
2345.000000	20.786075
2344.000000	20.775385
2343.000000	20.778909
2342.000000	20.786428
2341.000000	20.774328
2340.000000	20.784078
2339.000000	20.784196
2338.000000	20.812743
2337.000000	20.815680
2336.000000	20.811451
2335.000000	20.808396
2334.000000	20.820261
2333.000000	20.861144
2332.000000	20.878061
2331.000000	20.910954
2330.000000	20.951132
2329.000000	20.976155
2328.000000	21.009283
2327.000000	21.067435
2326.000000	21.104793
2325.000000	21.110902
2324.000000	21.117128
2323.000000	21.169993
2322.000000	21.234841
2321.000000	21.225325
2320.000000	21.224385
2319.000000	21.233196
2318.000000	21.251170
2317.000000	21.258572
2316.000000	21.236486
2315.000000	21.238953
2314.000000	21.232726
2313.000000	21.231904
2312.000000	21.203709
2311.000000	21.164472
2310.000000	21.130051
2309.000000	21.109962
2308.000000	21.100446
2307.000000	21.051458
2306.000000	21.054747
2305.000000	21.015392
2304.000000	20.991779
2303.000000	20.983673
2302.000000	20.972395
2301.000000	20.960648
2300.000000	20.926344
2299.000000	20.949487
2298.000000	20.956771
2297.000000	20.973805
2296.000000	20.971925
2295.000000	20.990604
2294.000000	21.017154
2293.000000	21.027258
2292.000000	21.048286
2291.000000	21.079888
2290.000000	21.123237
2289.000000	21.150727
2288.000000	21.185970
2287.000000	21.213578
2286.000000	21.294167
2285.000000	21.311084
2284.000000	21.327531
2283.000000	21.364302
2282.000000	21.427152
2281.000000	21.469209
2280.000000	21.510914
2279.000000	21.574470
2278.000000	21.587040
2277.000000	21.638613
2276.000000	21.688071
2275.000000	21.722022
2274.000000	21.758675
2273.000000	21.783111
2272.000000	21.832099
2271.000000	21.854185
2270.000000	21.911044
2269.000000	21.948402
2268.000000	21.981766
2267.000000	22.066467
2266.000000	22.151756
2265.000000	22.215782
2264.000000	22.298721
2263.000000	22.402807
2262.000000	22.528273
2261.000000	22.633768
2260.000000	22.739381
2259.000000	22.889753
2258.000000	23.029199
2257.000000	23.188264
2256.000000	23.335581
2255.000000	23.514735
2254.000000	23.677442
2253.000000	23.884791
2252.000000	24.035515
2251.000000	24.198104
2250.000000	24.340488
2249.000000	24.507659
2248.000000	24.676005
2247.000000	24.837772
2246.000000	24.964765
2245.000000	25.074137
2244.000000	25.219575
2243.000000	25.367245
2242.000000	25.464047
2241.000000	25.550275
2240.000000	25.611716
2239.000000	25.670220
2238.000000	25.799094
2237.000000	25.824469
2236.000000	25.874397
2235.000000	25.868641
2234.000000	25.888259
2233.000000	25.944766
2232.000000	25.923268
2231.000000	25.917981
2230.000000	25.889082
2229.000000	25.871460
2228.000000	25.842560
2227.000000	25.800973
2226.000000	25.736360
2225.000000	25.670338
2224.000000	25.629690
2223.000000	25.568837
2222.000000	25.494473
2221.000000	25.396849
2220.000000	25.318139
2219.000000	25.217930
2218.000000	25.164595
2217.000000	25.081421
2216.000000	24.989201
2215.000000	24.898508
2214.000000	24.835070
2213.000000	24.760354
2212.000000	24.681291
2211.000000	24.594710
2210.000000	24.534091
2209.000000	24.480639
2208.000000	24.432708
2207.000000	24.345539
2206.000000	24.296903
2205.000000	24.236285
2204.000000	24.183067
2203.000000	24.126795
2202.000000	24.099540
2201.000000	24.096251
2200.000000	24.050670
2199.000000	23.994633
2198.000000	23.978891
2197.000000	23.915687
2196.000000	23.888785
2195.000000	23.859768
2194.000000	23.813364
2193.000000	23.808665
2192.000000	23.785992
2191.000000	23.765316
2190.000000	23.754155
2189.000000	23.717620
2188.000000	23.672626
2187.000000	23.695064
2186.000000	23.665224
2185.000000	23.640202
2184.000000	23.606368
2183.000000	23.599907
2182.000000	23.564546
2181.000000	23.558320
2180.000000	23.554678
2179.000000	23.510858
2178.000000	23.504750
2177.000000	23.509096
2176.000000	23.514265
2175.000000	23.508744
2174.000000	23.481254
2173.000000	23.496056
2172.000000	23.520374
2171.000000	23.556087
2170.000000	23.572417
2169.000000	23.576411
2168.000000	23.603196
2167.000000	23.641964
2166.000000	23.689660
2165.000000	23.736299
2164.000000	23.794098
2163.000000	23.854716
2162.000000	23.911811
2161.000000	23.975014
2160.000000	24.049730
2159.000000	24.135371
2158.000000	24.223597
2157.000000	24.310531
2156.000000	24.416378
2155.000000	24.521756
2154.000000	24.631598
2153.000000	24.765170
2152.000000	24.884998
2151.000000	25.006353
2150.000000	25.124888
2149.000000	25.264686
2148.000000	25.385924
2147.000000	25.499172
2146.000000	25.634037
2145.000000	25.738123
2144.000000	25.839976
2143.000000	25.975311
2142.000000	26.105476
2141.000000	26.235524
2140.000000	26.372738
2139.000000	26.465781
2138.000000	26.581732
2137.000000	26.700502
2136.000000	26.816335
2135.000000	26.895868
2134.000000	27.014990
2133.000000	27.135640
2132.000000	27.212588
2131.000000	27.301754
2130.000000	27.391037
2129.000000	27.466693
2128.000000	27.530718
2127.000000	27.606022
2126.000000	27.688374
2125.000000	27.746408
2124.000000	27.795749
2123.000000	27.867058
2122.000000	27.917926
2121.000000	27.968206
2120.000000	28.011321
2119.000000	28.047386
2118.000000	28.097432
2117.000000	28.114584
2116.000000	28.138079
2115.000000	28.172500
2114.000000	28.208096
2113.000000	28.228655
2112.000000	28.228420
2111.000000	28.247216
2110.000000	28.271064
2109.000000	28.273179
2108.000000	28.276821
2107.000000	28.267540
2106.000000	28.277291
2105.000000	28.288568
2104.000000	28.286689
2103.000000	28.309597
2102.000000	28.331565
2101.000000	28.326866
2100.000000	28.310302
2099.000000	28.300316
2098.000000	28.300081
2097.000000	28.327219
2096.000000	28.362697
2095.000000	28.380554
2094.000000	28.392184
2093.000000	28.413213
2092.000000	28.436943
2091.000000	28.447399
2090.000000	28.480410
2089.000000	28.509075
2088.000000	28.516241
2087.000000	28.525991
2086.000000	28.534332
2085.000000	28.527754
2084.000000	28.532805
2083.000000	28.519648
2082.000000	28.488868
2081.000000	28.458324
2080.000000	28.425195
2079.000000	28.380789
2078.000000	28.318408
2077.000000	28.267305
2076.000000	28.195291
2075.000000	28.088151
2074.000000	28.007561
2073.000000	27.925327
2072.000000	27.825353
2071.000000	27.703528
2070.000000	27.582879
2069.000000	27.464343
2068.000000	27.339112
2067.000000	27.202015
2066.000000	27.067973
2065.000000	26.949672
2064.000000	26.823149
2063.000000	26.689576
2062.000000	26.581967
2061.000000	26.487514
2060.000000	26.370859
2059.000000	26.267361
2058.000000	26.188768
2057.000000	26.114287
2056.000000	26.074109
2055.000000	26.036282
2054.000000	26.025474
2053.000000	26.045210
2052.000000	26.101482
2051.000000	26.165860
2050.000000	26.246685
2049.000000	26.341842
2048.000000	26.460729
2047.000000	26.602878
2046.000000	26.756774
2045.000000	26.918306
2044.000000	27.094640
2043.000000	27.273677
2042.000000	27.452361
2041.000000	27.626815
2040.000000	27.800448
2039.000000	27.982186
2038.000000	28.135377
2037.000000	28.281167
2036.000000	28.456797
2035.000000	28.624085
2034.000000	28.730990
2033.000000	28.866442
2032.000000	28.997665
2031.000000	29.128183
2030.000000	29.240375
2029.000000	29.342815
2028.000000	29.461233
2027.000000	29.562499
2026.000000	29.658009
2025.000000	29.757278
2024.000000	29.808498
2023.000000	29.903538
2022.000000	29.966036
2021.000000	30.030649
2020.000000	30.082691
2019.000000	30.122281
2018.000000	30.186894
2017.000000	30.233533
2016.000000	30.265135
2015.000000	30.302845
2014.000000	30.298263
2013.000000	30.347487
2012.000000	30.361349
2011.000000	30.355710
2010.000000	30.333272
2009.000000	30.324344
2008.000000	30.288043
2007.000000	30.295914
2006.000000	30.254914
2005.000000	30.211330
2004.000000	30.177731
2003.000000	30.131210
2002.000000	30.077992
2001.000000	30.004686
2000.000000	29.949236
1999.000000	29.871114
1998.000000	29.820716
1997.000000	29.718392
1996.000000	29.649550
1995.000000	29.563087
1994.000000	29.456769
1993.000000	29.371598
1992.000000	29.273503
1991.000000	29.167656
1990.000000	29.087771
1989.000000	28.958545
1988.000000	28.863740
1987.000000	28.726761
1986.000000	28.625260
1985.000000	28.534332
1984.000000	28.424373
1983.000000	28.297262
1982.000000	28.209388
1981.000000	28.073349
1980.000000	27.980894
1979.000000	27.866353
1978.000000	27.750520
1977.000000	27.643497
1976.000000	27.541644
1975.000000	27.422756
1974.000000	27.346395
1973.000000	27.216935
1972.000000	27.149150
1971.000000	27.046004
1970.000000	26.956486
1969.000000	26.848172
1968.000000	26.776627
1967.000000	26.673717
1966.000000	26.556004
1965.000000	26.448159
1964.000000	26.375440
1963.000000	26.262662
1962.000000	26.180779
1961.000000	26.059072
1960.000000	25.962975
1959.000000	25.872400
1958.000000	25.754922
1957.000000	25.652364
1956.000000	25.557442
1955.000000	25.462989
1954.000000	25.358551
1953.000000	25.257990
1952.000000	25.162716
1951.000000	25.082596
1950.000000	24.967937
1949.000000	24.887582
1948.000000	24.828491
1947.000000	24.747079
1946.000000	24.673655
1945.000000	24.603756
1944.000000	24.530449
1943.000000	24.488157
1942.000000	24.442223
1941.000000	24.416261
1940.000000	24.375379
1939.000000	24.362456
1938.000000	24.345539
1937.000000	24.344834
1936.000000	24.361986
1935.000000	24.377846
1934.000000	24.407333
1933.000000	24.472768
1932.000000	24.513298
1931.000000	24.568747
1930.000000	24.639469
1929.000000	24.736623
1928.000000	24.852456
1927.000000	24.966997
1926.000000	25.108441
1925.000000	25.263394
1924.000000	25.386864
1923.000000	25.545459
1922.000000	25.755509
1921.000000	25.999511
1920.000000	26.231765
1919.000000	26.422666
1918.000000	26.677124
1917.000000	26.950965
1916.000000	27.222691
1915.000000	27.500526
1914.000000	27.850611
1913.000000	28.275411
1912.000000	28.642529
1911.000000	28.975344
1910.000000	29.365841
1909.000000	29.746000
1908.000000	30.161754
1907.000000	30.634720
1906.000000	31.192975
1905.000000	31.744299
1904.000000	32.309016
1903.000000	32.846595
1902.000000	33.431400
1901.000000	34.010214
1900.000000	34.672554
1899.000000	35.333133
1898.000000	36.004636
1897.000000	36.633731
1896.000000	37.197625
1895.000000	37.778671
1894.000000	38.380863
1893.000000	39.019003
1892.000000	39.720816
1891.000000	40.375285
1890.000000	40.978300
1889.000000	41.568861
1888.000000	42.163300
1887.000000	42.696179
1886.000000	43.204272
1885.000000	43.725051
1884.000000	44.227857
1883.000000	44.657004
1882.000000	45.065357
1881.000000	45.480641
1880.000000	45.851637
1879.000000	46.215466
1878.000000	46.563670
1877.000000	46.884620
1876.000000	47.187008
1875.000000	47.475299
1874.000000	47.757951
1873.000000	48.008649
1872.000000	48.243840
1871.000000	48.432979
1870.000000	48.603910
1869.000000	48.791052
1868.000000	48.913464
1867.000000	49.018254
1866.000000	49.121517
1865.000000	49.221961
1864.000000	49.313476
1863.000000	49.425668
1862.000000	49.541736
1861.000000	49.661094
1860.000000	49.762829
1859.000000	49.833551
1858.000000	49.888531
1857.000000	49.946330
1856.000000	49.970765
1855.000000	50.010473
1854.000000	50.047244
1853.000000	50.038315
1852.000000	50.071796
1851.000000	50.144045
1850.000000	50.184223
1849.000000	50.196558
1848.000000	50.194326
1847.000000	50.154031
1846.000000	50.102576
1845.000000	50.078023
1844.000000	50.080137
1843.000000	50.113854
1842.000000	50.121842
1841.000000	50.078610
1840.000000	50.044424
1839.000000	50.004834
1838.000000	49.947152
1837.000000	49.895227
1836.000000	49.856694
1835.000000	49.790437
1834.000000	49.737572
1833.000000	49.707850
1832.000000	49.689406
1831.000000	49.663796
1830.000000	49.639478
1829.000000	49.605527
1828.000000	49.535040
1827.000000	49.499444
1826.000000	49.491573
1825.000000	49.472189
1824.000000	49.482410
1823.000000	49.525759
1822.000000	49.563822
1821.000000	49.566876
1820.000000	49.530811
1819.000000	49.475009
1818.000000	49.469252
1817.000000	49.493805
1816.000000	49.493923
1815.000000	49.483232
1814.000000	49.465845
1813.000000	49.467020
1812.000000	49.455037
1811.000000	49.411336
1810.000000	49.374565
1809.000000	49.361290
1808.000000	49.335562
1807.000000	49.319820
1806.000000	49.288806
1805.000000	49.252623
1804.000000	49.242167
1803.000000	49.244752
1802.000000	49.235354
1801.000000	49.199640
1800.000000	49.164162
1799.000000	49.145248
1798.000000	49.134558
1797.000000	49.119285
1796.000000	49.104601
1795.000000	49.083337
1794.000000	49.066655
1793.000000	49.059607
1792.000000	49.053498
1791.000000	49.031529
1790.000000	49.037403
1789.000000	49.049034
1788.000000	49.060899
1787.000000	49.066303
1786.000000	49.059489
1785.000000	49.070062
1784.000000	49.087449
1783.000000	49.075114
1782.000000	49.067125
1781.000000	49.059372
1780.000000	49.050796
1779.000000	49.026713
1778.000000	48.981954
1777.000000	48.948707
1776.000000	48.913229
1775.000000	48.860599
1774.000000	48.813843
1773.000000	48.770023
1772.000000	48.721388
1771.000000	48.689199
1770.000000	48.639388
1769.000000	48.607786
1768.000000	48.563262
1767.000000	48.515801
1766.000000	48.473627
1765.000000	48.453655
1764.000000	48.443200
1763.000000	48.436269
1762.000000	48.413243
1761.000000	48.394329
1760.000000	48.375768
1759.000000	48.392332
1758.000000	48.380819
1757.000000	48.386223
1756.000000	48.364255
1755.000000	48.368954
1754.000000	48.352624
1753.000000	48.339114
1752.000000	48.335355
1751.000000	48.297762
1750.000000	48.281198
1749.000000	48.230212
1748.000000	48.177817
1747.000000	48.139050
1746.000000	48.068915
1745.000000	47.983391
1744.000000	47.900099
1743.000000	47.821037
1742.000000	47.739860
1741.000000	47.639181
1740.000000	47.545316
1739.000000	47.464844
1738.000000	47.414446
1737.000000	47.341844
1736.000000	47.260667
1735.000000	47.209094
1734.000000	47.171619
1733.000000	47.104656
1732.000000	47.063891
1731.000000	46.997869
1730.000000	46.958631
1729.000000	46.896250
1728.000000	46.836454
1727.000000	46.812606
1726.000000	46.777363
1725.000000	46.749168
1724.000000	46.755159
1723.000000	46.803090
1722.000000	46.897895
1721.000000	47.045565
1720.000000	47.233177
1719.000000	47.433242
1718.000000	47.673250
1717.000000	47.930761
1716.000000	48.161723
1715.000000	48.416532
1714.000000	48.627993
1713.000000	48.836046
1712.000000	49.007799
1711.000000	49.154999
1710.000000	49.301494
1709.000000	49.421674
1708.000000	49.556186
1707.000000	49.638773
1706.000000	49.708437
1705.000000	49.778337
1704.000000	49.822038
1703.000000	49.857752
1702.000000	49.897577
1701.000000	49.906975
1700.000000	49.928473
1699.000000	49.933290
1698.000000	49.926359
1697.000000	49.909442
1696.000000	49.893465
1695.000000	49.847414
1694.000000	49.783153
1693.000000	49.712314
1692.000000	49.608463
1691.000000	49.571458
1690.000000	49.560415
1689.000000	49.517183
1688.000000	49.559593
1687.000000	49.678833
1686.000000	49.805239
1685.000000	49.991911
1684.000000	50.220524
1683.000000	50.453482
1682.000000	50.705590
1681.000000	50.953938
1680.000000	51.194885
1679.000000	51.464145
1678.000000	51.661508
1677.000000	51.876140
1676.000000	52.067512
1675.000000	52.266872
1674.000000	52.448962
1673.000000	52.638337
1672.000000	52.829943
1671.000000	53.036352
1670.000000	53.224434
1669.000000	53.439889
1668.000000	53.617398
1667.000000	53.836612
1666.000000	53.973826
1665.000000	54.136533
1664.000000	54.291839
1663.000000	54.451139
1662.000000	54.586473
1661.000000	54.705831
1660.000000	54.819550
1659.000000	54.926220
1658.000000	55.046165
1657.000000	55.125815
1656.000000	55.183144
1655.000000	55.248462
1654.000000	55.300622
1653.000000	55.339272
1652.000000	55.383444
1651.000000	55.409054
1650.000000	55.435486
1649.000000	55.431022
1648.000000	55.435721
1647.000000	55.437601
1646.000000	55.422446
1645.000000	55.419744
1644.000000	55.428203
1643.000000	55.414693
1642.000000	55.409406
1641.000000	55.415750
1640.000000	55.417865
1639.000000	55.398363
1638.000000	55.386028
1637.000000	55.384501
1636.000000	55.364530
1635.000000	55.347378
1634.000000	55.317304
1633.000000	55.291458
1632.000000	55.265026
1631.000000	55.225906
1630.000000	55.177035
1629.000000	55.138032
1628.000000	55.122408
1627.000000	55.082700
1626.000000	55.036414
1625.000000	54.991772
1624.000000	54.955237
