PE UV       SUBTECH     SPECTRUM    ASCII       PEDS        4.00        
   -1
INBUCR0137-3.Sample.ASC
24/04/29
11:56:09.00
24/04/29
11:56:09.00
Vinicio Soto Monge
C. cupreomarginata
250,000000
1
Lambda 1050
1050L1511233
PerkinElmer UV WinLab 6.3.2.0749 / 2.02.05 Lambda 900 UV/VIS/NIR, Aug  7 2015 09:38:08

0
0
3350/servo 860,8/2
0
0
UV/VIS
1
1
1
DoubleDePol,CommonBeamDepol,RBeamAtt,SBeamAtt,60mm sphere, WB InGaAs Detector
0
0
0
0
Program
Program
3350/servo 860,8/2
3350/0,2 860,8/0,2
3350/0,2 860,8/0,2
0
15.00
 
 
 
0
 
860,8
319,2
860,8
Front
100
on
S:100 R:100
0
0
0
0
 
0
 
 
 
0
 
 
0
0
0
0
0
 
 
 
 
0
0


0
0
#HDR
-1
-1
#GR
nm
%R
1.0
0.0
2500,000000
-1,000000
2251
8
79,629100
5,602400
#DATA
2500.000000	19.629613
2499.000000	19.699276
2498.000000	19.724609
2497.000000	19.569448
2496.000000	19.687666
2495.000000	19.583381
2494.000000	19.558576
2493.000000	19.608397
2492.000000	19.571137
2491.000000	19.538416
2490.000000	19.534405
2489.000000	19.536938
2488.000000	19.493029
2487.000000	19.475507
2486.000000	19.512450
2485.000000	19.605863
2484.000000	19.494084
2483.000000	19.550132
2482.000000	19.580003
2481.000000	19.649140
2480.000000	19.634151
2479.000000	19.611880
2478.000000	19.687771
2477.000000	19.645656
2476.000000	19.743397
2475.000000	19.776012
2474.000000	19.825833
2473.000000	19.901619
2472.000000	19.896341
2471.000000	19.928429
2470.000000	19.949750
2469.000000	20.069340
2468.000000	20.104594
2467.000000	20.154625
2466.000000	20.225767
2465.000000	20.290470
2464.000000	20.358867
2463.000000	20.389266
2462.000000	20.457347
2461.000000	20.519411
2460.000000	20.605330
2459.000000	20.712781
2458.000000	20.822872
2457.000000	20.908790
2456.000000	20.999248
2455.000000	21.114721
2454.000000	21.202751
2453.000000	21.284026
2452.000000	21.403827
2451.000000	21.532283
2450.000000	21.658945
2449.000000	21.775473
2448.000000	21.913429
2447.000000	22.016342
2446.000000	22.116193
2445.000000	22.235783
2444.000000	22.396960
2443.000000	22.509267
2442.000000	22.614185
2441.000000	22.766812
2440.000000	22.873419
2439.000000	22.979815
2438.000000	23.116082
2437.000000	23.249288
2436.000000	23.355684
2435.000000	23.485934
2434.000000	23.591802
2433.000000	23.717198
2432.000000	23.816733
2431.000000	23.932628
2430.000000	24.034063
2429.000000	24.149325
2428.000000	24.266593
2427.000000	24.353778
2426.000000	24.447825
2425.000000	24.558759
2424.000000	24.632012
2423.000000	24.720781
2422.000000	24.802372
2421.000000	24.884808
2420.000000	24.964499
2419.000000	25.024452
2418.000000	25.109843
2417.000000	25.184785
2416.000000	25.237561
2415.000000	25.305852
2414.000000	25.378894
2413.000000	25.429136
2412.000000	25.487717
2411.000000	25.538171
2410.000000	25.589047
2409.000000	25.621240
2408.000000	25.659133
2407.000000	25.700193
2406.000000	25.748430
2405.000000	25.780728
2404.000000	25.807538
2403.000000	25.847226
2402.000000	25.867492
2401.000000	25.887863
2400.000000	25.915412
2399.000000	25.956471
2398.000000	25.975998
2397.000000	25.973782
2396.000000	25.997320
2395.000000	26.015158
2394.000000	26.021174
2393.000000	26.041124
2392.000000	26.059595
2391.000000	26.060123
2390.000000	26.062551
2389.000000	26.071206
2388.000000	26.085666
2387.000000	26.089994
2386.000000	26.078806
2385.000000	26.073845
2384.000000	26.076378
2383.000000	26.073317
2382.000000	26.075322
2381.000000	26.058434
2380.000000	26.054212
2379.000000	26.039329
2378.000000	26.011675
2377.000000	25.993942
2376.000000	25.978954
2375.000000	25.966077
2374.000000	25.957738
2373.000000	25.939478
2372.000000	25.910873
2371.000000	25.903696
2370.000000	25.895463
2369.000000	25.883324
2368.000000	25.880052
2367.000000	25.879208
2366.000000	25.862531
2365.000000	25.849864
2364.000000	25.846487
2363.000000	25.830443
2362.000000	25.823582
2361.000000	25.821682
2360.000000	25.821260
2359.000000	25.803844
2358.000000	25.781889
2357.000000	25.778512
2356.000000	25.766584
2355.000000	25.754974
2354.000000	25.738613
2353.000000	25.723414
2352.000000	25.711698
2351.000000	25.686365
2350.000000	25.672855
2349.000000	25.656494
2348.000000	25.632851
2347.000000	25.624934
2346.000000	25.607307
2345.000000	25.589047
2344.000000	25.561498
2343.000000	25.554637
2342.000000	25.562448
2341.000000	25.553054
2340.000000	25.539332
2339.000000	25.533632
2338.000000	25.530255
2337.000000	25.534688
2336.000000	25.530782
2335.000000	25.547882
2334.000000	25.565720
2333.000000	25.575536
2332.000000	25.583453
2331.000000	25.597702
2330.000000	25.612690
2329.000000	25.652589
2328.000000	25.665044
2327.000000	25.684993
2326.000000	25.710642
2325.000000	25.737980
2324.000000	25.751596
2323.000000	25.761940
2322.000000	25.776084
2321.000000	25.776401
2320.000000	25.796667
2319.000000	25.791811
2318.000000	25.802577
2317.000000	25.791178
2316.000000	25.762679
2315.000000	25.724997
2314.000000	25.721408
2313.000000	25.690798
2312.000000	25.668949
2311.000000	25.632006
2310.000000	25.583664
2309.000000	25.539227
2308.000000	25.508194
2307.000000	25.491728
2306.000000	25.461435
2305.000000	25.417526
2304.000000	25.385016
2303.000000	25.366228
2302.000000	25.366967
2301.000000	25.334457
2300.000000	25.322529
2299.000000	25.323057
2298.000000	25.326963
2297.000000	25.332451
2296.000000	25.332240
2295.000000	25.349128
2294.000000	25.360422
2293.000000	25.375622
2292.000000	25.421853
2291.000000	25.438003
2290.000000	25.455102
2289.000000	25.508300
2288.000000	25.535638
2287.000000	25.570048
2286.000000	25.600869
2285.000000	25.664411
2284.000000	25.710220
2283.000000	25.758879
2282.000000	25.800994
2281.000000	25.841737
2280.000000	25.895779
2279.000000	25.947288
2278.000000	25.993731
2277.000000	26.016741
2276.000000	26.034368
2275.000000	26.094533
2274.000000	26.124193
2273.000000	26.199556
2272.000000	26.203778
2271.000000	26.229533
2270.000000	26.289486
2269.000000	26.343001
2268.000000	26.409498
2267.000000	26.476629
2266.000000	26.551043
2265.000000	26.636856
2264.000000	26.739769
2263.000000	26.840887
2262.000000	26.929445
2261.000000	27.058851
2260.000000	27.193429
2259.000000	27.338773
2258.000000	27.483484
2257.000000	27.651522
2256.000000	27.813755
2255.000000	27.961315
2254.000000	28.123654
2253.000000	28.293697
2252.000000	28.468068
2251.000000	28.650989
2250.000000	28.805938
2249.000000	28.942099
2248.000000	29.099160
2247.000000	29.272687
2246.000000	29.368211
2245.000000	29.498989
2244.000000	29.620267
2243.000000	29.701859
2242.000000	29.815327
2241.000000	29.889846
2240.000000	29.943360
2239.000000	30.009963
2238.000000	30.059784
2237.000000	30.124803
2236.000000	30.133247
2235.000000	30.154569
2234.000000	30.175890
2233.000000	30.141586
2232.000000	30.151719
2231.000000	30.144858
2230.000000	30.093982
2229.000000	30.057673
2228.000000	30.017458
2227.000000	29.969115
2226.000000	29.920245
2225.000000	29.874858
2224.000000	29.804455
2223.000000	29.735319
2222.000000	29.651405
2221.000000	29.580158
2220.000000	29.477245
2219.000000	29.383410
2218.000000	29.330107
2217.000000	29.231733
2216.000000	29.164813
2215.000000	29.085438
2214.000000	29.013030
2213.000000	28.936400
2212.000000	28.833593
2211.000000	28.764773
2210.000000	28.707881
2209.000000	28.649194
2208.000000	28.595574
2207.000000	28.524644
2206.000000	28.466696
2205.000000	28.425953
2204.000000	28.372966
2203.000000	28.341512
2202.000000	28.308791
2201.000000	28.260343
2200.000000	28.208728
2199.000000	28.184029
2198.000000	28.146242
2197.000000	28.123126
2196.000000	28.080166
2195.000000	28.043857
2194.000000	28.030663
2193.000000	27.999314
2192.000000	27.969337
2191.000000	27.951605
2190.000000	27.918356
2189.000000	27.914662
2188.000000	27.886796
2187.000000	27.874447
2186.000000	27.849853
2185.000000	27.821249
2184.000000	27.796444
2183.000000	27.775123
2182.000000	27.762140
2181.000000	27.736913
2180.000000	27.704509
2179.000000	27.698915
2178.000000	27.707781
2177.000000	27.678227
2176.000000	27.677910
2175.000000	27.680549
2174.000000	27.690259
2173.000000	27.702292
2172.000000	27.713586
2171.000000	27.742191
2170.000000	27.764462
2169.000000	27.803411
2168.000000	27.820721
2167.000000	27.866214
2166.000000	27.911812
2165.000000	27.954982
2164.000000	28.022958
2163.000000	28.089244
2162.000000	28.147403
2161.000000	28.225405
2160.000000	28.319557
2159.000000	28.378877
2158.000000	28.488545
2157.000000	28.573092
2156.000000	28.665555
2155.000000	28.794961
2154.000000	28.920145
2153.000000	29.023269
2152.000000	29.128820
2151.000000	29.255059
2150.000000	29.379610
2149.000000	29.495506
2148.000000	29.619634
2147.000000	29.739857
2146.000000	29.855753
2145.000000	29.992231
2144.000000	30.124064
2143.000000	30.226238
2142.000000	30.351000
2141.000000	30.458346
2140.000000	30.572130
2139.000000	30.671665
2138.000000	30.792311
2137.000000	30.907467
2136.000000	31.022307
2135.000000	31.101682
2134.000000	31.201639
2133.000000	31.301385
2132.000000	31.372316
2131.000000	31.458762
2130.000000	31.536554
2129.000000	31.609279
2128.000000	31.673665
2127.000000	31.731402
2126.000000	31.794838
2125.000000	31.848881
2124.000000	31.894479
2123.000000	31.949788
2122.000000	32.007208
2121.000000	32.032435
2120.000000	32.071594
2119.000000	32.106532
2118.000000	32.140625
2117.000000	32.174296
2116.000000	32.193084
2115.000000	32.209867
2114.000000	32.218733
2113.000000	32.224222
2112.000000	32.231082
2111.000000	32.233510
2110.000000	32.233193
2109.000000	32.237099
2108.000000	32.239632
2107.000000	32.238365
2106.000000	32.224960
2105.000000	32.219894
2104.000000	32.233193
2103.000000	32.228971
2102.000000	32.221266
2101.000000	32.219577
2100.000000	32.230660
2099.000000	32.227916
2098.000000	32.220633
2097.000000	32.224538
2096.000000	32.231716
2095.000000	32.238577
2094.000000	32.250715
2093.000000	32.262431
2092.000000	32.265281
2091.000000	32.262748
2090.000000	32.264964
2089.000000	32.265175
2088.000000	32.259687
2087.000000	32.254198
2086.000000	32.249659
2085.000000	32.224010
2084.000000	32.203956
2083.000000	32.182423
2082.000000	32.140941
2081.000000	32.099565
2080.000000	32.034018
2079.000000	31.969209
2078.000000	31.908200
2077.000000	31.824709
2076.000000	31.740163
2075.000000	31.651710
2074.000000	31.544681
2073.000000	31.436069
2072.000000	31.330623
2071.000000	31.207867
2070.000000	31.073816
2069.000000	30.947471
2068.000000	30.833159
2067.000000	30.702170
2066.000000	30.556931
2065.000000	30.413909
2064.000000	30.284080
2063.000000	30.160374
2062.000000	30.047751
2061.000000	29.937238
2060.000000	29.822187
2059.000000	29.740596
2058.000000	29.667449
2057.000000	29.604224
2056.000000	29.549548
2055.000000	29.526538
2054.000000	29.510283
2053.000000	29.532765
2052.000000	29.571714
2051.000000	29.628817
2050.000000	29.706081
2049.000000	29.797383
2048.000000	29.896390
2047.000000	30.038251
2046.000000	30.175046
2045.000000	30.329890
2044.000000	30.496028
2043.000000	30.626489
2042.000000	30.763073
2041.000000	30.922244
2040.000000	31.086166
2039.000000	31.247976
2038.000000	31.387832
2037.000000	31.520721
2036.000000	31.657199
2035.000000	31.806343
2034.000000	31.919178
2033.000000	32.034018
2032.000000	32.155824
2031.000000	32.255676
2030.000000	32.378432
2029.000000	32.475645
2028.000000	32.541298
2027.000000	32.636717
2026.000000	32.719152
2025.000000	32.803488
2024.000000	32.880118
2023.000000	32.947354
2022.000000	32.988414
2021.000000	33.068000
2020.000000	33.103993
2019.000000	33.145897
2018.000000	33.189595
2017.000000	33.234877
2016.000000	33.254087
2015.000000	33.282902
2014.000000	33.298524
2013.000000	33.272136
2012.000000	33.270342
2011.000000	33.306018
2010.000000	33.274353
2009.000000	33.250604
2008.000000	33.220416
2007.000000	33.209333
2006.000000	33.173340
2005.000000	33.137664
2004.000000	33.087843
2003.000000	33.049423
2002.000000	32.994853
2001.000000	32.912839
2000.000000	32.859852
1999.000000	32.780689
1998.000000	32.727596
1997.000000	32.634606
1996.000000	32.558292
1995.000000	32.461923
1994.000000	32.386560
1993.000000	32.301063
1992.000000	32.210816
1991.000000	32.128592
1990.000000	32.023674
1989.000000	31.944932
1988.000000	31.842442
1987.000000	31.724647
1986.000000	31.622578
1985.000000	31.527793
1984.000000	31.434486
1983.000000	31.329251
1982.000000	31.242171
1981.000000	31.130392
1980.000000	31.015658
1979.000000	30.916545
1978.000000	30.827987
1977.000000	30.712936
1976.000000	30.653722
1975.000000	30.543209
1974.000000	30.449691
1973.000000	30.369472
1972.000000	30.270464
1971.000000	30.190667
1970.000000	30.102849
1969.000000	30.015980
1968.000000	29.914650
1967.000000	29.826832
1966.000000	29.745768
1965.000000	29.665760
1964.000000	29.578469
1963.000000	29.472495
1962.000000	29.408531
1961.000000	29.297808
1960.000000	29.207984
1959.000000	29.117843
1958.000000	29.011975
1957.000000	28.956349
1956.000000	28.847103
1955.000000	28.744507
1954.000000	28.673471
1953.000000	28.556626
1952.000000	28.480312
1951.000000	28.390699
1950.000000	28.343939
1949.000000	28.284831
1948.000000	28.167141
1947.000000	28.123442
1946.000000	28.062012
1945.000000	27.978098
1944.000000	27.960260
1943.000000	27.931233
1942.000000	27.905162
1941.000000	27.878563
1940.000000	27.849959
1939.000000	27.872863
1938.000000	27.848692
1937.000000	27.852492
1936.000000	27.859564
1935.000000	27.891018
1934.000000	27.919834
1933.000000	27.973137
1932.000000	28.069506
1931.000000	28.128615
1930.000000	28.214006
1929.000000	28.327579
1928.000000	28.451707
1927.000000	28.574358
1926.000000	28.688565
1925.000000	28.850586
1924.000000	29.014719
1923.000000	29.185396
1922.000000	29.398187
1921.000000	29.648977
1920.000000	29.878868
1919.000000	30.080683
1918.000000	30.365355
1917.000000	30.601263
1916.000000	30.839387
1915.000000	31.141369
1914.000000	31.508055
1913.000000	31.905773
1912.000000	32.272670
1911.000000	32.597451
1910.000000	32.943132
1909.000000	33.292297
1908.000000	33.711441
1907.000000	34.182306
1906.000000	34.750173
1905.000000	35.274130
1904.000000	35.805160
1903.000000	36.336928
1902.000000	36.861096
1901.000000	37.421891
1900.000000	38.029762
1899.000000	38.635838
1898.000000	39.260069
1897.000000	39.783288
1896.000000	40.286241
1895.000000	40.809353
1894.000000	41.386720
1893.000000	41.988363
1892.000000	42.634760
1891.000000	43.223843
1890.000000	43.756350
1889.000000	44.294345
1888.000000	44.762677
1887.000000	45.221509
1886.000000	45.683613
1885.000000	46.152262
1884.000000	46.590195
1883.000000	46.963425
1882.000000	47.339927
1881.000000	47.685924
1880.000000	47.974185
1879.000000	48.318916
1878.000000	48.627971
1877.000000	48.895755
1876.000000	49.190771
1875.000000	49.466260
1874.000000	49.725600
1873.000000	49.989057
1872.000000	50.201532
1871.000000	50.394480
1870.000000	50.542991
1869.000000	50.683057
1868.000000	50.752932
1867.000000	50.793781
1866.000000	50.823863
1865.000000	50.883605
1864.000000	50.944192
1863.000000	51.027261
1862.000000	51.131651
1861.000000	51.231503
1860.000000	51.331460
1859.000000	51.395002
1858.000000	51.432789
1857.000000	51.475432
1856.000000	51.509209
1855.000000	51.556601
1854.000000	51.582250
1853.000000	51.570534
1852.000000	51.583939
1851.000000	51.621093
1850.000000	51.667747
1849.000000	51.710495
1848.000000	51.727700
1847.000000	51.663419
1846.000000	51.588478
1845.000000	51.555335
1844.000000	51.534646
1843.000000	51.585839
1842.000000	51.623415
1841.000000	51.582039
1840.000000	51.553857
1839.000000	51.529791
1838.000000	51.481026
1837.000000	51.433845
1836.000000	51.386241
1835.000000	51.292723
1834.000000	51.207226
1833.000000	51.150545
1832.000000	51.115713
1831.000000	51.096291
1830.000000	51.066631
1829.000000	51.038132
1828.000000	50.982085
1827.000000	50.932792
1826.000000	50.885716
1825.000000	50.850673
1824.000000	50.843285
1823.000000	50.892683
1822.000000	50.942820
1821.000000	50.940392
1820.000000	50.912315
1819.000000	50.874000
1818.000000	50.836635
1817.000000	50.815313
1816.000000	50.796525
1815.000000	50.774887
1814.000000	50.760004
1813.000000	50.729922
1812.000000	50.699101
1811.000000	50.653925
1810.000000	50.617721
1809.000000	50.591228
1808.000000	50.572862
1807.000000	50.565368
1806.000000	50.532963
1805.000000	50.493909
1804.000000	50.471638
1803.000000	50.467733
1802.000000	50.470582
1801.000000	50.424351
1800.000000	50.382447
1799.000000	50.341282
1798.000000	50.312677
1797.000000	50.308033
1796.000000	50.295050
1795.000000	50.273412
1794.000000	50.251669
1793.000000	50.225809
1792.000000	50.210293
1791.000000	50.210187
1790.000000	50.199632
1789.000000	50.197943
1788.000000	50.201426
1787.000000	50.206598
1786.000000	50.194882
1785.000000	50.202904
1784.000000	50.208076
1783.000000	50.197099
1782.000000	50.196782
1781.000000	50.167333
1780.000000	50.144323
1779.000000	50.129862
1778.000000	50.088486
1777.000000	50.063365
1776.000000	50.032755
1775.000000	49.999823
1774.000000	49.964991
1773.000000	49.927415
1772.000000	49.883083
1771.000000	49.836852
1770.000000	49.801914
1769.000000	49.758638
1768.000000	49.720956
1767.000000	49.688446
1766.000000	49.639470
1765.000000	49.620788
1764.000000	49.602422
1763.000000	49.574134
1762.000000	49.568434
1761.000000	49.567273
1760.000000	49.546480
1759.000000	49.553763
1758.000000	49.533602
1757.000000	49.526953
1756.000000	49.531491
1755.000000	49.524630
1754.000000	49.507003
1753.000000	49.495709
1752.000000	49.489587
1751.000000	49.464888
1750.000000	49.430478
1749.000000	49.391002
1748.000000	49.355643
1747.000000	49.298223
1746.000000	49.231725
1745.000000	49.176733
1744.000000	49.090286
1743.000000	49.028750
1742.000000	48.960247
1741.000000	48.886889
1740.000000	48.823874
1739.000000	48.759488
1738.000000	48.717267
1737.000000	48.652775
1736.000000	48.610344
1735.000000	48.581634
1734.000000	48.549335
1733.000000	48.504159
1732.000000	48.472283
1731.000000	48.435762
1730.000000	48.398924
1729.000000	48.360715
1728.000000	48.344038
1727.000000	48.323877
1726.000000	48.338549
1725.000000	48.346571
1724.000000	48.385519
1723.000000	48.457505
1722.000000	48.552185
1721.000000	48.731939
1720.000000	48.893222
1719.000000	49.088703
1718.000000	49.316166
1717.000000	49.550490
1716.000000	49.775421
1715.000000	49.964252
1714.000000	50.175988
1713.000000	50.329566
1712.000000	50.495070
1711.000000	50.619410
1710.000000	50.768132
1709.000000	50.873472
1708.000000	50.953269
1707.000000	51.056815
1706.000000	51.114235
1705.000000	51.156139
1704.000000	51.198993
1703.000000	51.230869
1702.000000	51.241108
1701.000000	51.248813
1700.000000	51.264540
1699.000000	51.267390
1698.000000	51.238258
1697.000000	51.264435
1696.000000	51.224747
1695.000000	51.186960
1694.000000	51.141256
1693.000000	51.091647
1692.000000	51.034333
1691.000000	50.969735
1690.000000	50.962030
1689.000000	50.978074
1688.000000	51.011428
1687.000000	51.125424
1686.000000	51.275095
1685.000000	51.440178
1684.000000	51.642626
1683.000000	51.852356
1682.000000	52.079081
1681.000000	52.286912
1680.000000	52.498753
1679.000000	52.700673
1678.000000	52.881061
1677.000000	53.067570
1676.000000	53.248696
1675.000000	53.396468
1674.000000	53.585089
1673.000000	53.770015
1672.000000	53.916204
1671.000000	54.089414
1670.000000	54.273073
1669.000000	54.449872
1668.000000	54.598171
1667.000000	54.773915
1666.000000	54.899837
1665.000000	55.029455
1664.000000	55.173532
1663.000000	55.301566
1662.000000	55.416301
1661.000000	55.516363
1660.000000	55.630253
1659.000000	55.713639
1658.000000	55.806313
1657.000000	55.888643
1656.000000	55.943636
1655.000000	55.999156
1654.000000	56.052143
1653.000000	56.063964
1652.000000	56.104179
1651.000000	56.129617
1650.000000	56.113257
1649.000000	56.117584
1648.000000	56.114735
1647.000000	56.124445
1646.000000	56.120434
1645.000000	56.111146
1644.000000	56.094574
1643.000000	56.068820
1642.000000	56.052987
1641.000000	56.050982
1640.000000	56.043698
1639.000000	56.024805
1638.000000	56.019211
1637.000000	56.003906
1636.000000	55.984273
1635.000000	55.961368
1634.000000	55.920309
1633.000000	55.894449
1632.000000	55.863839
1631.000000	55.818768
1630.000000	55.786153
1629.000000	55.745516
1628.000000	55.692212
1627.000000	55.665824
1626.000000	55.628881
1625.000000	55.584972
1624.000000	55.549612
