PE UV       SUBTECH     SPECTRUM    ASCII       PEDS        4.00        
   -1
INBUCR0143-2.Sample.ASC
24/04/29
13:29:10.00
24/04/29
13:29:10.00
Vinicio Soto Monge
C. kalinini
250,000000
1
Lambda 1050
1050L1511233
PerkinElmer UV WinLab 6.3.2.0749 / 2.02.05 Lambda 900 UV/VIS/NIR, Aug  7 2015 09:38:08

0
0
3350/servo 860,8/2
0
0
UV/VIS
1
1
1
DoubleDePol,CommonBeamDepol,RBeamAtt,SBeamAtt,60mm sphere, WB InGaAs Detector
0
0
0
0
Program
Program
3350/servo 860,8/2
3350/0,2 860,8/0,2
3350/0,2 860,8/0,2
0
15.00
 
 
 
0
 
860,8
319,2
860,8
Front
100
on
S:100 R:100
0
0
0
0
 
0
 
 
 
0
 
 
0
0
0
0
0
 
 
 
 
0
0


0
0
#HDR
-1
-1
#GR
nm
%R
1.0
0.0
2500,000000
-1,000000
2251
8
96,978900
5,628800
#DATA
2500.000000	14.726940
2499.000000	14.721738
2498.000000	14.799340
2497.000000	14.838725
2496.000000	14.624921
2495.000000	14.665261
2494.000000	14.534685
2493.000000	14.641057
2492.000000	14.622585
2491.000000	14.603477
2490.000000	14.571735
2489.000000	14.687024
2488.000000	14.630016
2487.000000	14.568762
2486.000000	14.667809
2485.000000	14.586173
2484.000000	14.560057
2483.000000	14.579803
2482.000000	14.595090
2481.000000	14.626725
2480.000000	14.695941
2479.000000	14.654008
2478.000000	14.655282
2477.000000	14.726834
2476.000000	14.766431
2475.000000	14.778108
2474.000000	14.805073
2473.000000	14.815583
2472.000000	14.902102
2471.000000	14.925776
2470.000000	14.922273
2469.000000	15.008474
2468.000000	15.054972
2467.000000	15.062191
2466.000000	15.120260
2465.000000	15.171322
2464.000000	15.197225
2463.000000	15.304871
2462.000000	15.358269
2461.000000	15.389479
2460.000000	15.521435
2459.000000	15.548718
2458.000000	15.635663
2457.000000	15.676109
2456.000000	15.791292
2455.000000	15.884818
2454.000000	15.974735
2453.000000	16.052975
2452.000000	16.133762
2451.000000	16.251174
2450.000000	16.344913
2449.000000	16.442261
2448.000000	16.558505
2447.000000	16.647148
2446.000000	16.769231
2445.000000	16.858086
2444.000000	16.951931
2443.000000	17.092698
2442.000000	17.192276
2441.000000	17.292808
2440.000000	17.420093
2439.000000	17.515849
2438.000000	17.663623
2437.000000	17.753433
2436.000000	17.838255
2435.000000	17.943565
2434.000000	18.045584
2433.000000	18.146116
2432.000000	18.260981
2431.000000	18.334549
2430.000000	18.442831
2429.000000	18.524362
2428.000000	18.624894
2427.000000	18.706956
2426.000000	18.806108
2425.000000	18.890823
2424.000000	18.956111
2423.000000	19.053565
2422.000000	19.123949
2421.000000	19.201870
2420.000000	19.270661
2419.000000	19.336480
2418.000000	19.397628
2417.000000	19.459625
2416.000000	19.506653
2415.000000	19.556442
2414.000000	19.621730
2413.000000	19.670244
2412.000000	19.715999
2411.000000	19.763983
2410.000000	19.792115
2409.000000	19.820884
2408.000000	19.858783
2407.000000	19.899867
2406.000000	19.933944
2405.000000	19.963244
2404.000000	19.989359
2403.000000	20.015687
2402.000000	20.028850
2401.000000	20.055921
2400.000000	20.079488
2399.000000	20.092334
2398.000000	20.087663
2397.000000	20.104223
2396.000000	20.135222
2395.000000	20.143184
2394.000000	20.154861
2393.000000	20.170361
2392.000000	20.169936
2391.000000	20.169617
2390.000000	20.165477
2389.000000	20.173545
2388.000000	20.183524
2387.000000	20.174819
2386.000000	20.153694
2385.000000	20.145307
2384.000000	20.120890
2383.000000	20.104542
2382.000000	20.099128
2381.000000	20.088087
2380.000000	20.064944
2379.000000	20.041377
2378.000000	20.024392
2377.000000	19.997427
2376.000000	19.978743
2375.000000	19.957405
2374.000000	19.933626
2373.000000	19.914623
2372.000000	19.902415
2371.000000	19.884368
2370.000000	19.869505
2369.000000	19.850184
2368.000000	19.835110
2367.000000	19.830226
2366.000000	19.810905
2365.000000	19.791691
2364.000000	19.784896
2363.000000	19.770565
2362.000000	19.753155
2361.000000	19.735108
2360.000000	19.722581
2359.000000	19.723961
2358.000000	19.698164
2357.000000	19.669607
2356.000000	19.646996
2355.000000	19.636380
2354.000000	19.618226
2353.000000	19.569499
2352.000000	19.541367
2351.000000	19.519817
2350.000000	19.487226
2349.000000	19.436057
2348.000000	19.403891
2347.000000	19.385738
2346.000000	19.364506
2345.000000	19.344229
2344.000000	19.308878
2343.000000	19.289239
2342.000000	19.275120
2341.000000	19.261319
2340.000000	19.241361
2339.000000	19.216945
2338.000000	19.190405
2337.000000	19.185415
2336.000000	19.200384
2335.000000	19.198260
2334.000000	19.179789
2333.000000	19.180426
2332.000000	19.200596
2331.000000	19.210150
2330.000000	19.236053
2329.000000	19.262381
2328.000000	19.272147
2327.000000	19.294016
2326.000000	19.309515
2325.000000	19.319176
2324.000000	19.313443
2323.000000	19.327669
2322.000000	19.340832
2321.000000	19.350281
2320.000000	19.356013
2319.000000	19.344017
2318.000000	19.346883
2317.000000	19.332552
2316.000000	19.288602
2315.000000	19.263867
2314.000000	19.236796
2313.000000	19.207603
2312.000000	19.157920
2311.000000	19.126285
2310.000000	19.099851
2309.000000	19.075328
2308.000000	19.012906
2307.000000	18.971080
2306.000000	18.945283
2305.000000	18.921716
2304.000000	18.904306
2303.000000	18.885622
2302.000000	18.860568
2301.000000	18.836045
2300.000000	18.829676
2299.000000	18.841247
2298.000000	18.834665
2297.000000	18.835196
2296.000000	18.860674
2295.000000	18.874899
2294.000000	18.882118
2293.000000	18.901970
2292.000000	18.924900
2291.000000	18.942311
2290.000000	18.943691
2289.000000	18.983925
2288.000000	19.027875
2287.000000	19.056219
2286.000000	19.096985
2285.000000	19.128620
2284.000000	19.158026
2283.000000	19.195076
2282.000000	19.241043
2281.000000	19.249748
2280.000000	19.307074
2279.000000	19.341682
2278.000000	19.372043
2277.000000	19.401025
2276.000000	19.409730
2275.000000	19.445081
2274.000000	19.455378
2273.000000	19.489986
2272.000000	19.506228
2271.000000	19.557503
2270.000000	19.577992
2269.000000	19.607717
2268.000000	19.666423
2267.000000	19.734365
2266.000000	19.805597
2265.000000	19.900928
2264.000000	19.984688
2263.000000	20.066325
2262.000000	20.200297
2261.000000	20.286499
2260.000000	20.406777
2259.000000	20.556143
2258.000000	20.699140
2257.000000	20.842136
2256.000000	20.990228
2255.000000	21.170381
2254.000000	21.353081
2253.000000	21.538010
2252.000000	21.708289
2251.000000	21.890034
2250.000000	22.057553
2249.000000	22.201081
2248.000000	22.350659
2247.000000	22.505227
2246.000000	22.649816
2245.000000	22.798439
2244.000000	22.919672
2243.000000	23.040482
2242.000000	23.142076
2241.000000	23.224986
2240.000000	23.306729
2239.000000	23.370637
2238.000000	23.422973
2237.000000	23.499726
2236.000000	23.536564
2235.000000	23.560131
2234.000000	23.568942
2233.000000	23.577329
2232.000000	23.579771
2231.000000	23.546224
2230.000000	23.530831
2229.000000	23.524674
2228.000000	23.461297
2227.000000	23.421806
2226.000000	23.369575
2225.000000	23.332313
2224.000000	23.261930
2223.000000	23.200464
2222.000000	23.103009
2221.000000	23.024876
2220.000000	22.955448
2219.000000	22.860754
2218.000000	22.786973
2217.000000	22.698543
2216.000000	22.627841
2215.000000	22.520195
2214.000000	22.444928
2213.000000	22.377517
2212.000000	22.306815
2211.000000	22.247154
2210.000000	22.163925
2209.000000	22.110527
2208.000000	22.054687
2207.000000	21.978571
2206.000000	21.928570
2205.000000	21.891414
2204.000000	21.815616
2203.000000	21.772834
2202.000000	21.728884
2201.000000	21.696293
2200.000000	21.636950
2199.000000	21.612215
2198.000000	21.589073
2197.000000	21.549688
2196.000000	21.511789
2195.000000	21.463805
2194.000000	21.445651
2193.000000	21.399154
2192.000000	21.392360
2191.000000	21.372402
2190.000000	21.339811
2189.000000	21.306583
2188.000000	21.301063
2187.000000	21.267092
2186.000000	21.249682
2185.000000	21.249469
2184.000000	21.220275
2183.000000	21.204776
2182.000000	21.162419
2181.000000	21.158597
2180.000000	21.120486
2179.000000	21.092672
2178.000000	21.093840
2177.000000	21.078128
2176.000000	21.072396
2175.000000	21.070591
2174.000000	21.078765
2173.000000	21.087683
2172.000000	21.093627
2171.000000	21.109127
2170.000000	21.137471
2169.000000	21.154563
2168.000000	21.193205
2167.000000	21.236518
2166.000000	21.259448
2165.000000	21.299576
2164.000000	21.371977
2163.000000	21.404674
2162.000000	21.485037
2161.000000	21.537479
2160.000000	21.605740
2159.000000	21.699584
2158.000000	21.784193
2157.000000	21.881329
2156.000000	22.004049
2155.000000	22.077936
2154.000000	22.178999
2153.000000	22.291422
2152.000000	22.414567
2151.000000	22.534633
2150.000000	22.656716
2149.000000	22.775614
2148.000000	22.880924
2147.000000	23.014791
2146.000000	23.135706
2145.000000	23.271590
2144.000000	23.378174
2143.000000	23.501956
2142.000000	23.632638
2141.000000	23.745379
2140.000000	23.853024
2139.000000	23.964492
2138.000000	24.081161
2137.000000	24.189231
2136.000000	24.287640
2135.000000	24.399108
2134.000000	24.485946
2133.000000	24.579472
2132.000000	24.653253
2131.000000	24.738711
2130.000000	24.846356
2129.000000	24.907716
2128.000000	24.967590
2127.000000	25.037018
2126.000000	25.111542
2125.000000	25.173327
2124.000000	25.230334
2123.000000	25.282883
2122.000000	25.323224
2121.000000	25.363564
2120.000000	25.414308
2119.000000	25.453269
2118.000000	25.491168
2117.000000	25.522060
2116.000000	25.528748
2115.000000	25.551997
2114.000000	25.571530
2113.000000	25.572910
2112.000000	25.587029
2111.000000	25.595310
2110.000000	25.598813
2109.000000	25.608898
2108.000000	25.634695
2107.000000	25.630342
2106.000000	25.623336
2105.000000	25.630130
2104.000000	25.632678
2103.000000	25.630448
2102.000000	25.628538
2101.000000	25.639578
2100.000000	25.642763
2099.000000	25.635226
2098.000000	25.651786
2097.000000	25.667498
2096.000000	25.681086
2095.000000	25.708263
2094.000000	25.741066
2093.000000	25.759007
2092.000000	25.770897
2091.000000	25.803913
2090.000000	25.840431
2089.000000	25.863786
2088.000000	25.868882
2087.000000	25.884169
2086.000000	25.900836
2085.000000	25.891919
2084.000000	25.898076
2083.000000	25.882152
2082.000000	25.857205
2081.000000	25.836397
2080.000000	25.791917
2079.000000	25.748498
2078.000000	25.709006
2077.000000	25.638835
2076.000000	25.557305
2075.000000	25.486497
2074.000000	25.405816
2073.000000	25.302416
2072.000000	25.189888
2071.000000	25.084472
2070.000000	24.962388
2069.000000	24.839668
2068.000000	24.718965
2067.000000	24.592954
2066.000000	24.454310
2065.000000	24.325221
2064.000000	24.193371
2063.000000	24.067041
2062.000000	23.953239
2061.000000	23.831156
2060.000000	23.733914
2059.000000	23.655144
2058.000000	23.578603
2057.000000	23.511510
2056.000000	23.473399
2055.000000	23.444418
2054.000000	23.446222
2053.000000	23.484758
2052.000000	23.511192
2051.000000	23.580938
2050.000000	23.681471
2049.000000	23.800051
2048.000000	23.929353
2047.000000	24.075534
2046.000000	24.233287
2045.000000	24.422463
2044.000000	24.592636
2043.000000	24.775230
2042.000000	24.961858
2041.000000	25.136277
2040.000000	25.334583
2039.000000	25.499342
2038.000000	25.678220
2037.000000	25.854657
2036.000000	26.004129
2035.000000	26.138739
2034.000000	26.305409
2033.000000	26.432375
2032.000000	26.556369
2031.000000	26.692147
2030.000000	26.812319
2029.000000	26.937269
2028.000000	27.041729
2027.000000	27.129417
2026.000000	27.232285
2025.000000	27.329527
2024.000000	27.400866
2023.000000	27.490358
2022.000000	27.556920
2021.000000	27.629002
2020.000000	27.692804
2019.000000	27.745777
2018.000000	27.797158
2017.000000	27.839941
2016.000000	27.867754
2015.000000	27.906927
2014.000000	27.940580
2013.000000	27.956397
2012.000000	27.963085
2011.000000	27.972533
2010.000000	27.971790
2009.000000	27.948329
2008.000000	27.933255
2007.000000	27.924231
2006.000000	27.886651
2005.000000	27.853741
2004.000000	27.793867
2003.000000	27.730597
2002.000000	27.673908
2001.000000	27.612866
2000.000000	27.557769
1999.000000	27.499169
1998.000000	27.401291
1997.000000	27.311905
1996.000000	27.240672
1995.000000	27.135468
1994.000000	27.064554
1993.000000	26.972620
1992.000000	26.876121
1991.000000	26.750641
1990.000000	26.653293
1989.000000	26.533651
1988.000000	26.421335
1987.000000	26.323350
1986.000000	26.202859
1985.000000	26.082050
1984.000000	25.974192
1983.000000	25.870050
1982.000000	25.734166
1981.000000	25.634270
1980.000000	25.523865
1979.000000	25.383416
1978.000000	25.283202
1977.000000	25.186915
1976.000000	25.042432
1975.000000	24.943174
1974.000000	24.822683
1973.000000	24.734040
1972.000000	24.621086
1971.000000	24.526817
1970.000000	24.433822
1969.000000	24.327662
1968.000000	24.214390
1967.000000	24.115875
1966.000000	24.027444
1965.000000	23.934979
1964.000000	23.811304
1963.000000	23.714380
1962.000000	23.613423
1961.000000	23.497816
1960.000000	23.403228
1959.000000	23.294096
1958.000000	23.173181
1957.000000	23.070631
1956.000000	22.998336
1955.000000	22.871052
1954.000000	22.767759
1953.000000	22.680390
1952.000000	22.576566
1951.000000	22.483783
1950.000000	22.366052
1949.000000	22.302356
1948.000000	22.215943
1947.000000	22.170507
1946.000000	22.055642
1945.000000	22.008720
1944.000000	21.944918
1943.000000	21.888123
1942.000000	21.845235
1941.000000	21.805531
1940.000000	21.742791
1939.000000	21.738014
1938.000000	21.734192
1937.000000	21.734086
1936.000000	21.714659
1935.000000	21.735785
1934.000000	21.772622
1933.000000	21.817103
1932.000000	21.861690
1931.000000	21.907975
1930.000000	21.987170
1929.000000	22.090250
1928.000000	22.204053
1927.000000	22.347474
1926.000000	22.447052
1925.000000	22.570409
1924.000000	22.712450
1923.000000	22.860966
1922.000000	23.080185
1921.000000	23.331676
1920.000000	23.557902
1919.000000	23.763957
1918.000000	24.005044
1917.000000	24.256854
1916.000000	24.478196
1915.000000	24.766843
1914.000000	25.145619
1913.000000	25.568558
1912.000000	25.946378
1911.000000	26.290016
1910.000000	26.638855
1909.000000	27.006378
1908.000000	27.434200
1907.000000	27.899921
1906.000000	28.513946
1905.000000	29.091027
1904.000000	29.675646
1903.000000	30.227249
1902.000000	30.813885
1901.000000	31.450416
1900.000000	32.151173
1899.000000	32.887281
1898.000000	33.539099
1897.000000	34.169897
1896.000000	34.768105
1895.000000	35.342320
1894.000000	35.957406
1893.000000	36.644469
1892.000000	37.384080
1891.000000	38.109785
1890.000000	38.745466
1889.000000	39.331678
1888.000000	39.930097
1887.000000	40.485098
1886.000000	41.019503
1885.000000	41.544036
1884.000000	42.066021
1883.000000	42.528132
1882.000000	42.980264
1881.000000	43.369019
1880.000000	43.745248
1879.000000	44.109162
1878.000000	44.481462
1877.000000	44.784441
1876.000000	45.098247
1875.000000	45.406958
1874.000000	45.734035
1873.000000	46.034466
1872.000000	46.300713
1871.000000	46.516853
1870.000000	46.720785
1869.000000	46.905502
1868.000000	47.031513
1867.000000	47.113256
1866.000000	47.169414
1865.000000	47.241602
1864.000000	47.314640
1863.000000	47.381839
1862.000000	47.490970
1861.000000	47.615813
1860.000000	47.735880
1859.000000	47.806157
1858.000000	47.870596
1857.000000	47.925374
1856.000000	47.952657
1855.000000	47.998836
1854.000000	48.038115
1853.000000	48.025907
1852.000000	48.034718
1851.000000	48.078455
1850.000000	48.106481
1849.000000	48.138754
1848.000000	48.170071
1847.000000	48.110834
1846.000000	48.041937
1845.000000	47.995757
1844.000000	47.942678
1843.000000	47.946606
1842.000000	47.964971
1841.000000	47.951383
1840.000000	47.909238
1839.000000	47.870383
1838.000000	47.807962
1837.000000	47.750105
1836.000000	47.709127
1835.000000	47.621121
1834.000000	47.532585
1833.000000	47.465386
1832.000000	47.416340
1831.000000	47.396489
1830.000000	47.375151
1829.000000	47.333005
1828.000000	47.270690
1827.000000	47.234171
1826.000000	47.216973
1825.000000	47.182153
1824.000000	47.155613
1823.000000	47.186718
1822.000000	47.235445
1821.000000	47.263046
1820.000000	47.267080
1819.000000	47.232791
1818.000000	47.185338
1817.000000	47.171537
1816.000000	47.178968
1815.000000	47.152110
1814.000000	47.134275
1813.000000	47.125570
1812.000000	47.091705
1811.000000	47.062193
1810.000000	47.030239
1809.000000	46.993614
1808.000000	46.969198
1807.000000	46.950620
1806.000000	46.920046
1805.000000	46.873654
1804.000000	46.860809
1803.000000	46.856775
1802.000000	46.853272
1801.000000	46.837348
1800.000000	46.788515
1799.000000	46.760170
1798.000000	46.736390
1797.000000	46.720254
1796.000000	46.698492
1795.000000	46.687451
1794.000000	46.676092
1793.000000	46.650401
1792.000000	46.635008
1791.000000	46.636388
1790.000000	46.639679
1789.000000	46.643713
1788.000000	46.657833
1787.000000	46.682037
1786.000000	46.697748
1785.000000	46.699659
1784.000000	46.689574
1783.000000	46.694670
1782.000000	46.684797
1781.000000	46.679595
1780.000000	46.664202
1779.000000	46.653586
1778.000000	46.595942
1777.000000	46.561865
1776.000000	46.523541
1775.000000	46.479273
1774.000000	46.417700
1773.000000	46.388400
1772.000000	46.333091
1771.000000	46.287868
1770.000000	46.244979
1769.000000	46.196146
1768.000000	46.143491
1767.000000	46.125126
1766.000000	46.081813
1765.000000	46.053468
1764.000000	46.047311
1763.000000	46.016418
1762.000000	46.008138
1761.000000	46.013977
1760.000000	46.008457
1759.000000	46.006758
1758.000000	45.995717
1757.000000	45.989136
1756.000000	45.997841
1755.000000	45.994231
1754.000000	45.996567
1753.000000	45.973106
1752.000000	45.961216
1751.000000	45.943912
1750.000000	45.922892
1749.000000	45.870662
1748.000000	45.804737
1747.000000	45.735627
1746.000000	45.654734
1745.000000	45.560783
1744.000000	45.465983
1743.000000	45.373837
1742.000000	45.270331
1741.000000	45.153981
1740.000000	45.035719
1739.000000	44.945484
1738.000000	44.852807
1737.000000	44.755247
1736.000000	44.670744
1735.000000	44.622760
1734.000000	44.544308
1733.000000	44.465114
1732.000000	44.412034
1731.000000	44.337935
1730.000000	44.238994
1729.000000	44.178271
1728.000000	44.095467
1727.000000	44.042918
1726.000000	43.977418
1725.000000	43.948967
1724.000000	43.948967
1723.000000	44.003533
1722.000000	44.118079
1721.000000	44.267445
1720.000000	44.472120
1719.000000	44.727752
1718.000000	44.985718
1717.000000	45.260883
1716.000000	45.545390
1715.000000	45.801021
1714.000000	46.040835
1713.000000	46.257294
1712.000000	46.457404
1711.000000	46.639679
1710.000000	46.799767
1709.000000	46.944887
1708.000000	47.066652
1707.000000	47.160390
1706.000000	47.234490
1705.000000	47.325150
1704.000000	47.363155
1703.000000	47.393304
1702.000000	47.417508
1701.000000	47.440438
1700.000000	47.443836
1699.000000	47.446065
1698.000000	47.432158
1697.000000	47.406680
1696.000000	47.356466
1695.000000	47.299671
1694.000000	47.200837
1693.000000	47.082788
1692.000000	46.971533
1691.000000	46.873230
1690.000000	46.798387
1689.000000	46.796158
1688.000000	46.825246
1687.000000	46.913464
1686.000000	47.055080
1685.000000	47.252430
1684.000000	47.511884
1683.000000	47.756050
1682.000000	48.040981
1681.000000	48.328885
1680.000000	48.568805
1679.000000	48.832929
1678.000000	49.095142
1677.000000	49.320518
1676.000000	49.511180
1675.000000	49.721694
1674.000000	49.934650
1673.000000	50.131469
1672.000000	50.354509
1671.000000	50.565766
1670.000000	50.803669
1669.000000	51.010680
1668.000000	51.225227
1667.000000	51.469924
1666.000000	51.653898
1665.000000	51.846790
1664.000000	52.048917
1663.000000	52.227583
1662.000000	52.395951
1661.000000	52.556040
1660.000000	52.681414
1659.000000	52.835026
1658.000000	52.939381
1657.000000	53.052440
1656.000000	53.157538
1655.000000	53.221233
1654.000000	53.291298
1653.000000	53.357117
1652.000000	53.409560
1651.000000	53.446185
1650.000000	53.482810
1649.000000	53.495867
1648.000000	53.514870
1647.000000	53.519222
1646.000000	53.523893
1645.000000	53.529201
1644.000000	53.537694
1643.000000	53.530581
1642.000000	53.543639
1641.000000	53.547355
1640.000000	53.528352
1639.000000	53.541091
1638.000000	53.538331
1637.000000	53.527821
1636.000000	53.504785
1635.000000	53.489922
1634.000000	53.476971
1633.000000	53.440028
1632.000000	53.426227
1631.000000	53.393211
1630.000000	53.358179
1629.000000	53.317520
1628.000000	53.267731
1627.000000	53.216987
1626.000000	53.173143
1625.000000	53.138323
1624.000000	53.101804
