PE UV       SUBTECH     SPECTRUM    ASCII       PEDS        4.00        
   -1
INBUCR0137-1.Sample.ASC
24/04/26
11:03:33.00
24/04/26
11:03:33.00
Vinicio Soto Monge
C. cupreomarginata
250,000000
1
Lambda 1050
1050L1511233
PerkinElmer UV WinLab 6.3.2.0749 / 2.02.05 Lambda 900 UV/VIS/NIR, Aug  7 2015 09:38:08

0
0
3350/servo 860,8/2
0
0
UV/VIS
1
1
1
DoubleDePol,CommonBeamDepol,RBeamAtt,SBeamAtt,60mm sphere, WB InGaAs Detector
0
0
0
0
Program
Program
3350/servo 860,8/2
3350/0,2 860,8/0,2
3350/0,2 860,8/0,2
0
15.00
 
 
 
0
 
860,8
319,2
860,8
Front
100
on
S:100 R:100
0
0
0
0
 
0
 
 
 
0
 
 
0
0
0
0
0
 
 
 
 
0
0


0
0
#HDR
-1
-1
#GR
nm
%R
1.0
0.0
2500,000000
-1,000000
2251
8
78,033100
6,521300
#DATA
2500.000000	21.297691
2499.000000	21.238298
2498.000000	21.197204
2497.000000	21.254819
2496.000000	21.186748
2495.000000	21.339203
2494.000000	21.191767
2493.000000	21.108638
2492.000000	21.085843
2491.000000	21.211007
2490.000000	21.232338
2489.000000	21.104560
2488.000000	21.131747
2487.000000	21.188421
2486.000000	21.282947
2485.000000	21.174200
2484.000000	21.216339
2483.000000	21.133106
2482.000000	21.287966
2481.000000	21.207661
2480.000000	21.254087
2479.000000	21.257224
2478.000000	21.282424
2477.000000	21.325609
2476.000000	21.422541
2475.000000	21.418358
2474.000000	21.444917
2473.000000	21.502846
2472.000000	21.561193
2471.000000	21.592876
2470.000000	21.614312
2469.000000	21.669208
2468.000000	21.759238
2467.000000	21.810475
2466.000000	21.872168
2465.000000	21.913680
2464.000000	22.035079
2463.000000	22.098654
2462.000000	22.145918
2461.000000	22.232079
2460.000000	22.320540
2459.000000	22.404296
2458.000000	22.499659
2457.000000	22.583415
2456.000000	22.681706
2455.000000	22.785120
2454.000000	22.910075
2453.000000	22.986616
2452.000000	23.121190
2451.000000	23.220108
2450.000000	23.356983
2449.000000	23.475350
2448.000000	23.599782
2447.000000	23.697863
2446.000000	23.830556
2445.000000	23.970463
2444.000000	24.093954
2443.000000	24.222359
2442.000000	24.355469
2441.000000	24.499036
2440.000000	24.614998
2439.000000	24.721549
2438.000000	24.856856
2437.000000	24.986307
2436.000000	25.124332
2435.000000	25.251273
2434.000000	25.345067
2433.000000	25.461343
2432.000000	25.583579
2431.000000	25.707906
2430.000000	25.802432
2429.000000	25.911389
2428.000000	26.012712
2427.000000	26.118426
2426.000000	26.234702
2425.000000	26.329333
2424.000000	26.410057
2423.000000	26.509393
2422.000000	26.585829
2421.000000	26.671049
2420.000000	26.754178
2419.000000	26.823086
2418.000000	26.909770
2417.000000	26.990285
2416.000000	27.050932
2415.000000	27.110220
2414.000000	27.159784
2413.000000	27.208615
2412.000000	27.241553
2411.000000	27.266753
2410.000000	27.305756
2409.000000	27.337962
2408.000000	27.380938
2407.000000	27.428828
2406.000000	27.451832
2405.000000	27.462393
2404.000000	27.491462
2403.000000	27.534125
2402.000000	27.537261
2401.000000	27.545104
2400.000000	27.578669
2399.000000	27.588916
2398.000000	27.603660
2397.000000	27.636179
2396.000000	27.646113
2395.000000	27.654583
2394.000000	27.659288
2393.000000	27.661170
2392.000000	27.668281
2391.000000	27.660125
2390.000000	27.662007
2389.000000	27.682397
2388.000000	27.668072
2387.000000	27.649982
2386.000000	27.645904
2385.000000	27.654269
2384.000000	27.647263
2383.000000	27.623632
2382.000000	27.606483
2381.000000	27.582433
2380.000000	27.566853
2379.000000	27.559220
2378.000000	27.542071
2377.000000	27.513316
2376.000000	27.493449
2375.000000	27.460929
2374.000000	27.439494
2373.000000	27.426005
2372.000000	27.403733
2371.000000	27.377069
2370.000000	27.357306
2369.000000	27.353751
2368.000000	27.336602
2367.000000	27.308893
2366.000000	27.292999
2365.000000	27.284320
2364.000000	27.276059
2363.000000	27.253892
2362.000000	27.234234
2361.000000	27.223882
2360.000000	27.215307
2359.000000	27.191153
2358.000000	27.172541
2357.000000	27.154660
2356.000000	27.135734
2355.000000	27.119004
2354.000000	27.094431
2353.000000	27.070904
2352.000000	27.045913
2351.000000	27.021550
2350.000000	27.010361
2349.000000	26.985998
2348.000000	26.957661
2347.000000	26.926500
2346.000000	26.889589
2345.000000	26.867735
2344.000000	26.853828
2343.000000	26.845045
2342.000000	26.822250
2341.000000	26.805833
2340.000000	26.782411
2339.000000	26.773941
2338.000000	26.766308
2337.000000	26.751982
2336.000000	26.754492
2335.000000	26.754806
2334.000000	26.765994
2333.000000	26.766621
2332.000000	26.760034
2331.000000	26.763171
2330.000000	26.783247
2329.000000	26.799977
2328.000000	26.823191
2327.000000	26.852573
2326.000000	26.863343
2325.000000	26.869931
2324.000000	26.896386
2323.000000	26.921900
2322.000000	26.929637
2321.000000	26.947413
2320.000000	26.952328
2319.000000	26.937793
2318.000000	26.926814
2317.000000	26.907783
2316.000000	26.884465
2315.000000	26.865226
2314.000000	26.824236
2313.000000	26.779796
2312.000000	26.744140
2311.000000	26.701478
2310.000000	26.664880
2309.000000	26.615003
2308.000000	26.570354
2307.000000	26.548500
2306.000000	26.516085
2305.000000	26.479174
2304.000000	26.449477
2303.000000	26.436825
2302.000000	26.400959
2301.000000	26.367290
2300.000000	26.354115
2299.000000	26.359970
2298.000000	26.354637
2297.000000	26.350350
2296.000000	26.368858
2295.000000	26.365303
2294.000000	26.386530
2293.000000	26.407965
2292.000000	26.437452
2291.000000	26.453660
2290.000000	26.459516
2289.000000	26.495590
2288.000000	26.528946
2287.000000	26.568681
2286.000000	26.604546
2285.000000	26.646895
2284.000000	26.677742
2283.000000	26.715385
2282.000000	26.764635
2281.000000	26.824236
2280.000000	26.862716
2279.000000	26.902869
2278.000000	26.929324
2277.000000	26.980351
2276.000000	27.015589
2275.000000	27.052710
2274.000000	27.055219
2273.000000	27.102273
2272.000000	27.129774
2271.000000	27.176723
2270.000000	27.209138
2269.000000	27.255669
2268.000000	27.291640
2267.000000	27.351555
2266.000000	27.403942
2265.000000	27.493240
2264.000000	27.584002
2263.000000	27.673614
2262.000000	27.793235
2261.000000	27.894558
2260.000000	28.048163
2259.000000	28.161093
2258.000000	28.308320
2257.000000	28.453246
2256.000000	28.644181
2255.000000	28.785866
2254.000000	28.956306
2253.000000	29.104787
2252.000000	29.292481
2251.000000	29.470449
2250.000000	29.608579
2249.000000	29.750055
2248.000000	29.908470
2247.000000	30.077446
2246.000000	30.185879
2245.000000	30.323068
2244.000000	30.427528
2243.000000	30.520067
2242.000000	30.641467
2241.000000	30.679215
2240.000000	30.765585
2239.000000	30.828533
2238.000000	30.855301
2237.000000	30.914485
2236.000000	30.942403
2235.000000	30.938848
2234.000000	30.951605
2233.000000	30.950664
2232.000000	30.924105
2231.000000	30.923163
2230.000000	30.888343
2229.000000	30.856974
2228.000000	30.801346
2227.000000	30.758893
2226.000000	30.711630
2225.000000	30.649937
2224.000000	30.580192
2223.000000	30.514735
2222.000000	30.422718
2221.000000	30.337289
2220.000000	30.278837
2219.000000	30.187657
2218.000000	30.104110
2217.000000	30.012825
2216.000000	29.924155
2215.000000	29.832452
2214.000000	29.760407
2213.000000	29.683970
2212.000000	29.600214
2211.000000	29.527960
2210.000000	29.457797
2209.000000	29.378014
2208.000000	29.313498
2207.000000	29.264562
2206.000000	29.195340
2205.000000	29.140653
2204.000000	29.068713
2203.000000	29.047800
2202.000000	28.983283
2201.000000	28.921486
2200.000000	28.911866
2199.000000	28.864603
2198.000000	28.817653
2197.000000	28.776978
2196.000000	28.744249
2195.000000	28.734734
2194.000000	28.688725
2193.000000	28.654428
2192.000000	28.639057
2191.000000	28.628078
2190.000000	28.604760
2189.000000	28.581338
2188.000000	28.551955
2187.000000	28.538675
2186.000000	28.507306
2185.000000	28.484093
2184.000000	28.477505
2183.000000	28.463075
2182.000000	28.436411
2181.000000	28.429196
2180.000000	28.408179
2179.000000	28.382351
2178.000000	28.383188
2177.000000	28.388625
2176.000000	28.368967
2175.000000	28.383606
2174.000000	28.391762
2173.000000	28.385279
2172.000000	28.420099
2171.000000	28.438816
2170.000000	28.452723
2169.000000	28.488484
2168.000000	28.515148
2167.000000	28.556765
2166.000000	28.624000
2165.000000	28.663525
2164.000000	28.726682
2163.000000	28.783043
2162.000000	28.866067
2161.000000	28.928073
2160.000000	29.013398
2159.000000	29.096109
2158.000000	29.193876
2157.000000	29.286311
2156.000000	29.385229
2155.000000	29.517712
2154.000000	29.612552
2153.000000	29.713980
2152.000000	29.848659
2151.000000	29.977901
2150.000000	30.101182
2149.000000	30.220595
2148.000000	30.345549
2147.000000	30.467681
2146.000000	30.600478
2145.000000	30.714557
2144.000000	30.844217
2143.000000	30.976700
2142.000000	31.093917
2141.000000	31.219708
2140.000000	31.325946
2139.000000	31.426328
2138.000000	31.552014
2137.000000	31.673936
2136.000000	31.777037
2135.000000	31.878569
2134.000000	31.967867
2133.000000	32.047231
2132.000000	32.144895
2131.000000	32.222795
2130.000000	32.294108
2129.000000	32.366258
2128.000000	32.439766
2127.000000	32.505747
2126.000000	32.564616
2125.000000	32.627564
2124.000000	32.677232
2123.000000	32.727946
2122.000000	32.766530
2121.000000	32.792672
2120.000000	32.835020
2119.000000	32.875696
2118.000000	32.885211
2117.000000	32.912502
2116.000000	32.937598
2115.000000	32.960916
2114.000000	32.980678
2113.000000	32.985802
2112.000000	32.996049
2111.000000	33.005879
2110.000000	33.008597
2109.000000	33.017381
2108.000000	33.023759
2107.000000	33.017590
2106.000000	33.004624
2105.000000	32.994690
2104.000000	32.997409
2103.000000	33.003996
2102.000000	32.993854
2101.000000	32.975869
2100.000000	32.982142
2099.000000	32.978692
2098.000000	32.970954
2097.000000	32.975346
2096.000000	32.977332
2095.000000	32.984861
2094.000000	32.995527
2093.000000	33.008493
2092.000000	33.001696
2091.000000	33.000755
2090.000000	33.018426
2089.000000	33.016649
2088.000000	33.018740
2087.000000	33.018949
2086.000000	33.005565
2085.000000	33.001591
2084.000000	32.976287
2083.000000	32.941153
2082.000000	32.908111
2081.000000	32.853214
2080.000000	32.796122
2079.000000	32.723136
2078.000000	32.656319
2077.000000	32.592117
2076.000000	32.512334
2075.000000	32.416553
2074.000000	32.326000
2073.000000	32.217985
2072.000000	32.103487
2071.000000	31.986166
2070.000000	31.866126
2069.000000	31.746190
2068.000000	31.607852
2067.000000	31.466480
2066.000000	31.328769
2065.000000	31.190221
2064.000000	31.064325
2063.000000	30.943658
2062.000000	30.828742
2061.000000	30.710793
2060.000000	30.580506
2059.000000	30.472700
2058.000000	30.382983
2057.000000	30.313343
2056.000000	30.262525
2055.000000	30.235443
2054.000000	30.233038
2053.000000	30.230738
2052.000000	30.256147
2051.000000	30.317840
2050.000000	30.392499
2049.000000	30.476673
2048.000000	30.586466
2047.000000	30.699500
2046.000000	30.856138
2045.000000	30.995731
2044.000000	31.147559
2043.000000	31.312562
2042.000000	31.472441
2041.000000	31.611825
2040.000000	31.791990
2039.000000	31.932211
2038.000000	32.085084
2037.000000	32.228442
2036.000000	32.370440
2035.000000	32.525614
2034.000000	32.635720
2033.000000	32.763916
2032.000000	32.878205
2031.000000	32.990194
2030.000000	33.092144
2029.000000	33.177992
2028.000000	33.301587
2027.000000	33.383043
2026.000000	33.466590
2025.000000	33.566344
2024.000000	33.640376
2023.000000	33.706147
2022.000000	33.756233
2021.000000	33.831729
2020.000000	33.885893
2019.000000	33.932529
2018.000000	33.974564
2017.000000	34.018481
2016.000000	34.067208
2015.000000	34.064280
2014.000000	34.082161
2013.000000	34.098473
2012.000000	34.114262
2011.000000	34.108197
2010.000000	34.097427
2009.000000	34.079337
2008.000000	34.084775
2007.000000	34.056333
2006.000000	34.023500
2005.000000	33.993385
2004.000000	33.929183
2003.000000	33.899696
2002.000000	33.844381
2001.000000	33.773173
2000.000000	33.714303
1999.000000	33.638284
1998.000000	33.570004
1997.000000	33.485202
1996.000000	33.406988
1995.000000	33.344667
1994.000000	33.249618
1993.000000	33.158752
1992.000000	33.078969
1991.000000	32.953701
1990.000000	32.871618
1989.000000	32.794135
1988.000000	32.697518
1987.000000	32.585007
1986.000000	32.488284
1985.000000	32.390203
1984.000000	32.279783
1983.000000	32.176369
1982.000000	32.074941
1981.000000	31.985016
1980.000000	31.857447
1979.000000	31.773900
1978.000000	31.679269
1977.000000	31.582442
1976.000000	31.482792
1975.000000	31.379692
1974.000000	31.308170
1973.000000	31.171922
1972.000000	31.102492
1971.000000	31.000332
1970.000000	30.925568
1969.000000	30.832192
1968.000000	30.738189
1967.000000	30.635820
1966.000000	30.542862
1965.000000	30.463080
1964.000000	30.405778
1963.000000	30.309265
1962.000000	30.202505
1961.000000	30.104005
1960.000000	29.997454
1959.000000	29.921540
1958.000000	29.822204
1957.000000	29.732802
1956.000000	29.631479
1955.000000	29.527960
1954.000000	29.435838
1953.000000	29.334934
1952.000000	29.236329
1951.000000	29.143058
1950.000000	29.066308
1949.000000	28.990185
1948.000000	28.912807
1947.000000	28.851428
1946.000000	28.805001
1945.000000	28.703364
1944.000000	28.641567
1943.000000	28.623582
1942.000000	28.604865
1941.000000	28.563248
1940.000000	28.530415
1939.000000	28.511802
1938.000000	28.512011
1937.000000	28.500196
1936.000000	28.500823
1935.000000	28.525918
1934.000000	28.571613
1933.000000	28.597231
1932.000000	28.668440
1931.000000	28.754810
1930.000000	28.812530
1929.000000	28.939576
1928.000000	29.034729
1927.000000	29.142012
1926.000000	29.261111
1925.000000	29.418376
1924.000000	29.555774
1923.000000	29.726109
1922.000000	29.933879
1921.000000	30.165594
1920.000000	30.375141
1919.000000	30.560220
1918.000000	30.805842
1917.000000	31.026473
1916.000000	31.296249
1915.000000	31.569267
1914.000000	31.946850
1913.000000	32.305715
1912.000000	32.661129
1911.000000	32.974405
1910.000000	33.309325
1909.000000	33.665785
1908.000000	34.101296
1907.000000	34.551864
1906.000000	35.078033
1905.000000	35.641635
1904.000000	36.123677
1903.000000	36.629246
1902.000000	37.157611
1901.000000	37.722050
1900.000000	38.313362
1899.000000	38.885957
1898.000000	39.480615
1897.000000	40.086357
1896.000000	40.601755
1895.000000	41.139007
1894.000000	41.702087
1893.000000	42.302496
1892.000000	42.942640
1891.000000	43.558420
1890.000000	44.113866
1889.000000	44.621004
1888.000000	45.133474
1887.000000	45.625346
1886.000000	46.099232
1885.000000	46.542585
1884.000000	46.995559
1883.000000	47.389976
1882.000000	47.739430
1881.000000	48.105197
1880.000000	48.426628
1879.000000	48.747745
1878.000000	49.068340
1877.000000	49.353278
1876.000000	49.645222
1875.000000	49.944276
1874.000000	50.208511
1873.000000	50.460302
1872.000000	50.671941
1871.000000	50.847086
1870.000000	50.980092
1869.000000	51.116235
1868.000000	51.183888
1867.000000	51.237112
1866.000000	51.285211
1865.000000	51.335611
1864.000000	51.401591
1863.000000	51.498941
1862.000000	51.611975
1861.000000	51.717062
1860.000000	51.812739
1859.000000	51.880392
1858.000000	51.922636
1857.000000	51.972095
1856.000000	52.003465
1855.000000	52.034834
1854.000000	52.053133
1853.000000	52.039853
1852.000000	52.062962
1851.000000	52.114303
1850.000000	52.164912
1849.000000	52.220227
1848.000000	52.226814
1847.000000	52.179969
1846.000000	52.111793
1845.000000	52.051041
1844.000000	52.045499
1843.000000	52.092553
1842.000000	52.112734
1841.000000	52.094854
1840.000000	52.061916
1839.000000	52.018522
1838.000000	51.981611
1837.000000	51.944595
1836.000000	51.874014
1835.000000	51.782102
1834.000000	51.711730
1833.000000	51.672100
1832.000000	51.644181
1831.000000	51.617517
1830.000000	51.592003
1829.000000	51.558124
1828.000000	51.505424
1827.000000	51.457324
1826.000000	51.427419
1825.000000	51.405042
1824.000000	51.398245
1823.000000	51.468617
1822.000000	51.529474
1821.000000	51.506156
1820.000000	51.459206
1819.000000	51.423550
1818.000000	51.401173
1817.000000	51.398036
1816.000000	51.371791
1815.000000	51.336343
1814.000000	51.325573
1813.000000	51.327874
1812.000000	51.319613
1811.000000	51.279356
1810.000000	51.231256
1809.000000	51.208984
1808.000000	51.205533
1807.000000	51.202605
1806.000000	51.165694
1805.000000	51.114562
1804.000000	51.104733
1803.000000	51.113935
1802.000000	51.100446
1801.000000	51.080056
1800.000000	51.039903
1799.000000	51.007802
1798.000000	51.004142
1797.000000	50.995359
1796.000000	50.981765
1795.000000	50.953324
1794.000000	50.933665
1793.000000	50.914321
1792.000000	50.896650
1791.000000	50.899055
1790.000000	50.888075
1789.000000	50.899891
1788.000000	50.900519
1787.000000	50.902924
1786.000000	50.904074
1785.000000	50.894245
1784.000000	50.908779
1783.000000	50.903969
1782.000000	50.894767
1781.000000	50.883893
1780.000000	50.867790
1779.000000	50.839871
1778.000000	50.808502
1777.000000	50.775355
1776.000000	50.746809
1775.000000	50.706656
1774.000000	50.663680
1773.000000	50.627292
1772.000000	50.570618
1771.000000	50.545940
1770.000000	50.500978
1769.000000	50.462393
1768.000000	50.424959
1767.000000	50.403314
1766.000000	50.360234
1765.000000	50.308475
1764.000000	50.300528
1763.000000	50.280242
1762.000000	50.238312
1761.000000	50.254938
1760.000000	50.229737
1759.000000	50.211125
1758.000000	50.212171
1757.000000	50.211125
1756.000000	50.192408
1755.000000	50.192617
1754.000000	50.186657
1753.000000	50.182474
1752.000000	50.167312
1751.000000	50.136361
1750.000000	50.108234
1749.000000	50.069440
1748.000000	50.015694
1747.000000	49.967281
1746.000000	49.890844
1745.000000	49.834797
1744.000000	49.754387
1743.000000	49.676278
1742.000000	49.608206
1741.000000	49.522882
1740.000000	49.456588
1739.000000	49.388098
1738.000000	49.326719
1737.000000	49.265130
1736.000000	49.211384
1735.000000	49.178237
1734.000000	49.124805
1733.000000	49.094063
1732.000000	49.033102
1731.000000	48.994936
1730.000000	48.960325
1729.000000	48.912853
1728.000000	48.893194
1727.000000	48.857120
1726.000000	48.841121
1725.000000	48.848336
1724.000000	48.884725
1723.000000	48.940144
1722.000000	49.025573
1721.000000	49.157638
1720.000000	49.331529
1719.000000	49.555192
1718.000000	49.773209
1717.000000	49.991749
1716.000000	50.199309
1715.000000	50.433115
1714.000000	50.620704
1713.000000	50.803274
1712.000000	50.960539
1711.000000	51.114353
1710.000000	51.237739
1709.000000	51.358197
1708.000000	51.440071
1707.000000	51.537734
1706.000000	51.580083
1705.000000	51.632783
1704.000000	51.696672
1703.000000	51.721559
1702.000000	51.725637
1701.000000	51.701064
1700.000000	51.738289
1699.000000	51.747491
1698.000000	51.732643
1697.000000	51.727205
1696.000000	51.699809
1695.000000	51.655788
1694.000000	51.588971
1693.000000	51.525605
1692.000000	51.454292
1691.000000	51.399082
1690.000000	51.358929
1689.000000	51.372313
1688.000000	51.401487
1687.000000	51.502601
1686.000000	51.630483
1685.000000	51.807092
1684.000000	51.999909
1683.000000	52.212489
1682.000000	52.461666
1681.000000	52.664939
1680.000000	52.887766
1679.000000	53.101601
1678.000000	53.277896
1677.000000	53.478346
1676.000000	53.658825
1675.000000	53.854674
1674.000000	53.997195
1673.000000	54.188339
1672.000000	54.372477
1671.000000	54.540826
1670.000000	54.722873
1669.000000	54.890280
1668.000000	55.059988
1667.000000	55.242035
1666.000000	55.397313
1665.000000	55.522268
1664.000000	55.663325
1663.000000	55.824564
1662.000000	55.951505
1661.000000	56.059311
1660.000000	56.167326
1659.000000	56.280674
1658.000000	56.373423
1657.000000	56.429051
1656.000000	56.520336
1655.000000	56.572723
1654.000000	56.622704
1653.000000	56.682934
1652.000000	56.696422
1651.000000	56.716812
1650.000000	56.721100
1649.000000	56.745986
1648.000000	56.749959
1647.000000	56.743476
1646.000000	56.732393
1645.000000	56.731138
1644.000000	56.717231
1643.000000	56.718172
1642.000000	56.720577
1641.000000	56.696422
1640.000000	56.700500
1639.000000	56.683770
1638.000000	56.671327
1637.000000	56.665994
1636.000000	56.649368
1635.000000	56.628978
1634.000000	56.601164
1633.000000	56.575023
1632.000000	56.550973
1631.000000	56.515944
1630.000000	56.479137
1629.000000	56.439926
1628.000000	56.389839
1627.000000	56.361607
1626.000000	56.347804
1625.000000	56.302319
1624.000000	56.260807
