PE UV       SUBTECH     SPECTRUM    ASCII       PEDS        4.00        
   -1
INBUCR0146-3.Sample.ASC
24/04/29
15:55:43.00
24/04/29
15:55:43.00
Vinicio Soto Monge
Chrysina sp.
250,000000
1
Lambda 1050
1050L1511233
PerkinElmer UV WinLab 6.3.2.0749 / 2.02.05 Lambda 900 UV/VIS/NIR, Aug  7 2015 09:38:08

0
0
3350/servo 860,8/2
0
0
UV/VIS
1
1
1
DoubleDePol,CommonBeamDepol,RBeamAtt,SBeamAtt,60mm sphere, WB InGaAs Detector
0
0
0
0
Program
Program
3350/servo 860,8/2
3350/0,2 860,8/0,2
3350/0,2 860,8/0,2
0
15.00
 
 
 
0
 
860,8
319,2
860,8
Front
100
on
S:100 R:100
0
0
0
0
 
0
 
 
 
0
 
 
0
0
0
0
0
 
 
 
 
0
0


0
0
#HDR
-1
-1
#GR
nm
%R
1.0
0.0
2500,000000
-1,000000
2251
8
99,256500
5,999300
#DATA
2500.000000	15.132597
2499.000000	15.061783
2498.000000	15.148002
2497.000000	15.121959
2496.000000	15.083615
2495.000000	15.000388
2494.000000	15.041946
2493.000000	15.002604
2492.000000	14.890897
2491.000000	15.013022
2490.000000	14.964260
2489.000000	15.017676
2488.000000	14.925473
2487.000000	14.899652
2486.000000	14.978667
2485.000000	14.934893
2484.000000	14.913394
2483.000000	14.960049
2482.000000	14.939880
2481.000000	14.975121
2480.000000	14.935558
2479.000000	15.014019
2478.000000	15.001940
2477.000000	14.952181
2476.000000	15.077741
2475.000000	15.108993
2474.000000	15.102897
2473.000000	15.182356
2472.000000	15.193881
2471.000000	15.269240
2470.000000	15.340387
2469.000000	15.356012
2468.000000	15.387042
2467.000000	15.416188
2466.000000	15.487446
2465.000000	15.516259
2464.000000	15.602921
2463.000000	15.669192
2462.000000	15.752862
2461.000000	15.773918
2460.000000	15.905019
2459.000000	15.972398
2458.000000	16.050527
2457.000000	16.130872
2456.000000	16.232384
2455.000000	16.334340
2454.000000	16.407038
2453.000000	16.506999
2452.000000	16.589560
2451.000000	16.700492
2450.000000	16.786156
2449.000000	16.885674
2448.000000	17.000263
2447.000000	17.119727
2446.000000	17.221794
2445.000000	17.349792
2444.000000	17.434681
2443.000000	17.572874
2442.000000	17.683917
2441.000000	17.796289
2440.000000	17.924509
2439.000000	18.032892
2438.000000	18.139723
2437.000000	18.227161
2436.000000	18.325570
2435.000000	18.462101
2434.000000	18.558294
2433.000000	18.680419
2432.000000	18.800659
2431.000000	18.891976
2430.000000	18.984844
2429.000000	19.076493
2428.000000	19.159165
2427.000000	19.260566
2426.000000	19.345012
2425.000000	19.436771
2424.000000	19.523987
2423.000000	19.613531
2422.000000	19.700525
2421.000000	19.765134
2420.000000	19.834064
2419.000000	19.890361
2418.000000	19.949983
2417.000000	20.005061
2416.000000	20.073992
2415.000000	20.149682
2414.000000	20.177166
2413.000000	20.218835
2412.000000	20.261722
2411.000000	20.325998
2410.000000	20.360464
2409.000000	20.386507
2408.000000	20.411996
2407.000000	20.446461
2406.000000	20.478266
2405.000000	20.514283
2404.000000	20.534563
2403.000000	20.566702
2402.000000	20.588422
2401.000000	20.607151
2400.000000	20.615684
2399.000000	20.620339
2398.000000	20.613800
2397.000000	20.620561
2396.000000	20.623774
2395.000000	20.627210
2394.000000	20.643057
2393.000000	20.663559
2392.000000	20.661010
2391.000000	20.649706
2390.000000	20.647490
2389.000000	20.633748
2388.000000	20.637959
2387.000000	20.629869
2386.000000	20.617568
2385.000000	20.616903
2384.000000	20.595072
2383.000000	20.563266
2382.000000	20.540437
2381.000000	20.525809
2380.000000	20.499655
2379.000000	20.478931
2378.000000	20.460978
2377.000000	20.422856
2376.000000	20.382850
2375.000000	20.372432
2374.000000	20.361683
2373.000000	20.317465
2372.000000	20.285660
2371.000000	20.271364
2370.000000	20.263495
2369.000000	20.256514
2368.000000	20.225595
2367.000000	20.186142
2366.000000	20.170184
2365.000000	20.155223
2364.000000	20.141592
2363.000000	20.120315
2362.000000	20.094272
2361.000000	20.071886
2360.000000	20.052160
2359.000000	20.035426
2358.000000	19.996528
2357.000000	19.957297
2356.000000	19.921059
2355.000000	19.877617
2354.000000	19.835727
2353.000000	19.814560
2352.000000	19.785082
2351.000000	19.722246
2350.000000	19.670825
2349.000000	19.626054
2348.000000	19.579952
2347.000000	19.560448
2346.000000	19.534959
2345.000000	19.478883
2344.000000	19.425800
2343.000000	19.402195
2342.000000	19.375044
2341.000000	19.359640
2340.000000	19.334040
2339.000000	19.304119
2338.000000	19.280071
2337.000000	19.271205
2336.000000	19.263004
2335.000000	19.251811
2334.000000	19.231974
2333.000000	19.231088
2332.000000	19.245051
2331.000000	19.236407
2330.000000	19.249152
2329.000000	19.263669
2328.000000	19.270983
2327.000000	19.295364
2326.000000	19.292815
2325.000000	19.307776
2324.000000	19.296694
2323.000000	19.294699
2322.000000	19.315866
2321.000000	19.294810
2320.000000	19.287717
2319.000000	19.288604
2318.000000	19.253363
2317.000000	19.222111
2316.000000	19.162822
2315.000000	19.118272
2314.000000	19.074609
2313.000000	19.044244
2312.000000	18.975646
2311.000000	18.914251
2310.000000	18.841774
2309.000000	18.799108
2308.000000	18.780268
2307.000000	18.726409
2306.000000	18.671553
2305.000000	18.622238
2304.000000	18.592870
2303.000000	18.567049
2302.000000	18.557961
2301.000000	18.531364
2300.000000	18.499226
2299.000000	18.515739
2298.000000	18.509533
2297.000000	18.509422
2296.000000	18.518842
2295.000000	18.510863
2294.000000	18.560289
2293.000000	18.558737
2292.000000	18.561729
2291.000000	18.603841
2290.000000	18.619135
2289.000000	18.644513
2288.000000	18.688952
2287.000000	18.706683
2286.000000	18.716989
2285.000000	18.753893
2284.000000	18.806200
2283.000000	18.838338
2282.000000	18.867263
2281.000000	18.892973
2280.000000	18.936415
2279.000000	18.958357
2278.000000	19.018755
2277.000000	19.053442
2276.000000	19.091564
2275.000000	19.094113
2274.000000	19.119380
2273.000000	19.143650
2272.000000	19.197287
2271.000000	19.197177
2270.000000	19.252587
2269.000000	19.293369
2268.000000	19.373049
2267.000000	19.401863
2266.000000	19.473010
2265.000000	19.542162
2264.000000	19.647553
2263.000000	19.746959
2262.000000	19.845701
2261.000000	19.990544
2260.000000	20.115328
2259.000000	20.275243
2258.000000	20.420640
2257.000000	20.581995
2256.000000	20.766955
2255.000000	20.931081
2254.000000	21.128010
2253.000000	21.309867
2252.000000	21.485961
2251.000000	21.662388
2250.000000	21.843248
2249.000000	21.993299
2248.000000	22.209400
2247.000000	22.341942
2246.000000	22.500859
2245.000000	22.620324
2244.000000	22.760180
2243.000000	22.893941
2242.000000	22.991907
2241.000000	23.075022
2240.000000	23.181854
2239.000000	23.237043
2238.000000	23.318053
2237.000000	23.356618
2236.000000	23.398841
2235.000000	23.409147
2234.000000	23.423997
2233.000000	23.438626
2232.000000	23.439180
2231.000000	23.405712
2230.000000	23.403828
2229.000000	23.380777
2228.000000	23.302205
2227.000000	23.292121
2226.000000	23.236488
2225.000000	23.189057
2224.000000	23.087324
2223.000000	23.050531
2222.000000	22.983373
2221.000000	22.892833
2220.000000	22.804841
2219.000000	22.728929
2218.000000	22.639939
2217.000000	22.541198
2216.000000	22.427496
2215.000000	22.367098
2214.000000	22.265254
2213.000000	22.214609
2212.000000	22.119746
2211.000000	22.049486
2210.000000	21.984323
2209.000000	21.912954
2208.000000	21.841807
2207.000000	21.797590
2206.000000	21.725334
2205.000000	21.684663
2204.000000	21.611410
2203.000000	21.563979
2202.000000	21.502584
2201.000000	21.461913
2200.000000	21.433100
2199.000000	21.371372
2198.000000	21.321725
2197.000000	21.317957
2196.000000	21.274958
2195.000000	21.233068
2194.000000	21.216112
2193.000000	21.172892
2192.000000	21.127899
2191.000000	21.133772
2190.000000	21.081243
2189.000000	21.068942
2188.000000	21.065617
2187.000000	21.037026
2186.000000	21.010096
2185.000000	21.008212
2184.000000	20.975187
2183.000000	20.960005
2182.000000	20.929862
2181.000000	20.898056
2180.000000	20.890409
2179.000000	20.887085
2178.000000	20.884647
2177.000000	20.873676
2176.000000	20.856277
2175.000000	20.871237
2174.000000	20.887417
2173.000000	20.903154
2172.000000	20.926537
2171.000000	20.944379
2170.000000	20.976739
2169.000000	21.001009
2168.000000	21.033479
2167.000000	21.071602
2166.000000	21.135767
2165.000000	21.211679
2164.000000	21.243042
2163.000000	21.310753
2162.000000	21.387885
2161.000000	21.461802
2160.000000	21.524748
2159.000000	21.604540
2158.000000	21.700732
2157.000000	21.809447
2156.000000	21.946865
2155.000000	22.060235
2154.000000	22.190782
2153.000000	22.289191
2152.000000	22.400788
2151.000000	22.544190
2150.000000	22.687260
2149.000000	22.811269
2148.000000	22.937826
2147.000000	23.068927
2146.000000	23.200028
2145.000000	23.337557
2144.000000	23.462120
2143.000000	23.584688
2142.000000	23.703931
2141.000000	23.845006
2140.000000	23.970899
2139.000000	24.093910
2138.000000	24.205063
2137.000000	24.301921
2136.000000	24.431914
2135.000000	24.524560
2134.000000	24.618315
2133.000000	24.726919
2132.000000	24.807264
2131.000000	24.908333
2130.000000	25.002309
2129.000000	25.061266
2128.000000	25.130861
2127.000000	25.210985
2126.000000	25.265841
2125.000000	25.316265
2124.000000	25.374889
2123.000000	25.422431
2122.000000	25.476512
2121.000000	25.527157
2120.000000	25.557744
2119.000000	25.586779
2118.000000	25.608056
2117.000000	25.627007
2116.000000	25.652717
2115.000000	25.680976
2114.000000	25.689177
2113.000000	25.695605
2112.000000	25.698819
2111.000000	25.696935
2110.000000	25.690840
2109.000000	25.687737
2108.000000	25.700481
2107.000000	25.702254
2106.000000	25.682528
2105.000000	25.673441
2104.000000	25.673330
2103.000000	25.660475
2102.000000	25.646511
2101.000000	25.653715
2100.000000	25.656374
2099.000000	25.651498
2098.000000	25.646290
2097.000000	25.648063
2096.000000	25.657926
2095.000000	25.671557
2094.000000	25.687072
2093.000000	25.708128
2092.000000	25.736054
2091.000000	25.748466
2090.000000	25.766752
2089.000000	25.781934
2088.000000	25.797228
2087.000000	25.807756
2086.000000	25.811524
2085.000000	25.798336
2084.000000	25.773401
2083.000000	25.763206
2082.000000	25.748134
2081.000000	25.706909
2080.000000	25.659256
2079.000000	25.605175
2078.000000	25.538904
2077.000000	25.459335
2076.000000	25.373892
2075.000000	25.276591
2074.000000	25.166213
2073.000000	25.065809
2072.000000	24.947674
2071.000000	24.800837
2070.000000	24.672728
2069.000000	24.549273
2068.000000	24.410525
2067.000000	24.262358
2066.000000	24.109979
2065.000000	23.959041
2064.000000	23.801786
2063.000000	23.655170
2062.000000	23.504343
2061.000000	23.357837
2060.000000	23.237597
2059.000000	23.118243
2058.000000	23.016066
2057.000000	22.921979
2056.000000	22.870779
2055.000000	22.810936
2054.000000	22.792872
2053.000000	22.814482
2052.000000	22.828667
2051.000000	22.869450
2050.000000	22.962318
2049.000000	23.071476
2048.000000	23.190830
2047.000000	23.349969
2046.000000	23.484506
2045.000000	23.668247
2044.000000	23.856199
2043.000000	24.039940
2042.000000	24.250832
2041.000000	24.436457
2040.000000	24.638816
2039.000000	24.837408
2038.000000	25.013945
2037.000000	25.225502
2036.000000	25.396277
2035.000000	25.571818
2034.000000	25.739047
2033.000000	25.893199
2032.000000	26.047572
2031.000000	26.191528
2030.000000	26.342356
2029.000000	26.454728
2028.000000	26.600347
2027.000000	26.707511
2026.000000	26.832628
2025.000000	26.938129
2024.000000	27.022131
2023.000000	27.126081
2022.000000	27.218395
2021.000000	27.313369
2020.000000	27.371328
2019.000000	27.445911
2018.000000	27.489685
2017.000000	27.558061
2016.000000	27.610480
2015.000000	27.642728
2014.000000	27.697474
2013.000000	27.711659
2012.000000	27.732826
2011.000000	27.734045
2010.000000	27.757650
2009.000000	27.759866
2008.000000	27.748452
2007.000000	27.730388
2006.000000	27.713765
2005.000000	27.676972
2004.000000	27.635082
2003.000000	27.573687
2002.000000	27.545871
2001.000000	27.480487
2000.000000	27.408231
1999.000000	27.333871
1998.000000	27.267932
1997.000000	27.182378
1996.000000	27.094941
1995.000000	26.996975
1994.000000	26.918292
1993.000000	26.818442
1992.000000	26.714603
1991.000000	26.612537
1990.000000	26.495954
1989.000000	26.359090
1988.000000	26.255915
1987.000000	26.110075
1986.000000	26.006014
1985.000000	25.879568
1984.000000	25.761654
1983.000000	25.644406
1982.000000	25.522946
1981.000000	25.389407
1980.000000	25.286232
1979.000000	25.155242
1978.000000	25.028795
1977.000000	24.895589
1976.000000	24.790752
1975.000000	24.676717
1974.000000	24.561907
1973.000000	24.454965
1972.000000	24.348133
1971.000000	24.207612
1970.000000	24.097678
1969.000000	24.004588
1968.000000	23.894211
1967.000000	23.776630
1966.000000	23.661487
1965.000000	23.542576
1964.000000	23.443945
1963.000000	23.324259
1962.000000	23.222857
1961.000000	23.118243
1960.000000	22.963869
1959.000000	22.871334
1958.000000	22.751647
1957.000000	22.619659
1956.000000	22.488226
1955.000000	22.402229
1954.000000	22.280990
1953.000000	22.173051
1952.000000	22.045164
1951.000000	21.920601
1950.000000	21.836266
1949.000000	21.740960
1948.000000	21.649533
1947.000000	21.534057
1946.000000	21.446731
1945.000000	21.376470
1944.000000	21.299228
1943.000000	21.222872
1942.000000	21.161145
1941.000000	21.118590
1940.000000	21.061739
1939.000000	21.061185
1938.000000	21.027162
1937.000000	20.986380
1936.000000	20.963773
1935.000000	20.962554
1934.000000	20.993251
1933.000000	21.003225
1932.000000	21.030044
1931.000000	21.076921
1930.000000	21.169457
1929.000000	21.248029
1928.000000	21.322168
1927.000000	21.432324
1926.000000	21.546913
1925.000000	21.660504
1924.000000	21.793932
1923.000000	21.957837
1922.000000	22.133155
1921.000000	22.329198
1920.000000	22.562254
1919.000000	22.755304
1918.000000	22.961431
1917.000000	23.215432
1916.000000	23.469434
1915.000000	23.741389
1914.000000	24.104992
1913.000000	24.493974
1912.000000	24.845608
1911.000000	25.210874
1910.000000	25.602515
1909.000000	25.986953
1908.000000	26.415387
1907.000000	26.913859
1906.000000	27.529248
1905.000000	28.148294
1904.000000	28.768447
1903.000000	29.370205
1902.000000	30.011193
1901.000000	30.686536
1900.000000	31.423828
1899.000000	32.181954
1898.000000	32.907831
1897.000000	33.604008
1896.000000	34.246769
1895.000000	34.904602
1894.000000	35.585597
1893.000000	36.316128
1892.000000	37.121131
1891.000000	37.915496
1890.000000	38.606021
1889.000000	39.282361
1888.000000	39.937313
1887.000000	40.525661
1886.000000	41.100933
1885.000000	41.724633
1884.000000	42.299572
1883.000000	42.788514
1882.000000	43.270031
1881.000000	43.717415
1880.000000	44.088332
1879.000000	44.500697
1878.000000	44.904972
1877.000000	45.253171
1876.000000	45.604473
1875.000000	45.946688
1874.000000	46.267293
1873.000000	46.572937
1872.000000	46.859188
1871.000000	47.090139
1870.000000	47.289395
1869.000000	47.482777
1868.000000	47.596590
1867.000000	47.708519
1866.000000	47.782769
1865.000000	47.858571
1864.000000	47.949001
1863.000000	48.054281
1862.000000	48.171973
1861.000000	48.300857
1860.000000	48.416000
1859.000000	48.512525
1858.000000	48.579794
1857.000000	48.632434
1856.000000	48.675100
1855.000000	48.730732
1854.000000	48.742035
1853.000000	48.743033
1852.000000	48.782707
1851.000000	48.815731
1850.000000	48.843658
1849.000000	48.879010
1848.000000	48.910594
1847.000000	48.867706
1846.000000	48.796448
1845.000000	48.732394
1844.000000	48.699480
1843.000000	48.704800
1842.000000	48.721755
1841.000000	48.702805
1840.000000	48.654376
1839.000000	48.610713
1838.000000	48.571260
1837.000000	48.529481
1836.000000	48.461880
1835.000000	48.370342
1834.000000	48.302409
1833.000000	48.253204
1832.000000	48.207103
1831.000000	48.180062
1830.000000	48.163993
1829.000000	48.134737
1828.000000	48.069131
1827.000000	48.030787
1826.000000	48.005630
1825.000000	47.978036
1824.000000	47.982469
1823.000000	48.009177
1822.000000	48.052397
1821.000000	48.091960
1820.000000	48.092846
1819.000000	48.036328
1818.000000	47.994216
1817.000000	48.001087
1816.000000	48.006184
1815.000000	47.990891
1814.000000	47.974046
1813.000000	47.952547
1812.000000	47.935037
1811.000000	47.891706
1810.000000	47.840175
1809.000000	47.811805
1808.000000	47.789197
1807.000000	47.763265
1806.000000	47.726140
1805.000000	47.693115
1804.000000	47.671727
1803.000000	47.655436
1802.000000	47.660866
1801.000000	47.615541
1800.000000	47.567666
1799.000000	47.535750
1798.000000	47.516910
1797.000000	47.502171
1796.000000	47.471473
1795.000000	47.435346
1794.000000	47.405092
1793.000000	47.395340
1792.000000	47.353006
1791.000000	47.335385
1790.000000	47.342700
1789.000000	47.360985
1788.000000	47.375503
1787.000000	47.363201
1786.000000	47.365640
1785.000000	47.370516
1784.000000	47.355666
1783.000000	47.347354
1782.000000	47.340594
1781.000000	47.291833
1780.000000	47.272772
1779.000000	47.233763
1778.000000	47.173698
1777.000000	47.123274
1776.000000	47.077838
1775.000000	47.004474
1774.000000	46.936430
1773.000000	46.868054
1772.000000	46.809097
1771.000000	46.760114
1770.000000	46.674117
1769.000000	46.598426
1768.000000	46.565291
1767.000000	46.505891
1766.000000	46.454913
1765.000000	46.394737
1764.000000	46.360383
1763.000000	46.360715
1762.000000	46.340103
1761.000000	46.331015
1760.000000	46.323036
1759.000000	46.312508
1758.000000	46.323480
1757.000000	46.339770
1756.000000	46.336224
1755.000000	46.327137
1754.000000	46.350409
1753.000000	46.363597
1752.000000	46.348082
1751.000000	46.341876
1750.000000	46.307854
1749.000000	46.271172
1748.000000	46.212991
1747.000000	46.134751
1746.000000	46.061277
1745.000000	45.973507
1744.000000	45.867119
1743.000000	45.739010
1742.000000	45.626083
1741.000000	45.499748
1740.000000	45.361111
1739.000000	45.251952
1738.000000	45.132598
1737.000000	45.030421
1736.000000	44.924255
1735.000000	44.824072
1734.000000	44.743062
1733.000000	44.642769
1732.000000	44.537046
1731.000000	44.446284
1730.000000	44.381564
1729.000000	44.301219
1728.000000	44.224199
1727.000000	44.168345
1726.000000	44.127009
1725.000000	44.101631
1724.000000	44.104512
1723.000000	44.157928
1722.000000	44.291689
1721.000000	44.507568
1720.000000	44.750044
1719.000000	45.049371
1718.000000	45.334181
1717.000000	45.674845
1716.000000	45.993676
1715.000000	46.304418
1714.000000	46.603524
1713.000000	46.854866
1712.000000	47.095236
1711.000000	47.295490
1710.000000	47.507934
1709.000000	47.696551
1708.000000	47.827319
1707.000000	47.973492
1706.000000	48.104039
1705.000000	48.217520
1704.000000	48.286451
1703.000000	48.355935
1702.000000	48.395609
1701.000000	48.431515
1700.000000	48.459220
1699.000000	48.511971
1698.000000	48.521834
1697.000000	48.499670
1696.000000	48.445368
1695.000000	48.383308
1694.000000	48.288667
1693.000000	48.167872
1692.000000	48.012058
1691.000000	47.910768
1690.000000	47.805931
1689.000000	47.773682
1688.000000	47.791524
1687.000000	47.857463
1686.000000	48.010617
1685.000000	48.200454
1684.000000	48.457336
1683.000000	48.738822
1682.000000	48.998364
1681.000000	49.281733
1680.000000	49.560891
1679.000000	49.820988
1678.000000	50.064018
1677.000000	50.272694
1676.000000	50.491676
1675.000000	50.668879
1674.000000	50.875560
1673.000000	51.082573
1672.000000	51.288811
1671.000000	51.524970
1670.000000	51.756808
1669.000000	51.984434
1668.000000	52.209401
1667.000000	52.447222
1666.000000	52.657117
1665.000000	52.864463
1664.000000	53.053856
1663.000000	53.260869
1662.000000	53.438626
1661.000000	53.626024
1660.000000	53.793696
1659.000000	53.934882
1658.000000	54.080279
1657.000000	54.198415
1656.000000	54.305135
1655.000000	54.391575
1654.000000	54.481008
1653.000000	54.528661
1652.000000	54.579417
1651.000000	54.638041
1650.000000	54.663641
1649.000000	54.686913
1648.000000	54.715616
1647.000000	54.728471
1646.000000	54.746646
1645.000000	54.733347
1644.000000	54.717056
1643.000000	54.707969
1642.000000	54.717389
1641.000000	54.718719
1640.000000	54.715062
1639.000000	54.713621
1638.000000	54.695003
1637.000000	54.676164
1636.000000	54.668960
1635.000000	54.654886
1634.000000	54.645799
1633.000000	54.600030
1632.000000	54.561021
1631.000000	54.527331
1630.000000	54.497742
1629.000000	54.451862
1628.000000	54.414072
1627.000000	54.358218
1626.000000	54.315663
1625.000000	54.279535
1624.000000	54.223460
