PE UV       SUBTECH     SPECTRUM    ASCII       PEDS        4.00        
   -1
INBUCR0146-2.Sample.ASC
24/04/29
15:25:23.00
24/04/29
15:25:23.00
Vinicio Soto Monge
Chrysina sp.
250,000000
1
Lambda 1050
1050L1511233
PerkinElmer UV WinLab 6.3.2.0749 / 2.02.05 Lambda 900 UV/VIS/NIR, Aug  7 2015 09:38:08

0
0
3350/servo 860,8/2
0
0
UV/VIS
1
1
1
DoubleDePol,CommonBeamDepol,RBeamAtt,SBeamAtt,60mm sphere, WB InGaAs Detector
0
0
0
0
Program
Program
3350/servo 860,8/2
3350/0,2 860,8/0,2
3350/0,2 860,8/0,2
0
15.00
 
 
 
0
 
860,8
319,2
860,8
Front
100
on
S:100 R:100
0
0
0
0
 
0
 
 
 
0
 
 
0
0
0
0
0
 
 
 
 
0
0


0
0
#HDR
-1
-1
#GR
nm
%R
1.0
0.0
2500,000000
-1,000000
2251
8
100,409100
6,000500
#DATA
2500.000000	11.723357
2499.000000	11.628491
2498.000000	11.505156
2497.000000	11.556785
2496.000000	11.486247
2495.000000	11.526084
2494.000000	11.398393
2493.000000	11.453421
2492.000000	11.459370
2491.000000	11.424632
2490.000000	11.424207
2489.000000	11.477429
2488.000000	11.410609
2487.000000	11.385857
2486.000000	11.443648
2485.000000	11.462557
2484.000000	11.458520
2483.000000	11.509618
2482.000000	11.512698
2481.000000	11.512486
2480.000000	11.498676
2479.000000	11.516841
2478.000000	11.550623
2477.000000	11.574738
2476.000000	11.611282
2475.000000	11.657493
2474.000000	11.637521
2473.000000	11.703491
2472.000000	11.731537
2471.000000	11.745666
2470.000000	11.830651
2469.000000	11.822365
2468.000000	11.888548
2467.000000	11.994992
2466.000000	12.049702
2465.000000	12.080828
2464.000000	12.154872
2463.000000	12.220948
2462.000000	12.287768
2461.000000	12.329730
2460.000000	12.400162
2459.000000	12.494177
2458.000000	12.545700
2457.000000	12.639184
2456.000000	12.718540
2455.000000	12.787378
2454.000000	12.885430
2453.000000	12.959899
2452.000000	13.085466
2451.000000	13.184474
2450.000000	13.284757
2449.000000	13.366450
2448.000000	13.483199
2447.000000	13.570309
2446.000000	13.696619
2445.000000	13.817299
2444.000000	13.938829
2443.000000	14.041661
2442.000000	14.159367
2441.000000	14.284508
2440.000000	14.357065
2439.000000	14.491023
2438.000000	14.600124
2437.000000	14.716448
2436.000000	14.825230
2435.000000	14.940173
2434.000000	15.037163
2433.000000	15.147007
2432.000000	15.259188
2431.000000	15.367439
2430.000000	15.489287
2429.000000	15.580647
2428.000000	15.671050
2427.000000	15.771546
2426.000000	15.859081
2425.000000	15.949803
2424.000000	16.045731
2423.000000	16.129655
2422.000000	16.199237
2421.000000	16.286241
2420.000000	16.368358
2419.000000	16.448882
2418.000000	16.523351
2417.000000	16.577848
2416.000000	16.642331
2415.000000	16.705858
2414.000000	16.763754
2413.000000	16.812515
2412.000000	16.871686
2411.000000	16.917154
2410.000000	16.940525
2409.000000	16.989285
2408.000000	17.041551
2407.000000	17.077883
2406.000000	17.104972
2405.000000	17.139285
2404.000000	17.167437
2403.000000	17.196757
2402.000000	17.229157
2401.000000	17.271757
2400.000000	17.307557
2399.000000	17.334646
2398.000000	17.356636
2397.000000	17.380857
2396.000000	17.405928
2395.000000	17.413045
2394.000000	17.428661
2393.000000	17.451820
2392.000000	17.464780
2391.000000	17.476997
2390.000000	17.489639
2389.000000	17.489851
2388.000000	17.500156
2387.000000	17.518853
2386.000000	17.520765
2385.000000	17.514710
2384.000000	17.524589
2383.000000	17.513753
2382.000000	17.501006
2381.000000	17.491551
2380.000000	17.485071
2379.000000	17.484115
2378.000000	17.455644
2377.000000	17.439710
2376.000000	17.433442
2375.000000	17.423456
2374.000000	17.419101
2373.000000	17.404653
2372.000000	17.384894
2371.000000	17.370446
2370.000000	17.349837
2369.000000	17.339533
2368.000000	17.323810
2367.000000	17.319986
2366.000000	17.336452
2365.000000	17.331034
2364.000000	17.317224
2363.000000	17.313293
2362.000000	17.317543
2361.000000	17.304370
2360.000000	17.292047
2359.000000	17.289179
2358.000000	17.280574
2357.000000	17.257628
2356.000000	17.235638
2355.000000	17.222996
2354.000000	17.183053
2353.000000	17.175510
2352.000000	17.153308
2351.000000	17.122819
2350.000000	17.102847
2349.000000	17.056424
2348.000000	17.023067
2347.000000	17.014250
2346.000000	16.995447
2345.000000	16.960709
2344.000000	16.942968
2343.000000	16.925015
2342.000000	16.908655
2341.000000	16.897288
2340.000000	16.884753
2339.000000	16.893039
2338.000000	16.892614
2337.000000	16.892720
2336.000000	16.883372
2335.000000	16.888365
2334.000000	16.891552
2333.000000	16.906318
2332.000000	16.920128
2331.000000	16.944030
2330.000000	16.975794
2329.000000	16.984930
2328.000000	16.998102
2327.000000	17.034221
2326.000000	17.070553
2325.000000	17.093074
2324.000000	17.117826
2323.000000	17.146934
2322.000000	17.173704
2321.000000	17.184221
2320.000000	17.185708
2319.000000	17.174448
2318.000000	17.182203
2317.000000	17.181884
2316.000000	17.168924
2315.000000	17.146084
2314.000000	17.112515
2313.000000	17.088294
2312.000000	17.050581
2311.000000	17.012125
2310.000000	16.990666
2309.000000	16.952529
2308.000000	16.915241
2307.000000	16.896120
2306.000000	16.865843
2305.000000	16.835992
2304.000000	16.815489
2303.000000	16.786807
2302.000000	16.782451
2301.000000	16.782451
2300.000000	16.768110
2299.000000	16.782982
2298.000000	16.801785
2297.000000	16.801785
2296.000000	16.815383
2295.000000	16.843110
2294.000000	16.860426
2293.000000	16.879441
2292.000000	16.896438
2291.000000	16.937869
2290.000000	16.979937
2289.000000	17.024023
2288.000000	17.063754
2287.000000	17.095305
2286.000000	17.122182
2285.000000	17.186240
2284.000000	17.231176
2283.000000	17.267082
2282.000000	17.301608
2281.000000	17.337939
2280.000000	17.387231
2279.000000	17.416126
2278.000000	17.467861
2277.000000	17.516091
2276.000000	17.546473
2275.000000	17.565807
2274.000000	17.585779
2273.000000	17.646012
2272.000000	17.665134
2271.000000	17.713470
2270.000000	17.750226
2269.000000	17.808017
2268.000000	17.855821
2267.000000	17.910849
2266.000000	17.982662
2265.000000	18.058724
2264.000000	18.175155
2263.000000	18.242187
2262.000000	18.364142
2261.000000	18.485884
2260.000000	18.621967
2259.000000	18.776429
2258.000000	18.909007
2257.000000	19.076429
2256.000000	19.238964
2255.000000	19.430288
2254.000000	19.613963
2253.000000	19.767787
2252.000000	19.965061
2251.000000	20.150436
2250.000000	20.319557
2249.000000	20.501214
2248.000000	20.656207
2247.000000	20.810987
2246.000000	20.995300
2245.000000	21.114280
2244.000000	21.235066
2243.000000	21.350434
2242.000000	21.475045
2241.000000	21.574159
2240.000000	21.664457
2239.000000	21.735207
2238.000000	21.815944
2237.000000	21.854612
2236.000000	21.886376
2235.000000	21.927594
2234.000000	21.956595
2233.000000	21.971680
2232.000000	21.970618
2231.000000	21.948628
2230.000000	21.938004
2229.000000	21.908259
2228.000000	21.871822
2227.000000	21.839315
2226.000000	21.789704
2225.000000	21.736057
2224.000000	21.682091
2223.000000	21.609428
2222.000000	21.534322
2221.000000	21.452311
2220.000000	21.409712
2219.000000	21.302842
2218.000000	21.234004
2217.000000	21.162403
2216.000000	21.065201
2215.000000	20.976285
2214.000000	20.899797
2213.000000	20.850293
2212.000000	20.770619
2211.000000	20.677666
2210.000000	20.600223
2209.000000	20.557517
2208.000000	20.500471
2207.000000	20.437050
2206.000000	20.402950
2205.000000	20.332199
2204.000000	20.303941
2203.000000	20.263361
2202.000000	20.177312
2201.000000	20.144168
2200.000000	20.115910
2199.000000	20.072674
2198.000000	20.045372
2197.000000	20.002242
2196.000000	19.969841
2195.000000	19.949444
2194.000000	19.928092
2193.000000	19.878588
2192.000000	19.862865
2191.000000	19.835139
2190.000000	19.817292
2189.000000	19.805925
2188.000000	19.780004
2187.000000	19.749728
2186.000000	19.741867
2185.000000	19.703836
2184.000000	19.676853
2183.000000	19.662086
2182.000000	19.633723
2181.000000	19.604402
2180.000000	19.596966
2179.000000	19.587830
2178.000000	19.565628
2177.000000	19.554686
2176.000000	19.554367
2175.000000	19.534289
2174.000000	19.525472
2173.000000	19.560847
2172.000000	19.572958
2171.000000	19.564565
2170.000000	19.579332
2169.000000	19.628411
2168.000000	19.633298
2167.000000	19.650082
2166.000000	19.710528
2165.000000	19.760139
2164.000000	19.788503
2163.000000	19.827065
2162.000000	19.890273
2161.000000	19.946151
2160.000000	20.017221
2159.000000	20.087971
2158.000000	20.165946
2157.000000	20.262298
2156.000000	20.341016
2155.000000	20.455003
2154.000000	20.552100
2153.000000	20.660138
2152.000000	20.781349
2151.000000	20.909677
2150.000000	21.011766
2149.000000	21.112687
2148.000000	21.252276
2147.000000	21.392184
2146.000000	21.507021
2145.000000	21.624726
2144.000000	21.735632
2143.000000	21.860136
2142.000000	21.972955
2141.000000	22.085348
2140.000000	22.203904
2139.000000	22.331063
2138.000000	22.453018
2137.000000	22.557338
2136.000000	22.654328
2135.000000	22.750256
2134.000000	22.847033
2133.000000	22.935312
2132.000000	23.031558
2131.000000	23.119943
2130.000000	23.197387
2129.000000	23.275999
2128.000000	23.354504
2127.000000	23.431735
2126.000000	23.481876
2125.000000	23.532549
2124.000000	23.606274
2123.000000	23.663533
2122.000000	23.706664
2121.000000	23.756487
2120.000000	23.801848
2119.000000	23.834249
2118.000000	23.874829
2117.000000	23.920722
2116.000000	23.939950
2115.000000	23.961621
2114.000000	23.981699
2113.000000	23.999440
2112.000000	24.018243
2111.000000	24.036196
2110.000000	24.037258
2109.000000	24.031628
2108.000000	24.046819
2107.000000	24.059461
2106.000000	24.051068
2105.000000	24.047563
2104.000000	24.048094
2103.000000	24.048306
2102.000000	24.056168
2101.000000	24.070190
2100.000000	24.074546
2099.000000	24.080070
2098.000000	24.077839
2097.000000	24.101847
2096.000000	24.113427
2095.000000	24.129786
2094.000000	24.168774
2093.000000	24.177910
2092.000000	24.209036
2091.000000	24.247067
2090.000000	24.269163
2089.000000	24.280211
2088.000000	24.285735
2087.000000	24.301564
2086.000000	24.322810
2085.000000	24.335027
2084.000000	24.335239
2083.000000	24.325466
2082.000000	24.310594
2081.000000	24.279043
2080.000000	24.246536
2079.000000	24.191932
2078.000000	24.129255
2077.000000	24.070084
2076.000000	24.005176
2075.000000	23.923059
2074.000000	23.833505
2073.000000	23.743208
2072.000000	23.646111
2071.000000	23.527238
2070.000000	23.417075
2069.000000	23.311374
2068.000000	23.183683
2067.000000	23.035595
2066.000000	22.922883
2065.000000	22.804859
2064.000000	22.660171
2063.000000	22.521750
2062.000000	22.410631
2061.000000	22.316085
2060.000000	22.206878
2059.000000	22.106701
2058.000000	22.017997
2057.000000	21.961375
2056.000000	21.920582
2055.000000	21.903798
2054.000000	21.887438
2053.000000	21.906772
2052.000000	21.965837
2051.000000	22.027983
2050.000000	22.108826
2049.000000	22.208153
2048.000000	22.339668
2047.000000	22.494448
2046.000000	22.662295
2045.000000	22.819838
2044.000000	22.989809
2043.000000	23.185064
2042.000000	23.381381
2041.000000	23.543066
2040.000000	23.725254
2039.000000	23.889383
2038.000000	24.083575
2037.000000	24.245792
2036.000000	24.393667
2035.000000	24.563851
2034.000000	24.724474
2033.000000	24.863532
2032.000000	24.969658
2031.000000	25.117639
2030.000000	25.254891
2029.000000	25.359530
2028.000000	25.466718
2027.000000	25.572419
2026.000000	25.681520
2025.000000	25.761194
2024.000000	25.859246
2023.000000	25.932759
2022.000000	26.005422
2021.000000	26.084564
2020.000000	26.148941
2019.000000	26.217461
2018.000000	26.283325
2017.000000	26.309352
2016.000000	26.360131
2015.000000	26.365549
2014.000000	26.413247
2013.000000	26.417815
2012.000000	26.442673
2011.000000	26.449260
2010.000000	26.441505
2009.000000	26.435024
2008.000000	26.411016
2007.000000	26.382333
2006.000000	26.354819
2005.000000	26.321568
2004.000000	26.289061
2003.000000	26.226916
2002.000000	26.168913
2001.000000	26.092001
2000.000000	26.020188
1999.000000	25.948269
1998.000000	25.871888
1997.000000	25.802837
1996.000000	25.704572
1995.000000	25.605670
1994.000000	25.503687
1993.000000	25.394480
1992.000000	25.305883
1991.000000	25.193595
1990.000000	25.103298
1989.000000	24.984743
1988.000000	24.867356
1987.000000	24.760912
1986.000000	24.645437
1985.000000	24.524758
1984.000000	24.401635
1983.000000	24.286904
1982.000000	24.180140
1981.000000	24.060204
1980.000000	23.939525
1979.000000	23.810028
1978.000000	23.701140
1977.000000	23.590977
1976.000000	23.480071
1975.000000	23.379256
1974.000000	23.262295
1973.000000	23.153938
1972.000000	23.066934
1971.000000	22.950503
1970.000000	22.843846
1969.000000	22.747069
1968.000000	22.628620
1967.000000	22.550220
1966.000000	22.444201
1965.000000	22.336269
1964.000000	22.234392
1963.000000	22.115412
1962.000000	22.004931
1961.000000	21.915589
1960.000000	21.794272
1959.000000	21.710136
1958.000000	21.596149
1957.000000	21.473664
1956.000000	21.386235
1955.000000	21.259287
1954.000000	21.167821
1953.000000	21.054365
1952.000000	20.945902
1951.000000	20.831171
1950.000000	20.754578
1949.000000	20.644309
1948.000000	20.556986
1947.000000	20.481774
1946.000000	20.387015
1945.000000	20.325081
1944.000000	20.243601
1943.000000	20.198346
1942.000000	20.126640
1941.000000	20.087228
1940.000000	20.037192
1939.000000	20.007660
1938.000000	19.990025
1937.000000	19.962405
1936.000000	19.967929
1935.000000	19.960280
1934.000000	19.978977
1933.000000	20.026888
1932.000000	20.061413
1931.000000	20.087865
1930.000000	20.171045
1929.000000	20.250931
1928.000000	20.350683
1927.000000	20.446399
1926.000000	20.556136
1925.000000	20.686271
1924.000000	20.804613
1923.000000	20.934535
1922.000000	21.137120
1921.000000	21.357339
1920.000000	21.576496
1919.000000	21.773345
1918.000000	21.985065
1917.000000	22.211977
1916.000000	22.452805
1915.000000	22.721467
1914.000000	23.084143
1913.000000	23.463498
1912.000000	23.858682
1911.000000	24.189064
1910.000000	24.567250
1909.000000	24.913355
1908.000000	25.362080
1907.000000	25.842461
1906.000000	26.414415
1905.000000	27.012927
1904.000000	27.578932
1903.000000	28.121035
1902.000000	28.715723
1901.000000	29.388385
1900.000000	30.079213
1899.000000	30.805841
1898.000000	31.463418
1897.000000	32.164125
1896.000000	32.766886
1895.000000	33.367204
1894.000000	34.016389
1893.000000	34.715503
1892.000000	35.480162
1891.000000	36.181294
1890.000000	36.837278
1889.000000	37.451512
1888.000000	38.076370
1887.000000	38.626228
1886.000000	39.181822
1885.000000	39.734335
1884.000000	40.288974
1883.000000	40.776154
1882.000000	41.207457
1881.000000	41.624737
1880.000000	41.979977
1879.000000	42.342123
1878.000000	42.720097
1877.000000	43.035181
1876.000000	43.351859
1875.000000	43.668112
1874.000000	43.994989
1873.000000	44.292120
1872.000000	44.539641
1871.000000	44.765491
1870.000000	44.990384
1869.000000	45.199024
1868.000000	45.307381
1867.000000	45.390561
1866.000000	45.464817
1865.000000	45.555433
1864.000000	45.611311
1863.000000	45.677388
1862.000000	45.810709
1861.000000	45.936382
1860.000000	46.024236
1859.000000	46.122500
1858.000000	46.207486
1857.000000	46.250935
1856.000000	46.273031
1855.000000	46.321579
1854.000000	46.354405
1853.000000	46.347181
1852.000000	46.353768
1851.000000	46.370234
1850.000000	46.400616
1849.000000	46.450014
1848.000000	46.474023
1847.000000	46.434823
1846.000000	46.382026
1845.000000	46.332628
1844.000000	46.274944
1843.000000	46.276856
1842.000000	46.302351
1841.000000	46.290772
1840.000000	46.239674
1839.000000	46.200581
1838.000000	46.144490
1837.000000	46.098173
1836.000000	46.068322
1835.000000	45.989073
1834.000000	45.905999
1833.000000	45.835886
1832.000000	45.793712
1831.000000	45.775759
1830.000000	45.748032
1829.000000	45.714888
1828.000000	45.663152
1827.000000	45.627034
1826.000000	45.607274
1825.000000	45.579973
1824.000000	45.538223
1823.000000	45.565313
1822.000000	45.625865
1821.000000	45.644668
1820.000000	45.651361
1819.000000	45.614392
1818.000000	45.579335
1817.000000	45.573386
1816.000000	45.571580
1815.000000	45.545022
1814.000000	45.522076
1813.000000	45.520376
1812.000000	45.492119
1811.000000	45.457593
1810.000000	45.421687
1809.000000	45.380362
1808.000000	45.353061
1807.000000	45.352105
1806.000000	45.309506
1805.000000	45.268500
1804.000000	45.238224
1803.000000	45.235887
1802.000000	45.233656
1801.000000	45.200511
1800.000000	45.147502
1799.000000	45.122749
1798.000000	45.103415
1797.000000	45.072714
1796.000000	45.054230
1795.000000	45.023422
1794.000000	44.994421
1793.000000	44.986029
1792.000000	44.974131
1791.000000	44.967757
1790.000000	44.948635
1789.000000	44.938968
1788.000000	44.958090
1787.000000	44.977636
1786.000000	44.979124
1785.000000	44.979867
1784.000000	44.978274
1783.000000	44.963083
1782.000000	44.941517
1781.000000	44.929832
1780.000000	44.911135
1779.000000	44.873104
1778.000000	44.825193
1777.000000	44.782275
1776.000000	44.741588
1775.000000	44.695271
1774.000000	44.640987
1773.000000	44.587552
1772.000000	44.535392
1771.000000	44.480470
1770.000000	44.433621
1769.000000	44.374981
1768.000000	44.320803
1767.000000	44.299238
1766.000000	44.244847
1765.000000	44.224132
1764.000000	44.190456
1763.000000	44.156887
1762.000000	44.144989
1761.000000	44.156674
1760.000000	44.153487
1759.000000	44.138190
1758.000000	44.151787
1757.000000	44.144882
1756.000000	44.157205
1755.000000	44.159330
1754.000000	44.168466
1753.000000	44.159224
1752.000000	44.153062
1751.000000	44.131603
1750.000000	44.100159
1749.000000	44.053735
1748.000000	44.012198
1747.000000	43.955046
1746.000000	43.873459
1745.000000	43.792192
1744.000000	43.706993
1743.000000	43.608197
1742.000000	43.518644
1741.000000	43.405400
1740.000000	43.294175
1739.000000	43.210358
1738.000000	43.099770
1737.000000	43.030401
1736.000000	42.943822
1735.000000	42.869459
1734.000000	42.794140
1733.000000	42.724240
1732.000000	42.660075
1731.000000	42.590918
1730.000000	42.517512
1729.000000	42.470026
1728.000000	42.382809
1727.000000	42.327463
1726.000000	42.278702
1725.000000	42.256393
1724.000000	42.282633
1723.000000	42.317689
1722.000000	42.438156
1721.000000	42.606641
1720.000000	42.829516
1719.000000	43.074806
1718.000000	43.359508
1717.000000	43.631569
1716.000000	43.918502
1715.000000	44.171865
1714.000000	44.411206
1713.000000	44.663402
1712.000000	44.865774
1711.000000	45.045837
1710.000000	45.209222
1709.000000	45.370908
1708.000000	45.498493
1707.000000	45.612480
1706.000000	45.726786
1705.000000	45.790950
1704.000000	45.844385
1703.000000	45.891977
1702.000000	45.934469
1701.000000	45.957734
1700.000000	45.984399
1699.000000	45.962515
1698.000000	45.989923
1697.000000	45.953910
1696.000000	45.919703
1695.000000	45.857982
1694.000000	45.746545
1693.000000	45.665277
1692.000000	45.559789
1691.000000	45.448139
1690.000000	45.355292
1689.000000	45.335533
1688.000000	45.364534
1687.000000	45.435709
1686.000000	45.587515
1685.000000	45.770978
1684.000000	46.000758
1683.000000	46.258690
1682.000000	46.530326
1681.000000	46.787514
1680.000000	47.039815
1679.000000	47.302209
1678.000000	47.541443
1677.000000	47.734042
1676.000000	47.912087
1675.000000	48.124127
1674.000000	48.317151
1673.000000	48.517823
1672.000000	48.722851
1671.000000	48.943283
1670.000000	49.167327
1669.000000	49.390945
1668.000000	49.602560
1667.000000	49.851037
1666.000000	50.022496
1665.000000	50.232835
1664.000000	50.426603
1663.000000	50.598380
1662.000000	50.754966
1661.000000	50.919520
1660.000000	51.082055
1659.000000	51.224725
1658.000000	51.333719
1657.000000	51.455780
1656.000000	51.549158
1655.000000	51.635312
1654.000000	51.691509
1653.000000	51.753124
1652.000000	51.812083
1651.000000	51.852026
1650.000000	51.870510
1649.000000	51.909816
1648.000000	51.909179
1647.000000	51.931594
1646.000000	51.933400
1645.000000	51.943704
1644.000000	51.943811
1643.000000	51.952203
1642.000000	51.943704
1641.000000	51.946041
1640.000000	51.939668
1639.000000	51.944129
1638.000000	51.927663
1637.000000	51.934568
1636.000000	51.921820
1635.000000	51.899512
1634.000000	51.885808
1633.000000	51.863818
1632.000000	51.837791
1631.000000	51.817925
1630.000000	51.772777
1629.000000	51.729540
1628.000000	51.689385
1627.000000	51.657515
1626.000000	51.614810
1625.000000	51.580497
1624.000000	51.530143
