PE UV       SUBTECH     SPECTRUM    ASCII       PEDS        4.00        
   -1
INBUCR0137-2.Sample.ASC
24/04/26
11:39:22.00
24/04/26
11:39:22.00
Vinicio Soto Monge
C. cupreomarginata
250,000000
1
Lambda 1050
1050L1511233
PerkinElmer UV WinLab 6.3.2.0749 / 2.02.05 Lambda 900 UV/VIS/NIR, Aug  7 2015 09:38:08

0
0
3350/servo 860,8/2
0
0
UV/VIS
1
1
1
DoubleDePol,CommonBeamDepol,RBeamAtt,SBeamAtt,60mm sphere, WB InGaAs Detector
0
0
0
0
Program
Program
3350/servo 860,8/2
3350/0,2 860,8/0,2
3350/0,2 860,8/0,2
0
15.00
 
 
 
0
 
860,8
319,2
860,8
Front
100
on
S:100 R:100
0
0
0
0
 
0
 
 
 
0
 
 
0
0
0
0
0
 
 
 
 
0
0


0
0
#HDR
-1
-1
#GR
nm
%R
1.0
0.0
2500,000000
-1,000000
2251
8
78,622400
6,002300
#DATA
2500.000000	22.296420
2499.000000	22.502770
2498.000000	22.390315
2497.000000	22.460051
2496.000000	22.370548
2495.000000	22.283022
2494.000000	22.269294
2493.000000	22.199120
2492.000000	22.295541
2491.000000	22.286097
2490.000000	22.253151
2489.000000	22.222401
2488.000000	22.316956
2487.000000	22.259081
2486.000000	22.271820
2485.000000	22.225147
2484.000000	22.302679
2483.000000	22.295321
2482.000000	22.302679
2481.000000	22.366704
2480.000000	22.373732
2479.000000	22.342654
2478.000000	22.333099
2477.000000	22.400528
2476.000000	22.459392
2475.000000	22.449069
2474.000000	22.515729
2473.000000	22.547467
2472.000000	22.610723
2471.000000	22.608966
2470.000000	22.694076
2469.000000	22.761395
2468.000000	22.810375
2467.000000	22.866822
2466.000000	22.863857
2465.000000	22.958960
2464.000000	22.981693
2463.000000	23.103483
2462.000000	23.157953
2461.000000	23.238121
2460.000000	23.315214
2459.000000	23.408781
2458.000000	23.533645
2457.000000	23.607664
2456.000000	23.714408
2455.000000	23.799079
2454.000000	23.905274
2453.000000	24.032006
2452.000000	24.131502
2451.000000	24.264713
2450.000000	24.390896
2449.000000	24.515431
2448.000000	24.619869
2447.000000	24.746052
2446.000000	24.884424
2445.000000	25.000833
2444.000000	25.146563
2443.000000	25.283508
2442.000000	25.415182
2441.000000	25.535983
2440.000000	25.654917
2439.000000	25.775389
2438.000000	25.901572
2437.000000	26.044337
2436.000000	26.152180
2435.000000	26.276825
2434.000000	26.407949
2433.000000	26.532375
2432.000000	26.659546
2431.000000	26.745864
2430.000000	26.857880
2429.000000	26.954521
2428.000000	27.049954
2427.000000	27.171743
2426.000000	27.272668
2425.000000	27.376886
2424.000000	27.465950
2423.000000	27.543043
2422.000000	27.645834
2421.000000	27.732262
2420.000000	27.805731
2419.000000	27.886229
2418.000000	27.956513
2417.000000	28.015157
2416.000000	28.087857
2415.000000	28.151443
2414.000000	28.200093
2413.000000	28.246766
2412.000000	28.294867
2411.000000	28.349777
2410.000000	28.359660
2409.000000	28.391947
2408.000000	28.437962
2407.000000	28.466624
2406.000000	28.513298
2405.000000	28.534493
2404.000000	28.545035
2403.000000	28.577432
2402.000000	28.584131
2401.000000	28.599286
2400.000000	28.626412
2399.000000	28.642226
2398.000000	28.649364
2397.000000	28.645850
2396.000000	28.649254
2395.000000	28.661334
2394.000000	28.677478
2393.000000	28.671877
2392.000000	28.680443
2391.000000	28.684067
2390.000000	28.684945
2389.000000	28.683628
2388.000000	28.673195
2387.000000	28.652219
2386.000000	28.650792
2385.000000	28.634099
2384.000000	28.613233
2383.000000	28.605326
2382.000000	28.585010
2381.000000	28.541741
2380.000000	28.523401
2379.000000	28.510442
2378.000000	28.479913
2377.000000	28.436314
2376.000000	28.410397
2375.000000	28.388433
2374.000000	28.347470
2373.000000	28.322102
2372.000000	28.314854
2371.000000	28.276088
2370.000000	28.236662
2369.000000	28.220519
2368.000000	28.202618
2367.000000	28.181533
2366.000000	28.156165
2365.000000	28.134201
2364.000000	28.128930
2363.000000	28.105868
2362.000000	28.080389
2361.000000	28.048322
2360.000000	28.034924
2359.000000	28.029214
2358.000000	28.006810
2357.000000	27.971449
2356.000000	27.933451
2355.000000	27.909730
2354.000000	27.871952
2353.000000	27.837030
2352.000000	27.816493
2351.000000	27.784097
2350.000000	27.741377
2349.000000	27.705905
2348.000000	27.678560
2347.000000	27.648140
2346.000000	27.616732
2345.000000	27.587410
2344.000000	27.546338
2343.000000	27.522177
2342.000000	27.492197
2341.000000	27.464632
2340.000000	27.440472
2339.000000	27.416970
2338.000000	27.389186
2337.000000	27.384024
2336.000000	27.361621
2335.000000	27.346247
2334.000000	27.327687
2333.000000	27.312861
2332.000000	27.326040
2331.000000	27.339438
2330.000000	27.338120
2329.000000	27.341305
2328.000000	27.345588
2327.000000	27.365575
2326.000000	27.369089
2325.000000	27.382377
2324.000000	27.386550
2323.000000	27.398960
2322.000000	27.406757
2321.000000	27.404561
2320.000000	27.396105
2319.000000	27.367002
2318.000000	27.338449
2317.000000	27.321976
2316.000000	27.301440
2315.000000	27.262784
2314.000000	27.219625
2313.000000	27.183824
2312.000000	27.138468
2311.000000	27.086304
2310.000000	27.047098
2309.000000	26.984062
2308.000000	26.923332
2307.000000	26.890606
2306.000000	26.822957
2305.000000	26.780567
2304.000000	26.751904
2303.000000	26.697214
2302.000000	26.673163
2301.000000	26.661962
2300.000000	26.636374
2299.000000	26.618034
2298.000000	26.612433
2297.000000	26.604197
2296.000000	26.585967
2295.000000	26.606064
2294.000000	26.610237
2293.000000	26.624843
2292.000000	26.641975
2291.000000	26.656800
2290.000000	26.682498
2289.000000	26.714236
2288.000000	26.771891
2287.000000	26.790780
2286.000000	26.813183
2285.000000	26.852389
2284.000000	26.891484
2283.000000	26.942440
2282.000000	26.983074
2281.000000	27.026013
2280.000000	27.078507
2279.000000	27.135723
2278.000000	27.155051
2277.000000	27.204689
2276.000000	27.230058
2275.000000	27.270691
2274.000000	27.303637
2273.000000	27.330762
2272.000000	27.381279
2271.000000	27.414005
2270.000000	27.455627
2269.000000	27.490439
2268.000000	27.541396
2267.000000	27.580601
2266.000000	27.668896
2265.000000	27.751151
2264.000000	27.834614
2263.000000	27.959039
2262.000000	28.062709
2261.000000	28.192515
2260.000000	28.339673
2259.000000	28.486612
2258.000000	28.664409
2257.000000	28.822659
2256.000000	29.007485
2255.000000	29.175838
2254.000000	29.371317
2253.000000	29.554715
2252.000000	29.762823
2251.000000	29.921073
2250.000000	30.095686
2249.000000	30.276119
2248.000000	30.468193
2247.000000	30.612386
2246.000000	30.770197
2245.000000	30.922516
2244.000000	31.062316
2243.000000	31.152039
2242.000000	31.259003
2241.000000	31.362563
2240.000000	31.433287
2239.000000	31.496982
2238.000000	31.553758
2237.000000	31.616136
2236.000000	31.630742
2235.000000	31.662589
2234.000000	31.673242
2233.000000	31.663907
2232.000000	31.674450
2231.000000	31.649301
2230.000000	31.611304
2229.000000	31.581872
2228.000000	31.532563
2227.000000	31.463377
2226.000000	31.406381
2225.000000	31.346419
2224.000000	31.259113
2223.000000	31.189707
2222.000000	31.099326
2221.000000	30.995436
2220.000000	30.917574
2219.000000	30.820055
2218.000000	30.712871
2217.000000	30.633911
2216.000000	30.520358
2215.000000	30.437224
2214.000000	30.315105
2213.000000	30.244711
2212.000000	30.162346
2211.000000	30.064168
2210.000000	29.977959
2209.000000	29.902733
2208.000000	29.824871
2207.000000	29.741848
2206.000000	29.688366
2205.000000	29.624341
2204.000000	29.566686
2203.000000	29.515070
2202.000000	29.440613
2201.000000	29.394379
2200.000000	29.352648
2199.000000	29.293016
2198.000000	29.223390
2197.000000	29.211420
2196.000000	29.163648
2195.000000	29.094792
2194.000000	29.074585
2193.000000	29.039882
2192.000000	28.986839
2191.000000	28.955760
2190.000000	28.951258
2189.000000	28.921936
2188.000000	28.884487
2187.000000	28.847478
2186.000000	28.821561
2185.000000	28.797181
2184.000000	28.766541
2183.000000	28.734364
2182.000000	28.700100
2181.000000	28.679564
2180.000000	28.660895
2179.000000	28.642116
2178.000000	28.608291
2177.000000	28.615100
2176.000000	28.596870
2175.000000	28.583692
2174.000000	28.580178
2173.000000	28.578640
2172.000000	28.592587
2171.000000	28.627839
2170.000000	28.643324
2169.000000	28.667923
2168.000000	28.713498
2167.000000	28.754351
2166.000000	28.788176
2165.000000	28.858460
2164.000000	28.905682
2163.000000	28.972892
2162.000000	29.056245
2161.000000	29.131691
2160.000000	29.204062
2159.000000	29.298067
2158.000000	29.410193
2157.000000	29.520452
2156.000000	29.622803
2155.000000	29.733721
2154.000000	29.864406
2153.000000	29.987074
2152.000000	30.114026
2151.000000	30.240647
2150.000000	30.385719
2149.000000	30.531010
2148.000000	30.656753
2147.000000	30.788976
2146.000000	30.937562
2145.000000	31.081425
2144.000000	31.216283
2143.000000	31.345870
2142.000000	31.486988
2141.000000	31.625690
2140.000000	31.749896
2139.000000	31.885633
2138.000000	32.012364
2137.000000	32.109994
2136.000000	32.223767
2135.000000	32.335673
2134.000000	32.468225
2133.000000	32.566733
2132.000000	32.641410
2131.000000	32.736514
2130.000000	32.830190
2129.000000	32.907393
2128.000000	32.967244
2127.000000	33.028963
2126.000000	33.110778
2125.000000	33.180733
2124.000000	33.216644
2123.000000	33.275068
2122.000000	33.336457
2121.000000	33.374455
2120.000000	33.420140
2119.000000	33.460883
2118.000000	33.487569
2117.000000	33.509752
2116.000000	33.530838
2115.000000	33.560818
2114.000000	33.566090
2113.000000	33.568945
2112.000000	33.582672
2111.000000	33.592776
2110.000000	33.603977
2109.000000	33.600134
2108.000000	33.611335
2107.000000	33.613751
2106.000000	33.591458
2105.000000	33.588713
2104.000000	33.578170
2103.000000	33.578060
2102.000000	33.580256
2101.000000	33.566749
2100.000000	33.566200
2099.000000	33.567408
2098.000000	33.580696
2097.000000	33.595521
2096.000000	33.586187
2095.000000	33.588383
2094.000000	33.599036
2093.000000	33.615289
2092.000000	33.624294
2091.000000	33.649882
2090.000000	33.668551
2089.000000	33.665257
2088.000000	33.678215
2087.000000	33.673932
2086.000000	33.667343
2085.000000	33.659656
2084.000000	33.630334
2083.000000	33.595851
2082.000000	33.564333
2081.000000	33.513706
2080.000000	33.463738
2079.000000	33.418602
2078.000000	33.336457
2077.000000	33.245527
2076.000000	33.159099
2075.000000	33.080358
2074.000000	32.974273
2073.000000	32.857754
2072.000000	32.733439
2071.000000	32.596055
2070.000000	32.465809
2069.000000	32.335124
2068.000000	32.182255
2067.000000	32.033889
2066.000000	31.880032
2065.000000	31.741879
2064.000000	31.589560
2063.000000	31.441084
2062.000000	31.315011
2061.000000	31.178725
2060.000000	31.045514
2059.000000	30.932949
2058.000000	30.849486
2057.000000	30.774480
2056.000000	30.720449
2055.000000	30.679706
2054.000000	30.673995
2053.000000	30.696728
2052.000000	30.712981
2051.000000	30.756030
2050.000000	30.836638
2049.000000	30.945798
2048.000000	31.076373
2047.000000	31.208596
2046.000000	31.373764
2045.000000	31.539262
2044.000000	31.714205
2043.000000	31.906828
2042.000000	32.089787
2041.000000	32.273295
2040.000000	32.468335
2039.000000	32.663374
2038.000000	32.835351
2037.000000	32.997225
2036.000000	33.156793
2035.000000	33.330747
2034.000000	33.491412
2033.000000	33.616167
2032.000000	33.759482
2031.000000	33.902467
2030.000000	34.036337
2029.000000	34.148243
2028.000000	34.266738
2027.000000	34.376996
2026.000000	34.474845
2025.000000	34.588179
2024.000000	34.678121
2023.000000	34.762902
2022.000000	34.851526
2021.000000	34.929827
2020.000000	34.990558
2019.000000	35.053374
2018.000000	35.122890
2017.000000	35.176592
2016.000000	35.214809
2015.000000	35.254563
2014.000000	35.302774
2013.000000	35.294098
2012.000000	35.326385
2011.000000	35.320455
2010.000000	35.326934
2009.000000	35.324738
2008.000000	35.313207
2007.000000	35.306069
2006.000000	35.263459
2005.000000	35.226230
2004.000000	35.171869
2003.000000	35.135629
2002.000000	35.088846
2001.000000	35.034376
2000.000000	34.949924
1999.000000	34.877334
1998.000000	34.803645
1997.000000	34.737643
1996.000000	34.650996
1995.000000	34.564788
1994.000000	34.472100
1993.000000	34.389845
1992.000000	34.295291
1991.000000	34.203592
1990.000000	34.087293
1989.000000	34.006136
1988.000000	33.899062
1987.000000	33.766510
1986.000000	33.683487
1985.000000	33.559391
1984.000000	33.418712
1983.000000	33.326793
1982.000000	33.210604
1981.000000	33.107044
1980.000000	32.989538
1979.000000	32.885319
1978.000000	32.771107
1977.000000	32.666998
1976.000000	32.557618
1975.000000	32.452301
1974.000000	32.364995
1973.000000	32.251771
1972.000000	32.142610
1971.000000	32.055414
1970.000000	31.943508
1969.000000	31.845329
1968.000000	31.750225
1967.000000	31.627887
1966.000000	31.557273
1965.000000	31.439656
1964.000000	31.357401
1963.000000	31.235062
1962.000000	31.138312
1961.000000	31.026406
1960.000000	30.919441
1959.000000	30.801935
1958.000000	30.712542
1957.000000	30.603381
1956.000000	30.488290
1955.000000	30.394175
1954.000000	30.278645
1953.000000	30.180576
1952.000000	30.085143
1951.000000	29.971041
1950.000000	29.871654
1949.000000	29.788850
1948.000000	29.726363
1947.000000	29.587881
1946.000000	29.530555
1945.000000	29.480697
1944.000000	29.386033
1943.000000	29.347596
1942.000000	29.294663
1941.000000	29.242279
1940.000000	29.211420
1939.000000	29.172214
1938.000000	29.192092
1937.000000	29.172873
1936.000000	29.162001
1935.000000	29.176278
1934.000000	29.189676
1933.000000	29.232835
1932.000000	29.287744
1931.000000	29.360774
1930.000000	29.424689
1929.000000	29.550323
1928.000000	29.640924
1927.000000	29.760737
1926.000000	29.894936
1925.000000	30.046377
1924.000000	30.179478
1923.000000	30.336849
1922.000000	30.524641
1921.000000	30.810610
1920.000000	31.078240
1919.000000	31.278771
1918.000000	31.554966
1917.000000	31.808540
1916.000000	32.030485
1915.000000	32.327327
1914.000000	32.715977
1913.000000	33.129338
1912.000000	33.529849
1911.000000	33.886433
1910.000000	34.284309
1909.000000	34.628593
1908.000000	35.051398
1907.000000	35.541302
1906.000000	36.101271
1905.000000	36.735808
1904.000000	37.318071
1903.000000	37.884080
1902.000000	38.468539
1901.000000	39.083418
1900.000000	39.759466
1899.000000	40.449242
1898.000000	41.158786
1897.000000	41.785415
1896.000000	42.366250
1895.000000	42.939288
1894.000000	43.541648
1893.000000	44.223956
1892.000000	44.922407
1891.000000	45.620310
1890.000000	46.239362
1889.000000	46.784945
1888.000000	47.380276
1887.000000	47.914877
1886.000000	48.425757
1885.000000	48.942567
1884.000000	49.448615
1883.000000	49.882182
1882.000000	50.277422
1881.000000	50.686170
1880.000000	51.014421
1879.000000	51.364745
1878.000000	51.712323
1877.000000	52.007079
1876.000000	52.306336
1875.000000	52.614051
1874.000000	52.913748
1873.000000	53.184013
1872.000000	53.424847
1871.000000	53.631637
1870.000000	53.778686
1869.000000	53.920023
1868.000000	54.067291
1867.000000	54.151852
1866.000000	54.207640
1865.000000	54.271445
1864.000000	54.328771
1863.000000	54.400813
1862.000000	54.517441
1861.000000	54.632092
1860.000000	54.729173
1859.000000	54.807584
1858.000000	54.871938
1857.000000	54.927726
1856.000000	54.950349
1855.000000	54.988127
1854.000000	55.010201
1853.000000	54.997791
1852.000000	55.015801
1851.000000	55.055995
1850.000000	55.116396
1849.000000	55.190854
1848.000000	55.215563
1847.000000	55.182288
1846.000000	55.110795
1845.000000	55.051603
1844.000000	55.014484
1843.000000	55.039413
1842.000000	55.080924
1841.000000	55.069613
1840.000000	55.033153
1839.000000	54.998340
1838.000000	54.967481
1837.000000	54.923334
1836.000000	54.857881
1835.000000	54.775407
1834.000000	54.691065
1833.000000	54.629567
1832.000000	54.596621
1831.000000	54.582015
1830.000000	54.563236
1829.000000	54.523371
1828.000000	54.460554
1827.000000	54.433868
1826.000000	54.409708
1825.000000	54.366439
1824.000000	54.347440
1823.000000	54.396969
1822.000000	54.458578
1821.000000	54.487021
1820.000000	54.473623
1819.000000	54.418933
1818.000000	54.377421
1817.000000	54.357983
1816.000000	54.366878
1815.000000	54.361058
1814.000000	54.343926
1813.000000	54.326794
1812.000000	54.309772
1811.000000	54.285063
1810.000000	54.249262
1809.000000	54.216096
1808.000000	54.185896
1807.000000	54.193913
1806.000000	54.175463
1805.000000	54.124727
1804.000000	54.103751
1803.000000	54.113196
1802.000000	54.115392
1801.000000	54.091781
1800.000000	54.055211
1799.000000	53.998105
1798.000000	53.976141
1797.000000	53.972956
1796.000000	53.959229
1795.000000	53.939681
1794.000000	53.910689
1793.000000	53.901024
1792.000000	53.906186
1791.000000	53.897181
1790.000000	53.889603
1789.000000	53.892239
1788.000000	53.902232
1787.000000	53.924416
1786.000000	53.934739
1785.000000	53.944952
1784.000000	53.927930
1783.000000	53.931994
1782.000000	53.922769
1781.000000	53.915411
1780.000000	53.898169
1779.000000	53.894216
1778.000000	53.866651
1777.000000	53.834474
1776.000000	53.784945
1775.000000	53.748375
1774.000000	53.715759
1773.000000	53.683033
1772.000000	53.641082
1771.000000	53.604622
1770.000000	53.563330
1769.000000	53.527858
1768.000000	53.490080
1767.000000	53.453510
1766.000000	53.413865
1765.000000	53.396514
1764.000000	53.377845
1763.000000	53.349401
1762.000000	53.344020
1761.000000	53.332819
1760.000000	53.324253
1759.000000	53.322715
1758.000000	53.327438
1757.000000	53.317444
1756.000000	53.287353
1755.000000	53.293064
1754.000000	53.310086
1753.000000	53.301520
1752.000000	53.297127
1751.000000	53.270002
1750.000000	53.216630
1749.000000	53.198510
1748.000000	53.157437
1747.000000	53.096927
1746.000000	53.014891
1745.000000	52.945046
1744.000000	52.868282
1743.000000	52.786138
1742.000000	52.699051
1741.000000	52.619541
1740.000000	52.544645
1739.000000	52.445258
1738.000000	52.383210
1737.000000	52.305128
1736.000000	52.248022
1735.000000	52.203655
1734.000000	52.144023
1733.000000	52.108881
1732.000000	52.052873
1731.000000	52.000160
1730.000000	51.939649
1729.000000	51.901871
1728.000000	51.856516
1727.000000	51.816761
1726.000000	51.785902
1725.000000	51.796774
1724.000000	51.799410
1723.000000	51.849268
1722.000000	51.953157
1721.000000	52.097460
1720.000000	52.290413
1719.000000	52.515872
1718.000000	52.764613
1717.000000	53.018845
1716.000000	53.256714
1715.000000	53.503808
1714.000000	53.713892
1713.000000	53.921890
1712.000000	54.097272
1711.000000	54.260793
1710.000000	54.407512
1709.000000	54.530839
1708.000000	54.633850
1707.000000	54.752454
1706.000000	54.810988
1705.000000	54.865459
1704.000000	54.910924
1703.000000	54.940026
1702.000000	54.942881
1701.000000	54.955950
1700.000000	54.970556
1699.000000	54.977035
1698.000000	54.963308
1697.000000	54.937281
1696.000000	54.885885
1695.000000	54.831085
1694.000000	54.764315
1693.000000	54.687222
1692.000000	54.591459
1691.000000	54.507557
1690.000000	54.436504
1689.000000	54.399275
1688.000000	54.413991
1687.000000	54.500199
1686.000000	54.609140
1685.000000	54.808682
1684.000000	54.993728
1683.000000	55.228192
1682.000000	55.454201
1681.000000	55.695254
1680.000000	55.922031
1679.000000	56.139913
1678.000000	56.357026
1677.000000	56.565354
1676.000000	56.779721
1675.000000	56.925781
1674.000000	57.107422
1673.000000	57.287856
1672.000000	57.475647
1671.000000	57.651029
1670.000000	57.849362
1669.000000	58.028039
1668.000000	58.214951
1667.000000	58.389345
1666.000000	58.538479
1665.000000	58.701012
1664.000000	58.846743
1663.000000	58.990167
1662.000000	59.129857
1661.000000	59.271414
1660.000000	59.391008
1659.000000	59.499509
1658.000000	59.593734
1657.000000	59.674342
1656.000000	59.757475
1655.000000	59.804368
1654.000000	59.860046
1653.000000	59.907928
1652.000000	59.946365
1651.000000	59.976785
1650.000000	60.001384
1649.000000	60.009291
1648.000000	60.013025
1647.000000	60.002702
1646.000000	59.964704
1645.000000	59.973051
1644.000000	59.972282
1643.000000	59.965034
1642.000000	59.957676
1641.000000	59.963826
1640.000000	59.929672
1639.000000	59.940544
1638.000000	59.931429
1637.000000	59.928025
1636.000000	59.907049
1635.000000	59.875751
1634.000000	59.859827
1633.000000	59.821390
1632.000000	59.785040
1631.000000	59.753851
1630.000000	59.707178
1629.000000	59.675879
1628.000000	59.633159
1627.000000	59.601751
1626.000000	59.563205
1625.000000	59.529929
1624.000000	59.486331
