PE UV       SUBTECH     SPECTRUM    ASCII       PEDS        4.00        
   -1
INBUCR0127-1.Sample.ASC
24/04/26
10:47:40.00
24/04/26
10:47:40.00
Vinicio Soto Monge
C. resplendens
250,000000
1
Lambda 1050
1050L1511233
PerkinElmer UV WinLab 6.3.2.0749 / 2.02.05 Lambda 900 UV/VIS/NIR, Aug  7 2015 09:38:08

0
0
3350/servo 860,8/2
0
0
UV/VIS
1
1
1
DoubleDePol,CommonBeamDepol,RBeamAtt,SBeamAtt,60mm sphere, WB InGaAs Detector
0
0
0
0
Program
Program
3350/servo 860,8/2
3350/0,2 860,8/0,2
3350/0,2 860,8/0,2
0
15.00
 
 
 
0
 
860,8
319,2
860,8
Front
100
on
S:100 R:100
0
0
0
0
 
0
 
 
 
0
 
 
0
0
0
0
0
 
 
 
 
0
0


0
0
#HDR
-1
-1
#GR
nm
%R
1.0
0.0
2500,000000
-1,000000
2251
8
89,265100
6,219300
#DATA
2500.000000	13.222949
2499.000000	13.218724
2498.000000	13.146888
2497.000000	13.061344
2496.000000	13.066085
2495.000000	13.032589
2494.000000	12.968380
2493.000000	13.041865
2492.000000	12.987550
2491.000000	12.961887
2490.000000	13.024138
2489.000000	12.977141
2488.000000	12.978893
2487.000000	12.979099
2486.000000	12.983325
2485.000000	12.997651
2484.000000	13.040319
2483.000000	13.008266
2482.000000	12.981573
2481.000000	13.004453
2480.000000	13.029807
2479.000000	13.110918
2478.000000	13.070620
2477.000000	13.146166
2476.000000	13.142971
2475.000000	13.174406
2474.000000	13.222846
2473.000000	13.297259
2472.000000	13.289735
2471.000000	13.346627
2470.000000	13.393727
2469.000000	13.428254
2468.000000	13.472365
2467.000000	13.527401
2466.000000	13.562959
2465.000000	13.613563
2464.000000	13.735694
2463.000000	13.790009
2462.000000	13.825670
2461.000000	13.895341
2460.000000	13.971609
2459.000000	14.046330
2458.000000	14.148879
2457.000000	14.187219
2456.000000	14.281317
2455.000000	14.358718
2454.000000	14.447148
2453.000000	14.560312
2452.000000	14.646577
2451.000000	14.778809
2450.000000	14.877235
2449.000000	14.943093
2448.000000	15.052754
2447.000000	15.179214
2446.000000	15.330821
2445.000000	15.454395
2444.000000	15.574465
2443.000000	15.658875
2442.000000	15.788530
2441.000000	15.926430
2440.000000	16.019600
2439.000000	16.149461
2438.000000	16.285816
2437.000000	16.393518
2436.000000	16.520390
2435.000000	16.646644
2434.000000	16.756407
2433.000000	16.883795
2432.000000	17.003659
2431.000000	17.120637
2430.000000	17.220506
2429.000000	17.316871
2428.000000	17.419833
2427.000000	17.529081
2426.000000	17.628847
2425.000000	17.733045
2424.000000	17.838686
2423.000000	17.908461
2422.000000	18.009670
2421.000000	18.080681
2420.000000	18.154990
2419.000000	18.250943
2418.000000	18.340506
2417.000000	18.405952
2416.000000	18.475108
2415.000000	18.521796
2414.000000	18.580234
2413.000000	18.633003
2412.000000	18.686287
2411.000000	18.722875
2410.000000	18.740293
2409.000000	18.772655
2408.000000	18.814602
2407.000000	18.859538
2406.000000	18.889427
2405.000000	18.911895
2404.000000	18.926942
2403.000000	18.937352
2402.000000	18.958480
2401.000000	18.989090
2400.000000	18.992801
2399.000000	19.007745
2398.000000	19.027018
2397.000000	19.048661
2396.000000	19.051856
2395.000000	19.055258
2394.000000	19.071129
2393.000000	19.086383
2392.000000	19.088960
2391.000000	19.083909
2390.000000	19.090402
2389.000000	19.095762
2388.000000	19.090196
2387.000000	19.078653
2386.000000	19.071336
2385.000000	19.062369
2384.000000	19.050517
2383.000000	19.041035
2382.000000	19.031759
2381.000000	19.024957
2380.000000	18.992285
2379.000000	18.952709
2378.000000	18.931477
2377.000000	18.907051
2376.000000	18.878605
2375.000000	18.841811
2374.000000	18.820168
2373.000000	18.804296
2372.000000	18.785538
2371.000000	18.770388
2370.000000	18.751939
2369.000000	18.730090
2368.000000	18.705148
2367.000000	18.695048
2366.000000	18.683711
2365.000000	18.669900
2364.000000	18.648050
2363.000000	18.627334
2362.000000	18.621047
2361.000000	18.616306
2360.000000	18.601774
2359.000000	18.577451
2358.000000	18.558384
2357.000000	18.533031
2356.000000	18.517056
2355.000000	18.490156
2354.000000	18.459752
2353.000000	18.419660
2352.000000	18.388534
2351.000000	18.365551
2350.000000	18.328860
2349.000000	18.295879
2348.000000	18.264651
2347.000000	18.228991
2346.000000	18.198690
2345.000000	18.161380
2344.000000	18.113146
2343.000000	18.094183
2342.000000	18.082021
2341.000000	18.059450
2340.000000	18.031313
2339.000000	18.011422
2338.000000	17.994932
2337.000000	17.983594
2336.000000	17.980399
2335.000000	17.964321
2334.000000	17.944533
2333.000000	17.947213
2332.000000	17.957004
2331.000000	17.981430
2330.000000	17.997920
2329.000000	18.010391
2328.000000	18.032035
2327.000000	18.052029
2326.000000	18.071302
2325.000000	18.103458
2324.000000	18.126751
2323.000000	18.151589
2322.000000	18.163648
2321.000000	18.164885
2320.000000	18.167049
2319.000000	18.169213
2318.000000	18.165915
2317.000000	18.152723
2316.000000	18.124174
2315.000000	18.101397
2314.000000	18.076043
2313.000000	18.044918
2312.000000	18.001734
2311.000000	17.977514
2310.000000	17.944121
2309.000000	17.899597
2308.000000	17.849199
2307.000000	17.813744
2306.000000	17.785196
2305.000000	17.743248
2304.000000	17.716246
2303.000000	17.686666
2302.000000	17.672134
2301.000000	17.678009
2300.000000	17.677493
2299.000000	17.669248
2298.000000	17.658220
2297.000000	17.681822
2296.000000	17.692644
2295.000000	17.709546
2294.000000	17.738404
2293.000000	17.750978
2292.000000	17.772828
2291.000000	17.811683
2290.000000	17.827761
2289.000000	17.864143
2288.000000	17.904029
2287.000000	17.929073
2286.000000	17.967929
2285.000000	18.005032
2284.000000	18.045227
2283.000000	18.097068
2282.000000	18.120052
2281.000000	18.177355
2280.000000	18.206832
2279.000000	18.226620
2278.000000	18.253211
2277.000000	18.269289
2276.000000	18.318554
2275.000000	18.360501
2274.000000	18.371323
2273.000000	18.388637
2272.000000	18.423782
2271.000000	18.451300
2270.000000	18.473769
2269.000000	18.522724
2268.000000	18.565290
2267.000000	18.629602
2266.000000	18.687112
2265.000000	18.754825
2264.000000	18.842327
2263.000000	18.940650
2262.000000	19.056700
2261.000000	19.198517
2260.000000	19.332810
2259.000000	19.494724
2258.000000	19.650866
2257.000000	19.828962
2256.000000	19.995926
2255.000000	20.175258
2254.000000	20.359743
2253.000000	20.560821
2252.000000	20.773546
2251.000000	20.953497
2250.000000	21.148288
2249.000000	21.302988
2248.000000	21.506334
2247.000000	21.655365
2246.000000	21.820783
2245.000000	21.967238
2244.000000	22.110600
2243.000000	22.225311
2242.000000	22.330024
2241.000000	22.420102
2240.000000	22.502966
2239.000000	22.590468
2238.000000	22.658387
2237.000000	22.693120
2236.000000	22.727337
2235.000000	22.764956
2234.000000	22.798039
2233.000000	22.774128
2232.000000	22.781858
2231.000000	22.750939
2230.000000	22.718886
2229.000000	22.677866
2228.000000	22.630766
2227.000000	22.589437
2226.000000	22.544089
2225.000000	22.458545
2224.000000	22.366818
2223.000000	22.284985
2222.000000	22.215210
2221.000000	22.127193
2220.000000	22.060923
2219.000000	21.945491
2218.000000	21.863555
2217.000000	21.775332
2216.000000	21.673401
2215.000000	21.595278
2214.000000	21.479331
2213.000000	21.388222
2212.000000	21.315974
2211.000000	21.258052
2210.000000	21.177868
2209.000000	21.092530
2208.000000	21.016984
2207.000000	20.973182
2206.000000	20.891864
2205.000000	20.854452
2204.000000	20.794365
2203.000000	20.740875
2202.000000	20.681098
2201.000000	20.629875
2200.000000	20.583083
2199.000000	20.544743
2198.000000	20.473526
2197.000000	20.449615
2196.000000	20.417562
2195.000000	20.373141
2194.000000	20.361083
2193.000000	20.323877
2192.000000	20.297904
2191.000000	20.262244
2190.000000	20.238127
2189.000000	20.213701
2188.000000	20.191542
2187.000000	20.160726
2186.000000	20.142793
2185.000000	20.131765
2184.000000	20.093115
2183.000000	20.075388
2182.000000	20.056734
2181.000000	20.021898
2180.000000	20.000667
2179.000000	19.969541
2178.000000	19.956658
2177.000000	19.955215
2176.000000	19.944703
2175.000000	19.940168
2174.000000	19.923781
2173.000000	19.933057
2172.000000	19.950784
2171.000000	19.958410
2170.000000	19.993452
2169.000000	20.018188
2168.000000	20.045809
2167.000000	20.077450
2166.000000	20.093528
2165.000000	20.145163
2164.000000	20.204425
2163.000000	20.258637
2162.000000	20.313673
2161.000000	20.359331
2160.000000	20.427044
2159.000000	20.515576
2158.000000	20.622866
2157.000000	20.696557
2156.000000	20.796014
2155.000000	20.901655
2154.000000	21.013892
2153.000000	21.144681
2152.000000	21.268049
2151.000000	21.391623
2150.000000	21.523442
2149.000000	21.646914
2148.000000	21.783062
2147.000000	21.905605
2146.000000	22.044433
2145.000000	22.175324
2144.000000	22.301991
2143.000000	22.428347
2142.000000	22.562331
2141.000000	22.697964
2140.000000	22.812468
2139.000000	22.944494
2138.000000	23.063121
2137.000000	23.164433
2136.000000	23.278731
2135.000000	23.373757
2134.000000	23.473523
2133.000000	23.588440
2132.000000	23.684908
2131.000000	23.761382
2130.000000	23.841669
2129.000000	23.921853
2128.000000	24.015641
2127.000000	24.077892
2126.000000	24.141380
2125.000000	24.219915
2124.000000	24.269386
2123.000000	24.325041
2122.000000	24.376676
2121.000000	24.417695
2120.000000	24.475927
2119.000000	24.508598
2118.000000	24.540136
2117.000000	24.569406
2116.000000	24.590740
2115.000000	24.613208
2114.000000	24.639490
2113.000000	24.652064
2112.000000	24.657423
2111.000000	24.667936
2110.000000	24.679994
2109.000000	24.685869
2108.000000	24.689270
2107.000000	24.679582
2106.000000	24.674532
2105.000000	24.679685
2104.000000	24.678551
2103.000000	24.677418
2102.000000	24.677624
2101.000000	24.682674
2100.000000	24.680922
2099.000000	24.680200
2098.000000	24.687209
2097.000000	24.704523
2096.000000	24.733175
2095.000000	24.753582
2094.000000	24.776669
2093.000000	24.798415
2092.000000	24.820677
2091.000000	24.863449
2090.000000	24.896532
2089.000000	24.910343
2088.000000	24.933429
2087.000000	24.949920
2086.000000	24.964246
2085.000000	24.976201
2084.000000	24.979396
2083.000000	24.970842
2082.000000	24.947858
2081.000000	24.925184
2080.000000	24.871591
2079.000000	24.817791
2078.000000	24.782543
2077.000000	24.712047
2076.000000	24.638459
2075.000000	24.548381
2074.000000	24.446863
2073.000000	24.345653
2072.000000	24.242898
2071.000000	24.124787
2070.000000	24.002655
2069.000000	23.867641
2068.000000	23.724485
2067.000000	23.582050
2066.000000	23.441985
2065.000000	23.304394
2064.000000	23.157940
2063.000000	23.024575
2062.000000	22.885541
2061.000000	22.765265
2060.000000	22.638496
2059.000000	22.531618
2058.000000	22.442055
2057.000000	22.364448
2056.000000	22.318584
2055.000000	22.288386
2054.000000	22.276431
2053.000000	22.287871
2052.000000	22.338888
2051.000000	22.390214
2050.000000	22.480704
2049.000000	22.607267
2048.000000	22.755680
2047.000000	22.910895
2046.000000	23.093112
2045.000000	23.260798
2044.000000	23.469916
2043.000000	23.652237
2042.000000	23.832702
2041.000000	24.057279
2040.000000	24.262171
2039.000000	24.464693
2038.000000	24.639078
2037.000000	24.816039
2036.000000	25.021859
2035.000000	25.196140
2034.000000	25.358879
2033.000000	25.533264
2032.000000	25.673947
2031.000000	25.832666
2030.000000	25.974482
2029.000000	26.097232
2028.000000	26.238121
2027.000000	26.367467
2026.000000	26.475890
2025.000000	26.586375
2024.000000	26.695314
2023.000000	26.814972
2022.000000	26.910925
2021.000000	26.986368
2020.000000	27.065006
2019.000000	27.147664
2018.000000	27.255469
2017.000000	27.323079
2016.000000	27.357606
2015.000000	27.418826
2014.000000	27.464690
2013.000000	27.501793
2012.000000	27.547657
2011.000000	27.543534
2010.000000	27.561055
2009.000000	27.585584
2008.000000	27.579297
2007.000000	27.579503
2006.000000	27.577133
2005.000000	27.544358
2004.000000	27.507771
2003.000000	27.452322
2002.000000	27.411818
2001.000000	27.370798
2000.000000	27.316689
1999.000000	27.244853
1998.000000	27.175903
1997.000000	27.103861
1996.000000	27.023471
1995.000000	26.944215
1994.000000	26.858259
1993.000000	26.749320
1992.000000	26.681916
1991.000000	26.575141
1990.000000	26.465687
1989.000000	26.365405
1988.000000	26.262135
1987.000000	26.150310
1986.000000	26.038691
1985.000000	25.945934
1984.000000	25.829677
1983.000000	25.701774
1982.000000	25.602523
1981.000000	25.479464
1980.000000	25.357848
1979.000000	25.249219
1978.000000	25.146154
1977.000000	25.007636
1976.000000	24.928791
1975.000000	24.804805
1974.000000	24.715964
1973.000000	24.604448
1972.000000	24.519935
1971.000000	24.419757
1970.000000	24.298347
1969.000000	24.245887
1968.000000	24.129734
1967.000000	23.996162
1966.000000	23.898766
1965.000000	23.812605
1964.000000	23.693565
1963.000000	23.612557
1962.000000	23.518150
1961.000000	23.377261
1960.000000	23.269146
1959.000000	23.150004
1958.000000	23.053536
1957.000000	22.947895
1956.000000	22.860805
1955.000000	22.738159
1954.000000	22.627983
1953.000000	22.505336
1952.000000	22.401448
1951.000000	22.284470
1950.000000	22.209439
1949.000000	22.105653
1948.000000	22.027221
1947.000000	21.930134
1946.000000	21.843457
1945.000000	21.768323
1944.000000	21.700919
1943.000000	21.646501
1942.000000	21.577757
1941.000000	21.535604
1940.000000	21.486855
1939.000000	21.457378
1938.000000	21.423779
1937.000000	21.401723
1936.000000	21.395333
1935.000000	21.400487
1934.000000	21.416359
1933.000000	21.454905
1932.000000	21.480362
1931.000000	21.531688
1930.000000	21.623930
1929.000000	21.694735
1928.000000	21.800583
1927.000000	21.897257
1926.000000	22.010009
1925.000000	22.127193
1924.000000	22.267876
1923.000000	22.417113
1922.000000	22.616337
1921.000000	22.840502
1920.000000	23.077034
1919.000000	23.282339
1918.000000	23.502381
1917.000000	23.742109
1916.000000	23.978023
1915.000000	24.269283
1914.000000	24.612487
1913.000000	25.021549
1912.000000	25.423397
1911.000000	25.752585
1910.000000	26.134850
1909.000000	26.484651
1908.000000	26.921541
1907.000000	27.393781
1906.000000	28.005984
1905.000000	28.635191
1904.000000	29.200706
1903.000000	29.781988
1902.000000	30.377185
1901.000000	31.015772
1900.000000	31.724751
1899.000000	32.442595
1898.000000	33.162602
1897.000000	33.888381
1896.000000	34.496667
1895.000000	35.136696
1894.000000	35.782292
1893.000000	36.483438
1892.000000	37.268479
1891.000000	38.016211
1890.000000	38.666444
1889.000000	39.304309
1888.000000	39.951657
1887.000000	40.518098
1886.000000	41.085364
1885.000000	41.656135
1884.000000	42.209899
1883.000000	42.701516
1882.000000	43.147785
1881.000000	43.577460
1880.000000	43.929528
1879.000000	44.300457
1878.000000	44.673859
1877.000000	44.999851
1876.000000	45.327699
1875.000000	45.642767
1874.000000	45.965667
1873.000000	46.254866
1872.000000	46.530563
1871.000000	46.752770
1870.000000	46.925402
1869.000000	47.127099
1868.000000	47.271596
1867.000000	47.373526
1866.000000	47.439590
1865.000000	47.513075
1864.000000	47.599752
1863.000000	47.699416
1862.000000	47.822165
1861.000000	47.946358
1860.000000	48.054988
1859.000000	48.149291
1858.000000	48.214016
1857.000000	48.261632
1856.000000	48.304816
1855.000000	48.346866
1854.000000	48.382423
1853.000000	48.371807
1852.000000	48.392008
1851.000000	48.429626
1850.000000	48.479716
1849.000000	48.529496
1848.000000	48.539390
1847.000000	48.525270
1846.000000	48.454053
1845.000000	48.373456
1844.000000	48.325841
1843.000000	48.336353
1842.000000	48.359852
1841.000000	48.348618
1840.000000	48.316153
1839.000000	48.273690
1838.000000	48.234010
1837.000000	48.191239
1836.000000	48.121258
1835.000000	48.040559
1834.000000	47.971299
1833.000000	47.913480
1832.000000	47.888126
1831.000000	47.880087
1830.000000	47.849993
1829.000000	47.804954
1828.000000	47.750432
1827.000000	47.731675
1826.000000	47.718379
1825.000000	47.693335
1824.000000	47.687460
1823.000000	47.727758
1822.000000	47.782176
1821.000000	47.808458
1820.000000	47.806809
1819.000000	47.786402
1818.000000	47.759914
1817.000000	47.748886
1816.000000	47.753731
1815.000000	47.735488
1814.000000	47.725800
1813.000000	47.705909
1812.000000	47.688800
1811.000000	47.656953
1810.000000	47.615109
1809.000000	47.592126
1808.000000	47.579449
1807.000000	47.565638
1806.000000	47.518022
1805.000000	47.475766
1804.000000	47.457524
1803.000000	47.443507
1802.000000	47.432685
1801.000000	47.410835
1800.000000	47.363838
1799.000000	47.336114
1798.000000	47.306122
1797.000000	47.294579
1796.000000	47.266133
1795.000000	47.228515
1794.000000	47.192442
1793.000000	47.178425
1792.000000	47.174097
1791.000000	47.156473
1790.000000	47.136066
1789.000000	47.138436
1788.000000	47.138127
1787.000000	47.162966
1786.000000	47.161420
1785.000000	47.173994
1784.000000	47.168222
1783.000000	47.148434
1782.000000	47.121740
1781.000000	47.101952
1780.000000	47.068662
1779.000000	47.029807
1778.000000	46.989199
1777.000000	46.942717
1776.000000	46.880982
1775.000000	46.813268
1774.000000	46.745349
1773.000000	46.689385
1772.000000	46.622393
1771.000000	46.574365
1770.000000	46.520772
1769.000000	46.469033
1768.000000	46.412760
1767.000000	46.359167
1766.000000	46.310417
1765.000000	46.278055
1764.000000	46.243323
1763.000000	46.224462
1762.000000	46.196325
1761.000000	46.187049
1760.000000	46.184370
1759.000000	46.181484
1758.000000	46.185400
1757.000000	46.199108
1756.000000	46.192924
1755.000000	46.199005
1754.000000	46.204055
1753.000000	46.192306
1752.000000	46.169941
1751.000000	46.146133
1750.000000	46.116553
1749.000000	46.069865
1748.000000	46.009882
1747.000000	45.945054
1746.000000	45.853224
1745.000000	45.760878
1744.000000	45.658845
1743.000000	45.531972
1742.000000	45.414479
1741.000000	45.293378
1740.000000	45.167846
1739.000000	45.052929
1738.000000	44.940177
1737.000000	44.837834
1736.000000	44.743530
1735.000000	44.660460
1734.000000	44.574299
1733.000000	44.494939
1732.000000	44.423515
1731.000000	44.340858
1730.000000	44.267785
1729.000000	44.172141
1728.000000	44.090721
1727.000000	44.021977
1726.000000	43.949729
1725.000000	43.899639
1724.000000	43.914481
1723.000000	43.971887
1722.000000	44.080723
1721.000000	44.264590
1720.000000	44.482880
1719.000000	44.771151
1718.000000	45.083127
1717.000000	45.390053
1716.000000	45.696360
1715.000000	45.992876
1714.000000	46.287022
1713.000000	46.526337
1712.000000	46.774310
1711.000000	46.968380
1710.000000	47.144723
1709.000000	47.332713
1708.000000	47.488958
1707.000000	47.613254
1706.000000	47.711886
1705.000000	47.798048
1704.000000	47.872358
1703.000000	47.929352
1702.000000	47.974804
1701.000000	47.974288
1700.000000	48.013350
1699.000000	48.010258
1698.000000	47.991912
1697.000000	47.985316
1696.000000	47.940174
1695.000000	47.845355
1694.000000	47.739714
1693.000000	47.583365
1692.000000	47.450927
1691.000000	47.319108
1690.000000	47.196462
1689.000000	47.146682
1688.000000	47.143280
1687.000000	47.234080
1686.000000	47.380122
1685.000000	47.570688
1684.000000	47.827215
1683.000000	48.097141
1682.000000	48.391080
1681.000000	48.666984
1680.000000	48.928767
1679.000000	49.160868
1678.000000	49.407604
1677.000000	49.636407
1676.000000	49.849544
1675.000000	50.051756
1674.000000	50.234489
1673.000000	50.439278
1672.000000	50.651282
1671.000000	50.880290
1670.000000	51.096726
1669.000000	51.326559
1668.000000	51.568348
1667.000000	51.785711
1666.000000	51.972566
1665.000000	52.172202
1664.000000	52.395130
1663.000000	52.546326
1662.000000	52.729574
1661.000000	52.892003
1660.000000	53.037221
1659.000000	53.171926
1658.000000	53.298901
1657.000000	53.387331
1656.000000	53.496373
1655.000000	53.567796
1654.000000	53.636953
1653.000000	53.676426
1652.000000	53.732287
1651.000000	53.785881
1650.000000	53.815975
1649.000000	53.831641
1648.000000	53.845143
1647.000000	53.844421
1646.000000	53.824530
1645.000000	53.817315
1644.000000	53.821541
1643.000000	53.807936
1642.000000	53.792683
1641.000000	53.782995
1640.000000	53.771245
1639.000000	53.756507
1638.000000	53.737337
1637.000000	53.726412
1636.000000	53.715694
1635.000000	53.680755
1634.000000	53.650145
1633.000000	53.610362
1632.000000	53.565529
1631.000000	53.514409
1630.000000	53.477821
1629.000000	53.427526
1628.000000	53.370531
1627.000000	53.320648
1626.000000	53.258913
1625.000000	53.215625
1624.000000	53.165845
