PE UV       SUBTECH     SPECTRUM    ASCII       PEDS        4.00        
   -1
CICIMAUCR0205-3.ASC
24/06/06
14:28:09.00
24/06/06
14:28:09.00
Vinicio Soto Monge
C. cupreomarginata. Sex F. Ventral
250,000000
1
Lambda 1050
1050L1511233
PerkinElmer UV WinLab 6.3.2.0749 / 2.02.05 Lambda 900 UV/VIS/NIR, Aug  7 2015 09:38:08

0
0
3350/servo 860,8/2
0
0
UV/VIS
1
1
1
DoubleDePol,CommonBeamDepol,RBeamAtt,SBeamAtt,60mm sphere, WB InGaAs Detector
0
0
0
0
Program
Program
3350/servo 860,8/2
3350/0,2 860,8/0,2
3350/0,2 860,8/0,2
0
15.00
 
 
 
0
 
860,8
319,2
860,8
Front
100
on
S:100 R:100
0
0
0
0
 
0
 
 
 
0
 
 
0
0
0
0
0
 
 
 
 
0
0


0
0
#HDR
-1
-1
#GR
nm
%R
1.0
0.0
2500,000000
-1,000000
2251
8
59,401500
4,327600
#DATA
2482.000000	10.513110
2481.000000	10.513225
2480.000000	10.440796
2479.000000	10.465629
2478.000000	10.463329
2477.000000	10.472297
2476.000000	10.496900
2475.000000	10.464709
2474.000000	10.530010
2473.000000	10.494945
2472.000000	10.543001
2471.000000	10.534609
2470.000000	10.563120
2469.000000	10.558177
2468.000000	10.601059
2467.000000	10.647621
2466.000000	10.627157
2465.000000	10.671189
2464.000000	10.711542
2463.000000	10.719360
2462.000000	10.790179
2461.000000	10.807654
2460.000000	10.835016
2459.000000	10.827083
2458.000000	10.890545
2457.000000	10.938716
2456.000000	10.997119
2455.000000	11.060925
2454.000000	11.071387
2453.000000	11.097600
2452.000000	11.174167
2451.000000	11.257978
2450.000000	11.320405
2449.000000	11.366851
2448.000000	11.423989
2447.000000	11.462043
2446.000000	11.540220
2445.000000	11.634378
2444.000000	11.660590
2443.000000	11.735663
2442.000000	11.769119
2441.000000	11.837409
2440.000000	11.895467
2439.000000	11.979852
2438.000000	12.060674
2437.000000	12.089185
2436.000000	12.154141
2435.000000	12.218408
2434.000000	12.285088
2433.000000	12.331880
2432.000000	12.414541
2431.000000	12.458573
2430.000000	12.489499
2429.000000	12.572964
2428.000000	12.615847
2427.000000	12.675974
2426.000000	12.715868
2425.000000	12.777030
2424.000000	12.832674
2423.000000	12.862335
2422.000000	12.919588
2421.000000	12.980406
2420.000000	13.019264
2419.000000	13.055249
2418.000000	13.091463
2417.000000	13.125723
2416.000000	13.165847
2415.000000	13.216087
2414.000000	13.256095
2413.000000	13.265982
2412.000000	13.303346
2411.000000	13.339446
2410.000000	13.375660
2409.000000	13.406471
2408.000000	13.427280
2407.000000	13.448894
2406.000000	13.475796
2405.000000	13.503273
2404.000000	13.510286
2403.000000	13.535924
2402.000000	13.561791
2401.000000	13.578231
2400.000000	13.593177
2399.000000	13.609502
2398.000000	13.610077
2397.000000	13.609502
2396.000000	13.625368
2395.000000	13.623528
2394.000000	13.640658
2393.000000	13.661812
2392.000000	13.659053
2391.000000	13.659398
2390.000000	13.674458
2389.000000	13.678942
2388.000000	13.685380
2387.000000	13.697796
2386.000000	13.694462
2385.000000	13.695957
2384.000000	13.681701
2383.000000	13.672619
2382.000000	13.673309
2381.000000	13.652730
2380.000000	13.651235
2379.000000	13.654454
2378.000000	13.641693
2377.000000	13.632495
2376.000000	13.636634
2375.000000	13.618929
2374.000000	13.593062
2373.000000	13.584899
2372.000000	13.582945
2371.000000	13.584669
2370.000000	13.568919
2369.000000	13.548110
2368.000000	13.548915
2367.000000	13.547650
2366.000000	13.529256
2365.000000	13.517069
2364.000000	13.526151
2363.000000	13.515345
2362.000000	13.496835
2361.000000	13.494421
2360.000000	13.486143
2359.000000	13.475681
2358.000000	13.467059
2357.000000	13.451883
2356.000000	13.430384
2355.000000	13.420497
2354.000000	13.429120
2353.000000	13.415324
2352.000000	13.392330
2351.000000	13.384743
2350.000000	13.380259
2349.000000	13.373936
2348.000000	13.365198
2347.000000	13.346114
2346.000000	13.320936
2345.000000	13.325420
2344.000000	13.331513
2343.000000	13.323581
2342.000000	13.334732
2341.000000	13.321971
2340.000000	13.303346
2339.000000	13.300472
2338.000000	13.296333
2337.000000	13.308520
2336.000000	13.310819
2335.000000	13.302082
2334.000000	13.318292
2333.000000	13.318522
2332.000000	13.311509
2331.000000	13.332778
2330.000000	13.338296
2329.000000	13.347379
2328.000000	13.347034
2327.000000	13.347953
2326.000000	13.365083
2325.000000	13.394400
2324.000000	13.385777
2323.000000	13.395779
2322.000000	13.409001
2321.000000	13.395550
2320.000000	13.381754
2319.000000	13.380604
2318.000000	13.375315
2317.000000	13.360600
2316.000000	13.342780
2315.000000	13.326455
2314.000000	13.307025
2313.000000	13.298863
2312.000000	13.268856
2311.000000	13.228963
2310.000000	13.207464
2309.000000	13.187345
2308.000000	13.156649
2307.000000	13.139174
2306.000000	13.109053
2305.000000	13.102730
2304.000000	13.082496
2303.000000	13.057203
2302.000000	13.035245
2301.000000	13.046396
2300.000000	13.040418
2299.000000	13.033060
2298.000000	13.044442
2297.000000	13.035015
2296.000000	13.045707
2295.000000	13.042028
2294.000000	13.062837
2293.000000	13.066056
2292.000000	13.063066
2291.000000	13.099741
2290.000000	13.129057
2289.000000	13.140209
2288.000000	13.173549
2287.000000	13.183091
2286.000000	13.190679
2285.000000	13.216547
2284.000000	13.244484
2283.000000	13.284377
2282.000000	13.305761
2281.000000	13.339561
2280.000000	13.359450
2279.000000	13.393940
2278.000000	13.415439
2277.000000	13.463035
2276.000000	13.469473
2275.000000	13.491317
2274.000000	13.514425
2273.000000	13.519368
2272.000000	13.549490
2271.000000	13.571908
2270.000000	13.594786
2269.000000	13.647441
2268.000000	13.642383
2267.000000	13.689749
2266.000000	13.735735
2265.000000	13.768271
2264.000000	13.835756
2263.000000	13.880363
2262.000000	13.932443
2261.000000	14.024876
2260.000000	14.083739
2259.000000	14.171458
2258.000000	14.256189
2257.000000	14.328388
2256.000000	14.433812
2255.000000	14.538431
2254.000000	14.635003
2253.000000	14.745371
2252.000000	14.858383
2251.000000	14.951276
2250.000000	15.073255
2249.000000	15.163849
2248.000000	15.267434
2247.000000	15.371478
2246.000000	15.422868
2245.000000	15.522429
2244.000000	15.608309
2243.000000	15.687061
2242.000000	15.765469
2241.000000	15.826056
2240.000000	15.868823
2239.000000	15.924467
2238.000000	15.988044
2237.000000	16.022419
2236.000000	16.051045
2235.000000	16.042308
2234.000000	16.051620
2233.000000	16.072774
2232.000000	16.059898
2231.000000	16.079557
2230.000000	16.088639
2229.000000	16.022534
2228.000000	16.029432
2227.000000	16.017935
2226.000000	15.992872
2225.000000	15.965395
2224.000000	15.902969
2223.000000	15.871238
2222.000000	15.814559
2221.000000	15.782829
2220.000000	15.751558
2219.000000	15.687406
2218.000000	15.627509
2217.000000	15.565772
2216.000000	15.538410
2215.000000	15.480927
2214.000000	15.442413
2213.000000	15.378491
2212.000000	15.333425
2211.000000	15.286058
2210.000000	15.250304
2209.000000	15.217193
2208.000000	15.170862
2207.000000	15.141890
2206.000000	15.110390
2205.000000	15.076704
2204.000000	15.046353
2203.000000	15.014737
2202.000000	14.984501
2201.000000	14.974499
2200.000000	14.954380
2199.000000	14.936905
2198.000000	14.899426
2197.000000	14.906209
2196.000000	14.878732
2195.000000	14.874133
2194.000000	14.859073
2193.000000	14.825733
2192.000000	14.836539
2191.000000	14.797451
2190.000000	14.808143
2189.000000	14.762616
2188.000000	14.780666
2187.000000	14.758362
2186.000000	14.728241
2185.000000	14.748360
2184.000000	14.716514
2183.000000	14.724907
2182.000000	14.699040
2181.000000	14.681220
2180.000000	14.677656
2179.000000	14.673172
2178.000000	14.685359
2177.000000	14.661675
2176.000000	14.664090
2175.000000	14.637303
2174.000000	14.655352
2173.000000	14.629945
2172.000000	14.653858
2171.000000	14.684324
2170.000000	14.686623
2169.000000	14.682369
2168.000000	14.700764
2167.000000	14.723297
2166.000000	14.740312
2165.000000	14.760547
2164.000000	14.788483
2163.000000	14.827802
2162.000000	14.861142
2161.000000	14.887585
2160.000000	14.944953
2159.000000	14.982317
2158.000000	15.035431
2157.000000	15.071186
2156.000000	15.131084
2155.000000	15.198339
2154.000000	15.253638
2153.000000	15.327561
2152.000000	15.389528
2151.000000	15.444712
2150.000000	15.522544
2149.000000	15.590030
2148.000000	15.652112
2147.000000	15.724426
2146.000000	15.820882
2145.000000	15.877791
2144.000000	15.942632
2143.000000	16.014831
2142.000000	16.079327
2141.000000	16.166472
2140.000000	16.233612
2139.000000	16.278794
2138.000000	16.354212
2137.000000	16.430895
2136.000000	16.505738
2135.000000	16.565980
2134.000000	16.636225
2133.000000	16.690259
2132.000000	16.739005
2131.000000	16.778783
2130.000000	16.836266
2129.000000	16.876965
2128.000000	16.927895
2127.000000	16.965719
2126.000000	17.012970
2125.000000	17.036883
2124.000000	17.082065
2123.000000	17.113910
2122.000000	17.136214
2121.000000	17.175762
2120.000000	17.194272
2119.000000	17.216116
2118.000000	17.240144
2117.000000	17.248651
2116.000000	17.268540
2115.000000	17.299696
2114.000000	17.311078
2113.000000	17.313492
2112.000000	17.321425
2111.000000	17.303950
2110.000000	17.320735
2109.000000	17.363388
2108.000000	17.363388
2107.000000	17.349937
2106.000000	17.347407
2105.000000	17.342924
2104.000000	17.348212
2103.000000	17.345568
2102.000000	17.336256
2101.000000	17.338440
2100.000000	17.339820
2099.000000	17.337750
2098.000000	17.344763
2097.000000	17.321310
2096.000000	17.310848
2095.000000	17.323494
2094.000000	17.329243
2093.000000	17.348557
2092.000000	17.348902
2091.000000	17.336371
2090.000000	17.329932
2089.000000	17.333152
2088.000000	17.341084
2087.000000	17.322000
2086.000000	17.293028
2085.000000	17.283141
2084.000000	17.280612
2083.000000	17.265896
2082.000000	17.238304
2081.000000	17.195767
2080.000000	17.149665
2079.000000	17.111381
2078.000000	17.068269
2077.000000	17.023432
2076.000000	16.974456
2075.000000	16.909385
2074.000000	16.826379
2073.000000	16.760159
2072.000000	16.682671
2071.000000	16.599550
2070.000000	16.526777
2069.000000	16.443311
2068.000000	16.355247
2067.000000	16.260974
2066.000000	16.178658
2065.000000	16.102665
2064.000000	16.038054
2063.000000	15.949875
2062.000000	15.854683
2061.000000	15.794440
2060.000000	15.738911
2059.000000	15.670851
2058.000000	15.612793
2057.000000	15.557034
2056.000000	15.517141
2055.000000	15.509553
2054.000000	15.504725
2053.000000	15.504150
2052.000000	15.519900
2051.000000	15.547377
2050.000000	15.572900
2049.000000	15.633717
2048.000000	15.684992
2047.000000	15.752477
2046.000000	15.842036
2045.000000	15.921593
2044.000000	16.010692
2043.000000	16.097377
2042.000000	16.192799
2041.000000	16.290176
2040.000000	16.367318
2039.000000	16.467454
2038.000000	16.565750
2037.000000	16.633006
2036.000000	16.709228
2035.000000	16.795568
2034.000000	16.862249
2033.000000	16.932838
2032.000000	16.993081
2031.000000	17.058152
2030.000000	17.119774
2029.000000	17.171969
2028.000000	17.214391
2027.000000	17.230027
2026.000000	17.266586
2025.000000	17.324414
2024.000000	17.364422
2023.000000	17.398797
2022.000000	17.419721
2021.000000	17.436047
2020.000000	17.449728
2019.000000	17.458695
2018.000000	17.482953
2017.000000	17.504797
2016.000000	17.514914
2015.000000	17.498703
2014.000000	17.493645
2013.000000	17.495484
2012.000000	17.496979
2011.000000	17.475365
2010.000000	17.466743
2009.000000	17.456396
2008.000000	17.418687
2007.000000	17.400062
2006.000000	17.377874
2005.000000	17.324644
2004.000000	17.288315
2003.000000	17.243478
2002.000000	17.229337
2001.000000	17.206114
2000.000000	17.138283
1999.000000	17.079076
1998.000000	17.014579
1997.000000	16.959166
1996.000000	16.922951
1995.000000	16.838451
1994.000000	16.777863
1993.000000	16.708654
1992.000000	16.636340
1991.000000	16.573338
1990.000000	16.477686
1989.000000	16.429745
1988.000000	16.364444
1987.000000	16.290865
1986.000000	16.207055
1985.000000	16.121750
1984.000000	16.057943
1983.000000	15.972983
1982.000000	15.898140
1981.000000	15.839277
1980.000000	15.775011
1979.000000	15.703157
1978.000000	15.622680
1977.000000	15.547837
1976.000000	15.481271
1975.000000	15.425628
1974.000000	15.357453
1973.000000	15.284794
1972.000000	15.219723
1971.000000	15.150053
1970.000000	15.098203
1969.000000	15.030028
1968.000000	14.969671
1967.000000	14.919775
1966.000000	14.856889
1965.000000	14.763536
1964.000000	14.726287
1963.000000	14.671907
1962.000000	14.605227
1961.000000	14.549008
1960.000000	14.469796
1959.000000	14.427374
1958.000000	14.348852
1957.000000	14.298841
1956.000000	14.230896
1955.000000	14.179046
1954.000000	14.101099
1953.000000	14.063275
1952.000000	13.990731
1951.000000	13.941755
1950.000000	13.868867
1949.000000	13.834032
1948.000000	13.788045
1947.000000	13.736885
1946.000000	13.695267
1945.000000	13.646866
1944.000000	13.616055
1943.000000	13.572253
1942.000000	13.535924
1941.000000	13.516609
1940.000000	13.480050
1939.000000	13.483614
1938.000000	13.458206
1937.000000	13.445215
1936.000000	13.466944
1935.000000	13.463150
1934.000000	13.434408
1933.000000	13.473612
1932.000000	13.480970
1931.000000	13.504308
1930.000000	13.547650
1929.000000	13.580186
1928.000000	13.638474
1927.000000	13.706189
1926.000000	13.766431
1925.000000	13.852771
1924.000000	13.878409
1923.000000	13.962104
1922.000000	14.046950
1921.000000	14.154443
1920.000000	14.296542
1919.000000	14.431857
1918.000000	14.514633
1917.000000	14.654777
1916.000000	14.771928
1915.000000	14.896207
1914.000000	15.039225
1913.000000	15.253408
1912.000000	15.468855
1911.000000	15.686832
1910.000000	15.875147
1909.000000	16.062542
1908.000000	16.251087
1907.000000	16.506313
1906.000000	16.787176
1905.000000	17.111381
1904.000000	17.512499
1903.000000	17.837739
1902.000000	18.146195
1901.000000	18.515122
1900.000000	18.897271
1899.000000	19.337477
1898.000000	19.803551
1897.000000	20.244103
1896.000000	20.689598
1895.000000	21.053237
1894.000000	21.468496
1893.000000	21.906058
1892.000000	22.396045
1891.000000	22.985364
1890.000000	23.585949
1889.000000	24.126521
1888.000000	24.614094
1887.000000	25.080858
1886.000000	25.590389
1885.000000	26.078307
1884.000000	26.570478
1883.000000	27.110476
1882.000000	27.604372
1881.000000	28.005030
1880.000000	28.402814
1879.000000	28.767603
1878.000000	29.137335
1877.000000	29.529486
1876.000000	29.880478
1875.000000	30.244462
1874.000000	30.574991
1873.000000	30.914487
1872.000000	31.289048
1871.000000	31.573245
1870.000000	31.863765
1869.000000	32.139685
1868.000000	32.388817
1867.000000	32.570234
1866.000000	32.695548
1865.000000	32.768092
1864.000000	32.832473
1863.000000	32.896049
1862.000000	32.968708
1861.000000	33.106783
1860.000000	33.250491
1859.000000	33.387301
1858.000000	33.541816
1857.000000	33.635629
1856.000000	33.686904
1855.000000	33.720819
1854.000000	33.774623
1853.000000	33.816586
1852.000000	33.853950
1851.000000	33.862113
1850.000000	33.852685
1849.000000	33.867516
1848.000000	33.923735
1847.000000	34.012374
1846.000000	34.033413
1845.000000	33.974205
1844.000000	33.923735
1843.000000	33.826473
1842.000000	33.800606
1841.000000	33.824634
1840.000000	33.851306
1839.000000	33.840499
1838.000000	33.814746
1837.000000	33.785890
1836.000000	33.749905
1835.000000	33.693227
1834.000000	33.629076
1833.000000	33.534458
1832.000000	33.442945
1831.000000	33.386956
1830.000000	33.358559
1829.000000	33.324414
1828.000000	33.283716
1827.000000	33.247502
1826.000000	33.205079
1825.000000	33.173923
1824.000000	33.117015
1823.000000	33.043551
1822.000000	32.999174
1821.000000	33.035963
1820.000000	33.074707
1819.000000	33.070453
1818.000000	33.035504
1817.000000	32.978020
1816.000000	32.924101
1815.000000	32.902257
1814.000000	32.865353
1813.000000	32.830978
1812.000000	32.816377
1811.000000	32.789935
1810.000000	32.757170
1809.000000	32.713253
1808.000000	32.661288
1807.000000	32.619670
1806.000000	32.592883
1805.000000	32.569659
1804.000000	32.536549
1803.000000	32.506083
1802.000000	32.467799
1801.000000	32.432619
1800.000000	32.399164
1799.000000	32.361685
1798.000000	32.323861
1797.000000	32.296154
1796.000000	32.266838
1795.000000	32.247408
1794.000000	32.230968
1793.000000	32.197398
1792.000000	32.162678
1791.000000	32.145778
1790.000000	32.134626
1789.000000	32.117036
1788.000000	32.090824
1787.000000	32.085651
1786.000000	32.082661
1785.000000	32.058403
1784.000000	32.051046
1783.000000	32.031501
1782.000000	32.014831
1781.000000	31.988504
1780.000000	31.944587
1779.000000	31.919754
1778.000000	31.889633
1777.000000	31.832839
1776.000000	31.765929
1775.000000	31.714884
1774.000000	31.670507
1773.000000	31.622795
1772.000000	31.552321
1771.000000	31.464142
1770.000000	31.394242
1769.000000	31.323423
1768.000000	31.236278
1767.000000	31.162815
1766.000000	31.094754
1765.000000	31.009909
1764.000000	30.938400
1763.000000	30.877123
1762.000000	30.849186
1761.000000	30.814926
1760.000000	30.774918
1759.000000	30.745946
1758.000000	30.756753
1757.000000	30.738703
1756.000000	30.721228
1755.000000	30.714675
1754.000000	30.705018
1753.000000	30.685704
1752.000000	30.675817
1751.000000	30.646385
1750.000000	30.626151
1749.000000	30.597409
1748.000000	30.552917
1747.000000	30.521646
1746.000000	30.479339
1745.000000	30.423120
1744.000000	30.355750
1743.000000	30.309648
1742.000000	30.250211
1741.000000	30.177897
1740.000000	30.105468
1739.000000	30.017518
1738.000000	29.941526
1737.000000	29.889906
1736.000000	29.805520
1735.000000	29.739070
1734.000000	29.663882
1733.000000	29.607778
1732.000000	29.531210
1731.000000	29.460851
1730.000000	29.402333
1729.000000	29.356346
1728.000000	29.310360
1727.000000	29.277594
1726.000000	29.268052
1725.000000	29.273685
1724.000000	29.266672
1723.000000	29.309900
1722.000000	29.345539
1721.000000	29.417393
1720.000000	29.535809
1719.000000	29.665261
1718.000000	29.804141
1717.000000	29.982914
1716.000000	30.153294
1715.000000	30.323444
1714.000000	30.499918
1713.000000	30.658227
1712.000000	30.804119
1711.000000	30.935986
1710.000000	31.086477
1709.000000	31.199029
1708.000000	31.299165
1707.000000	31.391368
1706.000000	31.490009
1705.000000	31.549677
1704.000000	31.601642
1703.000000	31.655676
1702.000000	31.700053
1701.000000	31.770182
1700.000000	31.833299
1699.000000	31.893082
1698.000000	31.954934
1697.000000	32.010003
1696.000000	32.047137
1695.000000	32.100711
1694.000000	32.100481
1693.000000	32.107034
1692.000000	32.102895
1691.000000	32.112553
1690.000000	32.130143
1689.000000	32.162793
1688.000000	32.219357
1687.000000	32.351108
1686.000000	32.496196
1685.000000	32.680832
1684.000000	32.912489
1683.000000	33.146216
1682.000000	33.389715
1681.000000	33.660576
1680.000000	33.923735
1679.000000	34.186893
1678.000000	34.425333
1677.000000	34.681479
1676.000000	34.913481
1675.000000	35.142149
1674.000000	35.368059
1673.000000	35.578102
1672.000000	35.774005
1671.000000	36.005548
1670.000000	36.209728
1669.000000	36.405286
1668.000000	36.643612
1667.000000	36.865152
1666.000000	37.045994
1665.000000	37.193726
1664.000000	37.361347
1663.000000	37.520461
1662.000000	37.673596
1661.000000	37.854094
1660.000000	37.988605
1659.000000	38.123575
1658.000000	38.253257
1657.000000	38.382595
1656.000000	38.462726
1655.000000	38.540099
1654.000000	38.608389
1653.000000	38.680013
1652.000000	38.717032
1651.000000	38.730483
1650.000000	38.762214
1649.000000	38.777849
1648.000000	38.754166
1647.000000	38.767962
1646.000000	38.734162
1645.000000	38.732438
1644.000000	38.718872
1643.000000	38.702431
1642.000000	38.686106
1641.000000	38.670701
1640.000000	38.651846
1639.000000	38.634486
1638.000000	38.613217
1637.000000	38.569760
1636.000000	38.563552
1635.000000	38.535960
1634.000000	38.506069
1633.000000	38.456978
1632.000000	38.431455
1631.000000	38.390757
1630.000000	38.318788
1629.000000	38.278205
1628.000000	38.221412
1627.000000	38.163928
1626.000000	38.111274
1625.000000	38.049192
1624.000000	37.991479
1623.000000	37.939629
1622.000000	37.878926
1621.000000	37.841792
1620.000000	37.803968
1619.000000	37.727631
1618.000000	37.681644
1617.000000	37.658191
1616.000000	37.623356
1615.000000	37.576105
1614.000000	37.522530
1613.000000	37.482522
1612.000000	37.402620
1611.000000	37.357783
1610.000000	37.291333
1609.000000	37.228331
1608.000000	37.163145
1607.000000	37.092326
