PE UV       SUBTECH     SPECTRUM    ASCII       PEDS        4.00        
   -1
INBUCR0215-4.Sample.ASC
24/02/08
09:39:13.00
24/02/08
09:39:13.00
Vinicio Soto Monge
INBIOCR1002437563 C. batesi Est Cuerici. Sendero al mirador. 4,6 km al E. de Villa Mills, San José, Costa Rica. 2640 m. 19-20 Abr 1996. A. Picado de Luz L_S_389700_499600 #7030
250,000000
1
Lambda 1050
1050L1511233
PerkinElmer UV WinLab 6.3.2.0749 / 2.02.05 Lambda 900 UV/VIS/NIR, Aug  7 2015 09:38:08

0
0
3350/servo 860,8/2
0
0
UV/VIS
1
1
1
DoubleDePol,CommonBeamDepol,RBeamAtt,SBeamAtt,60mm sphere, WB InGaAs Detector
0
0
0
0
Program
Program
3350/servo 860,8/2
3350/0,2 860,8/0,2
3350/0,2 860,8/0,2
0
15.00
 
 
 
0
 
860,8
319,2
860,8
Front
100
on
S:100 R:100
0
0
0
0
 
0
 
 
 
0
 
 
0
0
0
0
0
 
 
 
 
0
0


0
0
#HDR
-1
-1
#GR
nm
%R
1.0
0.0
2500,000000
-1,000000
2251
8
14,276900
1,492300
#DATA

250.000000	nan
251.000000	nan
252.000000	nan
253.000000	nan
254.000000	nan
255.000000	nan
256.000000	nan
257.000000	nan
258.000000	nan
259.000000	4.011138
260.000000	3.999069
261.000000	3.986450
262.000000	3.972687
263.000000	3.960408
264.000000	3.945720
265.000000	3.930277
266.000000	3.913673
267.000000	3.896375
268.000000	3.881625
269.000000	3.865969
270.000000	3.850069
271.000000	3.834331
272.000000	3.820916
273.000000	3.808403
274.000000	3.795982
275.000000	3.785012
276.000000	3.776415
277.000000	3.771175
278.000000	3.761535
279.000000	3.752536
280.000000	3.744834
281.000000	3.739575
282.000000	3.733537
283.000000	3.724399
284.000000	3.720134
285.000000	3.715242
286.000000	3.709873
287.000000	3.702899
288.000000	3.700202
289.000000	3.698799
290.000000	3.699503
291.000000	3.697294
292.000000	3.694749
293.000000	3.695183
294.000000	3.692777
295.000000	3.691122
296.000000	3.690373
297.000000	3.689023
298.000000	3.685221
299.000000	3.683768
300.000000	3.680351
301.000000	3.677125
302.000000	3.672035
303.000000	3.669354
304.000000	3.666293
305.000000	3.662965
306.000000	3.657881
307.000000	3.656554
308.000000	3.654688
309.000000	3.648132
310.000000	3.645250
311.000000	3.643881
312.000000	3.643231
313.000000	3.638730
314.000000	3.637650
315.000000	3.637767
316.000000	3.638130
317.000000	3.652648
318.000000	3.673842
319.000000	3.700170
320.000000	3.717520
321.000000	3.730088
322.000000	3.748559
323.000000	3.764778
324.000000	3.783988
325.000000	3.797750
326.000000	3.811471
327.000000	3.803934
328.000000	3.797178
329.000000	3.787251
330.000000	3.776952
331.000000	3.773740
332.000000	3.759858
333.000000	3.752626
334.000000	3.741029
335.000000	3.733676
336.000000	3.728022
337.000000	3.725144
338.000000	3.712929
339.000000	3.706050
340.000000	3.704592
341.000000	3.699934
342.000000	3.706586
343.000000	3.709858
344.000000	3.713164
345.000000	3.715745
346.000000	3.718001
347.000000	3.720619
348.000000	3.730189
349.000000	3.733611
350.000000	3.734727
351.000000	3.736592
352.000000	3.735997
353.000000	3.735046
354.000000	3.733877
355.000000	3.735942
356.000000	3.737317
357.000000	3.739553
358.000000	3.739815
359.000000	3.741385
360.000000	3.745903
361.000000	3.754522
362.000000	3.759382
363.000000	3.766759
364.000000	3.775850
365.000000	3.785508
366.000000	3.796896
367.000000	3.812577
368.000000	3.826623
369.000000	3.839853
370.000000	3.856722
371.000000	3.874563
372.000000	3.893553
373.000000	3.913861
374.000000	3.936994
375.000000	3.962393
376.000000	3.998297
377.000000	4.033173
378.000000	4.076794
379.000000	4.130103
380.000000	4.190667
381.000000	4.258701
382.000000	4.339443
383.000000	4.432355
384.000000	4.536358
385.000000	4.653434
386.000000	4.779036
387.000000	4.923189
388.000000	5.082986
389.000000	5.259264
390.000000	5.454943
391.000000	5.669301
392.000000	5.902968
393.000000	6.157285
394.000000	6.433599
395.000000	6.731592
396.000000	7.050312
397.000000	7.390163
398.000000	7.750722
399.000000	8.131496
400.000000	8.530250
401.000000	8.946405
402.000000	9.379069
403.000000	9.825082
404.000000	10.281371
405.000000	10.746015
406.000000	11.217291
407.000000	11.693248
408.000000	12.170343
409.000000	12.645926
410.000000	13.118157
411.000000	13.584749
412.000000	14.042400
413.000000	14.490111
414.000000	14.927484
415.000000	15.350742
416.000000	15.758899
417.000000	16.151412
418.000000	16.527679
419.000000	16.887013
420.000000	17.227790
421.000000	17.550921
422.000000	17.856697
423.000000	18.143573
424.000000	18.410882
425.000000	18.661527
426.000000	18.894769
427.000000	19.109888
428.000000	19.307443
429.000000	19.487130
430.000000	19.650131
431.000000	19.795811
432.000000	19.924511
433.000000	20.037201
434.000000	20.133649
435.000000	20.213080
436.000000	20.276376
437.000000	20.323149
438.000000	20.352953
439.000000	20.365869
440.000000	20.359933
441.000000	20.334677
442.000000	20.289749
443.000000	20.223761
444.000000	20.136656
445.000000	20.028392
446.000000	19.898451
447.000000	19.747140
448.000000	19.573184
449.000000	19.377888
450.000000	19.163437
451.000000	18.929238
452.000000	18.676076
453.000000	18.406865
454.000000	18.124381
455.000000	17.831256
456.000000	17.530755
457.000000	17.225634
458.000000	16.921093
459.000000	16.620710
460.000000	16.328122
461.000000	16.048355
462.000000	15.784811
463.000000	15.541223
464.000000	15.319498
465.000000	15.120844
466.000000	14.946759
467.000000	14.799477
468.000000	14.678507
469.000000	14.582972
470.000000	14.510668
471.000000	14.460728
472.000000	14.432393
473.000000	14.422583
474.000000	14.429091
475.000000	14.449244
476.000000	14.480643
477.000000	14.519411
478.000000	14.563042
479.000000	14.609149
480.000000	14.655001
481.000000	14.695346
482.000000	14.728229
483.000000	14.751496
484.000000	14.764361
485.000000	14.765097
486.000000	14.751459
487.000000	14.722439
488.000000	14.678151
489.000000	14.617075
490.000000	14.540890
491.000000	14.452927
492.000000	14.352424
493.000000	14.242649
494.000000	14.124944
495.000000	14.002621
496.000000	13.880291
497.000000	13.764209
498.000000	13.661203
499.000000	13.578391
500.000000	13.521859
501.000000	13.498481
502.000000	13.512956
503.000000	13.567010
504.000000	13.663197
505.000000	13.803119
506.000000	13.987638
507.000000	14.217106
508.000000	14.491346
509.000000	14.811433
510.000000	15.180365
511.000000	15.599221
512.000000	16.070156
513.000000	16.596437
514.000000	17.176865
515.000000	17.808041
516.000000	18.482792
517.000000	19.191781
518.000000	19.921678
519.000000	20.659657
520.000000	21.390463
521.000000	22.099509
522.000000	22.774265
523.000000	23.401980
524.000000	23.975486
525.000000	24.489539
526.000000	24.943289
527.000000	25.337003
528.000000	25.675168
529.000000	25.961622
530.000000	26.200681
531.000000	26.397633
532.000000	26.558372
533.000000	26.688573
534.000000	26.791856
535.000000	26.874461
536.000000	26.942415
537.000000	26.998389
538.000000	27.045190
539.000000	27.085114
540.000000	27.121408
541.000000	27.155705
542.000000	27.187837
543.000000	27.218392
544.000000	27.248579
545.000000	27.277954
546.000000	27.305409
547.000000	27.332606
548.000000	27.360936
549.000000	27.390450
550.000000	27.420339
551.000000	27.451754
552.000000	27.484792
553.000000	27.519939
554.000000	27.558134
555.000000	27.597403
556.000000	27.637158
557.000000	27.676584
558.000000	27.714571
559.000000	27.749652
560.000000	27.769844
561.000000	27.781219
562.000000	27.785826
563.000000	27.781395
564.000000	27.767522
565.000000	27.743800
566.000000	27.708930
567.000000	27.664825
568.000000	27.610535
569.000000	27.546405
570.000000	27.485709
571.000000	27.420027
572.000000	27.347313
573.000000	27.269866
574.000000	27.184689
575.000000	27.095463
576.000000	27.003988
577.000000	26.908810
578.000000	26.812346
579.000000	26.715809
580.000000	26.618669
581.000000	26.522763
582.000000	26.426699
583.000000	26.333202
584.000000	26.245894
585.000000	26.164058
586.000000	26.086071
587.000000	26.009909
588.000000	25.933026
589.000000	25.852578
590.000000	25.769744
591.000000	25.681813
592.000000	25.592537
593.000000	25.499259
594.000000	25.399792
595.000000	25.293249
596.000000	25.181645
597.000000	25.067501
598.000000	24.951949
599.000000	24.839078
600.000000	24.728362
601.000000	24.621556
602.000000	24.514601
603.000000	24.404899
604.000000	24.293353
605.000000	24.181046
606.000000	24.068251
607.000000	23.957948
608.000000	23.849725
609.000000	23.742150
610.000000	23.633702
611.000000	23.522871
612.000000	23.412848
613.000000	23.306274
614.000000	23.204540
615.000000	23.108230
616.000000	23.015551
617.000000	22.924218
618.000000	22.835075
619.000000	22.748585
620.000000	22.664542
621.000000	22.585746
622.000000	22.513643
623.000000	22.446697
624.000000	22.383959
625.000000	22.321749
626.000000	22.259868
627.000000	22.196619
628.000000	22.130017
629.000000	22.060700
630.000000	21.991187
631.000000	21.921056
632.000000	21.847982
633.000000	21.773276
634.000000	21.698206
635.000000	21.624875
636.000000	21.556022
637.000000	21.493988
638.000000	21.438922
639.000000	21.392779
640.000000	21.350831
641.000000	21.312507
642.000000	21.276277
643.000000	21.239594
644.000000	21.201547
645.000000	21.161805
646.000000	21.117910
647.000000	21.070759
648.000000	21.022971
649.000000	20.970800
650.000000	20.918495
651.000000	20.867557
652.000000	20.820970
653.000000	20.781296
654.000000	20.748995
655.000000	20.724843
656.000000	20.710282
657.000000	20.701877
658.000000	20.696721
659.000000	20.694183
660.000000	20.692118
661.000000	20.687652
662.000000	20.680446
663.000000	20.669286
664.000000	20.653666
665.000000	20.633610
666.000000	20.610701
667.000000	20.588067
668.000000	20.567614
669.000000	20.552404
670.000000	20.544021
671.000000	20.544956
672.000000	20.554331
673.000000	20.572603
674.000000	20.597648
675.000000	20.629503
676.000000	20.663513
677.000000	20.695993
678.000000	20.725059
679.000000	20.750900
680.000000	20.772919
681.000000	20.791683
682.000000	20.806248
683.000000	20.817882
684.000000	20.829878
685.000000	20.844306
686.000000	20.862509
687.000000	20.888100
688.000000	20.922349
689.000000	20.964746
690.000000	21.014246
691.000000	21.068995
692.000000	21.128762
693.000000	21.191399
694.000000	21.254525
695.000000	21.314587
696.000000	21.371844
697.000000	21.424664
698.000000	21.474755
699.000000	21.520120
700.000000	21.562945
701.000000	21.602380
702.000000	21.640791
703.000000	21.682296
704.000000	21.726925
705.000000	21.775001
706.000000	21.829832
707.000000	21.890471
708.000000	21.955314
709.000000	22.025776
710.000000	22.100763
711.000000	22.176945
712.000000	22.254597
713.000000	22.331695
714.000000	22.406792
715.000000	22.480608
716.000000	22.550574
717.000000	22.620224
718.000000	22.690109
719.000000	22.756238
720.000000	22.819178
721.000000	22.885446
722.000000	22.954434
723.000000	23.025291
724.000000	23.099483
725.000000	23.177979
726.000000	23.261376
727.000000	23.347003
728.000000	23.433420
729.000000	23.523103
730.000000	23.614479
731.000000	23.704324
732.000000	23.792308
733.000000	23.877607
734.000000	23.961288
735.000000	24.041976
736.000000	24.119342
737.000000	24.193926
738.000000	24.265779
739.000000	24.336552
740.000000	24.408230
741.000000	24.481764
742.000000	24.558047
743.000000	24.635794
744.000000	24.713292
745.000000	24.792869
746.000000	24.874673
747.000000	24.957165
748.000000	25.042442
749.000000	25.126723
750.000000	25.209651
751.000000	25.292276
752.000000	25.370251
753.000000	25.446677
754.000000	25.526322
755.000000	25.606762
756.000000	25.687384
757.000000	25.768378
758.000000	25.847662
759.000000	25.930566
760.000000	26.017939
761.000000	26.106683
762.000000	26.199424
763.000000	26.295172
764.000000	26.390799
765.000000	26.487017
766.000000	26.584418
767.000000	26.684660
768.000000	26.786365
769.000000	26.889652
770.000000	26.989474
771.000000	27.088993
772.000000	27.188379
773.000000	27.287732
774.000000	27.386835
775.000000	27.486181
776.000000	27.583577
777.000000	27.678579
778.000000	27.774468
779.000000	27.868981
780.000000	27.964088
781.000000	28.059948
782.000000	28.154742
783.000000	28.246494
784.000000	28.336691
785.000000	28.425300
786.000000	28.514092
787.000000	28.599760
788.000000	28.679726
789.000000	28.756446
790.000000	28.832058
791.000000	28.900993
792.000000	28.966443
793.000000	29.031431
794.000000	29.094187
795.000000	29.151733
796.000000	29.202781
797.000000	29.255286
798.000000	29.310572
799.000000	29.360463
800.000000	29.403379
801.000000	29.447997
802.000000	29.490096
803.000000	29.530662
804.000000	29.565542
805.000000	29.600659
806.000000	29.637467
807.000000	29.667329
808.000000	29.694039
809.000000	29.723166
810.000000	29.749380
811.000000	29.770352
812.000000	29.788111
813.000000	29.801458
814.000000	29.817602
815.000000	29.826304
816.000000	29.833425
817.000000	29.838333
818.000000	29.838500
819.000000	29.832803
820.000000	29.830704
821.000000	29.821066
822.000000	29.809820
823.000000	29.801824
824.000000	29.785554
825.000000	29.770459
826.000000	29.751791
827.000000	29.730404
828.000000	29.703608
829.000000	29.675578
830.000000	29.644563
831.000000	29.613027
832.000000	29.583039
833.000000	29.539258
834.000000	29.489138
835.000000	29.435339
836.000000	29.376033
837.000000	29.306514
838.000000	29.250564
839.000000	29.181580
840.000000	29.107152
841.000000	29.031210
842.000000	28.942148
843.000000	28.857512
844.000000	28.773616
845.000000	28.686745
846.000000	28.593270
847.000000	28.510056
848.000000	28.394730
849.000000	28.294817
850.000000	28.182890
851.000000	28.066039
852.000000	27.937514
853.000000	27.799826
854.000000	27.677218
855.000000	27.546227
856.000000	27.418833
857.000000	27.291779
858.000000	27.248605
859.000000	27.227621
860.000000	27.181490
861.000000	27.149719
862.000000	27.117782
863.000000	27.094680
864.000000	27.057521
865.000000	27.015406
866.000000	26.978682
867.000000	26.920084
868.000000	26.792225
869.000000	26.640127
870.000000	26.520018
871.000000	26.367200
872.000000	26.206540
873.000000	26.020735
874.000000	25.846000
875.000000	25.680903
876.000000	25.480875
877.000000	25.302218
878.000000	25.140585
879.000000	24.969340
880.000000	24.790173
881.000000	24.628217
882.000000	24.469928
883.000000	24.332670
884.000000	24.171602
885.000000	24.007583
886.000000	23.863225
887.000000	23.713542
888.000000	23.547905
889.000000	23.376825
890.000000	23.202043
891.000000	23.035365
892.000000	22.877410
893.000000	22.719788
894.000000	22.562655
895.000000	22.426155
896.000000	22.294285
897.000000	22.157440
898.000000	22.012617
899.000000	21.875298
900.000000	21.751035
901.000000	21.624478
902.000000	21.511487
903.000000	21.401657
904.000000	21.307185
905.000000	21.198410
906.000000	21.095153
907.000000	20.995648
908.000000	20.911323
909.000000	20.828972
910.000000	20.742975
911.000000	20.669142
912.000000	20.598308
913.000000	20.531128
914.000000	20.464783
915.000000	20.406865
916.000000	20.356618
917.000000	20.316167
918.000000	20.271397
919.000000	20.237858
920.000000	20.217790
921.000000	20.192222
922.000000	20.165668
923.000000	20.139455
924.000000	20.124788
925.000000	20.114988
926.000000	20.108112
927.000000	20.103305
928.000000	20.107018
929.000000	20.108327
930.000000	20.114323
931.000000	20.123728
932.000000	20.138768
933.000000	20.160660
934.000000	20.180405
935.000000	20.200205
936.000000	20.221308
937.000000	20.247470
938.000000	20.277358
939.000000	20.311060
940.000000	20.343612
941.000000	20.381995
942.000000	20.424350
943.000000	20.467160
944.000000	20.510445
945.000000	20.555175
946.000000	20.603362
947.000000	20.650730
948.000000	20.695613
949.000000	20.744835
950.000000	20.797510
951.000000	20.850150
952.000000	20.904428
953.000000	20.960870
954.000000	21.021297
955.000000	21.082257
956.000000	21.144680
957.000000	21.206810
958.000000	21.272435
959.000000	21.337687
960.000000	21.402662
961.000000	21.467352
962.000000	21.534365
963.000000	21.604520
964.000000	21.673158
965.000000	21.741660
966.000000	21.811083
967.000000	21.885900
968.000000	21.960113
969.000000	22.033538
970.000000	22.108620
971.000000	22.184963
972.000000	22.259205
973.000000	22.331880
974.000000	22.406562
975.000000	22.484430
976.000000	22.561125
977.000000	22.633703
978.000000	22.708863
979.000000	22.785420
980.000000	22.863827
981.000000	22.942177
982.000000	23.021718
983.000000	23.101517
984.000000	23.181458
985.000000	23.259810
986.000000	23.339838
987.000000	23.421298
988.000000	23.501658
989.000000	23.581075
990.000000	23.658915
991.000000	23.737565
992.000000	23.817383
993.000000	23.897292
994.000000	23.976727
995.000000	24.057640
996.000000	24.138168
997.000000	24.218785
998.000000	24.299230
999.000000	24.380572
1000.000000	24.462507
1001.000000	24.544148
1002.000000	24.625857
1003.000000	24.708067
1004.000000	24.789735
1005.000000	24.871080
1006.000000	24.954092
1007.000000	25.036838
1008.000000	25.118407
1009.000000	25.199932
1010.000000	25.280797
1011.000000	25.362110
1012.000000	25.444455
1013.000000	25.526243
1014.000000	25.608592
1015.000000	25.691188
1016.000000	25.772443
1017.000000	25.856122
1018.000000	25.941203
1019.000000	26.026578
1020.000000	26.113545
1021.000000	26.200770
1022.000000	26.286840
1023.000000	26.372328
1024.000000	26.458488
1025.000000	26.545472
1026.000000	26.632137
1027.000000	26.717737
1028.000000	26.804060
1029.000000	26.890332
1030.000000	26.975500
1031.000000	27.061310
1032.000000	27.148240
1033.000000	27.235778
1034.000000	27.322118
1035.000000	27.407812
1036.000000	27.494063
1037.000000	27.580800
1038.000000	27.667452
1039.000000	27.754577
1040.000000	27.843427
1041.000000	27.931092
1042.000000	28.016460
1043.000000	28.101715
1044.000000	28.188772
1045.000000	28.275405
1046.000000	28.361190
1047.000000	28.446792
1048.000000	28.532120
1049.000000	28.616672
1050.000000	28.699652
1051.000000	28.783007
1052.000000	28.868192
1053.000000	28.953988
1054.000000	29.039500
1055.000000	29.125315
1056.000000	29.211987
1057.000000	29.297888
1058.000000	29.384242
1059.000000	29.470342
1060.000000	29.555925
1061.000000	29.641777
1062.000000	29.728063
1063.000000	29.813777
1064.000000	29.898845
1065.000000	29.983570
1066.000000	30.068452
1067.000000	30.154520
1068.000000	30.240335
1069.000000	30.325743
1070.000000	30.410900
1071.000000	30.495722
1072.000000	30.580392
1073.000000	30.664463
1074.000000	30.747740
1075.000000	30.830443
1076.000000	30.912070
1077.000000	30.992280
1078.000000	31.072197
1079.000000	31.153295
1080.000000	31.234550
1081.000000	31.316613
1082.000000	31.397585
1083.000000	31.477965
1084.000000	31.558628
1085.000000	31.639140
1086.000000	31.720785
1087.000000	31.801597
1088.000000	31.882535
1089.000000	31.961168
1090.000000	32.040160
1091.000000	32.117667
1092.000000	32.194778
1093.000000	32.272195
1094.000000	32.349713
1095.000000	32.427435
1096.000000	32.501400
1097.000000	32.575892
1098.000000	32.648935
1099.000000	32.722735
1100.000000	32.794938
1101.000000	32.865462
1102.000000	32.936992
1103.000000	33.008255
1104.000000	33.078920
1105.000000	33.147342
1106.000000	33.218545
1107.000000	33.288328
1108.000000	33.357937
1109.000000	33.425775
1110.000000	33.493980
1111.000000	33.562767
1112.000000	33.627965
1113.000000	33.691295
1114.000000	33.753480
1115.000000	33.816490
1116.000000	33.877260
1117.000000	33.939335
1118.000000	33.999837
1119.000000	34.060457
1120.000000	34.118713
1121.000000	34.175500
1122.000000	34.233283
1123.000000	34.290840
1124.000000	34.346060
1125.000000	34.398590
1126.000000	34.449870
1127.000000	34.498643
1128.000000	34.544485
1129.000000	34.588000
1130.000000	34.628503
1131.000000	34.664240
1132.000000	34.695312
1133.000000	34.723607
1134.000000	34.751378
1135.000000	34.777620
1136.000000	34.801175
1137.000000	34.819320
1138.000000	34.833640
1139.000000	34.846265
1140.000000	34.858480
1141.000000	34.871767
1142.000000	34.886288
1143.000000	34.898705
1144.000000	34.910140
1145.000000	34.922013
1146.000000	34.933205
1147.000000	34.947365
1148.000000	34.962485
1149.000000	34.976965
1150.000000	34.990372
1151.000000	35.003975
1152.000000	35.016290
1153.000000	35.029420
1154.000000	35.040043
1155.000000	35.047130
1156.000000	35.050700
1157.000000	35.050365
1158.000000	35.047832
1159.000000	35.041635
1160.000000	35.032315
1161.000000	35.018942
1162.000000	35.000937
