PE UV       SUBTECH     SPECTRUM    ASCII       PEDS        4.00        
   -1
INBUCR0323-4.Sample.ASC
24/02/09
09:50:50.00
24/02/09
09:50:50.00
Vinicio Soto Monge
Phan. pyrois malyi n. ssp P. ARNAUD DET 2002 PARATYPE MALE. Est. Quebrada Bonita, R.B. Carara. Prov. Puntarenas, COSTA RICA.50 m. SET 1994. J. C. Saborío. L_N_194500_469850 #3203. INBIOCRI002109381
250,000000
1
Lambda 1050
1050L1511233
PerkinElmer UV WinLab 6.3.2.0749 / 2.02.05 Lambda 900 UV/VIS/NIR, Aug  7 2015 09:38:08

0
0
3350/servo 860,8/2
0
0
UV/VIS
1
1
1
DoubleDePol,CommonBeamDepol,RBeamAtt,SBeamAtt,60mm sphere, WB InGaAs Detector
0
0
0
0
Program
Program
3350/servo 860,8/2
3350/0,2 860,8/0,2
3350/0,2 860,8/0,2
0
15.00
 
 
 
0
 
860,8
319,2
860,8
Front
100
on
S:100 R:100
0
0
0
0
 
0
 
 
 
0
 
 
0
0
0
0
0
 
 
 
 
0
0


0
0
#HDR
-1
-1
#GR
nm
%R
1.0
0.0
2500,000000
-1,000000
2251
8
17,096200
1,181700
#DATA

250.000000	nan
251.000000	nan
252.000000	nan
253.000000	nan
254.000000	nan
255.000000	nan
256.000000	nan
257.000000	nan
258.000000	nan
259.000000	5.437436
260.000000	5.433514
261.000000	5.430745
262.000000	5.426060
263.000000	5.421606
264.000000	5.416593
265.000000	5.410907
266.000000	5.404745
267.000000	5.398570
268.000000	5.392528
269.000000	5.385240
270.000000	5.379310
271.000000	5.372351
272.000000	5.367609
273.000000	5.398673
274.000000	5.392385
275.000000	5.387939
276.000000	5.419078
277.000000	5.452795
278.000000	5.485948
279.000000	5.519181
280.000000	5.552970
281.000000	5.586991
282.000000	5.622214
283.000000	5.619842
284.000000	5.655405
285.000000	5.689056
286.000000	5.686361
287.000000	5.683316
288.000000	5.680568
289.000000	5.679159
290.000000	5.675177
291.000000	5.672328
292.000000	5.667210
293.000000	5.663211
294.000000	5.659996
295.000000	5.657463
296.000000	5.654057
297.000000	5.650819
298.000000	5.646346
299.000000	5.642889
300.000000	5.641101
301.000000	5.636548
302.000000	5.632872
303.000000	5.630752
304.000000	5.627002
305.000000	5.623730
306.000000	5.622888
307.000000	5.620454
308.000000	5.620443
309.000000	5.617064
310.000000	5.614340
311.000000	5.649306
312.000000	5.684291
313.000000	5.720103
314.000000	5.755489
315.000000	5.790898
316.000000	5.827559
317.000000	5.913669
318.000000	6.035019
319.000000	6.164572
320.000000	6.288365
321.000000	6.370739
322.000000	6.459320
323.000000	6.541357
324.000000	6.626519
325.000000	6.706555
326.000000	6.787934
327.000000	6.821935
328.000000	6.817992
329.000000	6.802695
330.000000	6.793887
331.000000	6.789886
332.000000	6.780240
333.000000	6.777200
334.000000	6.769459
335.000000	6.804473
336.000000	6.838724
337.000000	6.867245
338.000000	6.896509
339.000000	6.933550
340.000000	6.966550
341.000000	7.003444
342.000000	7.038683
343.000000	7.071195
344.000000	7.110096
345.000000	7.108211
346.000000	7.101164
347.000000	7.097705
348.000000	7.097060
349.000000	7.094115
350.000000	7.093680
351.000000	7.092335
352.000000	7.089489
353.000000	7.088789
354.000000	7.085006
355.000000	7.081354
356.000000	7.083010
357.000000	7.085669
358.000000	7.083921
359.000000	7.082165
360.000000	7.117200
361.000000	7.114055
362.000000	7.149921
363.000000	7.182088
364.000000	7.215165
365.000000	7.250485
366.000000	7.283903
367.000000	7.315453
368.000000	7.348447
369.000000	7.381572
370.000000	7.378973
371.000000	7.410935
372.000000	7.409004
373.000000	7.410104
374.000000	7.408853
375.000000	7.409218
376.000000	7.401383
377.000000	7.349509
378.000000	7.298827
379.000000	7.248292
380.000000	7.197509
381.000000	7.147097
382.000000	7.094052
383.000000	7.040582
384.000000	6.988455
385.000000	6.934939
386.000000	6.888970
387.000000	6.888107
388.000000	6.887386
389.000000	6.922996
390.000000	6.958237
391.000000	6.993584
392.000000	7.029333
393.000000	7.065385
394.000000	7.101028
395.000000	7.136795
396.000000	7.172198
397.000000	7.207481
398.000000	7.242548
399.000000	7.241012
400.000000	7.239674
401.000000	7.238560
402.000000	7.237487
403.000000	7.235951
404.000000	7.234837
405.000000	7.234092
406.000000	7.233535
407.000000	7.232811
408.000000	7.232054
409.000000	7.231665
410.000000	7.231064
411.000000	7.230430
412.000000	7.229499
413.000000	7.228933
414.000000	7.228591
415.000000	7.228006
416.000000	7.227285
417.000000	7.226742
418.000000	7.226351
419.000000	7.225504
420.000000	7.261388
421.000000	7.297430
422.000000	7.333396
423.000000	7.369143
424.000000	7.404751
425.000000	7.440242
426.000000	7.475693
427.000000	7.511250
428.000000	7.546666
429.000000	7.582246
430.000000	7.581135
431.000000	7.580136
432.000000	7.579330
433.000000	7.578406
434.000000	7.577336
435.000000	7.576553
436.000000	7.576091
437.000000	7.575495
438.000000	7.574660
439.000000	7.573900
440.000000	7.573384
441.000000	7.572875
442.000000	7.572327
443.000000	7.571965
444.000000	7.571492
445.000000	7.570822
446.000000	7.569995
447.000000	7.569038
448.000000	7.568321
449.000000	7.567432
450.000000	7.566372
451.000000	7.565469
452.000000	7.564575
453.000000	7.563636
454.000000	7.562766
455.000000	7.561882
456.000000	7.561069
457.000000	7.560367
458.000000	7.559674
459.000000	7.559314
460.000000	7.558982
461.000000	7.558372
462.000000	7.557663
463.000000	7.556941
464.000000	7.556413
465.000000	7.556233
466.000000	7.555883
467.000000	7.555354
468.000000	7.554813
469.000000	7.554129
470.000000	7.553536
471.000000	7.552969
472.000000	7.552463
473.000000	7.551844
474.000000	7.551097
475.000000	7.550019
476.000000	7.548755
477.000000	7.547762
478.000000	7.546731
479.000000	7.545689
480.000000	7.544626
481.000000	7.543432
482.000000	7.542268
483.000000	7.541353
484.000000	7.576932
485.000000	7.612815
486.000000	7.649296
487.000000	7.685724
488.000000	7.722253
489.000000	7.759155
490.000000	7.796246
491.000000	7.833483
492.000000	7.870822
493.000000	7.908272
494.000000	7.909408
495.000000	7.910439
496.000000	7.911190
497.000000	7.912066
498.000000	7.913094
499.000000	7.913871
500.000000	7.914717
501.000000	7.915750
502.000000	7.916552
503.000000	7.917421
504.000000	7.918202
505.000000	7.918795
506.000000	7.919247
507.000000	7.919576
508.000000	7.919643
509.000000	7.919774
510.000000	7.919557
511.000000	7.919128
512.000000	7.918812
513.000000	7.918085
514.000000	7.917095
515.000000	7.916331
516.000000	7.915819
517.000000	7.915047
518.000000	7.914313
519.000000	7.913507
520.000000	7.912881
521.000000	7.912127
522.000000	7.911185
523.000000	7.910289
524.000000	7.909600
525.000000	7.908905
526.000000	7.908083
527.000000	7.907539
528.000000	7.907107
529.000000	7.906733
530.000000	7.906435
531.000000	7.906235
532.000000	7.906445
533.000000	7.906845
534.000000	7.907383
535.000000	7.907994
536.000000	7.908560
537.000000	7.909278
538.000000	7.909964
539.000000	7.910721
540.000000	7.911408
541.000000	7.912199
542.000000	7.912945
543.000000	7.913660
544.000000	7.914225
545.000000	7.951377
546.000000	7.952290
547.000000	7.989512
548.000000	8.026830
549.000000	8.063982
550.000000	8.101336
551.000000	8.138592
552.000000	8.175634
553.000000	8.212624
554.000000	8.249866
555.000000	8.250488
556.000000	8.287211
557.000000	8.287629
558.000000	8.288000
559.000000	8.288470
560.000000	8.250579
561.000000	8.212301
562.000000	8.174009
563.000000	8.135735
564.000000	8.097471
565.000000	8.059183
566.000000	8.020965
567.000000	7.982731
568.000000	7.944300
569.000000	7.942704
570.000000	7.978942
571.000000	8.015675
572.000000	8.052604
573.000000	8.089602
574.000000	8.126275
575.000000	8.162860
576.000000	8.199853
577.000000	8.236811
578.000000	8.273899
579.000000	8.273941
580.000000	8.274526
581.000000	8.275021
582.000000	8.275370
583.000000	8.275670
584.000000	8.276142
585.000000	8.276757
586.000000	8.276875
587.000000	8.277105
588.000000	8.277494
589.000000	8.278020
590.000000	8.278301
591.000000	8.278916
592.000000	8.279094
593.000000	8.279748
594.000000	8.280149
595.000000	8.280630
596.000000	8.281279
597.000000	8.281697
598.000000	8.282141
599.000000	8.282830
600.000000	8.283400
601.000000	8.283773
602.000000	8.284581
603.000000	8.284883
604.000000	8.285094
605.000000	8.285421
606.000000	8.285892
607.000000	8.286339
608.000000	8.286643
609.000000	8.286602
610.000000	8.286850
611.000000	8.287088
612.000000	8.287558
613.000000	8.287873
614.000000	8.288565
615.000000	8.288948
616.000000	8.289712
617.000000	8.290014
618.000000	8.290704
619.000000	8.291420
620.000000	8.292007
621.000000	8.292459
622.000000	8.292557
623.000000	8.293063
624.000000	8.293415
625.000000	8.294045
626.000000	8.293941
627.000000	8.294683
628.000000	8.295199
629.000000	8.295778
630.000000	8.296041
631.000000	8.296901
632.000000	8.297844
633.000000	8.298759
634.000000	8.299732
635.000000	8.300399
636.000000	8.301255
637.000000	8.302152
638.000000	8.303115
639.000000	8.303738
640.000000	8.304713
641.000000	8.305248
642.000000	8.306167
643.000000	8.306898
644.000000	8.307729
645.000000	8.308702
646.000000	8.309668
647.000000	8.310576
648.000000	8.311201
649.000000	8.312664
650.000000	8.313970
651.000000	8.315306
652.000000	8.316557
653.000000	8.317945
654.000000	8.319017
655.000000	8.320410
656.000000	8.322339
657.000000	8.323872
658.000000	8.325774
659.000000	8.327204
660.000000	8.329118
661.000000	8.331021
662.000000	8.332969
663.000000	8.334872
664.000000	8.337286
665.000000	8.339438
666.000000	8.341634
667.000000	8.343951
668.000000	8.345944
669.000000	8.348472
670.000000	8.350855
671.000000	8.353222
672.000000	8.355477
673.000000	8.358270
674.000000	8.360924
675.000000	8.363702
676.000000	8.366357
677.000000	8.369319
678.000000	8.372375
679.000000	8.375496
680.000000	8.378690
681.000000	8.381717
682.000000	8.385084
683.000000	8.388139
684.000000	8.391549
685.000000	8.394849
686.000000	8.398338
687.000000	8.401922
688.000000	8.406015
689.000000	8.409662
690.000000	8.413235
691.000000	8.417110
692.000000	8.421391
693.000000	8.425917
694.000000	8.430403
695.000000	8.435081
696.000000	8.439729
697.000000	8.444730
698.000000	8.449843
699.000000	8.455022
700.000000	8.460370
701.000000	8.466404
702.000000	8.508505
703.000000	8.550157
704.000000	8.591774
705.000000	8.634012
706.000000	8.676691
707.000000	8.719414
708.000000	8.762094
709.000000	8.805303
710.000000	8.848876
711.000000	8.891969
712.000000	8.898662
713.000000	8.906112
714.000000	8.914046
715.000000	8.921860
716.000000	8.929233
717.000000	8.936674
718.000000	8.944610
719.000000	8.952626
720.000000	8.960612
721.000000	8.969105
722.000000	8.978277
723.000000	8.987675
724.000000	8.996895
725.000000	9.006319
726.000000	9.016275
727.000000	9.026416
728.000000	9.036258
729.000000	9.045920
730.000000	9.055913
731.000000	9.066387
732.000000	9.076905
733.000000	9.087534
734.000000	9.098679
735.000000	9.109588
736.000000	9.120298
737.000000	9.131456
738.000000	9.143303
739.000000	9.155684
740.000000	9.168204
741.000000	9.180623
742.000000	9.193108
743.000000	9.205860
744.000000	9.218835
745.000000	9.232278
746.000000	9.246705
747.000000	9.260546
748.000000	9.273570
749.000000	9.287616
750.000000	9.302500
751.000000	9.317061
752.000000	9.331504
753.000000	9.346491
754.000000	9.361514
755.000000	9.413547
756.000000	9.465845
757.000000	9.518994
758.000000	9.573027
759.000000	9.626006
760.000000	9.678640
761.000000	9.732156
762.000000	9.786401
763.000000	9.840100
764.000000	9.894475
765.000000	9.913104
766.000000	9.931229
767.000000	9.949203
768.000000	9.967185
769.000000	9.986423
770.000000	10.006213
771.000000	10.025717
772.000000	10.045290
773.000000	10.065827
774.000000	10.086517
775.000000	10.106357
776.000000	10.126066
777.000000	10.147364
778.000000	10.169695
779.000000	10.191900
780.000000	10.213912
781.000000	10.236169
782.000000	10.259015
783.000000	10.281586
784.000000	10.303927
785.000000	10.327186
786.000000	10.351708
787.000000	10.375418
788.000000	10.398459
789.000000	10.421661
790.000000	10.445075
791.000000	10.469087
792.000000	10.493091
793.000000	10.517588
794.000000	10.579263
795.000000	10.641177
796.000000	10.702654
797.000000	10.764129
798.000000	10.825846
799.000000	10.888668
800.000000	10.952009
801.000000	11.016503
802.000000	11.080625
803.000000	11.145570
804.000000	11.174290
805.000000	11.203010
806.000000	11.231721
807.000000	11.260720
808.000000	11.290503
809.000000	11.319563
810.000000	11.349626
811.000000	11.379872
812.000000	11.410114
813.000000	11.439760
814.000000	11.469369
815.000000	11.499013
816.000000	11.530719
817.000000	11.561881
818.000000	11.592578
819.000000	11.624422
820.000000	11.655304
821.000000	11.686277
822.000000	11.717704
823.000000	11.749798
824.000000	11.781877
825.000000	11.815783
826.000000	11.848056
827.000000	11.879114
828.000000	11.909733
829.000000	11.942212
830.000000	11.976335
831.000000	12.008288
832.000000	12.041817
833.000000	12.075249
834.000000	12.108611
835.000000	12.139472
836.000000	12.172261
837.000000	12.206783
838.000000	12.240047
839.000000	12.269927
840.000000	12.297966
841.000000	12.326570
842.000000	12.358751
843.000000	12.425931
844.000000	12.493960
845.000000	12.562467
846.000000	12.592477
847.000000	12.658844
848.000000	12.690323
849.000000	12.724376
850.000000	12.762916
851.000000	12.835299
852.000000	12.861405
853.000000	12.890420
854.000000	12.918772
855.000000	12.915378
856.000000	12.987455
857.000000	13.024592
858.000000	13.499119
859.000000	13.598235
860.000000	13.691727
861.000000	13.702750
862.000000	13.779845
863.000000	13.843991
864.000000	13.882418
865.000000	13.927353
866.000000	13.958875
867.000000	13.963958
868.000000	13.568090
869.000000	13.569985
870.000000	13.548135
871.000000	13.550878
872.000000	13.528967
873.000000	13.507032
874.000000	13.485072
875.000000	13.488457
876.000000	13.467565
877.000000	13.446815
878.000000	13.426855
879.000000	13.407723
880.000000	13.388840
881.000000	13.419507
882.000000	13.450885
883.000000	13.456620
884.000000	13.463387
885.000000	13.470527
886.000000	13.477045
887.000000	13.509737
888.000000	13.542323
889.000000	13.525520
890.000000	13.558315
891.000000	13.542162
892.000000	13.525680
893.000000	13.509880
894.000000	13.518805
895.000000	13.527353
896.000000	13.537327
897.000000	13.545975
898.000000	13.555232
899.000000	13.588825
900.000000	13.574472
901.000000	13.584658
902.000000	13.594643
903.000000	13.605122
904.000000	13.616525
905.000000	13.628125
906.000000	13.638935
907.000000	13.650980
908.000000	13.662570
909.000000	13.676090
910.000000	13.713750
911.000000	13.750900
912.000000	13.788317
913.000000	13.825600
914.000000	13.863840
915.000000	13.902062
916.000000	13.915895
917.000000	13.929172
918.000000	13.967593
919.000000	14.004722
920.000000	14.016385
921.000000	14.030087
922.000000	14.043513
923.000000	14.055937
924.000000	14.067955
925.000000	14.081323
926.000000	14.117670
927.000000	14.154257
928.000000	14.165995
929.000000	14.178733
930.000000	14.215830
931.000000	14.252605
932.000000	14.289022
933.000000	14.326975
934.000000	14.364048
935.000000	14.400505
936.000000	14.437495
937.000000	14.475202
938.000000	14.513035
939.000000	14.547940
940.000000	14.584585
941.000000	14.619510
942.000000	14.655250
943.000000	14.691337
944.000000	14.726435
945.000000	14.761183
946.000000	14.796568
947.000000	14.831938
948.000000	14.867200
949.000000	14.903813
950.000000	14.940282
951.000000	14.977045
952.000000	15.014012
953.000000	15.050560
954.000000	15.088425
955.000000	15.125797
956.000000	15.163098
957.000000	15.199775
958.000000	15.237033
959.000000	15.274355
960.000000	15.311195
961.000000	15.348232
962.000000	15.384965
963.000000	15.421345
964.000000	15.457317
965.000000	15.493113
966.000000	15.529055
967.000000	15.565245
968.000000	15.600812
969.000000	15.636837
970.000000	15.672133
971.000000	15.707915
972.000000	15.743743
973.000000	15.779530
974.000000	15.814573
975.000000	15.850668
976.000000	15.886795
977.000000	15.922210
978.000000	15.958162
979.000000	15.994158
980.000000	16.030452
981.000000	16.066157
982.000000	16.101337
983.000000	16.135717
984.000000	16.171230
985.000000	16.206505
986.000000	16.241550
987.000000	16.277247
988.000000	16.311775
989.000000	16.346085
990.000000	16.380835
991.000000	16.415820
992.000000	16.451280
993.000000	16.487323
994.000000	16.522715
995.000000	16.558090
996.000000	16.593260
997.000000	16.627600
998.000000	16.662218
999.000000	16.697387
1000.000000	16.732257
1001.000000	16.766985
1002.000000	16.801370
1003.000000	16.835522
1004.000000	16.869612
1005.000000	16.903935
1006.000000	16.938668
1007.000000	16.973285
1008.000000	17.008263
1009.000000	17.042797
1010.000000	17.076590
1011.000000	17.110678
1012.000000	17.145487
1013.000000	17.180390
1014.000000	17.215395
1015.000000	17.249958
1016.000000	17.283957
1017.000000	17.318397
1018.000000	17.352893
1019.000000	17.387585
1020.000000	17.422617
1021.000000	17.457393
1022.000000	17.492105
1023.000000	17.527247
1024.000000	17.563335
1025.000000	17.599242
1026.000000	17.634493
1027.000000	17.670480
1028.000000	17.706845
1029.000000	17.742593
1030.000000	17.778078
1031.000000	17.813395
1032.000000	17.873483
1033.000000	17.933080
1034.000000	17.992178
1035.000000	18.051380
1036.000000	18.110843
1037.000000	18.170373
1038.000000	18.229820
1039.000000	18.288877
1040.000000	18.348672
1041.000000	18.408730
1042.000000	18.443490
1043.000000	18.478500
1044.000000	18.513162
1045.000000	18.547658
1046.000000	18.582743
1047.000000	18.617250
1048.000000	18.651843
1049.000000	18.687252
1050.000000	18.722160
1051.000000	18.756892
1052.000000	18.791918
1053.000000	18.826433
1054.000000	18.861013
1055.000000	18.895917
1056.000000	18.930915
1057.000000	18.966045
1058.000000	19.000802
1059.000000	19.035370
1060.000000	19.069775
1061.000000	19.104472
1062.000000	19.139788
1063.000000	19.174912
1064.000000	19.209840
1065.000000	19.244418
1066.000000	19.278830
1067.000000	19.313330
1068.000000	19.347947
1069.000000	19.382883
1070.000000	19.418347
1071.000000	19.454095
1072.000000	19.489033
1073.000000	19.524420
1074.000000	19.560010
1075.000000	19.595392
1076.000000	19.630857
1077.000000	19.666352
1078.000000	19.701630
1079.000000	19.736000
1080.000000	19.770820
1081.000000	19.804977
1082.000000	19.839198
1083.000000	19.873215
1084.000000	19.906838
1085.000000	19.942000
1086.000000	19.977382
1087.000000	20.011645
1088.000000	20.045610
1089.000000	20.105218
1090.000000	20.163665
1091.000000	20.222507
1092.000000	20.281507
1093.000000	20.339648
1094.000000	20.398570
1095.000000	20.456472
1096.000000	20.513903
1097.000000	20.571188
1098.000000	20.629310
1099.000000	20.662375
1100.000000	20.696215
1101.000000	20.729572
1102.000000	20.762680
1103.000000	20.797470
1104.000000	20.831228
1105.000000	20.863570
1106.000000	20.895828
1107.000000	20.928600
1108.000000	20.960468
1109.000000	20.992012
1110.000000	21.023222
1111.000000	21.055020
1112.000000	21.086950
1113.000000	21.118268
1114.000000	21.149550
1115.000000	21.181127
1116.000000	21.213145
1117.000000	21.245613
1118.000000	21.277573
1119.000000	21.309875
1120.000000	21.341520
1121.000000	21.372608
1122.000000	21.403503
1123.000000	21.433677
1124.000000	21.463753
1125.000000	21.493677
1126.000000	21.521840
1127.000000	21.549422
1128.000000	21.576915
1129.000000	21.603225
1130.000000	21.630117
1131.000000	21.653958
1132.000000	21.674695
1133.000000	21.696400
1134.000000	21.719720
1135.000000	21.744725
1136.000000	21.768635
1137.000000	21.790752
1138.000000	21.811510
1139.000000	21.832765
1140.000000	21.852493
1141.000000	21.874043
1142.000000	21.897447
1143.000000	21.919705
1144.000000	21.939412
1145.000000	21.959582
1146.000000	21.980710
1147.000000	22.003095
1148.000000	22.026863
1149.000000	22.048777
1150.000000	22.072112
1151.000000	22.095650
1152.000000	22.119083
1153.000000	22.142232
1154.000000	22.164470
1155.000000	22.184687
1156.000000	22.204280
1157.000000	22.222282
1158.000000	22.238657
1159.000000	22.255568
1160.000000	22.270163
1161.000000	22.283590
1162.000000	22.295565
1163.000000	22.305178
1164.000000	22.314493
1165.000000	22.321910
1166.000000	22.329268
1167.000000	22.336928
1168.000000	22.345130
1169.000000	22.353057
1170.000000	22.360958
1171.000000	22.370128
1172.000000	22.405275
1173.000000	22.417330
1174.000000	22.430508
1175.000000	22.445463
1176.000000	22.485463
1177.000000	22.526010
