PE UV       SUBTECH     SPECTRUM    ASCII       PEDS        4.00        
   -1
INBUCR0416-4.Sample.ASC
24/02/09
12:25:27.00
24/02/09
12:25:27.00
Vinicio Soto Monge
COSTA RICA. Prov . Alajuela. San Ramón. Reserva Biol. Alberto Brenes. Río San Lorencito. 850 m. 30 JUN DE 1999. W. Porras. Manual ( red, libre) L_N_245500_470800 #53846. Sin élitros. INB0003049590 
250,000000
1
Lambda 1050
1050L1511233
PerkinElmer UV WinLab 6.3.2.0749 / 2.02.05 Lambda 900 UV/VIS/NIR, Aug  7 2015 09:38:08

0
0
3350/servo 860,8/2
0
0
UV/VIS
1
1
1
DoubleDePol,CommonBeamDepol,RBeamAtt,SBeamAtt,60mm sphere, WB InGaAs Detector
0
0
0
0
Program
Program
3350/servo 860,8/2
3350/0,2 860,8/0,2
3350/0,2 860,8/0,2
0
15.00
 
 
 
0
 
860,8
319,2
860,8
Front
100
on
S:100 R:100
0
0
0
0
 
0
 
 
 
0
 
 
0
0
0
0
0
 
 
 
 
0
0


0
0
#HDR
-1
-1
#GR
nm
%R
1.0
0.0
2500,000000
-1,000000
2251
8
16,962900
1,529600
#DATA

250.000000	nan
251.000000	nan
252.000000	nan
253.000000	nan
254.000000	nan
255.000000	nan
256.000000	nan
257.000000	nan
258.000000	nan
259.000000	3.643087
260.000000	3.642559
261.000000	3.640322
262.000000	3.638547
263.000000	3.636288
264.000000	3.635319
265.000000	3.633862
266.000000	3.631047
267.000000	3.628128
268.000000	3.624289
269.000000	3.620271
270.000000	3.615516
271.000000	3.611853
272.000000	3.607861
273.000000	3.604402
274.000000	3.600611
275.000000	3.596293
276.000000	3.592238
277.000000	3.588604
278.000000	3.585625
279.000000	3.582343
280.000000	3.579923
281.000000	3.576941
282.000000	3.574009
283.000000	3.571747
284.000000	3.570080
285.000000	3.569409
286.000000	3.569652
287.000000	3.569950
288.000000	3.570241
289.000000	3.571584
290.000000	3.572953
291.000000	3.575989
292.000000	3.579553
293.000000	3.582590
294.000000	3.586505
295.000000	3.590918
296.000000	3.595153
297.000000	3.599508
298.000000	3.605047
299.000000	3.610330
300.000000	3.616281
301.000000	3.621998
302.000000	3.626925
303.000000	3.633102
304.000000	3.637375
305.000000	3.642918
306.000000	3.680355
307.000000	3.717557
308.000000	3.755133
309.000000	3.793220
310.000000	3.829980
311.000000	3.866090
312.000000	3.904103
313.000000	3.974520
314.000000	4.045436
315.000000	4.115286
316.000000	4.153713
317.000000	4.239121
318.000000	4.322994
319.000000	4.398247
320.000000	4.480255
321.000000	4.562682
322.000000	4.638010
323.000000	4.714493
324.000000	4.792653
325.000000	4.868735
326.000000	4.946771
327.000000	4.978008
328.000000	5.008115
329.000000	5.045831
330.000000	5.078600
331.000000	5.107441
332.000000	5.144929
333.000000	5.147676
334.000000	5.148781
335.000000	5.150082
336.000000	5.182260
337.000000	5.215063
338.000000	5.249478
339.000000	5.283094
340.000000	5.315676
341.000000	5.350435
342.000000	5.384037
343.000000	5.416906
344.000000	5.450332
345.000000	5.486785
346.000000	5.487035
347.000000	5.486849
348.000000	5.485294
349.000000	5.488974
350.000000	5.491559
351.000000	5.494976
352.000000	5.497848
353.000000	5.499228
354.000000	5.534330
355.000000	5.535254
356.000000	5.572098
357.000000	5.608773
358.000000	5.646615
359.000000	5.681987
360.000000	5.717082
361.000000	5.751452
362.000000	5.787133
363.000000	5.824761
364.000000	5.827084
365.000000	5.861917
366.000000	5.864772
367.000000	5.868709
368.000000	5.870856
369.000000	5.871465
370.000000	5.873863
371.000000	5.876368
372.000000	5.876736
373.000000	5.877423
374.000000	5.880565
375.000000	5.883533
376.000000	5.882572
377.000000	5.873912
378.000000	5.866465
379.000000	5.859985
380.000000	5.852651
381.000000	5.846815
382.000000	5.841302
383.000000	5.835774
384.000000	5.829475
385.000000	5.823827
386.000000	5.820871
387.000000	5.824757
388.000000	5.828861
389.000000	5.833020
390.000000	5.837612
391.000000	5.841470
392.000000	5.845435
393.000000	5.849597
394.000000	5.853994
395.000000	5.858115
396.000000	5.861936
397.000000	5.866146
398.000000	5.870057
399.000000	5.874251
400.000000	5.878246
401.000000	5.882424
402.000000	5.886328
403.000000	5.890118
404.000000	5.893650
405.000000	5.897262
406.000000	5.901109
407.000000	5.905089
408.000000	5.909285
409.000000	5.913063
410.000000	5.916770
411.000000	5.920451
412.000000	5.924130
413.000000	5.927905
414.000000	5.931788
415.000000	5.935823
416.000000	5.939880
417.000000	5.943640
418.000000	5.947578
419.000000	5.951773
420.000000	5.955688
421.000000	5.959746
422.000000	5.964180
423.000000	5.968779
424.000000	5.973379
425.000000	5.977921
426.000000	5.982618
427.000000	5.987415
428.000000	5.992111
429.000000	5.996799
430.000000	6.001728
431.000000	6.039354
432.000000	6.077039
433.000000	6.114698
434.000000	6.152366
435.000000	6.190187
436.000000	6.228302
437.000000	6.266326
438.000000	6.304389
439.000000	6.342709
440.000000	6.381118
441.000000	6.387125
442.000000	6.393035
443.000000	6.398782
444.000000	6.404708
445.000000	6.410828
446.000000	6.417075
447.000000	6.423572
448.000000	6.430154
449.000000	6.436556
450.000000	6.442929
451.000000	6.449440
452.000000	6.456029
453.000000	6.462841
454.000000	6.469751
455.000000	6.476335
456.000000	6.482525
457.000000	6.488845
458.000000	6.495403
459.000000	6.502130
460.000000	6.508883
461.000000	6.515588
462.000000	6.522337
463.000000	6.529143
464.000000	6.535953
465.000000	6.543116
466.000000	6.550445
467.000000	6.557495
468.000000	6.564549
469.000000	6.571542
470.000000	6.578561
471.000000	6.585666
472.000000	6.592725
473.000000	6.599516
474.000000	6.606205
475.000000	6.612786
476.000000	6.619150
477.000000	6.625509
478.000000	6.631860
479.000000	6.638088
480.000000	6.643738
481.000000	6.648511
482.000000	6.652669
483.000000	6.656857
484.000000	6.661359
485.000000	6.666257
486.000000	6.671791
487.000000	6.678241
488.000000	6.685396
489.000000	6.693212
490.000000	6.702304
491.000000	6.712874
492.000000	6.757438
493.000000	6.802993
494.000000	6.849135
495.000000	6.895753
496.000000	6.942801
497.000000	6.989864
498.000000	7.036775
499.000000	7.083998
500.000000	7.131468
501.000000	7.179133
502.000000	7.193984
503.000000	7.208720
504.000000	7.223387
505.000000	7.238016
506.000000	7.252670
507.000000	7.267068
508.000000	7.281404
509.000000	7.295665
510.000000	7.309290
511.000000	7.322518
512.000000	7.335571
513.000000	7.348514
514.000000	7.361105
515.000000	7.373093
516.000000	7.384401
517.000000	7.395540
518.000000	7.406529
519.000000	7.417065
520.000000	7.427404
521.000000	7.437651
522.000000	7.448064
523.000000	7.490910
524.000000	7.533637
525.000000	7.576672
526.000000	7.620160
527.000000	7.663858
528.000000	7.707898
529.000000	7.752175
530.000000	7.797260
531.000000	7.842749
532.000000	7.888532
533.000000	7.902042
534.000000	7.916291
535.000000	7.930730
536.000000	7.945119
537.000000	7.959634
538.000000	7.974519
539.000000	7.989750
540.000000	8.004742
541.000000	8.019713
542.000000	8.034790
543.000000	8.050087
544.000000	8.065100
545.000000	8.080131
546.000000	8.095353
547.000000	8.110951
548.000000	8.125986
549.000000	8.140655
550.000000	8.155120
551.000000	8.169633
552.000000	8.184024
553.000000	8.198016
554.000000	8.211869
555.000000	8.225574
556.000000	8.239365
557.000000	8.252684
558.000000	8.265910
559.000000	8.278812
560.000000	8.284593
561.000000	8.289262
562.000000	8.326204
563.000000	8.362963
564.000000	8.399467
565.000000	8.435893
566.000000	8.471581
567.000000	8.507014
568.000000	8.542440
569.000000	8.578208
570.000000	8.621052
571.000000	8.664617
572.000000	8.675534
573.000000	8.686272
574.000000	8.697159
575.000000	8.707616
576.000000	8.718209
577.000000	8.729102
578.000000	8.739826
579.000000	8.750491
580.000000	8.761292
581.000000	8.771886
582.000000	8.782966
583.000000	8.794062
584.000000	8.805081
585.000000	8.816096
586.000000	8.827309
587.000000	8.838347
588.000000	8.849596
589.000000	8.860543
590.000000	8.871229
591.000000	8.882087
592.000000	8.892707
593.000000	8.903153
594.000000	8.913751
595.000000	8.924236
596.000000	8.934806
597.000000	8.944496
598.000000	8.954356
599.000000	8.964914
600.000000	8.975689
601.000000	8.986234
602.000000	8.996207
603.000000	9.006279
604.000000	9.016676
605.000000	9.027002
606.000000	9.037109
607.000000	9.048247
608.000000	9.058741
609.000000	9.068656
610.000000	9.077949
611.000000	9.088024
612.000000	9.097985
613.000000	9.107798
614.000000	9.117182
615.000000	9.126839
616.000000	9.136305
617.000000	9.145384
618.000000	9.154810
619.000000	9.163977
620.000000	9.173006
621.000000	9.181619
622.000000	9.190760
623.000000	9.200003
624.000000	9.208947
625.000000	9.217703
626.000000	9.226962
627.000000	9.235886
628.000000	9.244516
629.000000	9.254113
630.000000	9.264130
631.000000	9.273977
632.000000	9.283492
633.000000	9.293447
634.000000	9.303434
635.000000	9.314143
636.000000	9.324498
637.000000	9.335469
638.000000	9.347211
639.000000	9.358060
640.000000	9.369266
641.000000	9.380526
642.000000	9.392381
643.000000	9.404788
644.000000	9.416864
645.000000	9.428972
646.000000	9.441421
647.000000	9.453435
648.000000	9.465560
649.000000	9.478335
650.000000	9.491162
651.000000	9.504727
652.000000	9.517792
653.000000	9.530488
654.000000	9.544017
655.000000	9.557199
656.000000	9.602948
657.000000	9.649322
658.000000	9.695685
659.000000	9.741692
660.000000	9.787261
661.000000	9.832307
662.000000	9.877713
663.000000	9.922722
664.000000	9.968111
665.000000	10.013545
666.000000	10.026332
667.000000	10.039290
668.000000	10.051822
669.000000	10.064229
670.000000	10.077016
671.000000	10.089509
672.000000	10.102443
673.000000	10.115505
674.000000	10.127728
675.000000	10.139667
676.000000	10.151826
677.000000	10.163241
678.000000	10.174857
679.000000	10.186274
680.000000	10.197902
681.000000	10.209550
682.000000	10.220744
683.000000	10.231892
684.000000	10.243120
685.000000	10.254419
686.000000	10.265311
687.000000	10.276158
688.000000	10.286868
689.000000	10.298082
690.000000	10.309084
691.000000	10.319730
692.000000	10.330455
693.000000	10.341483
694.000000	10.352533
695.000000	10.363572
696.000000	10.406596
697.000000	10.449822
698.000000	10.492860
699.000000	10.536069
700.000000	10.578599
701.000000	10.622131
702.000000	10.665528
703.000000	10.708000
704.000000	10.750194
705.000000	10.792433
706.000000	10.802416
707.000000	10.813358
708.000000	10.824625
709.000000	10.834429
710.000000	10.844548
711.000000	10.854572
712.000000	10.864425
713.000000	10.874737
714.000000	10.885533
715.000000	10.896690
716.000000	10.907829
717.000000	10.917458
718.000000	10.926786
719.000000	10.937362
720.000000	10.948076
721.000000	10.957865
722.000000	10.967425
723.000000	10.977456
724.000000	10.987838
725.000000	10.997492
726.000000	11.006899
727.000000	11.017102
728.000000	11.027651
729.000000	11.037749
730.000000	11.047318
731.000000	11.089801
732.000000	11.132898
733.000000	11.176077
734.000000	11.218054
735.000000	11.260095
736.000000	11.302628
737.000000	11.345232
738.000000	11.387732
739.000000	11.430369
740.000000	11.472905
741.000000	11.482779
742.000000	11.492671
743.000000	11.502084
744.000000	11.512113
745.000000	11.522727
746.000000	11.533700
747.000000	11.544300
748.000000	11.553898
749.000000	11.564190
750.000000	11.575845
751.000000	11.587525
752.000000	11.598197
753.000000	11.607986
754.000000	11.618119
755.000000	11.628859
756.000000	11.639040
757.000000	11.649175
758.000000	11.660114
759.000000	11.670040
760.000000	11.679475
761.000000	11.721917
762.000000	11.764362
763.000000	11.807879
764.000000	11.850994
765.000000	11.893049
766.000000	11.935750
767.000000	11.978805
768.000000	12.021503
769.000000	12.064475
770.000000	12.107525
771.000000	12.117640
772.000000	12.128489
773.000000	12.139150
774.000000	12.150086
775.000000	12.161103
776.000000	12.172161
777.000000	12.183335
778.000000	12.195394
779.000000	12.208013
780.000000	12.220435
781.000000	12.233102
782.000000	12.245180
783.000000	12.256697
784.000000	12.268531
785.000000	12.280864
786.000000	12.291642
787.000000	12.301725
788.000000	12.312711
789.000000	12.323702
790.000000	12.335416
791.000000	12.379209
792.000000	12.424011
793.000000	12.470095
794.000000	12.514880
795.000000	12.558882
796.000000	12.604114
797.000000	12.649649
798.000000	12.694023
799.000000	12.738461
800.000000	12.783389
801.000000	12.795769
802.000000	12.806486
803.000000	12.817682
804.000000	12.828671
805.000000	12.840366
806.000000	12.852968
807.000000	12.865969
808.000000	12.879274
809.000000	12.893212
810.000000	12.905632
811.000000	12.917573
812.000000	12.930924
813.000000	12.944145
814.000000	12.958318
815.000000	12.970534
816.000000	12.981489
817.000000	12.991770
818.000000	13.003381
819.000000	13.013563
820.000000	13.022936
821.000000	13.032575
822.000000	13.042336
823.000000	13.051881
824.000000	13.060305
825.000000	13.070554
826.000000	13.081878
827.000000	13.092931
828.000000	13.102584
829.000000	13.110039
830.000000	13.118091
831.000000	13.127954
832.000000	13.136225
833.000000	13.141905
834.000000	13.150669
835.000000	13.159398
836.000000	13.166305
837.000000	13.205827
838.000000	13.242225
839.000000	13.249036
840.000000	13.288657
841.000000	13.294145
842.000000	13.331191
843.000000	13.333825
844.000000	13.334838
845.000000	13.339927
846.000000	13.344339
847.000000	13.315887
848.000000	13.321328
849.000000	13.359713
850.000000	13.364500
851.000000	13.369822
852.000000	13.371959
853.000000	13.409555
854.000000	13.445441
855.000000	13.476183
856.000000	13.513417
857.000000	13.547791
858.000000	13.781429
859.000000	13.833552
860.000000	13.862804
861.000000	13.901461
862.000000	13.915506
863.000000	13.907830
864.000000	13.903698
865.000000	13.927430
866.000000	13.922230
867.000000	13.923310
868.000000	13.696030
869.000000	13.651147
870.000000	13.605748
871.000000	13.610112
872.000000	13.588227
873.000000	13.590152
874.000000	13.591763
875.000000	13.566307
876.000000	13.542858
877.000000	13.542298
878.000000	13.540862
879.000000	13.539795
880.000000	13.539195
881.000000	13.513878
882.000000	13.512398
883.000000	13.511080
884.000000	13.509880
885.000000	13.485295
886.000000	13.483060
887.000000	13.455745
888.000000	13.429045
889.000000	13.376112
890.000000	13.349200
891.000000	13.345078
892.000000	13.341983
893.000000	13.312568
894.000000	13.282298
895.000000	13.277800
896.000000	13.273497
897.000000	13.270307
898.000000	13.266248
899.000000	13.286785
900.000000	13.306323
901.000000	13.301305
902.000000	13.295980
903.000000	13.316292
904.000000	13.312650
905.000000	13.307090
906.000000	13.302222
907.000000	13.320772
908.000000	13.315637
909.000000	13.311825
910.000000	13.308378
911.000000	13.304170
912.000000	13.300175
913.000000	13.297665
914.000000	13.319192
915.000000	13.341025
916.000000	13.362490
917.000000	13.359635
918.000000	13.379085
919.000000	13.398722
920.000000	13.418555
921.000000	13.439187
922.000000	13.460962
923.000000	13.480517
924.000000	13.499793
925.000000	13.518590
926.000000	13.511627
927.000000	13.504995
928.000000	13.498285
929.000000	13.490660
930.000000	13.481650
931.000000	13.471880
932.000000	13.461170
933.000000	13.451567
934.000000	13.442173
935.000000	13.433200
936.000000	13.449735
937.000000	13.466313
938.000000	13.483745
939.000000	13.500215
940.000000	13.515470
941.000000	13.531338
942.000000	13.546495
943.000000	13.561730
944.000000	13.575492
945.000000	13.589520
946.000000	13.603805
947.000000	13.616970
948.000000	13.630605
949.000000	13.644350
950.000000	13.658455
951.000000	13.672817
952.000000	13.687347
953.000000	13.700890
954.000000	13.715045
955.000000	13.704153
956.000000	13.692615
957.000000	13.681015
958.000000	13.668358
959.000000	13.680745
960.000000	13.669405
961.000000	13.657413
962.000000	13.645083
963.000000	13.632435
964.000000	13.620167
965.000000	13.631795
966.000000	13.643438
967.000000	13.654770
968.000000	13.666747
969.000000	13.654070
970.000000	13.666028
971.000000	13.676440
972.000000	13.687178
973.000000	13.698438
974.000000	13.709172
975.000000	13.720292
976.000000	13.730887
977.000000	13.742103
978.000000	13.752962
979.000000	13.763730
980.000000	13.774297
981.000000	13.786185
982.000000	13.797747
983.000000	13.808383
984.000000	13.818318
985.000000	13.828950
986.000000	13.839418
987.000000	13.850078
988.000000	13.860733
989.000000	13.869897
990.000000	13.879112
991.000000	13.888573
992.000000	13.897187
993.000000	13.905975
994.000000	13.915410
995.000000	13.923362
996.000000	13.931480
997.000000	13.939805
998.000000	13.947905
999.000000	13.957240
1000.000000	13.966530
1001.000000	13.975120
1002.000000	13.984422
1003.000000	13.993302
1004.000000	14.001927
1005.000000	14.011195
1006.000000	14.021107
1007.000000	14.030597
1008.000000	14.039045
1009.000000	14.046630
1010.000000	14.054170
1011.000000	14.062102
1012.000000	14.069640
1013.000000	14.077632
1014.000000	14.085455
1015.000000	14.092990
1016.000000	14.100278
1017.000000	14.107612
1018.000000	14.115470
1019.000000	14.123947
1020.000000	14.132008
1021.000000	14.140222
1022.000000	14.148878
1023.000000	14.157930
1024.000000	14.167198
1025.000000	14.176255
1026.000000	14.184852
1027.000000	14.192655
1028.000000	14.200415
1029.000000	14.208045
1030.000000	14.216287
1031.000000	14.224135
1032.000000	14.231262
1033.000000	14.238240
1034.000000	14.244972
1035.000000	14.252270
1036.000000	14.259803
1037.000000	14.267622
1038.000000	14.275547
1039.000000	14.283270
1040.000000	14.290710
1041.000000	14.298545
1042.000000	14.306195
1043.000000	14.313190
1044.000000	14.320495
1045.000000	14.327295
1046.000000	14.333850
1047.000000	14.340845
1048.000000	14.347890
1049.000000	14.354260
1050.000000	14.360888
1051.000000	14.367555
1052.000000	14.374760
1053.000000	14.382320
1054.000000	14.389065
1055.000000	14.396162
1056.000000	14.403940
1057.000000	14.411562
1058.000000	14.419145
1059.000000	14.427585
1060.000000	14.435763
1061.000000	14.444050
1062.000000	14.451853
1063.000000	14.459393
1064.000000	14.467415
1065.000000	14.474908
1066.000000	14.480885
1067.000000	14.487510
1068.000000	14.495358
1069.000000	14.503250
1070.000000	14.510612
1071.000000	14.517455
1072.000000	14.524752
1073.000000	14.532608
1074.000000	14.540252
1075.000000	14.549187
1076.000000	14.559153
1077.000000	14.567433
1078.000000	14.574320
1079.000000	14.581907
1080.000000	14.589892
1081.000000	14.597703
1082.000000	14.605115
1083.000000	14.611480
1084.000000	14.619287
1085.000000	14.626335
1086.000000	14.633370
1087.000000	14.640887
1088.000000	14.648658
1089.000000	14.655648
1090.000000	14.662128
1091.000000	14.669187
1092.000000	14.676135
1093.000000	14.683925
1094.000000	14.690203
1095.000000	14.696337
1096.000000	14.702180
1097.000000	14.708035
1098.000000	14.714560
1099.000000	14.720917
1100.000000	14.727820
1101.000000	14.734168
1102.000000	14.741005
1103.000000	14.748005
1104.000000	14.754710
1105.000000	14.760155
1106.000000	14.766633
1107.000000	14.773783
1108.000000	14.779740
1109.000000	14.786333
1110.000000	14.792015
1111.000000	14.798242
1112.000000	14.803873
1113.000000	14.808650
1114.000000	14.814370
1115.000000	14.821395
1116.000000	14.826950
1117.000000	14.831015
1118.000000	14.835663
1119.000000	14.839423
1120.000000	14.844632
1121.000000	14.849450
1122.000000	14.854898
1123.000000	14.861165
1124.000000	14.866440
1125.000000	14.870120
1126.000000	14.874693
1127.000000	14.880715
1128.000000	14.887195
1129.000000	14.892755
1130.000000	14.896387
1131.000000	14.898677
1132.000000	14.898915
1133.000000	14.900060
1134.000000	14.902765
1135.000000	14.908587
1136.000000	14.912605
1137.000000	14.913985
1138.000000	14.914722
1139.000000	14.916385
1140.000000	14.919158
1141.000000	14.922085
1142.000000	14.926607
1143.000000	14.929015
1144.000000	14.930288
1145.000000	14.929398
1146.000000	14.930117
1147.000000	14.933193
1148.000000	14.935378
1149.000000	14.937715
1150.000000	14.938522
1151.000000	14.941098
1152.000000	14.943158
1153.000000	14.948050
1154.000000	14.950840
1155.000000	14.954075
1156.000000	14.956880
1157.000000	14.958645
1158.000000	14.960715
1159.000000	14.961588
1160.000000	14.962287
1161.000000	14.961915
1162.000000	14.960952
1163.000000	14.957313
1164.000000	14.954648
1165.000000	14.951540
1166.000000	14.946705
1167.000000	14.941610
1168.000000	14.936933
1169.000000	14.932207
1170.000000	14.928460
1171.000000	14.925770
1172.000000	14.923687
