PE UV       SUBTECH     SPECTRUM    ASCII       PEDS        4.00        
   -1
INBUCR0214-4.Sample.ASC
24/02/08
09:24:11.00
24/02/08
09:24:11.00
Vinicio Soto Monge
C. marginata Det: A. Solís INB0003102404 INBIOCRI COSTA RICA. Costa Rica, Prov. Puntarenas, Coto Brus. Zona protectora Las Tablas, Est Biol Las alturas. 1550 m 15-24 MAR 1999, Corrales L_S_322800_591500 #52465
250,000000
1
Lambda 1050
1050L1511233
PerkinElmer UV WinLab 6.3.2.0749 / 2.02.05 Lambda 900 UV/VIS/NIR, Aug  7 2015 09:38:08

0
0
3350/servo 860,8/2
0
0
UV/VIS
1
1
1
DoubleDePol,CommonBeamDepol,RBeamAtt,SBeamAtt,60mm sphere, WB InGaAs Detector
0
0
0
0
Program
Program
3350/servo 860,8/2
3350/0,2 860,8/0,2
3350/0,2 860,8/0,2
0
15.00
 
 
 
0
 
860,8
319,2
860,8
Front
100
on
S:100 R:100
0
0
0
0
 
0
 
 
 
0
 
 
0
0
0
0
0
 
 
 
 
0
0


0
0
#HDR
-1
-1
#GR
nm
%R
1.0
0.0
2500,000000
-1,000000
2251
8
14,725500
1,451600
#DATA

250.000000	nan
251.000000	nan
252.000000	nan
253.000000	nan
254.000000	nan
255.000000	nan
256.000000	nan
257.000000	nan
258.000000	nan
259.000000	4.011568
260.000000	4.001674
261.000000	3.988350
262.000000	3.974868
263.000000	3.962372
264.000000	3.945619
265.000000	3.929807
266.000000	3.911998
267.000000	3.896359
268.000000	3.875223
269.000000	3.856730
270.000000	3.837583
271.000000	3.822172
272.000000	3.803957
273.000000	3.785120
274.000000	3.769513
275.000000	3.756996
276.000000	3.742415
277.000000	3.731072
278.000000	3.722582
279.000000	3.714828
280.000000	3.704103
281.000000	3.694010
282.000000	3.688203
283.000000	3.682509
284.000000	3.675944
285.000000	3.668872
286.000000	3.663614
287.000000	3.655067
288.000000	3.649876
289.000000	3.645627
290.000000	3.643631
291.000000	3.639856
292.000000	3.638568
293.000000	3.636592
294.000000	3.638955
295.000000	3.640421
296.000000	3.643566
297.000000	3.647024
298.000000	3.650643
299.000000	3.653689
300.000000	3.656801
301.000000	3.658705
302.000000	3.658363
303.000000	3.663414
304.000000	3.662680
305.000000	3.662390
306.000000	3.665400
307.000000	3.666069
308.000000	3.666810
309.000000	3.666859
310.000000	3.667837
311.000000	3.670247
312.000000	3.672738
313.000000	3.670093
314.000000	3.673105
315.000000	3.677104
316.000000	3.681957
317.000000	3.721381
318.000000	3.751166
319.000000	3.784487
320.000000	3.803100
321.000000	3.826561
322.000000	3.857441
323.000000	3.885584
324.000000	3.910481
325.000000	3.931678
326.000000	3.945051
327.000000	3.933883
328.000000	3.927886
329.000000	3.912809
330.000000	3.910275
331.000000	3.907430
332.000000	3.906844
333.000000	3.898400
334.000000	3.893814
335.000000	3.889302
336.000000	3.891416
337.000000	3.885562
338.000000	3.883405
339.000000	3.887462
340.000000	3.891502
341.000000	3.899286
342.000000	3.896106
343.000000	3.903622
344.000000	3.904480
345.000000	3.910739
346.000000	3.917302
347.000000	3.924209
348.000000	3.931828
349.000000	3.937997
350.000000	3.949702
351.000000	3.953145
352.000000	3.956834
353.000000	3.964735
354.000000	3.976310
355.000000	3.986118
356.000000	3.994475
357.000000	4.004327
358.000000	4.012719
359.000000	4.024535
360.000000	4.033510
361.000000	4.046747
362.000000	4.062886
363.000000	4.074710
364.000000	4.086621
365.000000	4.099431
366.000000	4.114617
367.000000	4.128307
368.000000	4.146608
369.000000	4.166040
370.000000	4.183508
371.000000	4.201335
372.000000	4.218097
373.000000	4.238918
374.000000	4.263508
375.000000	4.292991
376.000000	4.320449
377.000000	4.345675
378.000000	4.370717
379.000000	4.396544
380.000000	4.427452
381.000000	4.457825
382.000000	4.492814
383.000000	4.530062
384.000000	4.568863
385.000000	4.605451
386.000000	4.644553
387.000000	4.692211
388.000000	4.741366
389.000000	4.791138
390.000000	4.842129
391.000000	4.895112
392.000000	4.948867
393.000000	5.003553
394.000000	5.058822
395.000000	5.115183
396.000000	5.172293
397.000000	5.227688
398.000000	5.283531
399.000000	5.340973
400.000000	5.398613
401.000000	5.456121
402.000000	5.512785
403.000000	5.569239
404.000000	5.625671
405.000000	5.681466
406.000000	5.737239
407.000000	5.793959
408.000000	5.849522
409.000000	5.903768
410.000000	5.957353
411.000000	6.010548
412.000000	6.063457
413.000000	6.115887
414.000000	6.167200
415.000000	6.217510
416.000000	6.267292
417.000000	6.316115
418.000000	6.363723
419.000000	6.410403
420.000000	6.456795
421.000000	6.502143
422.000000	6.546266
423.000000	6.588954
424.000000	6.630570
425.000000	6.671476
426.000000	6.711404
427.000000	6.750354
428.000000	6.788678
429.000000	6.826437
430.000000	6.862803
431.000000	6.898000
432.000000	6.932790
433.000000	6.967155
434.000000	7.001020
435.000000	7.034233
436.000000	7.066028
437.000000	7.097061
438.000000	7.127570
439.000000	7.157143
440.000000	7.185654
441.000000	7.213520
442.000000	7.240492
443.000000	7.266117
444.000000	7.290165
445.000000	7.313155
446.000000	7.335663
447.000000	7.357521
448.000000	7.378116
449.000000	7.396908
450.000000	7.415192
451.000000	7.433201
452.000000	7.450298
453.000000	7.466173
454.000000	7.481752
455.000000	7.497765
456.000000	7.513426
457.000000	7.527992
458.000000	7.542883
459.000000	7.558592
460.000000	7.574785
461.000000	7.590877
462.000000	7.607303
463.000000	7.625632
464.000000	7.645110
465.000000	7.664437
466.000000	7.684773
467.000000	7.707295
468.000000	7.731416
469.000000	7.757365
470.000000	7.784579
471.000000	7.813570
472.000000	7.845070
473.000000	7.878619
474.000000	7.914561
475.000000	7.952929
476.000000	7.993835
477.000000	8.037190
478.000000	8.083197
479.000000	8.131794
480.000000	8.183453
481.000000	8.238740
482.000000	8.297494
483.000000	8.359693
484.000000	8.425783
485.000000	8.496766
486.000000	8.572453
487.000000	8.652817
488.000000	8.738222
489.000000	8.829312
490.000000	8.926297
491.000000	9.028743
492.000000	9.136710
493.000000	9.250454
494.000000	9.369807
495.000000	9.494891
496.000000	9.625709
497.000000	9.762693
498.000000	9.904786
499.000000	10.052749
500.000000	10.205938
501.000000	10.364347
502.000000	10.528026
503.000000	10.696782
504.000000	10.870376
505.000000	11.047946
506.000000	11.228651
507.000000	11.412253
508.000000	11.598713
509.000000	11.786955
510.000000	11.976307
511.000000	12.166274
512.000000	12.356033
513.000000	12.545049
514.000000	12.733029
515.000000	12.919532
516.000000	13.103402
517.000000	13.283691
518.000000	13.460066
519.000000	13.631868
520.000000	13.799206
521.000000	13.961851
522.000000	14.118768
523.000000	14.270481
524.000000	14.416539
525.000000	14.555720
526.000000	14.689436
527.000000	14.818052
528.000000	14.942267
529.000000	15.061388
530.000000	15.175848
531.000000	15.286125
532.000000	15.393704
533.000000	15.498060
534.000000	15.599106
535.000000	15.699203
536.000000	15.798608
537.000000	15.897461
538.000000	15.995907
539.000000	16.095122
540.000000	16.196050
541.000000	16.298798
542.000000	16.403198
543.000000	16.509920
544.000000	16.620292
545.000000	16.733148
546.000000	16.848752
547.000000	16.967582
548.000000	17.087930
549.000000	17.210597
550.000000	17.336127
551.000000	17.462696
552.000000	17.589919
553.000000	17.718118
554.000000	17.845627
555.000000	17.972509
556.000000	18.098377
557.000000	18.220810
558.000000	18.340971
559.000000	18.457188
560.000000	18.552725
561.000000	18.642274
562.000000	18.726007
563.000000	18.802496
564.000000	18.871253
565.000000	18.932015
566.000000	18.984732
567.000000	19.029001
568.000000	19.064514
569.000000	19.090445
570.000000	19.121475
571.000000	19.143670
572.000000	19.155464
573.000000	19.156124
574.000000	19.146458
575.000000	19.125607
576.000000	19.093366
577.000000	19.050608
578.000000	18.997502
579.000000	18.935273
580.000000	18.862345
581.000000	18.779832
582.000000	18.688712
583.000000	18.589677
584.000000	18.482858
585.000000	18.369663
586.000000	18.250658
587.000000	18.126670
588.000000	17.996971
589.000000	17.863828
590.000000	17.728632
591.000000	17.591094
592.000000	17.452586
593.000000	17.313644
594.000000	17.175577
595.000000	17.037713
596.000000	16.900938
597.000000	16.765504
598.000000	16.634587
599.000000	16.504936
600.000000	16.377982
601.000000	16.254710
602.000000	16.135844
603.000000	16.021414
604.000000	15.910513
605.000000	15.804662
606.000000	15.703664
607.000000	15.607510
608.000000	15.514900
609.000000	15.427782
610.000000	15.346344
611.000000	15.270245
612.000000	15.197442
613.000000	15.128300
614.000000	15.063437
615.000000	15.003631
616.000000	14.947471
617.000000	14.895409
618.000000	14.847466
619.000000	14.804029
620.000000	14.763703
621.000000	14.725953
622.000000	14.692332
623.000000	14.662464
624.000000	14.636693
625.000000	14.613493
626.000000	14.593362
627.000000	14.577476
628.000000	14.564970
629.000000	14.554287
630.000000	14.547430
631.000000	14.543702
632.000000	14.543526
633.000000	14.546096
634.000000	14.551967
635.000000	14.560350
636.000000	14.572212
637.000000	14.585800
638.000000	14.601913
639.000000	14.622314
640.000000	14.644608
641.000000	14.670368
642.000000	14.698669
643.000000	14.730881
644.000000	14.766028
645.000000	14.805140
646.000000	14.847170
647.000000	14.892495
648.000000	14.941155
649.000000	14.993448
650.000000	15.049232
651.000000	15.108235
652.000000	15.171164
653.000000	15.237753
654.000000	15.307732
655.000000	15.379815
656.000000	15.455303
657.000000	15.533828
658.000000	15.615986
659.000000	15.700353
660.000000	15.787917
661.000000	15.878657
662.000000	15.972607
663.000000	16.068607
664.000000	16.167307
665.000000	16.269122
666.000000	16.374414
667.000000	16.482939
668.000000	16.593425
669.000000	16.707084
670.000000	16.824495
671.000000	16.945106
672.000000	17.067301
673.000000	17.194707
674.000000	17.324987
675.000000	17.457453
676.000000	17.593610
677.000000	17.733412
678.000000	17.876620
679.000000	18.022842
680.000000	18.172790
681.000000	18.325373
682.000000	18.481939
683.000000	18.640353
684.000000	18.801535
685.000000	18.967141
686.000000	19.136317
687.000000	19.308709
688.000000	19.482156
689.000000	19.658961
690.000000	19.838195
691.000000	20.020843
692.000000	20.207104
693.000000	20.394845
694.000000	20.584080
695.000000	20.776751
696.000000	20.970081
697.000000	21.163734
698.000000	21.361532
699.000000	21.561187
700.000000	21.761774
701.000000	21.962546
702.000000	22.162906
703.000000	22.365141
704.000000	22.569194
705.000000	22.772498
706.000000	22.974891
707.000000	23.177293
708.000000	23.380146
709.000000	23.581666
710.000000	23.781669
711.000000	23.981649
712.000000	24.180453
713.000000	24.377133
714.000000	24.571877
715.000000	24.765018
716.000000	24.956745
717.000000	25.146270
718.000000	25.331316
719.000000	25.513295
720.000000	25.693159
721.000000	25.868996
722.000000	26.041407
723.000000	26.209297
724.000000	26.375231
725.000000	26.537676
726.000000	26.695322
727.000000	26.848420
728.000000	26.998879
729.000000	27.146715
730.000000	27.290101
731.000000	27.429359
732.000000	27.564951
733.000000	27.698698
734.000000	27.826959
735.000000	27.950903
736.000000	28.074771
737.000000	28.197917
738.000000	28.317312
739.000000	28.433328
740.000000	28.546974
741.000000	28.660668
742.000000	28.773367
743.000000	28.882609
744.000000	28.990552
745.000000	29.097269
746.000000	29.200789
747.000000	29.301954
748.000000	29.402403
749.000000	29.501477
750.000000	29.600469
751.000000	29.697609
752.000000	29.792053
753.000000	29.886794
754.000000	29.981402
755.000000	30.074035
756.000000	30.167582
757.000000	30.261960
758.000000	30.353661
759.000000	30.444147
760.000000	30.532471
761.000000	30.619755
762.000000	30.704124
763.000000	30.785466
764.000000	30.865629
765.000000	30.945405
766.000000	31.022887
767.000000	31.098668
768.000000	31.174384
769.000000	31.250393
770.000000	31.325717
771.000000	31.394957
772.000000	31.466428
773.000000	31.541676
774.000000	31.615766
775.000000	31.688119
776.000000	31.758307
777.000000	31.827957
778.000000	31.899860
779.000000	31.966289
780.000000	32.030695
781.000000	32.099614
782.000000	32.167498
783.000000	32.233108
784.000000	32.294678
785.000000	32.357109
786.000000	32.418868
787.000000	32.478159
788.000000	32.533125
789.000000	32.593898
790.000000	32.654766
791.000000	32.715661
792.000000	32.775591
793.000000	32.829023
794.000000	32.884594
795.000000	32.944382
796.000000	33.006162
797.000000	33.068591
798.000000	33.130505
799.000000	33.189084
800.000000	33.245460
801.000000	33.301055
802.000000	33.352465
803.000000	33.405996
804.000000	33.463874
805.000000	33.518196
806.000000	33.569536
807.000000	33.618819
808.000000	33.674507
809.000000	33.727809
810.000000	33.780441
811.000000	33.832629
812.000000	33.889040
813.000000	33.947582
814.000000	34.006092
815.000000	34.059368
816.000000	34.114936
817.000000	34.173386
818.000000	34.225221
819.000000	34.275087
820.000000	34.329231
821.000000	34.385688
822.000000	34.436967
823.000000	34.490440
824.000000	34.535141
825.000000	34.583017
826.000000	34.626341
827.000000	34.670469
828.000000	34.718938
829.000000	34.771995
830.000000	34.817263
831.000000	34.856439
832.000000	34.896125
833.000000	34.938764
834.000000	34.983414
835.000000	35.029750
836.000000	35.076838
837.000000	35.115738
838.000000	35.148591
839.000000	35.182366
840.000000	35.222796
841.000000	35.267164
842.000000	35.302170
843.000000	35.333673
844.000000	35.372307
845.000000	35.401316
846.000000	35.429987
847.000000	35.459536
848.000000	35.487331
849.000000	35.502567
850.000000	35.529752
851.000000	35.543854
852.000000	35.555185
853.000000	35.555145
854.000000	35.552244
855.000000	35.566073
856.000000	35.587164
857.000000	35.609730
858.000000	35.800831
859.000000	35.895641
860.000000	35.972725
861.000000	36.060399
862.000000	36.155736
863.000000	36.275718
864.000000	36.378770
865.000000	36.476820
866.000000	36.561281
867.000000	36.615243
868.000000	36.518910
869.000000	36.506512
870.000000	36.509332
871.000000	36.504162
872.000000	36.497497
873.000000	36.475608
874.000000	36.455537
875.000000	36.427990
876.000000	36.399575
877.000000	36.401565
878.000000	36.376420
879.000000	36.363222
880.000000	36.323820
881.000000	36.299445
882.000000	36.259828
883.000000	36.208633
884.000000	36.173008
885.000000	36.139150
886.000000	36.104840
887.000000	36.072480
888.000000	36.038605
889.000000	36.013825
890.000000	35.986710
891.000000	35.948858
892.000000	35.928013
893.000000	35.917145
894.000000	35.889702
895.000000	35.856133
896.000000	35.815248
897.000000	35.762508
898.000000	35.720910
899.000000	35.664810
900.000000	35.617315
901.000000	35.572195
902.000000	35.527805
903.000000	35.473350
904.000000	35.427390
905.000000	35.383443
906.000000	35.347792
907.000000	35.314120
908.000000	35.273713
909.000000	35.237100
910.000000	35.208820
911.000000	35.166408
912.000000	35.121630
913.000000	35.082397
914.000000	35.036723
915.000000	34.988200
916.000000	34.935437
917.000000	34.883787
918.000000	34.838518
919.000000	34.797767
920.000000	34.744298
921.000000	34.699822
922.000000	34.661090
923.000000	34.619107
924.000000	34.584708
925.000000	34.547120
926.000000	34.513778
927.000000	34.472350
928.000000	34.425095
929.000000	34.377865
930.000000	34.334155
931.000000	34.290357
932.000000	34.239558
933.000000	34.190350
934.000000	34.140132
935.000000	34.095545
936.000000	34.047900
937.000000	34.009413
938.000000	33.972100
939.000000	33.933550
940.000000	33.895457
941.000000	33.851553
942.000000	33.811220
943.000000	33.768498
944.000000	33.720393
945.000000	33.669510
946.000000	33.622725
947.000000	33.575927
948.000000	33.531307
949.000000	33.485132
950.000000	33.443847
951.000000	33.408190
952.000000	33.371355
953.000000	33.334933
954.000000	33.298330
955.000000	33.262710
956.000000	33.225285
957.000000	33.187207
958.000000	33.146300
959.000000	33.108750
960.000000	33.069063
961.000000	33.030208
962.000000	32.990693
963.000000	32.955483
964.000000	32.923675
965.000000	32.891553
966.000000	32.862873
967.000000	32.835613
968.000000	32.809215
969.000000	32.782545
970.000000	32.754838
971.000000	32.726750
972.000000	32.701050
973.000000	32.673045
974.000000	32.643853
975.000000	32.616910
976.000000	32.589568
977.000000	32.565255
978.000000	32.542725
979.000000	32.520355
980.000000	32.501002
981.000000	32.481545
982.000000	32.462620
983.000000	32.444233
984.000000	32.427127
985.000000	32.409195
986.000000	32.390105
987.000000	32.369298
988.000000	32.348190
989.000000	32.329275
990.000000	32.310745
991.000000	32.293247
992.000000	32.276565
993.000000	32.260317
994.000000	32.244520
995.000000	32.230930
996.000000	32.220170
997.000000	32.209813
998.000000	32.198383
999.000000	32.186118
1000.000000	32.173515
1001.000000	32.161142
1002.000000	32.148817
1003.000000	32.137300
1004.000000	32.125917
1005.000000	32.115198
1006.000000	32.104908
1007.000000	32.094000
1008.000000	32.084805
1009.000000	32.076808
1010.000000	32.068532
1011.000000	32.061763
1012.000000	32.054967
1013.000000	32.047078
1014.000000	32.039600
1015.000000	32.030838
1016.000000	32.020992
1017.000000	32.013515
1018.000000	32.008243
1019.000000	32.003242
1020.000000	31.999065
1021.000000	31.994695
1022.000000	31.992223
1023.000000	31.992160
1024.000000	31.992697
1025.000000	31.995115
1026.000000	31.998753
1027.000000	32.001095
1028.000000	32.002645
1029.000000	32.004160
1030.000000	32.006388
1031.000000	32.008115
1032.000000	32.007928
1033.000000	32.007767
1034.000000	32.009465
1035.000000	32.011183
1036.000000	32.012835
1037.000000	32.015250
1038.000000	32.017245
1039.000000	32.020485
1040.000000	32.024423
1041.000000	32.029207
1042.000000	32.034717
1043.000000	32.040312
1044.000000	32.045293
1045.000000	32.049712
1046.000000	32.053497
1047.000000	32.058402
1048.000000	32.064993
1049.000000	32.070920
1050.000000	32.075643
1051.000000	32.081803
1052.000000	32.088705
1053.000000	32.096863
1054.000000	32.106358
1055.000000	32.116217
1056.000000	32.126680
1057.000000	32.136555
1058.000000	32.147400
1059.000000	32.158558
1060.000000	32.169442
1061.000000	32.180507
1062.000000	32.191565
1063.000000	32.200685
1064.000000	32.209305
1065.000000	32.218920
1066.000000	32.228745
1067.000000	32.240568
1068.000000	32.252308
1069.000000	32.264370
1070.000000	32.277638
1071.000000	32.290900
1072.000000	32.303025
1073.000000	32.316877
1074.000000	32.330000
1075.000000	32.341135
1076.000000	32.352100
1077.000000	32.362262
1078.000000	32.371465
1079.000000	32.381697
1080.000000	32.391708
1081.000000	32.401505
1082.000000	32.412055
1083.000000	32.421080
1084.000000	32.430665
1085.000000	32.442035
1086.000000	32.454365
1087.000000	32.466313
1088.000000	32.478160
1089.000000	32.488915
1090.000000	32.498798
1091.000000	32.507650
1092.000000	32.516913
1093.000000	32.527795
1094.000000	32.538947
1095.000000	32.548915
1096.000000	32.558757
1097.000000	32.570285
1098.000000	32.582065
1099.000000	32.593277
1100.000000	32.606225
1101.000000	32.618617
1102.000000	32.630877
1103.000000	32.643183
1104.000000	32.655327
1105.000000	32.669520
1106.000000	32.682073
1107.000000	32.694117
1108.000000	32.706835
1109.000000	32.719608
1110.000000	32.732990
1111.000000	32.746887
1112.000000	32.761295
1113.000000	32.774188
1114.000000	32.786080
1115.000000	32.796010
1116.000000	32.807155
1117.000000	32.818010
1118.000000	32.827960
1119.000000	32.838725
1120.000000	32.845890
1121.000000	32.853403
1122.000000	32.859480
1123.000000	32.865455
1124.000000	32.870797
1125.000000	32.874357
1126.000000	32.875898
1127.000000	32.874913
1128.000000	32.874038
1129.000000	32.870835
1130.000000	32.865337
1131.000000	32.858030
1132.000000	32.846675
1133.000000	32.834690
1134.000000	32.824320
1135.000000	32.814777
1136.000000	32.803353
1137.000000	32.789232
1138.000000	32.772375
1139.000000	32.753882
1140.000000	32.737248
1141.000000	32.720195
1142.000000	32.704967
1143.000000	32.689610
1144.000000	32.674160
1145.000000	32.657022
1146.000000	32.641203
1147.000000	32.627183
1148.000000	32.614310
1149.000000	32.601965
1150.000000	32.590135
1151.000000	32.578315
1152.000000	32.567295
1153.000000	32.554183
1154.000000	32.538045
1155.000000	32.521358
1156.000000	32.503222
1157.000000	32.483827
1158.000000	32.461573
1159.000000	32.438195
1160.000000	32.412732
1161.000000	32.384928
1162.000000	32.355117
1163.000000	32.323430
1164.000000	32.290420
