PE UV       SUBTECH     SPECTRUM    ASCII       PEDS        4.00        
   -1
INBUCR0225-4.Sample.ASC
24/02/08
11:12:46.00
24/02/08
11:12:46.00
Vinicio Soto Monge
C. chrysopedila Det: A. Solís COSTA RICA  Prov Puntarenas Coto Brus. Z. P  Las Tablas Estación Biol. Las Alturas. 1500 m. 15-24 Mar 1999. R. barton de luz L_S_322700_591400 #52438 INB0003120139 INBIOCRI Costa Rica. Sin élitros
250,000000
1
Lambda 1050
1050L1511233
PerkinElmer UV WinLab 6.3.2.0749 / 2.02.05 Lambda 900 UV/VIS/NIR, Aug  7 2015 09:38:08

0
0
3350/servo 860,8/2
0
0
UV/VIS
1
1
1
DoubleDePol,CommonBeamDepol,RBeamAtt,SBeamAtt,60mm sphere, WB InGaAs Detector
0
0
0
0
Program
Program
3350/servo 860,8/2
3350/0,2 860,8/0,2
3350/0,2 860,8/0,2
0
15.00
 
 
 
0
 
860,8
319,2
860,8
Front
100
on
S:100 R:100
0
0
0
0
 
0
 
 
 
0
 
 
0
0
0
0
0
 
 
 
 
0
0


0
0
#HDR
-1
-1
#GR
nm
%R
1.0
0.0
2500,000000
-1,000000
2251
8
13,302700
0,951000
#DATA

250.000000	nan
251.000000	nan
252.000000	nan
253.000000	nan
254.000000	nan
255.000000	nan
256.000000	nan
257.000000	nan
258.000000	nan
259.000000	3.423669
260.000000	3.405698
261.000000	3.384035
262.000000	3.361265
263.000000	3.336508
264.000000	3.310686
265.000000	3.281215
266.000000	3.251579
267.000000	3.223055
268.000000	3.192395
269.000000	3.165144
270.000000	3.140039
271.000000	3.114127
272.000000	3.088924
273.000000	3.065390
274.000000	3.043623
275.000000	3.023227
276.000000	3.006891
277.000000	2.989204
278.000000	2.973622
279.000000	2.961152
280.000000	2.944916
281.000000	2.932604
282.000000	2.922919
283.000000	2.913064
284.000000	2.906610
285.000000	2.904082
286.000000	2.900009
287.000000	2.896390
288.000000	2.896445
289.000000	2.896474
290.000000	2.900988
291.000000	2.908607
292.000000	2.913005
293.000000	2.921806
294.000000	2.932233
295.000000	2.940776
296.000000	2.950905
297.000000	2.966511
298.000000	2.981904
299.000000	2.997260
300.000000	3.011686
301.000000	3.022836
302.000000	3.039096
303.000000	3.050447
304.000000	3.062296
305.000000	3.072788
306.000000	3.083319
307.000000	3.089061
308.000000	3.096296
309.000000	3.100140
310.000000	3.111609
311.000000	3.118947
312.000000	3.124959
313.000000	3.134894
314.000000	3.138247
315.000000	3.147984
316.000000	3.157158
317.000000	3.199858
318.000000	3.241736
319.000000	3.273015
320.000000	3.290312
321.000000	3.309894
322.000000	3.335786
323.000000	3.358299
324.000000	3.382125
325.000000	3.404011
326.000000	3.421921
327.000000	3.404226
328.000000	3.391325
329.000000	3.388296
330.000000	3.388682
331.000000	3.395284
332.000000	3.389026
333.000000	3.385455
334.000000	3.380365
335.000000	3.376129
336.000000	3.375347
337.000000	3.375608
338.000000	3.369061
339.000000	3.371373
340.000000	3.375515
341.000000	3.375432
342.000000	3.378322
343.000000	3.380000
344.000000	3.381073
345.000000	3.382904
346.000000	3.385209
347.000000	3.389690
348.000000	3.397079
349.000000	3.394734
350.000000	3.394049
351.000000	3.397166
352.000000	3.404448
353.000000	3.409417
354.000000	3.423696
355.000000	3.432261
356.000000	3.442279
357.000000	3.454009
358.000000	3.462793
359.000000	3.474224
360.000000	3.485635
361.000000	3.493220
362.000000	3.502742
363.000000	3.514103
364.000000	3.522796
365.000000	3.532398
366.000000	3.539019
367.000000	3.543211
368.000000	3.548408
369.000000	3.555963
370.000000	3.567048
371.000000	3.576054
372.000000	3.576998
373.000000	3.578513
374.000000	3.577419
375.000000	3.581633
376.000000	3.588142
377.000000	3.581813
378.000000	3.574785
379.000000	3.566581
380.000000	3.556134
381.000000	3.547657
382.000000	3.543879
383.000000	3.540480
384.000000	3.537758
385.000000	3.531263
386.000000	3.525317
387.000000	3.533167
388.000000	3.540432
389.000000	3.547681
390.000000	3.555185
391.000000	3.562612
392.000000	3.570120
393.000000	3.577064
394.000000	3.583708
395.000000	3.590689
396.000000	3.597242
397.000000	3.603629
398.000000	3.610177
399.000000	3.616809
400.000000	3.623667
401.000000	3.630283
402.000000	3.636358
403.000000	3.643346
404.000000	3.650563
405.000000	3.657214
406.000000	3.663536
407.000000	3.670301
408.000000	3.677136
409.000000	3.684041
410.000000	3.690341
411.000000	3.697496
412.000000	3.705390
413.000000	3.712212
414.000000	3.719200
415.000000	3.726698
416.000000	3.734735
417.000000	3.742388
418.000000	3.749708
419.000000	3.757031
420.000000	3.764847
421.000000	3.772252
422.000000	3.779583
423.000000	3.788087
424.000000	3.796683
425.000000	3.804974
426.000000	3.812922
427.000000	3.821305
428.000000	3.830683
429.000000	3.840166
430.000000	3.849139
431.000000	3.858676
432.000000	3.868447
433.000000	3.877757
434.000000	3.887365
435.000000	3.897387
436.000000	3.907341
437.000000	3.917471
438.000000	3.927644
439.000000	3.938274
440.000000	3.949240
441.000000	3.960150
442.000000	3.971214
443.000000	3.982708
444.000000	3.993871
445.000000	4.004785
446.000000	4.016077
447.000000	4.026966
448.000000	4.037653
449.000000	4.047888
450.000000	4.058022
451.000000	4.068303
452.000000	4.077807
453.000000	4.086791
454.000000	4.096149
455.000000	4.105964
456.000000	4.115878
457.000000	4.125711
458.000000	4.135256
459.000000	4.145146
460.000000	4.155516
461.000000	4.165749
462.000000	4.176671
463.000000	4.188127
464.000000	4.199347
465.000000	4.210548
466.000000	4.221789
467.000000	4.233345
468.000000	4.245168
469.000000	4.256934
470.000000	4.268157
471.000000	4.279503
472.000000	4.290995
473.000000	4.302553
474.000000	4.314258
475.000000	4.325907
476.000000	4.337802
477.000000	4.349956
478.000000	4.362297
479.000000	4.374938
480.000000	4.388115
481.000000	4.401141
482.000000	4.413966
483.000000	4.427038
484.000000	4.440870
485.000000	4.455440
486.000000	4.470163
487.000000	4.484999
488.000000	4.500062
489.000000	4.515487
490.000000	4.530876
491.000000	4.546849
492.000000	4.563812
493.000000	4.581144
494.000000	4.598439
495.000000	4.615656
496.000000	4.632533
497.000000	4.649776
498.000000	4.667515
499.000000	4.685581
500.000000	4.703743
501.000000	4.722180
502.000000	4.740369
503.000000	4.758581
504.000000	4.776992
505.000000	4.795787
506.000000	4.815354
507.000000	4.834952
508.000000	4.854649
509.000000	4.874180
510.000000	4.894392
511.000000	4.914247
512.000000	4.934326
513.000000	4.954401
514.000000	4.974396
515.000000	4.994427
516.000000	5.014390
517.000000	5.034648
518.000000	5.055107
519.000000	5.076001
520.000000	5.096694
521.000000	5.118146
522.000000	5.140085
523.000000	5.162401
524.000000	5.185311
525.000000	5.208766
526.000000	5.232824
527.000000	5.257239
528.000000	5.282073
529.000000	5.307378
530.000000	5.333282
531.000000	5.359906
532.000000	5.386834
533.000000	5.414236
534.000000	5.441980
535.000000	5.469524
536.000000	5.497236
537.000000	5.525151
538.000000	5.553316
539.000000	5.581044
540.000000	5.609478
541.000000	5.638082
542.000000	5.666216
543.000000	5.694086
544.000000	5.722068
545.000000	5.750101
546.000000	5.778167
547.000000	5.806163
548.000000	5.834167
549.000000	5.862459
550.000000	5.890497
551.000000	5.917708
552.000000	5.945635
553.000000	5.973573
554.000000	6.001002
555.000000	6.028663
556.000000	6.055961
557.000000	6.083101
558.000000	6.110359
559.000000	6.137531
560.000000	6.157845
561.000000	6.177222
562.000000	6.195825
563.000000	6.214724
564.000000	6.233495
565.000000	6.252245
566.000000	6.271348
567.000000	6.290914
568.000000	6.309975
569.000000	6.328795
570.000000	6.353930
571.000000	6.380406
572.000000	6.407633
573.000000	6.433979
574.000000	6.460457
575.000000	6.487816
576.000000	6.515250
577.000000	6.541916
578.000000	6.568535
579.000000	6.595649
580.000000	6.622983
581.000000	6.650330
582.000000	6.677385
583.000000	6.705039
584.000000	6.733218
585.000000	6.760684
586.000000	6.787533
587.000000	6.815276
588.000000	6.842815
589.000000	6.871022
590.000000	6.898428
591.000000	6.926296
592.000000	6.953941
593.000000	6.981775
594.000000	7.010325
595.000000	7.039007
596.000000	7.067515
597.000000	7.096297
598.000000	7.125509
599.000000	7.153934
600.000000	7.183943
601.000000	7.213562
602.000000	7.243109
603.000000	7.272392
604.000000	7.301169
605.000000	7.329926
606.000000	7.359539
607.000000	7.388241
608.000000	7.418019
609.000000	7.447702
610.000000	7.477077
611.000000	7.506213
612.000000	7.536180
613.000000	7.567269
614.000000	7.597519
615.000000	7.627490
616.000000	7.657817
617.000000	7.688138
618.000000	7.718200
619.000000	7.748914
620.000000	7.779259
621.000000	7.809710
622.000000	7.840584
623.000000	7.870489
624.000000	7.901329
625.000000	7.933195
626.000000	7.965680
627.000000	7.998452
628.000000	8.031504
629.000000	8.065030
630.000000	8.099649
631.000000	8.135585
632.000000	8.171462
633.000000	8.207454
634.000000	8.244821
635.000000	8.282730
636.000000	8.320646
637.000000	8.359923
638.000000	8.399806
639.000000	8.440082
640.000000	8.481273
641.000000	8.523669
642.000000	8.566505
643.000000	8.611171
644.000000	8.655954
645.000000	8.702066
646.000000	8.748434
647.000000	8.795763
648.000000	8.843990
649.000000	8.893073
650.000000	8.942856
651.000000	8.991744
652.000000	9.042162
653.000000	9.092384
654.000000	9.143712
655.000000	9.194789
656.000000	9.245404
657.000000	9.296925
658.000000	9.348477
659.000000	9.400496
660.000000	9.452024
661.000000	9.505328
662.000000	9.556502
663.000000	9.609030
664.000000	9.660128
665.000000	9.711922
666.000000	9.764601
667.000000	9.816397
668.000000	9.867888
669.000000	9.919453
670.000000	9.971096
671.000000	10.021922
672.000000	10.073933
673.000000	10.124799
674.000000	10.176474
675.000000	10.227615
676.000000	10.278273
677.000000	10.329483
678.000000	10.381219
679.000000	10.431451
680.000000	10.481169
681.000000	10.531016
682.000000	10.580805
683.000000	10.631261
684.000000	10.682504
685.000000	10.733242
686.000000	10.785514
687.000000	10.836358
688.000000	10.886765
689.000000	10.938119
690.000000	10.989581
691.000000	11.040491
692.000000	11.091890
693.000000	11.142524
694.000000	11.192801
695.000000	11.244363
696.000000	11.294832
697.000000	11.346223
698.000000	11.397323
699.000000	11.448675
700.000000	11.500579
701.000000	11.552804
702.000000	11.605263
703.000000	11.658189
704.000000	11.710838
705.000000	11.762683
706.000000	11.813696
707.000000	11.864740
708.000000	11.916328
709.000000	11.968788
710.000000	12.022045
711.000000	12.073996
712.000000	12.124474
713.000000	12.176396
714.000000	12.227399
715.000000	12.278005
716.000000	12.331339
717.000000	12.384193
718.000000	12.436404
719.000000	12.488660
720.000000	12.539267
721.000000	12.591211
722.000000	12.644755
723.000000	12.697206
724.000000	12.750577
725.000000	12.804670
726.000000	12.856572
727.000000	12.908678
728.000000	12.961391
729.000000	13.013771
730.000000	13.066901
731.000000	13.119805
732.000000	13.172207
733.000000	13.223226
734.000000	13.274644
735.000000	13.325273
736.000000	13.376509
737.000000	13.427832
738.000000	13.478753
739.000000	13.529946
740.000000	13.582282
741.000000	13.634678
742.000000	13.687405
743.000000	13.741673
744.000000	13.795687
745.000000	13.849670
746.000000	13.903650
747.000000	13.958560
748.000000	14.013806
749.000000	14.066600
750.000000	14.117401
751.000000	14.169426
752.000000	14.220685
753.000000	14.272323
754.000000	14.324256
755.000000	14.375706
756.000000	14.428661
757.000000	14.482335
758.000000	14.536279
759.000000	14.591073
760.000000	14.647090
761.000000	14.701305
762.000000	14.755639
763.000000	14.809698
764.000000	14.862990
765.000000	14.916879
766.000000	14.970276
767.000000	15.021545
768.000000	15.072295
769.000000	15.122844
770.000000	15.173684
771.000000	15.224925
772.000000	15.277549
773.000000	15.330025
774.000000	15.381463
775.000000	15.432836
776.000000	15.484977
777.000000	15.538415
778.000000	15.591003
779.000000	15.643190
780.000000	15.693927
781.000000	15.745542
782.000000	15.798428
783.000000	15.849586
784.000000	15.901934
785.000000	15.952983
786.000000	16.003446
787.000000	16.053274
788.000000	16.105920
789.000000	16.161999
790.000000	16.218333
791.000000	16.274570
792.000000	16.326937
793.000000	16.381152
794.000000	16.434241
795.000000	16.488311
796.000000	16.542437
797.000000	16.595325
798.000000	16.646720
799.000000	16.697105
800.000000	16.746887
801.000000	16.794558
802.000000	16.843619
803.000000	16.893625
804.000000	16.946013
805.000000	16.998846
806.000000	17.049628
807.000000	17.101957
808.000000	17.155261
809.000000	17.206156
810.000000	17.259711
811.000000	17.314049
812.000000	17.370266
813.000000	17.423066
814.000000	17.470970
815.000000	17.520718
816.000000	17.573416
817.000000	17.623170
818.000000	17.674099
819.000000	17.725495
820.000000	17.776186
821.000000	17.823020
822.000000	17.866138
823.000000	17.911592
824.000000	17.961934
825.000000	18.008748
826.000000	18.053572
827.000000	18.097742
828.000000	18.140392
829.000000	18.182639
830.000000	18.221411
831.000000	18.263907
832.000000	18.309833
833.000000	18.353261
834.000000	18.391719
835.000000	18.428418
836.000000	18.461702
837.000000	18.501692
838.000000	18.542038
839.000000	18.579651
840.000000	18.612079
841.000000	18.648513
842.000000	18.679245
843.000000	18.715291
844.000000	18.756058
845.000000	18.791794
846.000000	18.828345
847.000000	18.856471
848.000000	18.880569
849.000000	18.905840
850.000000	18.935265
851.000000	18.957588
852.000000	18.994278
853.000000	19.019922
854.000000	19.047305
855.000000	19.061687
856.000000	19.093535
857.000000	19.145946
858.000000	19.221156
859.000000	19.307345
860.000000	19.397031
861.000000	19.491605
862.000000	19.577440
863.000000	19.671000
864.000000	19.762178
865.000000	19.872258
866.000000	19.966814
867.000000	20.044294
868.000000	20.101340
869.000000	20.148177
870.000000	20.192640
871.000000	20.234530
872.000000	20.273097
873.000000	20.310367
874.000000	20.345753
875.000000	20.381487
876.000000	20.415060
877.000000	20.449430
878.000000	20.482113
879.000000	20.513547
880.000000	20.545160
881.000000	20.576860
882.000000	20.607480
883.000000	20.638093
884.000000	20.666980
885.000000	20.694960
886.000000	20.722640
887.000000	20.748337
888.000000	20.772723
889.000000	20.797220
890.000000	20.821230
891.000000	20.843333
892.000000	20.865357
893.000000	20.886457
894.000000	20.907273
895.000000	20.927913
896.000000	20.948360
897.000000	20.966343
898.000000	20.984777
899.000000	21.002943
900.000000	21.022400
901.000000	21.041130
902.000000	21.058140
903.000000	21.073643
904.000000	21.089367
905.000000	21.106907
906.000000	21.124043
907.000000	21.144077
908.000000	21.163737
909.000000	21.182973
910.000000	21.199917
911.000000	21.219577
912.000000	21.241153
913.000000	21.262557
914.000000	21.284053
915.000000	21.303077
916.000000	21.322950
917.000000	21.342453
918.000000	21.362130
919.000000	21.382970
920.000000	21.405833
921.000000	21.426643
922.000000	21.447520
923.000000	21.469560
924.000000	21.491170
925.000000	21.513803
926.000000	21.535943
927.000000	21.556013
928.000000	21.577607
929.000000	21.597767
930.000000	21.617603
931.000000	21.637563
932.000000	21.657497
933.000000	21.678050
934.000000	21.698273
935.000000	21.718413
936.000000	21.737187
937.000000	21.757450
938.000000	21.776497
939.000000	21.794870
940.000000	21.811247
941.000000	21.827130
942.000000	21.841643
943.000000	21.856920
944.000000	21.872027
945.000000	21.887617
946.000000	21.904670
947.000000	21.921710
948.000000	21.937607
949.000000	21.955400
950.000000	21.973463
951.000000	21.991940
952.000000	22.011567
953.000000	22.029257
954.000000	22.046937
955.000000	22.064180
956.000000	22.081307
957.000000	22.098017
958.000000	22.114837
959.000000	22.131920
960.000000	22.149060
961.000000	22.165783
962.000000	22.181740
963.000000	22.198547
964.000000	22.215743
965.000000	22.231433
966.000000	22.246130
967.000000	22.260403
968.000000	22.275917
969.000000	22.289240
970.000000	22.303477
971.000000	22.317157
972.000000	22.331713
973.000000	22.345117
974.000000	22.358327
975.000000	22.372837
976.000000	22.388343
977.000000	22.405117
978.000000	22.420220
979.000000	22.435597
980.000000	22.450830
981.000000	22.465810
982.000000	22.480947
983.000000	22.497407
984.000000	22.513820
985.000000	22.528853
986.000000	22.543747
987.000000	22.557597
988.000000	22.572670
989.000000	22.588710
990.000000	22.604397
991.000000	22.620903
992.000000	22.635913
993.000000	22.649923
994.000000	22.665077
995.000000	22.679480
996.000000	22.693153
997.000000	22.706177
998.000000	22.719000
999.000000	22.732100
1000.000000	22.744320
1001.000000	22.757217
1002.000000	22.771287
1003.000000	22.785337
1004.000000	22.797600
1005.000000	22.809793
1006.000000	22.823957
1007.000000	22.840760
1008.000000	22.856643
1009.000000	22.870863
1010.000000	22.885847
1011.000000	22.900237
1012.000000	22.913027
1013.000000	22.924770
1014.000000	22.937360
1015.000000	22.952157
1016.000000	22.966053
1017.000000	22.977327
1018.000000	22.988497
1019.000000	23.001350
1020.000000	23.014390
1021.000000	23.027937
1022.000000	23.042847
1023.000000	23.058067
1024.000000	23.073257
1025.000000	23.088053
1026.000000	23.102663
1027.000000	23.118303
1028.000000	23.134733
1029.000000	23.151797
1030.000000	23.168680
1031.000000	23.184720
1032.000000	23.202053
1033.000000	23.220400
1034.000000	23.238300
1035.000000	23.255480
1036.000000	23.272367
1037.000000	23.289400
1038.000000	23.305567
1039.000000	23.321293
1040.000000	23.337813
1041.000000	23.354227
1042.000000	23.368323
1043.000000	23.381833
1044.000000	23.397160
1045.000000	23.413157
1046.000000	23.429300
1047.000000	23.445433
1048.000000	23.461953
1049.000000	23.478037
1050.000000	23.493570
1051.000000	23.509373
1052.000000	23.526347
1053.000000	23.544593
1054.000000	23.561803
1055.000000	23.579240
1056.000000	23.597367
1057.000000	23.614600
1058.000000	23.632137
1059.000000	23.649580
1060.000000	23.666790
1061.000000	23.684430
1062.000000	23.701677
1063.000000	23.718310
1064.000000	23.734307
1065.000000	23.750033
1066.000000	23.766017
1067.000000	23.781877
1068.000000	23.798460
1069.000000	23.815753
1070.000000	23.832893
1071.000000	23.849310
1072.000000	23.866037
1073.000000	23.883070
1074.000000	23.900990
1075.000000	23.918430
1076.000000	23.936120
1077.000000	23.953417
1078.000000	23.969747
1079.000000	23.985467
1080.000000	24.000743
1081.000000	24.017670
1082.000000	24.034663
1083.000000	24.050300
1084.000000	24.065050
1085.000000	24.079637
1086.000000	24.093113
1087.000000	24.108320
1088.000000	24.124150
1089.000000	24.140447
1090.000000	24.166173
1091.000000	24.195073
1092.000000	24.223887
1093.000000	24.253360
1094.000000	24.282323
1095.000000	24.311437
1096.000000	24.339830
1097.000000	24.367470
1098.000000	24.393560
1099.000000	24.418313
1100.000000	24.434300
1101.000000	24.445803
1102.000000	24.456663
1103.000000	24.467367
1104.000000	24.478187
1105.000000	24.488683
1106.000000	24.498703
1107.000000	24.508653
1108.000000	24.519527
1109.000000	24.530717
1110.000000	24.541423
1111.000000	24.551570
1112.000000	24.561307
1113.000000	24.570057
1114.000000	24.578397
1115.000000	24.587073
1116.000000	24.596223
1117.000000	24.605663
1118.000000	24.614047
1119.000000	24.622013
1120.000000	24.629130
1121.000000	24.637363
1122.000000	24.645900
1123.000000	24.654973
1124.000000	24.663003
1125.000000	24.670477
1126.000000	24.676590
1127.000000	24.680823
1128.000000	24.684667
1129.000000	24.687083
1130.000000	24.687097
1131.000000	24.682390
1132.000000	24.675553
1133.000000	24.668667
1134.000000	24.664897
1135.000000	24.659923
1136.000000	24.651457
1137.000000	24.638930
1138.000000	24.625763
1139.000000	24.610883
1140.000000	24.599370
1141.000000	24.588203
1142.000000	24.576767
1143.000000	24.562750
1144.000000	24.547913
1145.000000	24.533087
1146.000000	24.521870
1147.000000	24.513963
1148.000000	24.506497
1149.000000	24.500193
1150.000000	24.491567
1151.000000	24.485813
1152.000000	24.479310
1153.000000	24.474173
1154.000000	24.465120
1155.000000	24.455650
1156.000000	24.444830
1157.000000	24.432657
1158.000000	24.418647
1159.000000	24.402853
1160.000000	24.386107
1161.000000	24.365670
1162.000000	24.344777
1163.000000	24.321710
1164.000000	24.298500
1165.000000	24.273703
1166.000000	24.246337
1167.000000	24.219887
1168.000000	24.192450
1169.000000	24.166747
1170.000000	24.140433
1171.000000	24.116453
