PE UV       SUBTECH     SPECTRUM    ASCII       PEDS        4.00        
   -1
INBUCR0435-4.Sample.ASC
24/02/09
16:00:33.00
24/02/09
16:00:33.00
Vinicio Soto Monge
Chrysina limbata. COSTA RICA. Prov. Cartago. Tayutic, Platanillo. 980-1000 m. 15 de Nov 2002, Rocío Vives. Manual (Aplastado sobre la calle). L. N. 199600 585500 #72176. INB0003554368 INBIOCRI COSTA RICA. Falta élitro izquierdo
250,000000
1
Lambda 1050
1050L1511233
PerkinElmer UV WinLab 6.3.2.0749 / 2.02.05 Lambda 900 UV/VIS/NIR, Aug  7 2015 09:38:08

0
0
3350/servo 860,8/2
0
0
UV/VIS
1
1
1
DoubleDePol,CommonBeamDepol,RBeamAtt,SBeamAtt,60mm sphere, WB InGaAs Detector
0
0
0
0
Program
Program
3350/servo 860,8/2
3350/0,2 860,8/0,2
3350/0,2 860,8/0,2
0
15.00
 
 
 
0
 
860,8
319,2
860,8
Front
100
on
S:100 R:100
0
0
0
0
 
0
 
 
 
0
 
 
0
0
0
0
0
 
 
 
 
0
0


0
0
#HDR
-1
-1
#GR
nm
%R
1.0
0.0
2500,000000
-1,000000
2251
8
19,611200
1,781400
#DATA

250.000000	nan
251.000000	nan
252.000000	nan
253.000000	nan
254.000000	nan
255.000000	nan
256.000000	nan
257.000000	nan
258.000000	nan
259.000000	4.082499
260.000000	4.079030
261.000000	4.078121
262.000000	4.075090
263.000000	4.071299
264.000000	4.067819
265.000000	4.067420
266.000000	4.067001
267.000000	4.063952
268.000000	4.059825
269.000000	4.056367
270.000000	4.053996
271.000000	4.050754
272.000000	4.048270
273.000000	4.046092
274.000000	4.044527
275.000000	4.039799
276.000000	4.035750
277.000000	4.033631
278.000000	4.031713
279.000000	4.029961
280.000000	4.029055
281.000000	4.028812
282.000000	4.027123
283.000000	4.025758
284.000000	4.024403
285.000000	4.026274
286.000000	4.025824
287.000000	4.024654
288.000000	4.025408
289.000000	4.024108
290.000000	4.023434
291.000000	4.020430
292.000000	4.021243
293.000000	4.020415
294.000000	4.019063
295.000000	4.016383
296.000000	4.015183
297.000000	4.013794
298.000000	4.012423
299.000000	4.012765
300.000000	4.012198
301.000000	4.011568
302.000000	4.011310
303.000000	4.011933
304.000000	4.012117
305.000000	4.010668
306.000000	4.007721
307.000000	4.008718
308.000000	4.006879
309.000000	4.006956
310.000000	4.004650
311.000000	4.005120
312.000000	4.002231
313.000000	4.001421
314.000000	4.001653
315.000000	4.001999
316.000000	4.006844
317.000000	4.034567
318.000000	4.059994
319.000000	4.085982
320.000000	4.101070
321.000000	4.121263
322.000000	4.146396
323.000000	4.164359
324.000000	4.187771
325.000000	4.204803
326.000000	4.228311
327.000000	4.223550
328.000000	4.214904
329.000000	4.208206
330.000000	4.213330
331.000000	4.208184
332.000000	4.195688
333.000000	4.200937
334.000000	4.200084
335.000000	4.210683
336.000000	4.239376
337.000000	4.275638
338.000000	4.321766
339.000000	4.366131
340.000000	4.412372
341.000000	4.467701
342.000000	4.531444
343.000000	4.585280
344.000000	4.645304
345.000000	4.735136
346.000000	4.804517
347.000000	4.876980
348.000000	4.952118
349.000000	5.034014
350.000000	5.151637
351.000000	5.278238
352.000000	5.408039
353.000000	5.579453
354.000000	5.756599
355.000000	5.911609
356.000000	6.070176
357.000000	6.261862
358.000000	6.461517
359.000000	6.699013
360.000000	6.913838
361.000000	7.129948
362.000000	7.380523
363.000000	7.604237
364.000000	7.832502
365.000000	8.088603
366.000000	8.348883
367.000000	8.586268
368.000000	8.852555
369.000000	9.087503
370.000000	9.347824
371.000000	9.603928
372.000000	9.825263
373.000000	10.042896
374.000000	10.286411
375.000000	10.501107
376.000000	10.731425
377.000000	10.919521
378.000000	11.073935
379.000000	11.249360
380.000000	11.394033
381.000000	11.535935
382.000000	11.677805
383.000000	11.841036
384.000000	11.968694
385.000000	12.091077
386.000000	12.189203
387.000000	12.316326
388.000000	12.438135
389.000000	12.527297
390.000000	12.611751
391.000000	12.718631
392.000000	12.820539
393.000000	12.889877
394.000000	12.955127
395.000000	13.016376
396.000000	13.072129
397.000000	13.123220
398.000000	13.171791
399.000000	13.215935
400.000000	13.256756
401.000000	13.265088
402.000000	13.268101
403.000000	13.267577
404.000000	13.262283
405.000000	13.225031
406.000000	13.184032
407.000000	13.139340
408.000000	13.089755
409.000000	13.036009
410.000000	12.977781
411.000000	12.915964
412.000000	12.851975
413.000000	12.758164
414.000000	12.662388
415.000000	12.593156
416.000000	12.525025
417.000000	12.458978
418.000000	12.395999
419.000000	12.338555
420.000000	12.287182
421.000000	12.243969
422.000000	12.208868
423.000000	12.238090
424.000000	12.277156
425.000000	12.325498
426.000000	12.382138
427.000000	12.445699
428.000000	12.515729
429.000000	12.590598
430.000000	12.695754
431.000000	12.801851
432.000000	12.907454
433.000000	12.982796
434.000000	13.054116
435.000000	13.120664
436.000000	13.180400
437.000000	13.232441
438.000000	13.275914
439.000000	13.310026
440.000000	13.308212
441.000000	13.297403
442.000000	13.277278
443.000000	13.219991
444.000000	13.154758
445.000000	13.084286
446.000000	13.010465
447.000000	12.935354
448.000000	12.861102
449.000000	12.789444
450.000000	12.721854
451.000000	12.660396
452.000000	12.607364
453.000000	12.592071
454.000000	12.587823
455.000000	12.593648
456.000000	12.608858
457.000000	12.632695
458.000000	12.663459
459.000000	12.728045
460.000000	12.797332
461.000000	12.869652
462.000000	12.942475
463.000000	13.014048
464.000000	13.081865
465.000000	13.171863
466.000000	13.256111
467.000000	13.333869
468.000000	13.404376
469.000000	13.439136
470.000000	13.465984
471.000000	13.457749
472.000000	13.444719
473.000000	13.428370
474.000000	13.410396
475.000000	13.365512
476.000000	13.321745
477.000000	13.280524
478.000000	13.244533
479.000000	13.214667
480.000000	13.190296
481.000000	13.226775
482.000000	13.267153
483.000000	13.312308
484.000000	13.363527
485.000000	13.420456
486.000000	13.510040
487.000000	13.603415
488.000000	13.698785
489.000000	13.795070
490.000000	13.892493
491.000000	13.964464
492.000000	14.038831
493.000000	14.112963
494.000000	14.184945
495.000000	14.253870
496.000000	14.292455
497.000000	14.328707
498.000000	14.363657
499.000000	14.398723
500.000000	14.434773
501.000000	14.470955
502.000000	14.507821
503.000000	14.545674
504.000000	14.585105
505.000000	14.654163
506.000000	14.724895
507.000000	14.797062
508.000000	14.869901
509.000000	14.942202
510.000000	15.013306
511.000000	15.110246
512.000000	15.205165
513.000000	15.298431
514.000000	15.389516
515.000000	15.449433
516.000000	15.505967
517.000000	15.559505
518.000000	15.637834
519.000000	15.713900
520.000000	15.787456
521.000000	15.831894
522.000000	15.874651
523.000000	15.916173
524.000000	15.956811
525.000000	15.997811
526.000000	16.039019
527.000000	16.080504
528.000000	16.093953
529.000000	16.107413
530.000000	16.121517
531.000000	16.135567
532.000000	16.149595
533.000000	16.191951
534.000000	16.234252
535.000000	16.275731
536.000000	16.317346
537.000000	16.358302
538.000000	16.400121
539.000000	16.442165
540.000000	16.484052
541.000000	16.526858
542.000000	16.570020
543.000000	16.585023
544.000000	16.599423
545.000000	16.613820
546.000000	16.627450
547.000000	16.640761
548.000000	16.652747
549.000000	16.662743
550.000000	16.672262
551.000000	16.680359
552.000000	16.686362
553.000000	16.691310
554.000000	16.695028
555.000000	16.698197
556.000000	16.700987
557.000000	16.702992
558.000000	16.704950
559.000000	16.708094
560.000000	16.691682
561.000000	16.671319
562.000000	16.651062
563.000000	16.629981
564.000000	16.609262
565.000000	16.587301
566.000000	16.564843
567.000000	16.541442
568.000000	16.516966
569.000000	16.490875
570.000000	16.481933
571.000000	16.474755
572.000000	16.465899
573.000000	16.456135
574.000000	16.443953
575.000000	16.431022
576.000000	16.389103
577.000000	16.347908
578.000000	16.306235
579.000000	16.264375
580.000000	16.223885
581.000000	16.183791
582.000000	16.144450
583.000000	16.104763
584.000000	16.066065
585.000000	16.025974
586.000000	16.013813
587.000000	15.999770
588.000000	15.984084
589.000000	15.966439
590.000000	15.945964
591.000000	15.925241
592.000000	15.902175
593.000000	15.878154
594.000000	15.853268
595.000000	15.829420
596.000000	15.777079
597.000000	15.725807
598.000000	15.676774
599.000000	15.629185
600.000000	15.584148
601.000000	15.539039
602.000000	15.497360
603.000000	15.457501
604.000000	15.419002
605.000000	15.380287
606.000000	15.369170
607.000000	15.356930
608.000000	15.342725
609.000000	15.328113
610.000000	15.311833
611.000000	15.296018
612.000000	15.278001
613.000000	15.259764
614.000000	15.242268
615.000000	15.226288
616.000000	15.212539
617.000000	15.202067
618.000000	15.194144
619.000000	15.188661
620.000000	15.185404
621.000000	15.184259
622.000000	15.185940
623.000000	15.188582
624.000000	15.190421
625.000000	15.191419
626.000000	15.191002
627.000000	15.189498
628.000000	15.187434
629.000000	15.184281
630.000000	15.180032
631.000000	15.175014
632.000000	15.170200
633.000000	15.167068
634.000000	15.166373
635.000000	15.169042
636.000000	15.175439
637.000000	15.184424
638.000000	15.196370
639.000000	15.211518
640.000000	15.230012
641.000000	15.249805
642.000000	15.271127
643.000000	15.291239
644.000000	15.310752
645.000000	15.328734
646.000000	15.344178
647.000000	15.357075
648.000000	15.367071
649.000000	15.375168
650.000000	15.381744
651.000000	15.417005
652.000000	15.451754
653.000000	15.488316
654.000000	15.526895
655.000000	15.567550
656.000000	15.611300
657.000000	15.658706
658.000000	15.709757
659.000000	15.762248
660.000000	15.816838
661.000000	15.843135
662.000000	15.869096
663.000000	15.894279
664.000000	15.918042
665.000000	15.940669
666.000000	15.989812
667.000000	16.036539
668.000000	16.081407
669.000000	16.126888
670.000000	16.170846
671.000000	16.216020
672.000000	16.262832
673.000000	16.311197
674.000000	16.361765
675.000000	16.414247
676.000000	16.442312
677.000000	16.500222
678.000000	16.560588
679.000000	16.621532
680.000000	16.684057
681.000000	16.746162
682.000000	16.807480
683.000000	16.868498
684.000000	16.927065
685.000000	16.984665
686.000000	17.038757
687.000000	17.063411
688.000000	17.086344
689.000000	17.135993
690.000000	17.185600
691.000000	17.234467
692.000000	17.283939
693.000000	17.333698
694.000000	17.385312
695.000000	17.438430
696.000000	17.493207
697.000000	17.549969
698.000000	17.607876
699.000000	17.637984
700.000000	17.695524
701.000000	17.753597
702.000000	17.810782
703.000000	17.866645
704.000000	17.921293
705.000000	17.973774
706.000000	18.024378
707.000000	18.073722
708.000000	18.121838
709.000000	18.169286
710.000000	18.188273
711.000000	18.206859
712.000000	18.225202
713.000000	18.244290
714.000000	18.290799
715.000000	18.338395
716.000000	18.387223
717.000000	18.435348
718.000000	18.484278
719.000000	18.533898
720.000000	18.583909
721.000000	18.634156
722.000000	18.683940
723.000000	18.732792
724.000000	18.753784
725.000000	18.772563
726.000000	18.790047
727.000000	18.808211
728.000000	18.825696
729.000000	18.841727
730.000000	18.883976
731.000000	18.925845
732.000000	18.967733
733.000000	19.010036
734.000000	19.052542
735.000000	19.095712
736.000000	19.140381
737.000000	19.184325
738.000000	19.226039
739.000000	19.267234
740.000000	19.282687
741.000000	19.298221
742.000000	19.313407
743.000000	19.328512
744.000000	19.343805
745.000000	19.359574
746.000000	19.400684
747.000000	19.441875
748.000000	19.485661
749.000000	19.530697
750.000000	19.574275
751.000000	19.618222
752.000000	19.663387
753.000000	19.707935
754.000000	19.753161
755.000000	19.798965
756.000000	19.818704
757.000000	19.838518
758.000000	19.856683
759.000000	19.873633
760.000000	19.891919
761.000000	19.910293
762.000000	19.926782
763.000000	19.943362
764.000000	19.958896
765.000000	20.001247
766.000000	20.042815
767.000000	20.083396
768.000000	20.125097
769.000000	20.169881
770.000000	20.213094
771.000000	20.253561
772.000000	20.296405
773.000000	20.340539
774.000000	20.383877
775.000000	20.399064
776.000000	20.414691
777.000000	20.432694
778.000000	20.449822
779.000000	20.464758
780.000000	20.479986
781.000000	20.494740
782.000000	20.507647
783.000000	20.520568
784.000000	20.534510
785.000000	20.549642
786.000000	20.592683
787.000000	20.635048
788.000000	20.678844
789.000000	20.722486
790.000000	20.766287
791.000000	20.811353
792.000000	20.858914
793.000000	20.906171
794.000000	20.953588
795.000000	21.003360
796.000000	21.022984
797.000000	21.039512
798.000000	21.056392
799.000000	21.073339
800.000000	21.091570
801.000000	21.110319
802.000000	21.155972
803.000000	21.201283
804.000000	21.246389
805.000000	21.289718
806.000000	21.336940
807.000000	21.385619
808.000000	21.433890
809.000000	21.487293
810.000000	21.539854
811.000000	21.593095
812.000000	21.618980
813.000000	21.644136
814.000000	21.667516
815.000000	21.690751
816.000000	21.714432
817.000000	21.737858
818.000000	21.760566
819.000000	21.777757
820.000000	21.794661
821.000000	21.809312
822.000000	21.822433
823.000000	21.838446
824.000000	21.852833
825.000000	21.867304
826.000000	21.878768
827.000000	21.919897
828.000000	21.961178
829.000000	21.995669
830.000000	22.032170
831.000000	22.074130
832.000000	22.113971
833.000000	22.151705
834.000000	22.190964
835.000000	22.226614
836.000000	22.265034
837.000000	22.268294
838.000000	22.269494
839.000000	22.279738
840.000000	22.286158
841.000000	22.285403
842.000000	22.289048
843.000000	22.288013
844.000000	22.296774
845.000000	22.304527
846.000000	22.310721
847.000000	22.287875
848.000000	22.290965
849.000000	22.294905
850.000000	22.292276
851.000000	22.286605
852.000000	22.272703
853.000000	22.258705
854.000000	22.249330
855.000000	22.234352
856.000000	22.222774
857.000000	22.258736
858.000000	22.440451
859.000000	22.476906
860.000000	22.547360
861.000000	22.600460
862.000000	22.662109
863.000000	22.727935
864.000000	22.758036
865.000000	22.796995
866.000000	22.831321
867.000000	22.828859
868.000000	22.679855
869.000000	22.648170
870.000000	22.614930
871.000000	22.605003
872.000000	22.566643
873.000000	22.526855
874.000000	22.508057
875.000000	22.488885
876.000000	22.443425
877.000000	22.422037
878.000000	22.375085
879.000000	22.352322
880.000000	22.277567
881.000000	22.203263
882.000000	22.153020
883.000000	22.101543
884.000000	22.050295
885.000000	21.997678
886.000000	21.945168
887.000000	21.891427
888.000000	21.837635
889.000000	21.758042
890.000000	21.702980
891.000000	21.645235
892.000000	21.587173
893.000000	21.530065
894.000000	21.472037
895.000000	21.413040
896.000000	21.376673
897.000000	21.340485
898.000000	21.278675
899.000000	21.241105
900.000000	21.203460
901.000000	21.165552
902.000000	21.128240
903.000000	21.064912
904.000000	21.001133
905.000000	20.938345
906.000000	20.876352
907.000000	20.811573
908.000000	20.771573
909.000000	20.707325
910.000000	20.668263
911.000000	20.605930
912.000000	20.542282
913.000000	20.502978
914.000000	20.464180
915.000000	20.424442
916.000000	20.385755
917.000000	20.321865
918.000000	20.256998
919.000000	20.217053
920.000000	20.152172
921.000000	20.110650
922.000000	20.067770
923.000000	20.000117
924.000000	19.932117
925.000000	19.862745
926.000000	19.792370
927.000000	19.747120
928.000000	19.701613
929.000000	19.655435
930.000000	19.607963
931.000000	19.535240
932.000000	19.464247
933.000000	19.417320
934.000000	19.371395
935.000000	19.327545
936.000000	19.282918
937.000000	19.240065
938.000000	19.197700
939.000000	19.154010
940.000000	19.085573
941.000000	19.041735
942.000000	18.997737
943.000000	18.953302
944.000000	18.909010
945.000000	18.863717
946.000000	18.819978
947.000000	18.776767
948.000000	18.734942
949.000000	18.694475
950.000000	18.680803
951.000000	18.667863
952.000000	18.630653
953.000000	18.596367
954.000000	18.561640
955.000000	18.526925
956.000000	18.491447
957.000000	18.456142
958.000000	18.420945
959.000000	18.386600
960.000000	18.351402
961.000000	18.316582
962.000000	18.306528
963.000000	18.296482
964.000000	18.285855
965.000000	18.275928
966.000000	18.267502
967.000000	18.259183
968.000000	18.251053
969.000000	18.218545
970.000000	18.187217
971.000000	18.156523
972.000000	18.127210
973.000000	18.097923
974.000000	18.069718
975.000000	18.042732
976.000000	18.015928
977.000000	17.989818
978.000000	17.963850
979.000000	17.962497
980.000000	17.961523
981.000000	17.960325
982.000000	17.957892
983.000000	17.955145
984.000000	17.952423
985.000000	17.949488
986.000000	17.946545
987.000000	17.943560
988.000000	17.942137
989.000000	17.941103
990.000000	17.940168
991.000000	17.940530
992.000000	17.942185
993.000000	17.944833
994.000000	17.949077
995.000000	17.953750
996.000000	17.958950
997.000000	17.964230
998.000000	17.969123
999.000000	17.974105
1000.000000	17.978603
1001.000000	17.982805
1002.000000	17.986448
1003.000000	17.990407
1004.000000	17.994233
1005.000000	17.997745
1006.000000	17.975997
1007.000000	17.979202
1008.000000	17.981558
1009.000000	17.984400
1010.000000	17.987860
1011.000000	17.966168
1012.000000	17.945525
1013.000000	17.924675
1014.000000	17.902772
1015.000000	17.881140
1016.000000	17.910320
1017.000000	17.915055
1018.000000	17.920365
1019.000000	17.925998
1020.000000	17.907205
1021.000000	17.913535
1022.000000	17.920268
1023.000000	17.927280
1024.000000	17.934630
1025.000000	17.942645
1026.000000	17.925158
1027.000000	17.907618
1028.000000	17.890680
1029.000000	17.898500
1030.000000	17.931078
1031.000000	17.939250
1032.000000	17.947310
1033.000000	17.954793
1034.000000	17.961968
1035.000000	17.968925
1036.000000	18.000525
1037.000000	18.032013
1038.000000	18.063288
1039.000000	18.069945
1040.000000	18.076715
1041.000000	18.107952
1042.000000	18.139015
1043.000000	18.170917
1044.000000	18.203308
1045.000000	18.235492
1046.000000	18.243668
1047.000000	18.252108
1048.000000	18.260427
1049.000000	18.268595
1050.000000	18.276915
1051.000000	18.285683
1052.000000	18.294945
1053.000000	18.303870
1054.000000	18.312665
1055.000000	18.321350
1056.000000	18.329557
1057.000000	18.338223
1058.000000	18.347145
1059.000000	18.355652
1060.000000	18.363577
1061.000000	18.371155
1062.000000	18.378363
1063.000000	18.385893
1064.000000	18.393570
1065.000000	18.402113
1066.000000	18.410892
1067.000000	18.418997
1068.000000	18.427300
1069.000000	18.435720
1070.000000	18.444465
1071.000000	18.454355
1072.000000	18.463635
1073.000000	18.472875
1074.000000	18.483157
1075.000000	18.493488
1076.000000	18.502970
1077.000000	18.512638
1078.000000	18.522430
1079.000000	18.531665
1080.000000	18.541357
1081.000000	18.550328
1082.000000	18.558820
1083.000000	18.566427
1084.000000	18.572927
1085.000000	18.579375
1086.000000	18.586157
1087.000000	18.592683
1088.000000	18.598265
1089.000000	18.603720
1090.000000	18.609205
1091.000000	18.615257
1092.000000	18.621688
1093.000000	18.628260
1094.000000	18.635095
1095.000000	18.640755
1096.000000	18.646440
1097.000000	18.652907
1098.000000	18.658900
1099.000000	18.665568
1100.000000	18.672092
1101.000000	18.677098
1102.000000	18.682228
1103.000000	18.687905
1104.000000	18.693002
1105.000000	18.698315
1106.000000	18.703453
1107.000000	18.707668
1108.000000	18.713503
1109.000000	18.718142
1110.000000	18.721575
1111.000000	18.725177
1112.000000	18.728470
1113.000000	18.731547
1114.000000	18.735188
1115.000000	18.738660
1116.000000	18.742088
1117.000000	18.744970
1118.000000	18.746617
1119.000000	18.748207
1120.000000	18.750522
1121.000000	18.752460
1122.000000	18.754475
1123.000000	18.756652
1124.000000	18.756310
1125.000000	18.754105
1126.000000	18.752035
1127.000000	18.750405
1128.000000	18.748207
1129.000000	18.747060
1130.000000	18.743565
1131.000000	18.737928
1132.000000	18.730095
1133.000000	18.721733
1134.000000	18.715678
1135.000000	18.712263
1136.000000	18.707010
1137.000000	18.700373
1138.000000	18.693000
1139.000000	18.683308
1140.000000	18.675383
1141.000000	18.669198
1142.000000	18.664170
1143.000000	18.658085
1144.000000	18.650062
1145.000000	18.641593
1146.000000	18.634505
1147.000000	18.628605
1148.000000	18.621760
1149.000000	18.616595
1150.000000	18.611940
1151.000000	18.606462
1152.000000	18.601512
1153.000000	18.596398
1154.000000	18.592525
1155.000000	18.587122
1156.000000	18.579383
1157.000000	18.569395
1158.000000	18.559695
