PE UV       SUBTECH     SPECTRUM    ASCII       PEDS        4.00        
   -1
INBUCR0432-4.Sample.ASC
24/02/09
15:05:02.00
24/02/09
15:05:02.00
Vinicio Soto Monge
Chrysina aurigans. Det: A. Solís. COSTA RICA. Prov. Guanacaste.  Liberia, P. N. Guanacaste, Estación Mengo, Bosque Primario. 1000 m. 18 JUN 1987. Janzen. Manual (red, libre) L_N_322740_375198 #52599. INB0003355003
250,000000
1
Lambda 1050
1050L1511233
PerkinElmer UV WinLab 6.3.2.0749 / 2.02.05 Lambda 900 UV/VIS/NIR, Aug  7 2015 09:38:08

0
0
3350/servo 860,8/2
0
0
UV/VIS
1
1
1
DoubleDePol,CommonBeamDepol,RBeamAtt,SBeamAtt,60mm sphere, WB InGaAs Detector
0
0
0
0
Program
Program
3350/servo 860,8/2
3350/0,2 860,8/0,2
3350/0,2 860,8/0,2
0
15.00
 
 
 
0
 
860,8
319,2
860,8
Front
100
on
S:100 R:100
0
0
0
0
 
0
 
 
 
0
 
 
0
0
0
0
0
 
 
 
 
0
0


0
0
#HDR
-1
-1
#GR
nm
%R
1.0
0.0
2500,000000
-1,000000
2251
8
18,449200
0,896100
#DATA

250.000000	nan
251.000000	nan
252.000000	nan
253.000000	nan
254.000000	nan
255.000000	nan
256.000000	nan
257.000000	nan
258.000000	nan
259.000000	3.462397
260.000000	3.462319
261.000000	3.460424
262.000000	3.459672
263.000000	3.458852
264.000000	3.457440
265.000000	3.457023
266.000000	3.456014
267.000000	3.454877
268.000000	3.453707
269.000000	3.451302
270.000000	3.447859
271.000000	3.445304
272.000000	3.443184
273.000000	3.441786
274.000000	3.440266
275.000000	3.439138
276.000000	3.438201
277.000000	3.438679
278.000000	3.437348
279.000000	3.437562
280.000000	3.438377
281.000000	3.438958
282.000000	3.441702
283.000000	3.442338
284.000000	3.443961
285.000000	3.446739
286.000000	3.450968
287.000000	3.453041
288.000000	3.458497
289.000000	3.462972
290.000000	3.467937
291.000000	3.474932
292.000000	3.479394
293.000000	3.486677
294.000000	3.492304
295.000000	3.497411
296.000000	3.502969
297.000000	3.542252
298.000000	3.580438
299.000000	3.621604
300.000000	3.663035
301.000000	3.701815
302.000000	3.741944
303.000000	3.780773
304.000000	3.821454
305.000000	3.860787
306.000000	3.899766
307.000000	3.904598
308.000000	3.909796
309.000000	3.913531
310.000000	3.917399
311.000000	3.922630
312.000000	3.926998
313.000000	3.932934
314.000000	3.937269
315.000000	3.941247
316.000000	3.945326
317.000000	3.970191
318.000000	3.984253
319.000000	4.006120
320.000000	4.024491
321.000000	4.046442
322.000000	4.055380
323.000000	4.067863
324.000000	4.083456
325.000000	4.097013
326.000000	4.111115
327.000000	4.102056
328.000000	4.107904
329.000000	4.130320
330.000000	4.128433
331.000000	4.125364
332.000000	4.168214
333.000000	4.205826
334.000000	4.233903
335.000000	4.264195
336.000000	4.293942
337.000000	4.326251
338.000000	4.354403
339.000000	4.359394
340.000000	4.388687
341.000000	4.415862
342.000000	4.413633
343.000000	4.413153
344.000000	4.417547
345.000000	4.420977
346.000000	4.422198
347.000000	4.425449
348.000000	4.429578
349.000000	4.432961
350.000000	4.438634
351.000000	4.444577
352.000000	4.446250
353.000000	4.444990
354.000000	4.447197
355.000000	4.449389
356.000000	4.451389
357.000000	4.452146
358.000000	4.453159
359.000000	4.452286
360.000000	4.451585
361.000000	4.450998
362.000000	4.451639
363.000000	4.452388
364.000000	4.451103
365.000000	4.452657
366.000000	4.456564
367.000000	4.456677
368.000000	4.457410
369.000000	4.462653
370.000000	4.464784
371.000000	4.465199
372.000000	4.464550
373.000000	4.462475
374.000000	4.461571
375.000000	4.455888
376.000000	4.451502
377.000000	4.446608
378.000000	4.440015
379.000000	4.429994
380.000000	4.423143
381.000000	4.417255
382.000000	4.412489
383.000000	4.410826
384.000000	4.408956
385.000000	4.410460
386.000000	4.410366
387.000000	4.414946
388.000000	4.419703
389.000000	4.424594
390.000000	4.429697
391.000000	4.434439
392.000000	4.439338
393.000000	4.444435
394.000000	4.449990
395.000000	4.455173
396.000000	4.459692
397.000000	4.464150
398.000000	4.468729
399.000000	4.473552
400.000000	4.478149
401.000000	4.516120
402.000000	4.553988
403.000000	4.592038
404.000000	4.629907
405.000000	4.668213
406.000000	4.706419
407.000000	4.744628
408.000000	4.782397
409.000000	4.820159
410.000000	4.858519
411.000000	4.863660
412.000000	4.868500
413.000000	4.873356
414.000000	4.878300
415.000000	4.883218
416.000000	4.888592
417.000000	4.893720
418.000000	4.898812
419.000000	4.904150
420.000000	4.909073
421.000000	4.914053
422.000000	4.919361
423.000000	4.924517
424.000000	4.929578
425.000000	4.934945
426.000000	4.940029
427.000000	4.945469
428.000000	4.951392
429.000000	4.956979
430.000000	4.962717
431.000000	4.968438
432.000000	4.973937
433.000000	4.979544
434.000000	4.985208
435.000000	4.990528
436.000000	4.996049
437.000000	5.001980
438.000000	5.007570
439.000000	5.013104
440.000000	5.018942
441.000000	5.024845
442.000000	5.030697
443.000000	5.036522
444.000000	5.042593
445.000000	5.048997
446.000000	5.055480
447.000000	5.061536
448.000000	5.067819
449.000000	5.074390
450.000000	5.080854
451.000000	5.087317
452.000000	5.094006
453.000000	5.100688
454.000000	5.140579
455.000000	5.180339
456.000000	5.220153
457.000000	5.260254
458.000000	5.300299
459.000000	5.340407
460.000000	5.380586
461.000000	5.420770
462.000000	5.461124
463.000000	5.501721
464.000000	5.509163
465.000000	5.516866
466.000000	5.524587
467.000000	5.532167
468.000000	5.539847
469.000000	5.547577
470.000000	5.555167
471.000000	5.562925
472.000000	5.570559
473.000000	5.578082
474.000000	5.585457
475.000000	5.592556
476.000000	5.599435
477.000000	5.606190
478.000000	5.612896
479.000000	5.619288
480.000000	5.625198
481.000000	5.630199
482.000000	5.634599
483.000000	5.639130
484.000000	5.644084
485.000000	5.649698
486.000000	5.656113
487.000000	5.663071
488.000000	5.670527
489.000000	5.678729
490.000000	5.688189
491.000000	5.699140
492.000000	5.711622
493.000000	5.724559
494.000000	5.770507
495.000000	5.816744
496.000000	5.863409
497.000000	5.910429
498.000000	5.957343
499.000000	6.004456
500.000000	6.052063
501.000000	6.099744
502.000000	6.147037
503.000000	6.194649
504.000000	6.209828
505.000000	6.225232
506.000000	6.240488
507.000000	6.255713
508.000000	6.271113
509.000000	6.287085
510.000000	6.302839
511.000000	6.318850
512.000000	6.335615
513.000000	6.352956
514.000000	6.370863
515.000000	6.389297
516.000000	6.408631
517.000000	6.428748
518.000000	6.449726
519.000000	6.470688
520.000000	6.491766
521.000000	6.512594
522.000000	6.532999
523.000000	6.552632
524.000000	6.570834
525.000000	6.620834
526.000000	6.669480
527.000000	6.716680
528.000000	6.762837
529.000000	6.808025
530.000000	6.852438
531.000000	6.896444
532.000000	6.939854
533.000000	6.983313
534.000000	7.026801
535.000000	7.037393
536.000000	7.048054
537.000000	7.058855
538.000000	7.069384
539.000000	7.080103
540.000000	7.090663
541.000000	7.101450
542.000000	7.112538
543.000000	7.123323
544.000000	7.134369
545.000000	7.144965
546.000000	7.155403
547.000000	7.166092
548.000000	7.177137
549.000000	7.187848
550.000000	7.198801
551.000000	7.209695
552.000000	7.220521
553.000000	7.231026
554.000000	7.241642
555.000000	7.252439
556.000000	7.263572
557.000000	7.274168
558.000000	7.284198
559.000000	7.294713
560.000000	7.299329
561.000000	7.302656
562.000000	7.305776
563.000000	7.308806
564.000000	7.344684
565.000000	7.380561
566.000000	7.415952
567.000000	7.451080
568.000000	7.486678
569.000000	7.521921
570.000000	7.562582
571.000000	7.603960
572.000000	7.645590
573.000000	7.687342
574.000000	7.695725
575.000000	7.703780
576.000000	7.711280
577.000000	7.719276
578.000000	7.726724
579.000000	7.734132
580.000000	7.742142
581.000000	7.750644
582.000000	7.759067
583.000000	7.767946
584.000000	7.776878
585.000000	7.786058
586.000000	7.795779
587.000000	7.805665
588.000000	7.815367
589.000000	7.825128
590.000000	7.834306
591.000000	7.842703
592.000000	7.850366
593.000000	7.857545
594.000000	7.865166
595.000000	7.873291
596.000000	7.881619
597.000000	7.890025
598.000000	7.899168
599.000000	7.908535
600.000000	7.918687
601.000000	7.929106
602.000000	7.939936
603.000000	7.950513
604.000000	7.960340
605.000000	7.969191
606.000000	7.977749
607.000000	7.985681
608.000000	7.992992
609.000000	8.000689
610.000000	8.008173
611.000000	8.016602
612.000000	8.025511
613.000000	8.035230
614.000000	8.078360
615.000000	8.122981
616.000000	8.167658
617.000000	8.212957
618.000000	8.258015
619.000000	8.302942
620.000000	8.347101
621.000000	8.389661
622.000000	8.431785
623.000000	8.473365
624.000000	8.482305
625.000000	8.491170
626.000000	8.500671
627.000000	8.510206
628.000000	8.520902
629.000000	8.531843
630.000000	8.544088
631.000000	8.557396
632.000000	8.570791
633.000000	8.584448
634.000000	8.598024
635.000000	8.609899
636.000000	8.621507
637.000000	8.633173
638.000000	8.644412
639.000000	8.654847
640.000000	8.665724
641.000000	8.676849
642.000000	8.689122
643.000000	8.702234
644.000000	8.716147
645.000000	8.731475
646.000000	8.747001
647.000000	8.762718
648.000000	8.811637
649.000000	8.860725
650.000000	8.908390
651.000000	8.956103
652.000000	9.002510
653.000000	9.048066
654.000000	9.093251
655.000000	9.138516
656.000000	9.184430
657.000000	9.230817
658.000000	9.245619
659.000000	9.261003
660.000000	9.277103
661.000000	9.293075
662.000000	9.310171
663.000000	9.327810
664.000000	9.344917
665.000000	9.361449
666.000000	9.376893
667.000000	9.392026
668.000000	9.406223
669.000000	9.419957
670.000000	9.433806
671.000000	9.447620
672.000000	9.461666
673.000000	9.475998
674.000000	9.491114
675.000000	9.540194
676.000000	9.590138
677.000000	9.639854
678.000000	9.688934
679.000000	9.739152
680.000000	9.788797
681.000000	9.838430
682.000000	9.887363
683.000000	9.935505
684.000000	9.982848
685.000000	9.996884
686.000000	10.011098
687.000000	10.025641
688.000000	10.040773
689.000000	10.055351
690.000000	10.070644
691.000000	10.086826
692.000000	10.102951
693.000000	10.119578
694.000000	10.136986
695.000000	10.154776
696.000000	10.172110
697.000000	10.188736
698.000000	10.205292
699.000000	10.254036
700.000000	10.302600
701.000000	10.350607
702.000000	10.399007
703.000000	10.447406
704.000000	10.495457
705.000000	10.543432
706.000000	10.591641
707.000000	10.640189
708.000000	10.688856
709.000000	10.705191
710.000000	10.721357
711.000000	10.737424
712.000000	10.753972
713.000000	10.770231
714.000000	10.785938
715.000000	10.801689
716.000000	10.817884
717.000000	10.834080
718.000000	10.850003
719.000000	10.899976
720.000000	10.949922
721.000000	10.999860
722.000000	11.048901
723.000000	11.099028
724.000000	11.149847
725.000000	11.200492
726.000000	11.250582
727.000000	11.300982
728.000000	11.351721
729.000000	11.368541
730.000000	11.385443
731.000000	11.402068
732.000000	11.418992
733.000000	11.436007
734.000000	11.453575
735.000000	11.470686
736.000000	11.487507
737.000000	11.504931
738.000000	11.522506
739.000000	11.573018
740.000000	11.623699
741.000000	11.675044
742.000000	11.726641
743.000000	11.777798
744.000000	11.828264
745.000000	11.878393
746.000000	11.928653
747.000000	11.978491
748.000000	12.028766
749.000000	12.046125
750.000000	12.063559
751.000000	12.080658
752.000000	12.098202
753.000000	12.115832
754.000000	12.133635
755.000000	12.152523
756.000000	12.171123
757.000000	12.223066
758.000000	12.274302
759.000000	12.324717
760.000000	12.376050
761.000000	12.428085
762.000000	12.479694
763.000000	12.531664
764.000000	12.583089
765.000000	12.634107
766.000000	12.686441
767.000000	12.705078
768.000000	12.723897
769.000000	12.743847
770.000000	12.763133
771.000000	12.781454
772.000000	12.799795
773.000000	12.818354
774.000000	12.870921
775.000000	12.922715
776.000000	12.973293
777.000000	13.024739
778.000000	13.076793
779.000000	13.128863
780.000000	13.181016
781.000000	13.233655
782.000000	13.286043
783.000000	13.337897
784.000000	13.356578
785.000000	13.374341
786.000000	13.392025
787.000000	13.410181
788.000000	13.429024
789.000000	13.448027
790.000000	13.466407
791.000000	13.517690
792.000000	13.570724
793.000000	13.625301
794.000000	13.679566
795.000000	13.734549
796.000000	13.789874
797.000000	13.844218
798.000000	13.896850
799.000000	13.949661
800.000000	14.005270
801.000000	14.027075
802.000000	14.045467
803.000000	14.063148
804.000000	14.082596
805.000000	14.103186
806.000000	14.122051
807.000000	14.143310
808.000000	14.201488
809.000000	14.258696
810.000000	14.312488
811.000000	14.366398
812.000000	14.422929
813.000000	14.478195
814.000000	14.530534
815.000000	14.584070
816.000000	14.640670
817.000000	14.695418
818.000000	14.711873
819.000000	14.727911
820.000000	14.744840
821.000000	14.765107
822.000000	14.783722
823.000000	14.799710
824.000000	14.815453
825.000000	14.862952
826.000000	14.909838
827.000000	14.955737
828.000000	15.003168
829.000000	15.050543
830.000000	15.099928
831.000000	15.148786
832.000000	15.194356
833.000000	15.240583
834.000000	15.289120
835.000000	15.303886
836.000000	15.316572
837.000000	15.329458
838.000000	15.341990
839.000000	15.357365
840.000000	15.368767
841.000000	15.379402
842.000000	15.391718
843.000000	15.403573
844.000000	15.416740
845.000000	15.426605
846.000000	15.435462
847.000000	15.444867
848.000000	15.487350
849.000000	15.526192
850.000000	15.537808
851.000000	15.579664
852.000000	15.621677
853.000000	15.666077
854.000000	15.709798
855.000000	15.749195
856.000000	15.791582
857.000000	15.843484
858.000000	16.198251
859.000000	16.232643
860.000000	16.323042
861.000000	16.358192
862.000000	16.422061
863.000000	16.462171
864.000000	16.525933
865.000000	16.597832
866.000000	16.645763
867.000000	16.683103
868.000000	16.359887
869.000000	16.384453
870.000000	16.357743
871.000000	16.329353
872.000000	16.273715
873.000000	16.267357
874.000000	16.236260
875.000000	16.179285
876.000000	16.145502
877.000000	16.137252
878.000000	16.154125
879.000000	16.120480
880.000000	16.111970
881.000000	16.127102
882.000000	16.143088
883.000000	16.133748
884.000000	16.098883
885.000000	16.114825
886.000000	16.105232
887.000000	16.096598
888.000000	16.062038
889.000000	16.076502
890.000000	16.090975
891.000000	16.081795
892.000000	16.071652
893.000000	16.061822
894.000000	16.077227
895.000000	16.067657
896.000000	16.082950
897.000000	16.073000
898.000000	16.087945
899.000000	16.080002
900.000000	16.045713
901.000000	16.061673
902.000000	16.078097
903.000000	16.094703
904.000000	16.111875
905.000000	16.103805
906.000000	16.122300
907.000000	16.114835
908.000000	16.134873
909.000000	16.128238
910.000000	16.146323
911.000000	16.141375
912.000000	16.136707
913.000000	16.131643
914.000000	16.125120
915.000000	16.144020
916.000000	16.139122
917.000000	16.159822
918.000000	16.154300
919.000000	16.172378
920.000000	16.192818
921.000000	16.211282
922.000000	16.230808
923.000000	16.249018
924.000000	16.268707
925.000000	16.286857
926.000000	16.303550
927.000000	16.318650
928.000000	16.334277
929.000000	16.350860
930.000000	16.365982
931.000000	16.380950
932.000000	16.393655
933.000000	16.408800
934.000000	16.424285
935.000000	16.441908
936.000000	16.459022
937.000000	16.476892
938.000000	16.494065
939.000000	16.511047
940.000000	16.526788
941.000000	16.542300
942.000000	16.558387
943.000000	16.572588
944.000000	16.585580
945.000000	16.598603
946.000000	16.611615
947.000000	16.624947
948.000000	16.638128
949.000000	16.652508
950.000000	16.667927
951.000000	16.682780
952.000000	16.697680
953.000000	16.712985
954.000000	16.728102
955.000000	16.742067
956.000000	16.755885
957.000000	16.770277
958.000000	16.783853
959.000000	16.796670
960.000000	16.809000
961.000000	16.821333
962.000000	16.834163
963.000000	16.846705
964.000000	16.858815
965.000000	16.870610
966.000000	16.883400
967.000000	16.895955
968.000000	16.907702
969.000000	16.943487
970.000000	16.954793
971.000000	16.966950
972.000000	16.978855
973.000000	16.991688
974.000000	17.029692
975.000000	17.067185
976.000000	17.102800
977.000000	17.138445
978.000000	17.174692
979.000000	17.187302
980.000000	17.224978
981.000000	17.262470
982.000000	17.298943
983.000000	17.334050
984.000000	17.344100
985.000000	17.355403
986.000000	17.367573
987.000000	17.378757
988.000000	17.390535
989.000000	17.401705
990.000000	17.412025
991.000000	17.421955
992.000000	17.432002
993.000000	17.442730
994.000000	17.453862
995.000000	17.464485
996.000000	17.474850
997.000000	17.485650
998.000000	17.495803
999.000000	17.506543
1000.000000	17.517238
1001.000000	17.527127
1002.000000	17.538110
1003.000000	17.548805
1004.000000	17.558860
1005.000000	17.568362
1006.000000	17.577703
1007.000000	17.586350
1008.000000	17.594895
1009.000000	17.603255
1010.000000	17.612210
1011.000000	17.621768
1012.000000	17.630963
1013.000000	17.640678
1014.000000	17.650727
1015.000000	17.660215
1016.000000	17.669632
1017.000000	17.680095
1018.000000	17.691097
1019.000000	17.701435
1020.000000	17.711343
1021.000000	17.722182
1022.000000	17.733205
1023.000000	17.742585
1024.000000	17.751695
1025.000000	17.761835
1026.000000	17.771857
1027.000000	17.781293
1028.000000	17.790823
1029.000000	17.801160
1030.000000	17.811113
1031.000000	17.819800
1032.000000	17.828995
1033.000000	17.864748
1034.000000	17.900733
1035.000000	17.936342
1036.000000	17.972395
1037.000000	18.008295
1038.000000	18.043995
1039.000000	18.079735
1040.000000	18.116615
1041.000000	18.153958
1042.000000	18.189493
1043.000000	18.199072
1044.000000	18.208975
1045.000000	18.219515
1046.000000	18.229878
1047.000000	18.240275
1048.000000	18.250490
1049.000000	18.260137
1050.000000	18.269668
1051.000000	18.279090
1052.000000	18.289455
1053.000000	18.299995
1054.000000	18.309223
1055.000000	18.319302
1056.000000	18.330025
1057.000000	18.339858
1058.000000	18.350102
1059.000000	18.360463
1060.000000	18.370250
1061.000000	18.380212
1062.000000	18.390470
1063.000000	18.400585
1064.000000	18.411370
1065.000000	18.421820
1066.000000	18.431738
1067.000000	18.441980
1068.000000	18.452155
1069.000000	18.462700
1070.000000	18.473678
1071.000000	18.484393
1072.000000	18.494867
1073.000000	18.531258
1074.000000	18.544048
1075.000000	18.581200
1076.000000	18.617888
1077.000000	18.656215
1078.000000	18.693863
1079.000000	18.731075
1080.000000	18.768408
1081.000000	18.805867
1082.000000	18.843405
1083.000000	18.854255
1084.000000	18.888935
1085.000000	18.898335
1086.000000	18.908805
1087.000000	18.917745
1088.000000	18.927588
1089.000000	18.937285
1090.000000	18.945850
1091.000000	18.954550
1092.000000	18.962392
1093.000000	18.971410
1094.000000	18.979897
1095.000000	18.988695
1096.000000	18.996415
1097.000000	19.005172
1098.000000	19.012670
1099.000000	19.020710
1100.000000	19.028950
1101.000000	19.037430
1102.000000	19.047113
1103.000000	19.055865
1104.000000	19.065188
1105.000000	19.074963
1106.000000	19.084453
1107.000000	19.093240
1108.000000	19.103063
1109.000000	19.112137
1110.000000	19.120953
1111.000000	19.129095
1112.000000	19.136243
1113.000000	19.143125
1114.000000	19.150000
1115.000000	19.156132
1116.000000	19.162743
1117.000000	19.169063
1118.000000	19.174825
1119.000000	19.180380
1120.000000	19.186172
1121.000000	19.191715
1122.000000	19.197608
1123.000000	19.204970
1124.000000	19.211383
1125.000000	19.216338
1126.000000	19.222180
1127.000000	19.226170
1128.000000	19.230785
1129.000000	19.235228
1130.000000	19.238420
1131.000000	19.240040
1132.000000	19.237417
1133.000000	19.234097
1134.000000	19.232655
1135.000000	19.232917
1136.000000	19.230555
1137.000000	19.227465
1138.000000	19.222490
1139.000000	19.216742
1140.000000	19.211945
1141.000000	19.208890
1142.000000	19.206963
1143.000000	19.204557
1144.000000	19.200133
1145.000000	19.194305
1146.000000	19.189972
1147.000000	19.187860
1148.000000	19.185865
1149.000000	19.183375
1150.000000	19.181200
1151.000000	19.178657
1152.000000	19.178548
1153.000000	19.178513
1154.000000	19.178990
1155.000000	19.177138
1156.000000	19.176075
1157.000000	19.173405
1158.000000	19.169715
1159.000000	19.165180
1160.000000	19.158105
1161.000000	19.150420
1162.000000	19.139823
1163.000000	19.128255
1164.000000	19.114407
1165.000000	19.100597
1166.000000	19.084563
1167.000000	19.068752
1168.000000	19.053825
1169.000000	19.038775
1170.000000	19.024693
1171.000000	19.010457
1172.000000	18.998330
1173.000000	18.986663
