PE UV       SUBTECH     SPECTRUM    ASCII       PEDS        4.00        
   -1
INBUCR0117-5.Sample.ASC
24/02/12
14:11:07.00
24/02/12
14:11:07.00
Vinicio Soto Monge
Strigidia labyrinthophallica. Color cobrizo con ambos élitros (Det: A. Solís) COSTA RICA Prov. Puntarenas. P.N. Corcovado. Estac La Leona Alrededores. 5m 1-15 ABR 2002 A. Azofeifa. Libre. I S267167_519271 #70571 INB0003515945 INBIOCRI COSTA RICA 
250,000000
1
Lambda 1050
1050L1511233
PerkinElmer UV WinLab 6.3.2.0749 / 2.02.05 Lambda 900 UV/VIS/NIR, Aug  7 2015 09:38:08

0
0
3350/servo 860,8/2
0
0
UV/VIS
1
1
1
DoubleDePol,CommonBeamDepol,RBeamAtt,SBeamAtt,60mm sphere, WB InGaAs Detector
0
0
0
0
Program
Program
3350/servo 860,8/2
3350/0,2 860,8/0,2
3350/0,2 860,8/0,2
0
15.00
 
 
 
0
 
860,8
150
860,8
Front
100
on
S:100 R:100
0
0
0
0
 
0
 
 
 
0
 
 
0
0
0
0
0
 
 
 
 
0
0


0
0
#HDR
-1
-1
#GR
nm
%R
1.0
0.0
2500,000000
-1,000000
2251
8
21,121000
1,361200
#DATA

250.000000	nan
251.000000	nan
252.000000	nan
253.000000	nan
254.000000	nan
255.000000	nan
256.000000	nan
257.000000	nan
258.000000	nan
259.000000	3.783985
260.000000	3.755885
261.000000	3.722789
262.000000	3.710243
263.000000	3.667399
264.000000	3.646266
265.000000	3.628999
266.000000	3.596830
267.000000	3.566202
268.000000	3.535997
269.000000	3.486968
270.000000	3.460035
271.000000	3.445435
272.000000	3.425679
273.000000	3.401415
274.000000	3.387256
275.000000	3.378720
276.000000	3.373177
277.000000	3.367178
278.000000	3.353779
279.000000	3.341503
280.000000	3.326724
281.000000	3.316892
282.000000	3.308640
283.000000	3.304829
284.000000	3.302577
285.000000	3.289191
286.000000	3.279214
287.000000	3.267868
288.000000	3.266674
289.000000	3.267782
290.000000	3.267245
291.000000	3.267390
292.000000	3.262650
293.000000	3.259937
294.000000	3.254809
295.000000	3.250274
296.000000	3.247721
297.000000	3.243060
298.000000	3.239760
299.000000	3.234049
300.000000	3.230451
301.000000	3.227660
302.000000	3.224132
303.000000	3.220201
304.000000	3.219500
305.000000	3.240306
306.000000	3.258170
307.000000	3.280606
308.000000	3.298454
309.000000	3.321126
310.000000	3.342139
311.000000	3.385386
312.000000	3.430387
313.000000	3.472724
314.000000	3.537333
315.000000	3.582203
316.000000	3.627821
317.000000	3.690509
318.000000	3.772772
319.000000	3.864513
320.000000	3.949790
321.000000	4.003138
322.000000	4.052017
323.000000	4.107392
324.000000	4.165206
325.000000	4.223757
326.000000	4.281818
327.000000	4.319536
328.000000	4.336611
329.000000	4.345848
330.000000	4.363417
331.000000	4.386455
332.000000	4.406494
333.000000	4.422090
334.000000	4.415358
335.000000	4.406897
336.000000	4.395368
337.000000	4.383762
338.000000	4.385328
339.000000	4.382083
340.000000	4.378072
341.000000	4.393475
342.000000	4.394996
343.000000	4.396605
344.000000	4.417903
345.000000	4.442369
346.000000	4.469821
347.000000	4.498939
348.000000	4.515792
349.000000	4.513520
350.000000	4.531440
351.000000	4.533085
352.000000	4.551140
353.000000	4.571170
354.000000	4.568808
355.000000	4.565759
356.000000	4.560800
357.000000	4.558818
358.000000	4.556157
359.000000	4.573743
360.000000	4.569125
361.000000	4.563817
362.000000	4.563780
363.000000	4.562129
364.000000	4.558795
365.000000	4.554261
366.000000	4.550352
367.000000	4.546582
368.000000	4.542072
369.000000	4.518455
370.000000	4.493018
371.000000	4.467458
372.000000	4.462967
373.000000	4.454218
374.000000	4.423231
375.000000	4.390805
376.000000	4.387600
377.000000	4.355081
378.000000	4.325180
379.000000	4.315236
380.000000	4.306279
381.000000	4.298062
382.000000	4.269220
383.000000	4.244017
384.000000	4.241782
385.000000	4.240806
386.000000	4.212522
387.000000	4.211988
388.000000	4.211091
389.000000	4.210052
390.000000	4.209841
391.000000	4.209502
392.000000	4.208445
393.000000	4.207308
394.000000	4.206536
395.000000	4.206040
396.000000	4.205284
397.000000	4.204402
398.000000	4.203520
399.000000	4.202842
400.000000	4.202167
401.000000	4.201920
402.000000	4.201475
403.000000	4.201484
404.000000	4.201344
405.000000	4.200952
406.000000	4.200259
407.000000	4.199618
408.000000	4.198918
409.000000	4.198315
410.000000	4.197537
411.000000	4.196716
412.000000	4.196212
413.000000	4.195351
414.000000	4.194465
415.000000	4.193758
416.000000	4.193298
417.000000	4.192837
418.000000	4.192373
419.000000	4.192062
420.000000	4.192254
421.000000	4.192097
422.000000	4.191502
423.000000	4.190917
424.000000	4.190484
425.000000	4.190167
426.000000	4.189840
427.000000	4.189621
428.000000	4.189558
429.000000	4.189458
430.000000	4.188932
431.000000	4.188284
432.000000	4.188040
433.000000	4.188042
434.000000	4.187968
435.000000	4.187759
436.000000	4.187445
437.000000	4.187203
438.000000	4.187260
439.000000	4.186968
440.000000	4.186661
441.000000	4.186815
442.000000	4.186887
443.000000	4.186860
444.000000	4.186518
445.000000	4.186183
446.000000	4.186085
447.000000	4.186145
448.000000	4.186051
449.000000	4.185966
450.000000	4.185892
451.000000	4.185600
452.000000	4.185074
453.000000	4.207022
454.000000	4.229297
455.000000	4.251646
456.000000	4.273795
457.000000	4.295886
458.000000	4.318040
459.000000	4.340138
460.000000	4.362308
461.000000	4.384396
462.000000	4.406654
463.000000	4.406441
464.000000	4.406133
465.000000	4.405962
466.000000	4.406022
467.000000	4.405861
468.000000	4.405578
469.000000	4.405591
470.000000	4.405523
471.000000	4.405477
472.000000	4.405578
473.000000	4.405653
474.000000	4.405437
475.000000	4.405158
476.000000	4.404780
477.000000	4.404366
478.000000	4.403922
479.000000	4.403273
480.000000	4.402531
481.000000	4.401762
482.000000	4.400583
483.000000	4.399278
484.000000	4.398340
485.000000	4.397771
486.000000	4.397392
487.000000	4.397156
488.000000	4.397365
489.000000	4.397809
490.000000	4.398492
491.000000	4.399513
492.000000	4.400929
493.000000	4.402780
494.000000	4.404934
495.000000	4.406735
496.000000	4.408172
497.000000	4.409944
498.000000	4.411761
499.000000	4.413555
500.000000	4.415184
501.000000	4.416773
502.000000	4.418484
503.000000	4.419994
504.000000	4.421219
505.000000	4.422720
506.000000	4.424528
507.000000	4.426093
508.000000	4.427406
509.000000	4.428533
510.000000	4.429657
511.000000	4.430964
512.000000	4.432015
513.000000	4.432912
514.000000	4.433749
515.000000	4.434456
516.000000	4.435015
517.000000	4.435407
518.000000	4.435724
519.000000	4.436202
520.000000	4.437010
521.000000	4.437500
522.000000	4.438343
523.000000	4.439380
524.000000	4.440894
525.000000	4.442510
526.000000	4.444180
527.000000	4.446326
528.000000	4.449004
529.000000	4.452227
530.000000	4.455685
531.000000	4.459640
532.000000	4.464042
533.000000	4.469124
534.000000	4.474298
535.000000	4.479951
536.000000	4.486252
537.000000	4.493154
538.000000	4.522944
539.000000	4.552936
540.000000	4.583501
541.000000	4.614636
542.000000	4.646092
543.000000	4.677913
544.000000	4.710358
545.000000	4.743188
546.000000	4.776561
547.000000	4.810164
548.000000	4.822056
549.000000	4.834697
550.000000	4.848148
551.000000	4.862623
552.000000	4.878218
553.000000	4.895062
554.000000	4.936131
555.000000	4.978901
556.000000	5.023827
557.000000	5.071138
558.000000	5.121190
559.000000	5.174290
560.000000	5.228471
561.000000	5.285719
562.000000	5.369541
563.000000	5.457980
564.000000	5.528525
565.000000	5.604472
566.000000	5.685404
567.000000	5.795131
568.000000	5.910274
569.000000	6.031201
570.000000	6.160284
571.000000	6.295721
572.000000	6.437200
573.000000	6.584296
574.000000	6.736386
575.000000	6.893322
576.000000	7.077266
577.000000	7.241635
578.000000	7.409112
579.000000	7.578697
580.000000	7.772462
581.000000	7.966814
582.000000	8.138041
583.000000	8.308105
584.000000	8.476815
585.000000	8.664657
586.000000	8.826544
587.000000	8.983924
588.000000	9.135696
589.000000	9.281657
590.000000	9.398684
591.000000	9.508484
592.000000	9.610252
593.000000	9.726523
594.000000	9.833828
595.000000	9.909315
596.000000	9.975075
597.000000	10.031952
598.000000	10.057063
599.000000	10.071570
600.000000	10.076008
601.000000	10.070141
602.000000	10.054041
603.000000	10.004943
604.000000	9.945803
605.000000	9.877673
606.000000	9.799813
607.000000	9.689928
608.000000	9.594083
609.000000	9.491856
610.000000	9.382797
611.000000	9.268906
612.000000	9.128410
613.000000	8.984777
614.000000	8.839671
615.000000	8.694014
616.000000	8.550298
617.000000	8.432398
618.000000	8.296547
619.000000	8.165792
620.000000	8.041647
621.000000	7.924886
622.000000	7.840104
623.000000	7.764746
624.000000	7.699089
625.000000	7.644293
626.000000	7.599744
627.000000	7.565022
628.000000	7.562058
629.000000	7.568589
630.000000	7.583468
631.000000	7.606179
632.000000	7.657097
633.000000	7.713754
634.000000	7.774852
635.000000	7.838682
636.000000	7.904930
637.000000	7.994059
638.000000	8.083292
639.000000	8.171358
640.000000	8.257480
641.000000	8.340191
642.000000	8.398132
643.000000	8.474730
644.000000	8.547862
645.000000	8.617280
646.000000	8.682598
647.000000	8.722487
648.000000	8.759351
649.000000	8.793528
650.000000	8.826050
651.000000	8.858118
652.000000	8.889381
653.000000	8.899052
654.000000	8.909986
655.000000	8.922711
656.000000	8.938889
657.000000	8.959316
658.000000	8.984068
659.000000	9.013602
660.000000	9.048387
661.000000	9.088980
662.000000	9.134822
663.000000	9.208607
664.000000	9.287214
665.000000	9.370765
666.000000	9.458287
667.000000	9.548422
668.000000	9.641059
669.000000	9.736188
670.000000	9.854680
671.000000	9.972312
672.000000	10.089145
673.000000	10.182031
674.000000	10.273230
675.000000	10.360842
676.000000	10.467802
677.000000	10.571425
678.000000	10.671059
679.000000	10.767138
680.000000	10.836297
681.000000	10.901889
682.000000	10.964635
683.000000	11.046756
684.000000	11.126217
685.000000	11.204666
686.000000	11.258563
687.000000	11.311843
688.000000	11.365184
689.000000	11.418514
690.000000	11.474238
691.000000	11.531345
692.000000	11.590929
693.000000	11.629963
694.000000	11.671654
695.000000	11.739271
696.000000	11.809245
697.000000	11.881866
698.000000	11.957320
699.000000	12.034913
700.000000	12.113937
701.000000	12.195657
702.000000	12.278477
703.000000	12.385097
704.000000	12.492045
705.000000	12.574912
706.000000	12.658029
707.000000	12.739903
708.000000	12.820513
709.000000	12.922201
710.000000	13.021670
711.000000	13.118370
712.000000	13.212343
713.000000	13.282750
714.000000	13.351233
715.000000	13.440672
716.000000	13.528378
717.000000	13.615532
718.000000	13.702084
719.000000	13.764747
720.000000	13.827949
721.000000	13.892443
722.000000	13.957397
723.000000	14.044714
724.000000	14.133283
725.000000	14.202194
726.000000	14.272746
727.000000	14.345148
728.000000	14.419695
729.000000	14.496334
730.000000	14.597049
731.000000	14.699120
732.000000	14.803690
733.000000	14.887994
734.000000	14.974324
735.000000	15.061009
736.000000	15.170954
737.000000	15.280812
738.000000	15.389831
739.000000	15.498909
740.000000	15.586063
741.000000	15.673922
742.000000	15.783645
743.000000	15.891789
744.000000	15.998193
745.000000	16.103705
746.000000	16.186239
747.000000	16.269650
748.000000	16.376123
749.000000	16.481758
750.000000	16.586956
751.000000	16.692565
752.000000	16.775352
753.000000	16.859199
754.000000	16.966958
755.000000	17.075366
756.000000	17.184948
757.000000	17.294814
758.000000	17.383649
759.000000	17.475327
760.000000	17.589969
761.000000	17.704525
762.000000	17.819723
763.000000	17.935182
764.000000	18.028970
765.000000	18.123713
766.000000	18.241990
767.000000	18.360146
768.000000	18.476186
769.000000	18.590589
770.000000	18.683486
771.000000	18.799782
772.000000	18.916152
773.000000	19.032395
774.000000	19.148797
775.000000	19.264473
776.000000	19.380409
777.000000	19.496253
778.000000	19.612984
779.000000	19.731313
780.000000	19.848860
781.000000	19.942538
782.000000	20.060634
783.000000	20.178910
784.000000	20.294576
785.000000	20.412477
786.000000	20.507720
787.000000	20.625372
788.000000	20.745141
789.000000	20.863643
790.000000	20.982621
791.000000	21.100805
792.000000	21.195189
793.000000	21.313614
794.000000	21.433404
795.000000	21.551683
796.000000	21.669900
797.000000	21.766817
798.000000	21.862218
799.000000	21.979860
800.000000	22.098028
801.000000	22.218593
802.000000	22.338075
803.000000	22.433349
804.000000	22.551322
805.000000	22.671376
806.000000	22.790073
807.000000	22.907914
808.000000	23.027601
809.000000	23.149381
810.000000	23.270581
811.000000	23.390697
812.000000	23.510693
813.000000	23.631903
814.000000	23.732485
815.000000	23.852168
816.000000	23.970502
817.000000	24.090153
818.000000	24.211171
819.000000	24.307059
820.000000	24.426641
821.000000	24.545725
822.000000	24.665599
823.000000	24.784765
824.000000	24.903244
825.000000	25.000139
826.000000	25.118981
827.000000	25.234390
828.000000	25.352563
829.000000	25.469827
830.000000	25.560341
831.000000	25.647221
832.000000	25.760529
833.000000	25.876011
834.000000	25.987074
835.000000	26.095274
836.000000	26.189422
837.000000	26.277489
838.000000	26.386496
839.000000	26.488198
840.000000	26.593654
841.000000	26.707179
842.000000	26.791660
843.000000	26.872142
844.000000	26.974631
845.000000	27.079635
846.000000	27.180844
847.000000	27.291185
848.000000	27.365113
849.000000	27.449521
850.000000	27.526833
851.000000	27.606459
852.000000	27.680307
853.000000	27.748571
854.000000	27.820630
855.000000	27.887746
856.000000	27.954711
857.000000	28.035848
858.000000	28.467889
859.000000	28.625600
860.000000	28.754799
861.000000	28.897480
862.000000	29.057410
863.000000	29.201957
864.000000	29.307446
865.000000	29.411251
866.000000	29.514457
867.000000	29.602736
868.000000	29.339490
869.000000	29.348366
870.000000	29.380090
871.000000	29.384142
872.000000	29.386140
873.000000	29.400176
874.000000	29.451538
875.000000	29.485866
876.000000	29.500930
877.000000	29.548406
878.000000	29.611680
879.000000	29.645532
880.000000	29.705874
881.000000	29.760348
882.000000	29.786552
883.000000	29.830522
884.000000	29.846866
885.000000	29.866136
886.000000	29.925164
887.000000	29.927298
888.000000	29.937616
889.000000	29.951938
890.000000	29.951466
891.000000	29.974264
892.000000	30.012366
893.000000	30.048686
894.000000	30.080778
895.000000	30.129582
896.000000	30.153926
897.000000	30.204812
898.000000	30.235452
899.000000	30.285062
900.000000	30.330474
901.000000	30.362996
902.000000	30.398740
903.000000	30.421948
904.000000	30.453312
905.000000	30.486778
906.000000	30.521404
907.000000	30.545526
908.000000	30.575968
909.000000	30.631560
910.000000	30.685762
911.000000	30.716870
912.000000	30.768342
913.000000	30.828118
914.000000	30.887116
915.000000	30.943088
916.000000	30.990202
917.000000	31.045524
918.000000	31.100322
919.000000	31.128264
920.000000	31.158846
921.000000	31.212994
922.000000	31.247054
923.000000	31.277042
924.000000	31.327976
925.000000	31.380098
926.000000	31.424320
927.000000	31.479654
928.000000	31.529434
929.000000	31.587606
930.000000	31.643038
931.000000	31.695110
932.000000	31.748946
933.000000	31.802476
934.000000	31.831070
935.000000	31.860660
936.000000	31.907350
937.000000	31.937872
938.000000	31.973238
939.000000	32.006154
940.000000	32.055452
941.000000	32.106096
942.000000	32.155046
943.000000	32.202054
944.000000	32.250650
945.000000	32.301308
946.000000	32.346962
947.000000	32.394644
948.000000	32.437816
949.000000	32.481380
950.000000	32.511208
951.000000	32.541046
952.000000	32.570314
953.000000	32.600588
954.000000	32.630572
955.000000	32.656530
956.000000	32.705508
957.000000	32.752076
958.000000	32.800094
959.000000	32.847132
960.000000	32.892128
961.000000	32.936330
962.000000	32.978586
963.000000	33.019752
964.000000	33.064028
965.000000	33.110184
966.000000	33.134212
967.000000	33.159088
968.000000	33.183426
969.000000	33.207474
970.000000	33.231902
971.000000	33.255224
972.000000	33.299074
973.000000	33.342518
974.000000	33.384780
975.000000	33.424628
976.000000	33.467002
977.000000	33.506224
978.000000	33.546206
979.000000	33.586146
980.000000	33.625514
981.000000	33.665260
982.000000	33.685410
983.000000	33.705950
984.000000	33.725128
985.000000	33.745252
986.000000	33.764028
987.000000	33.784648
988.000000	33.803016
989.000000	33.841308
990.000000	33.880598
991.000000	33.921004
992.000000	33.959308
993.000000	33.997678
994.000000	34.035684
995.000000	34.074690
996.000000	34.112316
997.000000	34.149806
998.000000	34.188332
999.000000	34.206274
1000.000000	34.223554
1001.000000	34.240230
1002.000000	34.257130
1003.000000	34.273176
1004.000000	34.290418
1005.000000	34.306124
1006.000000	34.322294
1007.000000	34.338564
1008.000000	34.374320
1009.000000	34.410466
1010.000000	34.446982
1011.000000	34.484066
1012.000000	34.520820
1013.000000	34.557430
1014.000000	34.594202
1015.000000	34.631500
1016.000000	34.667810
1017.000000	34.704502
1018.000000	34.721710
1019.000000	34.738536
1020.000000	34.754824
1021.000000	34.770922
1022.000000	34.788724
1023.000000	34.807570
1024.000000	34.825644
1025.000000	34.863870
1026.000000	34.902480
1027.000000	34.940660
1028.000000	34.979292
1029.000000	35.018086
1030.000000	35.057366
1031.000000	35.096740
1032.000000	35.135604
1033.000000	35.174340
1034.000000	35.213524
1035.000000	35.232124
1036.000000	35.250280
1037.000000	35.268616
1038.000000	35.286934
1039.000000	35.306596
1040.000000	35.326026
1041.000000	35.344298
1042.000000	35.381816
1043.000000	35.418506
1044.000000	35.456086
1045.000000	35.493492
1046.000000	35.530548
1047.000000	35.568382
1048.000000	35.605744
1049.000000	35.641316
1050.000000	35.677290
1051.000000	35.714318
1052.000000	35.732268
1053.000000	35.751418
1054.000000	35.768968
1055.000000	35.787086
1056.000000	35.806794
1057.000000	35.826858
1058.000000	35.866530
1059.000000	35.906474
1060.000000	35.945242
1061.000000	35.983978
1062.000000	36.022390
1063.000000	36.060556
1064.000000	36.098960
1065.000000	36.136984
1066.000000	36.174958
1067.000000	36.212232
1068.000000	36.230304
1069.000000	36.248652
1070.000000	36.267276
1071.000000	36.285650
1072.000000	36.304214
1073.000000	36.323152
1074.000000	36.362886
1075.000000	36.401398
1076.000000	36.439464
1077.000000	36.477902
1078.000000	36.515250
1079.000000	36.551784
1080.000000	36.588772
1081.000000	36.625694
1082.000000	36.662106
1083.000000	36.697958
1084.000000	36.712400
1085.000000	36.727768
1086.000000	36.742808
1087.000000	36.757956
1088.000000	36.773378
1089.000000	36.788486
1090.000000	36.802282
1091.000000	36.815208
1092.000000	36.828518
1093.000000	36.841488
1094.000000	36.854480
1095.000000	36.887396
1096.000000	36.919810
1097.000000	36.950346
1098.000000	36.980540
1099.000000	37.011312
1100.000000	37.042214
1101.000000	37.073870
1102.000000	37.104304
1103.000000	37.133330
1104.000000	37.162568
1105.000000	37.171464
1106.000000	37.179944
1107.000000	37.188214
1108.000000	37.197268
1109.000000	37.205494
1110.000000	37.212780
1111.000000	37.218270
1112.000000	37.223602
1113.000000	37.228854
1114.000000	37.232408
1115.000000	37.235672
1116.000000	37.237646
1117.000000	37.240208
1118.000000	37.240646
1119.000000	37.239792
1120.000000	37.238416
1121.000000	37.237728
1122.000000	37.236206
1123.000000	37.234160
1124.000000	37.229864
1125.000000	37.224176
1126.000000	37.217414
1127.000000	37.207756
1128.000000	37.196228
1129.000000	37.183830
1130.000000	37.167834
1131.000000	37.147656
1132.000000	37.122802
1133.000000	37.097248
1134.000000	37.073338
1135.000000	37.047986
1136.000000	37.000272
1137.000000	36.950354
1138.000000	36.899520
1139.000000	36.847434
1140.000000	36.795550
1141.000000	36.744536
1142.000000	36.695546
1143.000000	36.644608
1144.000000	36.592666
1145.000000	36.541110
1146.000000	36.511252
1147.000000	36.482324
1148.000000	36.453590
1149.000000	36.424228
1150.000000	36.395126
1151.000000	36.366228
1152.000000	36.337676
1153.000000	36.309892
1154.000000	36.259626
1155.000000	36.207284
1156.000000	36.152276
1157.000000	36.095496
1158.000000	36.037012
1159.000000	35.976496
1160.000000	35.914580
1161.000000	35.848992
1162.000000	35.782332
1163.000000	35.712126
1164.000000	35.640148
1165.000000	35.567806
1166.000000	35.495286
1167.000000	35.424462
1168.000000	35.353448
1169.000000	35.282988
1170.000000	35.214596
