PE UV       SUBTECH     SPECTRUM    ASCII       PEDS        4.00        
   -1
INBUCR0124-5.Sample.ASC
24/02/12
15:01:42.00
24/02/12
15:01:42.00
Vinicio Soto Monge
Color café con ambos élitros (Det: A. Solís) COSTA RICA Prov. Guanacaste, A.C.G, Liberia, Mayorga, Quebrada Grande. 400m. 7 JUN 1986. Janzen. Manua (red, libre) L_N_314000_373000 #52573 INB0003358057 INBIOCRI COSTA RICA 
250,000000
1
Lambda 1050
1050L1511233
PerkinElmer UV WinLab 6.3.2.0749 / 2.02.05 Lambda 900 UV/VIS/NIR, Aug  7 2015 09:38:08

0
0
3350/servo 860,8/2
0
0
UV/VIS
1
1
1
DoubleDePol,CommonBeamDepol,RBeamAtt,SBeamAtt,60mm sphere, WB InGaAs Detector
0
0
0
0
Program
Program
3350/servo 860,8/2
3350/0,2 860,8/0,2
3350/0,2 860,8/0,2
0
15.00
 
 
 
0
 
860,8
150
860,8
Front
100
on
S:100 R:100
0
0
0
0
 
0
 
 
 
0
 
 
0
0
0
0
0
 
 
 
 
0
0


0
0
#HDR
-1
-1
#GR
nm
%R
1.0
0.0
2500,000000
-1,000000
2251
8
22,586700
1,588300
#DATA

250.000000	nan
251.000000	nan
252.000000	nan
253.000000	nan
254.000000	nan
255.000000	nan
256.000000	nan
257.000000	nan
258.000000	nan
259.000000	3.762596
260.000000	3.741086
261.000000	3.713385
262.000000	3.687831
263.000000	3.663538
264.000000	3.628345
265.000000	3.593792
266.000000	3.553087
267.000000	3.523513
268.000000	3.493990
269.000000	3.475375
270.000000	3.456027
271.000000	3.439393
272.000000	3.417135
273.000000	3.387499
274.000000	3.366572
275.000000	3.340748
276.000000	3.328952
277.000000	3.310788
278.000000	3.295794
279.000000	3.278140
280.000000	3.268868
281.000000	3.257177
282.000000	3.245951
283.000000	3.239152
284.000000	3.233146
285.000000	3.229010
286.000000	3.227564
287.000000	3.223934
288.000000	3.217354
289.000000	3.214050
290.000000	3.208370
291.000000	3.206179
292.000000	3.208903
293.000000	3.211039
294.000000	3.219444
295.000000	3.223242
296.000000	3.225463
297.000000	3.230222
298.000000	3.238250
299.000000	3.245016
300.000000	3.254898
301.000000	3.259869
302.000000	3.267806
303.000000	3.275366
304.000000	3.277197
305.000000	3.281100
306.000000	3.283031
307.000000	3.287599
308.000000	3.290334
309.000000	3.294326
310.000000	3.296031
311.000000	3.300358
312.000000	3.303236
313.000000	3.306514
314.000000	3.309806
315.000000	3.315270
316.000000	3.321966
317.000000	3.358516
318.000000	3.392404
319.000000	3.420923
320.000000	3.456215
321.000000	3.477096
322.000000	3.492400
323.000000	3.507834
324.000000	3.526505
325.000000	3.543092
326.000000	3.559967
327.000000	3.549663
328.000000	3.538715
329.000000	3.535362
330.000000	3.523081
331.000000	3.525035
332.000000	3.533203
333.000000	3.537630
334.000000	3.541700
335.000000	3.538476
336.000000	3.537022
337.000000	3.529914
338.000000	3.528019
339.000000	3.524375
340.000000	3.521411
341.000000	3.514204
342.000000	3.508617
343.000000	3.506028
344.000000	3.501126
345.000000	3.505654
346.000000	3.509735
347.000000	3.515130
348.000000	3.514045
349.000000	3.513199
350.000000	3.513537
351.000000	3.516960
352.000000	3.520413
353.000000	3.522380
354.000000	3.523988
355.000000	3.523199
356.000000	3.523457
357.000000	3.524267
358.000000	3.530214
359.000000	3.534370
360.000000	3.539619
361.000000	3.544856
362.000000	3.545247
363.000000	3.547723
364.000000	3.551990
365.000000	3.554190
366.000000	3.555535
367.000000	3.556796
368.000000	3.557716
369.000000	3.562168
370.000000	3.563123
371.000000	3.565253
372.000000	3.565242
373.000000	3.563882
374.000000	3.559626
375.000000	3.561245
376.000000	3.564485
377.000000	3.561616
378.000000	3.558169
379.000000	3.552649
380.000000	3.550150
381.000000	3.546422
382.000000	3.547091
383.000000	3.548989
384.000000	3.552622
385.000000	3.551983
386.000000	3.549949
387.000000	3.554375
388.000000	3.559064
389.000000	3.562820
390.000000	3.566894
391.000000	3.570891
392.000000	3.574710
393.000000	3.578749
394.000000	3.582641
395.000000	3.586306
396.000000	3.589600
397.000000	3.592385
398.000000	3.595068
399.000000	3.598130
400.000000	3.600900
401.000000	3.603670
402.000000	3.606806
403.000000	3.610260
404.000000	3.613406
405.000000	3.616583
406.000000	3.619946
407.000000	3.623561
408.000000	3.627234
409.000000	3.631397
410.000000	3.635736
411.000000	3.640327
412.000000	3.645208
413.000000	3.649987
414.000000	3.655193
415.000000	3.661304
416.000000	3.668300
417.000000	3.675785
418.000000	3.683594
419.000000	3.691853
420.000000	3.701084
421.000000	3.711219
422.000000	3.721911
423.000000	3.733662
424.000000	3.746248
425.000000	3.759216
426.000000	3.772496
427.000000	3.786519
428.000000	3.801509
429.000000	3.817015
430.000000	3.832834
431.000000	3.849722
432.000000	3.867101
433.000000	3.884934
434.000000	3.903571
435.000000	3.922897
436.000000	3.942814
437.000000	3.963027
438.000000	3.983569
439.000000	4.004632
440.000000	4.026256
441.000000	4.047696
442.000000	4.069704
443.000000	4.092320
444.000000	4.115168
445.000000	4.138275
446.000000	4.161502
447.000000	4.185069
448.000000	4.208983
449.000000	4.232830
450.000000	4.256936
451.000000	4.281645
452.000000	4.306251
453.000000	4.330526
454.000000	4.354675
455.000000	4.378878
456.000000	4.403410
457.000000	4.428025
458.000000	4.452775
459.000000	4.478050
460.000000	4.502967
461.000000	4.527707
462.000000	4.552925
463.000000	4.578593
464.000000	4.604287
465.000000	4.630241
466.000000	4.656454
467.000000	4.683020
468.000000	4.709433
469.000000	4.735659
470.000000	4.762573
471.000000	4.789613
472.000000	4.816601
473.000000	4.843965
474.000000	4.871758
475.000000	4.900072
476.000000	4.928623
477.000000	4.957292
478.000000	4.986807
479.000000	5.016735
480.000000	5.046777
481.000000	5.077466
482.000000	5.108309
483.000000	5.138955
484.000000	5.169803
485.000000	5.200838
486.000000	5.232086
487.000000	5.263428
488.000000	5.295034
489.000000	5.327007
490.000000	5.359440
491.000000	5.391442
492.000000	5.424063
493.000000	5.456949
494.000000	5.490432
495.000000	5.524100
496.000000	5.557879
497.000000	5.593011
498.000000	5.628514
499.000000	5.664062
500.000000	5.699419
501.000000	5.735993
502.000000	5.773038
503.000000	5.811046
504.000000	5.849356
505.000000	5.888234
506.000000	5.927559
507.000000	5.966679
508.000000	6.006319
509.000000	6.046743
510.000000	6.088520
511.000000	6.130936
512.000000	6.173760
513.000000	6.217109
514.000000	6.261230
515.000000	6.306177
516.000000	6.352054
517.000000	6.398550
518.000000	6.445860
519.000000	6.494243
520.000000	6.542845
521.000000	6.591886
522.000000	6.641707
523.000000	6.692330
524.000000	6.743461
525.000000	6.795493
526.000000	6.848532
527.000000	6.902236
528.000000	6.956172
529.000000	7.010474
530.000000	7.065844
531.000000	7.122056
532.000000	7.179194
533.000000	7.236814
534.000000	7.294741
535.000000	7.353235
536.000000	7.411856
537.000000	7.471163
538.000000	7.530780
539.000000	7.590837
540.000000	7.651025
541.000000	7.711246
542.000000	7.771472
543.000000	7.832178
544.000000	7.893562
545.000000	7.954780
546.000000	8.015805
547.000000	8.077015
548.000000	8.138329
549.000000	8.199617
550.000000	8.260926
551.000000	8.322576
552.000000	8.384091
553.000000	8.445129
554.000000	8.506455
555.000000	8.567979
556.000000	8.629416
557.000000	8.691353
558.000000	8.753322
559.000000	8.815051
560.000000	8.871860
561.000000	8.927472
562.000000	8.982707
563.000000	9.038417
564.000000	9.093548
565.000000	9.147989
566.000000	9.203300
567.000000	9.258457
568.000000	9.313158
569.000000	9.368436
570.000000	9.428470
571.000000	9.490108
572.000000	9.552508
573.000000	9.614534
574.000000	9.677496
575.000000	9.740972
576.000000	9.803709
577.000000	9.865678
578.000000	9.929380
579.000000	9.993110
580.000000	10.057459
581.000000	10.121151
582.000000	10.185332
583.000000	10.250011
584.000000	10.313967
585.000000	10.378945
586.000000	10.444238
587.000000	10.510130
588.000000	10.575586
589.000000	10.641193
590.000000	10.706740
591.000000	10.773343
592.000000	10.839974
593.000000	10.906630
594.000000	10.973080
595.000000	11.039496
596.000000	11.107043
597.000000	11.175128
598.000000	11.243203
599.000000	11.311396
600.000000	11.380007
601.000000	11.448791
602.000000	11.517888
603.000000	11.587527
604.000000	11.657831
605.000000	11.727118
606.000000	11.796547
607.000000	11.866307
608.000000	11.937344
609.000000	12.008463
610.000000	12.079691
611.000000	12.150555
612.000000	12.221175
613.000000	12.291883
614.000000	12.363275
615.000000	12.435284
616.000000	12.507031
617.000000	12.578518
618.000000	12.649517
619.000000	12.721485
620.000000	12.793812
621.000000	12.866235
622.000000	12.938821
623.000000	13.011406
624.000000	13.084308
625.000000	13.158181
626.000000	13.232116
627.000000	13.306003
628.000000	13.379850
629.000000	13.453783
630.000000	13.528141
631.000000	13.603097
632.000000	13.679710
633.000000	13.757042
634.000000	13.834456
635.000000	13.911599
636.000000	13.989779
637.000000	14.069236
638.000000	14.149113
639.000000	14.229821
640.000000	14.311842
641.000000	14.394678
642.000000	14.477553
643.000000	14.561383
644.000000	14.646052
645.000000	14.731567
646.000000	14.817968
647.000000	14.905306
648.000000	14.993576
649.000000	15.082448
650.000000	15.171209
651.000000	15.260465
652.000000	15.349768
653.000000	15.439974
654.000000	15.530432
655.000000	15.621840
656.000000	15.714048
657.000000	15.806537
658.000000	15.898609
659.000000	15.990572
660.000000	16.083024
661.000000	16.176792
662.000000	16.269923
663.000000	16.361992
664.000000	16.455076
665.000000	16.548719
666.000000	16.641040
667.000000	16.732587
668.000000	16.825128
669.000000	16.918144
670.000000	17.010764
671.000000	17.102153
672.000000	17.194322
673.000000	17.287873
674.000000	17.380053
675.000000	17.471628
676.000000	17.562977
677.000000	17.655945
678.000000	17.748212
679.000000	17.838715
680.000000	17.928499
681.000000	18.019314
682.000000	18.110055
683.000000	18.199517
684.000000	18.289521
685.000000	18.378806
686.000000	18.468346
687.000000	18.556432
688.000000	18.644965
689.000000	18.733768
690.000000	18.824836
691.000000	18.914140
692.000000	19.002359
693.000000	19.090460
694.000000	19.179681
695.000000	19.269774
696.000000	19.359946
697.000000	19.449832
698.000000	19.539715
699.000000	19.629890
700.000000	19.717415
701.000000	19.806312
702.000000	19.895475
703.000000	19.985495
704.000000	20.075981
705.000000	20.166025
706.000000	20.255222
707.000000	20.345118
708.000000	20.434715
709.000000	20.524877
710.000000	20.615964
711.000000	20.706326
712.000000	20.798368
713.000000	20.890527
714.000000	20.980658
715.000000	21.070363
716.000000	21.161337
717.000000	21.252194
718.000000	21.343899
719.000000	21.435653
720.000000	21.527389
721.000000	21.619843
722.000000	21.711218
723.000000	21.802305
724.000000	21.893857
725.000000	21.985651
726.000000	22.078163
727.000000	22.171715
728.000000	22.264767
729.000000	22.358723
730.000000	22.453201
731.000000	22.547578
732.000000	22.642925
733.000000	22.737307
734.000000	22.830643
735.000000	22.925170
736.000000	23.020574
737.000000	23.114826
738.000000	23.208589
739.000000	23.303266
740.000000	23.398638
741.000000	23.492742
742.000000	23.585681
743.000000	23.679727
744.000000	23.774645
745.000000	23.869134
746.000000	23.963672
747.000000	24.058417
748.000000	24.153830
749.000000	24.249879
750.000000	24.346389
751.000000	24.442931
752.000000	24.538715
753.000000	24.636536
754.000000	24.735452
755.000000	24.834318
756.000000	24.932000
757.000000	25.028178
758.000000	25.125833
759.000000	25.221496
760.000000	25.317689
761.000000	25.416290
762.000000	25.517422
763.000000	25.618100
764.000000	25.717934
765.000000	25.817481
766.000000	25.918100
767.000000	26.021873
768.000000	26.122216
769.000000	26.224674
770.000000	26.327017
771.000000	26.427066
772.000000	26.526387
773.000000	26.625205
774.000000	26.724894
775.000000	26.825919
776.000000	26.926514
777.000000	27.026127
778.000000	27.127231
779.000000	27.227139
780.000000	27.326370
781.000000	27.426981
782.000000	27.526534
783.000000	27.628938
784.000000	27.732405
785.000000	27.832602
786.000000	27.933751
787.000000	28.034756
788.000000	28.138442
789.000000	28.242789
790.000000	28.346643
791.000000	28.449461
792.000000	28.553268
793.000000	28.656390
794.000000	28.757551
795.000000	28.861024
796.000000	28.966341
797.000000	29.071165
798.000000	29.172726
799.000000	29.273360
800.000000	29.374859
801.000000	29.478979
802.000000	29.582106
803.000000	29.683672
804.000000	29.788433
805.000000	29.891460
806.000000	29.992659
807.000000	30.096888
808.000000	30.199602
809.000000	30.299864
810.000000	30.404639
811.000000	30.509999
812.000000	30.611699
813.000000	30.714164
814.000000	30.811257
815.000000	30.908758
816.000000	31.003743
817.000000	31.098922
818.000000	31.196867
819.000000	31.298416
820.000000	31.388562
821.000000	31.478884
822.000000	31.570567
823.000000	31.664454
824.000000	31.758380
825.000000	31.850435
826.000000	31.941458
827.000000	32.028962
828.000000	32.113637
829.000000	32.192665
830.000000	32.279305
831.000000	32.361779
832.000000	32.448207
833.000000	32.529454
834.000000	32.605577
835.000000	32.690283
836.000000	32.773302
837.000000	32.852322
838.000000	32.930767
839.000000	33.013287
840.000000	33.090151
841.000000	33.161165
842.000000	33.229543
843.000000	33.302381
844.000000	33.379957
845.000000	33.447725
846.000000	33.519309
847.000000	33.585534
848.000000	33.650019
849.000000	33.711652
850.000000	33.772130
851.000000	33.838155
852.000000	33.897256
853.000000	33.952114
854.000000	34.003786
855.000000	34.054002
856.000000	34.097592
857.000000	34.166478
858.000000	34.710841
859.000000	34.829870
860.000000	34.972554
861.000000	35.084297
862.000000	35.181301
863.000000	35.281306
864.000000	35.384553
865.000000	35.459202
866.000000	35.565267
867.000000	35.640947
868.000000	35.217374
869.000000	35.223798
870.000000	35.214070
871.000000	35.228140
872.000000	35.241292
873.000000	35.245276
874.000000	35.258562
875.000000	35.288424
876.000000	35.274676
877.000000	35.282418
878.000000	35.301800
879.000000	35.318924
880.000000	35.309980
881.000000	35.308536
882.000000	35.321042
883.000000	35.317334
884.000000	35.319044
885.000000	35.322274
886.000000	35.331566
887.000000	35.313370
888.000000	35.307154
889.000000	35.286118
890.000000	35.274700
891.000000	35.264618
892.000000	35.261238
893.000000	35.255198
894.000000	35.226494
895.000000	35.211992
896.000000	35.203096
897.000000	35.198710
898.000000	35.193968
899.000000	35.204766
900.000000	35.208198
901.000000	35.204270
902.000000	35.197526
903.000000	35.210030
904.000000	35.227698
905.000000	35.238386
906.000000	35.246874
907.000000	35.254552
908.000000	35.255512
909.000000	35.252258
910.000000	35.260866
911.000000	35.272412
912.000000	35.282554
913.000000	35.297730
914.000000	35.303166
915.000000	35.301748
916.000000	35.309970
917.000000	35.321292
918.000000	35.338824
919.000000	35.358006
920.000000	35.378722
921.000000	35.395022
922.000000	35.408868
923.000000	35.414460
924.000000	35.427284
925.000000	35.448484
926.000000	35.462816
927.000000	35.483850
928.000000	35.502862
929.000000	35.511148
930.000000	35.522056
931.000000	35.534716
932.000000	35.546364
933.000000	35.564630
934.000000	35.584766
935.000000	35.599238
936.000000	35.613596
937.000000	35.627276
938.000000	35.640476
939.000000	35.656074
940.000000	35.671684
941.000000	35.682820
942.000000	35.698850
943.000000	35.704510
944.000000	35.714066
945.000000	35.725482
946.000000	35.735938
947.000000	35.746544
948.000000	35.756888
949.000000	35.765324
950.000000	35.772336
951.000000	35.783676
952.000000	35.791916
953.000000	35.806220
954.000000	35.815460
955.000000	35.827568
956.000000	35.840078
957.000000	35.852458
958.000000	35.862674
959.000000	35.874472
960.000000	35.884538
961.000000	35.897864
962.000000	35.909154
963.000000	35.915284
964.000000	35.921404
965.000000	35.926452
966.000000	35.929478
967.000000	35.932052
968.000000	35.939264
969.000000	35.946226
970.000000	35.952336
971.000000	35.954904
972.000000	35.959928
973.000000	35.969220
974.000000	35.977216
975.000000	35.983960
976.000000	35.990832
977.000000	35.998698
978.000000	36.003828
979.000000	36.009942
980.000000	36.014604
981.000000	36.017798
982.000000	36.022272
983.000000	36.025968
984.000000	36.030510
985.000000	36.038280
986.000000	36.043466
987.000000	36.046224
988.000000	36.051002
989.000000	36.055314
990.000000	36.059368
991.000000	36.064042
992.000000	36.068854
993.000000	36.073210
994.000000	36.077332
995.000000	36.080022
996.000000	36.083828
997.000000	36.088390
998.000000	36.093030
999.000000	36.098948
1000.000000	36.106236
1001.000000	36.111414
1002.000000	36.115444
1003.000000	36.119858
1004.000000	36.123236
1005.000000	36.127552
1006.000000	36.133218
1007.000000	36.138330
1008.000000	36.141972
1009.000000	36.146548
1010.000000	36.149284
1011.000000	36.152240
1012.000000	36.157262
1013.000000	36.161062
1014.000000	36.164280
1015.000000	36.168876
1016.000000	36.174390
1017.000000	36.179442
1018.000000	36.184128
1019.000000	36.188896
1020.000000	36.196002
1021.000000	36.205152
1022.000000	36.213374
1023.000000	36.222460
1024.000000	36.231694
1025.000000	36.240398
1026.000000	36.249326
1027.000000	36.259144
1028.000000	36.270144
1029.000000	36.280766
1030.000000	36.291380
1031.000000	36.302626
1032.000000	36.315020
1033.000000	36.328690
1034.000000	36.343280
1035.000000	36.356952
1036.000000	36.371046
1037.000000	36.385972
1038.000000	36.399216
1039.000000	36.412762
1040.000000	36.427446
1041.000000	36.442102
1042.000000	36.456110
1043.000000	36.468800
1044.000000	36.481116
1045.000000	36.493086
1046.000000	36.504774
1047.000000	36.517122
1048.000000	36.530988
1049.000000	36.544868
1050.000000	36.558408
1051.000000	36.571604
1052.000000	36.585324
1053.000000	36.600934
1054.000000	36.617314
1055.000000	36.634130
1056.000000	36.651170
1057.000000	36.668134
1058.000000	36.685098
1059.000000	36.702550
1060.000000	36.719252
1061.000000	36.736782
1062.000000	36.754812
1063.000000	36.770854
1064.000000	36.787546
1065.000000	36.805138
1066.000000	36.822120
1067.000000	36.838910
1068.000000	36.856398
1069.000000	36.873326
1070.000000	36.891468
1071.000000	36.908886
1072.000000	36.924942
1073.000000	36.942286
1074.000000	36.960428
1075.000000	36.976962
1076.000000	36.992620
1077.000000	37.007602
1078.000000	37.022096
1079.000000	37.036754
1080.000000	37.050194
1081.000000	37.063042
1082.000000	37.075806
1083.000000	37.087296
1084.000000	37.097058
1085.000000	37.107392
1086.000000	37.119078
1087.000000	37.130806
1088.000000	37.142192
1089.000000	37.153178
1090.000000	37.162748
1091.000000	37.172898
1092.000000	37.181898
1093.000000	37.189928
1094.000000	37.198696
1095.000000	37.207370
1096.000000	37.214820
1097.000000	37.221722
1098.000000	37.226132
1099.000000	37.230356
1100.000000	37.235324
1101.000000	37.239684
1102.000000	37.242414
1103.000000	37.245830
1104.000000	37.248014
1105.000000	37.249656
1106.000000	37.250622
1107.000000	37.251454
1108.000000	37.252736
1109.000000	37.253012
1110.000000	37.251688
1111.000000	37.250454
1112.000000	37.249748
1113.000000	37.248462
1114.000000	37.247880
1115.000000	37.244824
1116.000000	37.240140
1117.000000	37.234526
1118.000000	37.228128
1119.000000	37.219674
1120.000000	37.211604
1121.000000	37.200304
1122.000000	37.187674
1123.000000	37.171702
1124.000000	37.150948
1125.000000	37.129418
1126.000000	37.105272
1127.000000	37.077702
1128.000000	37.047468
1129.000000	37.014078
1130.000000	36.975890
1131.000000	36.932400
1132.000000	36.885126
1133.000000	36.836630
1134.000000	36.788696
1135.000000	36.738856
1136.000000	36.684650
1137.000000	36.628254
1138.000000	36.568406
1139.000000	36.509376
1140.000000	36.449314
1141.000000	36.391258
1142.000000	36.333016
1143.000000	36.273560
1144.000000	36.213172
1145.000000	36.152990
1146.000000	36.094550
1147.000000	36.038454
1148.000000	35.982892
1149.000000	35.925698
1150.000000	35.869538
1151.000000	35.813676
1152.000000	35.758736
1153.000000	35.701696
1154.000000	35.642388
1155.000000	35.579586
1156.000000	35.516790
1157.000000	35.449416
1158.000000	35.381308
1159.000000	35.309812
1160.000000	35.237144
1161.000000	35.159862
1162.000000	35.078834
1163.000000	34.998292
1164.000000	34.915128
1165.000000	34.832678
1166.000000	34.749330
1167.000000	34.666172
1168.000000	34.583598
