PE UV       SUBTECH     SPECTRUM    ASCII       PEDS        4.00        
   -1
INBUCR0434-4.Sample.ASC
24/02/09
15:47:05.00
24/02/09
15:47:05.00
Vinicio Soto Monge
Chrysina luteomarginata. Det: A. Solíz. COSTA RICA. Prov. Limón, R. B. Hitoy Cerere, Valle La Estrella, Calavera Danta, 370 m. 13 de OCT 2004, B. Gamboa, D. Briceño, M. Moraga, Y. Cárdenas. Tp Luz #78493. INB0003888481 Sin élitros. 
250,000000
1
Lambda 1050
1050L1511233
PerkinElmer UV WinLab 6.3.2.0749 / 2.02.05 Lambda 900 UV/VIS/NIR, Aug  7 2015 09:38:08

0
0
3350/servo 860,8/2
0
0
UV/VIS
1
1
1
DoubleDePol,CommonBeamDepol,RBeamAtt,SBeamAtt,60mm sphere, WB InGaAs Detector
0
0
0
0
Program
Program
3350/servo 860,8/2
3350/0,2 860,8/0,2
3350/0,2 860,8/0,2
0
15.00
 
 
 
0
 
860,8
319,2
860,8
Front
100
on
S:100 R:100
0
0
0
0
 
0
 
 
 
0
 
 
0
0
0
0
0
 
 
 
 
0
0


0
0
#HDR
-1
-1
#GR
nm
%R
1.0
0.0
2500,000000
-1,000000
2251
8
15,418800
1,411100
#DATA

250.000000	nan
251.000000	nan
252.000000	nan
253.000000	nan
254.000000	nan
255.000000	nan
256.000000	nan
257.000000	nan
258.000000	nan
259.000000	4.531419
260.000000	4.529215
261.000000	4.529653
262.000000	4.527779
263.000000	4.525604
264.000000	4.524410
265.000000	4.522319
266.000000	4.520561
267.000000	4.516964
268.000000	4.513390
269.000000	4.509289
270.000000	4.507948
271.000000	4.505515
272.000000	4.502314
273.000000	4.498631
274.000000	4.493954
275.000000	4.491871
276.000000	4.487212
277.000000	4.485728
278.000000	4.483011
279.000000	4.480288
280.000000	4.476204
281.000000	4.472042
282.000000	4.469810
283.000000	4.467450
284.000000	4.466670
285.000000	4.465111
286.000000	4.463979
287.000000	4.461284
288.000000	4.460557
289.000000	4.458674
290.000000	4.454525
291.000000	4.453417
292.000000	4.451048
293.000000	4.449187
294.000000	4.446861
295.000000	4.445580
296.000000	4.444769
297.000000	4.442931
298.000000	4.440601
299.000000	4.438662
300.000000	4.435735
301.000000	4.432976
302.000000	4.432927
303.000000	4.432122
304.000000	4.431411
305.000000	4.428045
306.000000	4.426703
307.000000	4.425412
308.000000	4.423969
309.000000	4.423649
310.000000	4.425777
311.000000	4.426251
312.000000	4.425042
313.000000	4.425176
314.000000	4.424509
315.000000	4.425476
316.000000	4.428787
317.000000	4.460342
318.000000	4.508551
319.000000	4.558704
320.000000	4.584544
321.000000	4.613803
322.000000	4.632972
323.000000	4.649091
324.000000	4.658779
325.000000	4.666680
326.000000	4.685139
327.000000	4.670233
328.000000	4.632420
329.000000	4.594703
330.000000	4.583058
331.000000	4.566181
332.000000	4.554227
333.000000	4.549656
334.000000	4.558246
335.000000	4.556871
336.000000	4.542886
337.000000	4.540968
338.000000	4.541089
339.000000	4.532546
340.000000	4.529352
341.000000	4.517617
342.000000	4.513868
343.000000	4.509373
344.000000	4.496533
345.000000	4.497533
346.000000	4.498324
347.000000	4.488886
348.000000	4.483416
349.000000	4.484856
350.000000	4.483870
351.000000	4.491592
352.000000	4.492327
353.000000	4.487010
354.000000	4.481054
355.000000	4.480731
356.000000	4.475726
357.000000	4.473401
358.000000	4.471362
359.000000	4.468834
360.000000	4.461648
361.000000	4.458672
362.000000	4.457413
363.000000	4.453779
364.000000	4.454365
365.000000	4.444822
366.000000	4.439365
367.000000	4.437223
368.000000	4.431980
369.000000	4.422865
370.000000	4.410830
371.000000	4.395395
372.000000	4.382434
373.000000	4.370114
374.000000	4.353234
375.000000	4.345211
376.000000	4.347725
377.000000	4.334173
378.000000	4.323591
379.000000	4.316807
380.000000	4.313293
381.000000	4.310600
382.000000	4.307720
383.000000	4.307848
384.000000	4.311238
385.000000	4.308287
386.000000	4.294612
387.000000	4.294558
388.000000	4.294381
389.000000	4.294344
390.000000	4.294127
391.000000	4.293693
392.000000	4.293276
393.000000	4.293186
394.000000	4.293304
395.000000	4.292788
396.000000	4.292269
397.000000	4.291979
398.000000	4.291585
399.000000	4.291143
400.000000	4.290835
401.000000	4.290585
402.000000	4.289841
403.000000	4.288932
404.000000	4.320474
405.000000	4.352617
406.000000	4.384820
407.000000	4.416926
408.000000	4.449088
409.000000	4.481234
410.000000	4.513325
411.000000	4.545560
412.000000	4.577553
413.000000	4.609652
414.000000	4.609530
415.000000	4.609323
416.000000	4.609054
417.000000	4.608466
418.000000	4.608239
419.000000	4.608540
420.000000	4.608956
421.000000	4.608997
422.000000	4.609599
423.000000	4.610284
424.000000	4.610614
425.000000	4.611183
426.000000	4.611787
427.000000	4.612671
428.000000	4.613404
429.000000	4.613980
430.000000	4.614426
431.000000	4.615201
432.000000	4.615983
433.000000	4.616811
434.000000	4.617960
435.000000	4.618941
436.000000	4.620022
437.000000	4.621225
438.000000	4.622753
439.000000	4.624172
440.000000	4.625389
441.000000	4.626741
442.000000	4.627962
443.000000	4.629269
444.000000	4.630577
445.000000	4.632046
446.000000	4.633648
447.000000	4.635250
448.000000	4.636840
449.000000	4.638377
450.000000	4.640251
451.000000	4.642169
452.000000	4.644142
453.000000	4.646359
454.000000	4.648571
455.000000	4.650581
456.000000	4.652509
457.000000	4.654596
458.000000	4.656690
459.000000	4.659102
460.000000	4.661434
461.000000	4.663481
462.000000	4.665812
463.000000	4.668172
464.000000	4.670498
465.000000	4.672879
466.000000	4.675352
467.000000	4.677766
468.000000	4.679929
469.000000	4.681861
470.000000	4.683831
471.000000	4.685903
472.000000	4.687615
473.000000	4.689054
474.000000	4.690410
475.000000	4.691783
476.000000	4.693119
477.000000	4.694318
478.000000	4.695345
479.000000	4.696101
480.000000	4.696665
481.000000	4.696748
482.000000	4.696697
483.000000	4.696718
484.000000	4.696861
485.000000	4.697367
486.000000	4.698242
487.000000	4.699435
488.000000	4.701060
489.000000	4.703213
490.000000	4.706152
491.000000	4.710136
492.000000	4.714930
493.000000	4.720059
494.000000	4.725333
495.000000	4.730822
496.000000	4.736253
497.000000	4.741713
498.000000	4.747352
499.000000	4.785471
500.000000	4.823538
501.000000	4.861318
502.000000	4.898942
503.000000	4.936598
504.000000	4.974016
505.000000	5.011276
506.000000	5.048582
507.000000	5.085721
508.000000	5.122597
509.000000	5.126974
510.000000	5.131013
511.000000	5.135004
512.000000	5.138572
513.000000	5.141934
514.000000	5.145334
515.000000	5.148406
516.000000	5.151062
517.000000	5.153400
518.000000	5.155448
519.000000	5.157172
520.000000	5.158642
521.000000	5.160045
522.000000	5.161647
523.000000	5.163255
524.000000	5.164697
525.000000	5.166243
526.000000	5.168036
527.000000	5.170298
528.000000	5.172849
529.000000	5.175635
530.000000	5.178536
531.000000	5.181697
532.000000	5.185230
533.000000	5.188911
534.000000	5.193091
535.000000	5.197602
536.000000	5.234706
537.000000	5.271785
538.000000	5.309128
539.000000	5.346684
540.000000	5.384764
541.000000	5.422828
542.000000	5.460903
543.000000	5.498916
544.000000	5.536993
545.000000	5.575090
546.000000	5.580854
547.000000	5.586642
548.000000	5.592535
549.000000	5.598358
550.000000	5.603863
551.000000	5.609563
552.000000	5.615157
553.000000	5.621068
554.000000	5.626778
555.000000	5.632482
556.000000	5.638337
557.000000	5.644264
558.000000	5.649923
559.000000	5.655632
560.000000	5.658285
561.000000	5.660278
562.000000	5.662427
563.000000	5.664176
564.000000	5.666231
565.000000	5.700594
566.000000	5.734963
567.000000	5.769337
568.000000	5.803930
569.000000	5.838415
570.000000	5.876313
571.000000	5.914491
572.000000	5.952493
573.000000	5.990943
574.000000	6.029361
575.000000	6.035483
576.000000	6.041329
577.000000	6.047241
578.000000	6.053285
579.000000	6.059650
580.000000	6.065881
581.000000	6.072239
582.000000	6.078968
583.000000	6.085527
584.000000	6.091961
585.000000	6.098555
586.000000	6.105217
587.000000	6.111928
588.000000	6.118551
589.000000	6.125161
590.000000	6.131809
591.000000	6.138874
592.000000	6.145299
593.000000	6.151951
594.000000	6.159026
595.000000	6.166179
596.000000	6.172985
597.000000	6.180003
598.000000	6.187101
599.000000	6.194365
600.000000	6.201771
601.000000	6.208916
602.000000	6.216617
603.000000	6.224035
604.000000	6.231487
605.000000	6.238558
606.000000	6.245916
607.000000	6.254031
608.000000	6.261841
609.000000	6.269307
610.000000	6.277071
611.000000	6.284660
612.000000	6.292276
613.000000	6.300048
614.000000	6.307794
615.000000	6.315413
616.000000	6.323605
617.000000	6.330794
618.000000	6.338662
619.000000	6.346433
620.000000	6.354101
621.000000	6.361947
622.000000	6.370099
623.000000	6.378639
624.000000	6.386694
625.000000	6.395107
626.000000	6.403349
627.000000	6.412094
628.000000	6.420838
629.000000	6.429799
630.000000	6.438878
631.000000	6.448358
632.000000	6.457521
633.000000	6.467133
634.000000	6.476916
635.000000	6.486699
636.000000	6.497069
637.000000	6.507152
638.000000	6.517101
639.000000	6.560048
640.000000	6.603049
641.000000	6.646334
642.000000	6.690177
643.000000	6.733717
644.000000	6.778085
645.000000	6.822698
646.000000	6.866762
647.000000	6.911351
648.000000	6.955912
649.000000	6.968137
650.000000	6.980641
651.000000	6.992941
652.000000	7.004839
653.000000	7.017304
654.000000	7.029264
655.000000	7.041786
656.000000	7.055065
657.000000	7.067934
658.000000	7.081375
659.000000	7.094888
660.000000	7.107945
661.000000	7.121569
662.000000	7.135686
663.000000	7.181665
664.000000	7.227921
665.000000	7.273958
666.000000	7.320136
667.000000	7.366457
668.000000	7.412721
669.000000	7.459321
670.000000	7.506385
671.000000	7.553026
672.000000	7.599741
673.000000	7.614779
674.000000	7.630037
675.000000	7.645530
676.000000	7.660656
677.000000	7.676717
678.000000	7.692619
679.000000	7.708335
680.000000	7.723937
681.000000	7.772291
682.000000	7.820712
683.000000	7.868904
684.000000	7.917223
685.000000	7.965834
686.000000	8.014189
687.000000	8.062105
688.000000	8.110451
689.000000	8.159067
690.000000	8.207581
691.000000	8.223543
692.000000	8.239393
693.000000	8.255297
694.000000	8.271142
695.000000	8.287069
696.000000	8.336194
697.000000	8.384059
698.000000	8.432021
699.000000	8.480033
700.000000	8.528501
701.000000	8.577476
702.000000	8.626360
703.000000	8.674644
704.000000	8.722723
705.000000	8.770633
706.000000	8.785608
707.000000	8.802619
708.000000	8.819125
709.000000	8.834804
710.000000	8.850564
711.000000	8.866428
712.000000	8.915332
713.000000	8.964382
714.000000	9.013792
715.000000	9.063152
716.000000	9.112934
717.000000	9.162283
718.000000	9.211553
719.000000	9.261062
720.000000	9.310268
721.000000	9.359154
722.000000	9.375895
723.000000	9.392974
724.000000	9.410387
725.000000	9.427965
726.000000	9.445029
727.000000	9.461721
728.000000	9.511411
729.000000	9.561412
730.000000	9.611363
731.000000	9.660921
732.000000	9.710786
733.000000	9.760950
734.000000	9.810723
735.000000	9.860476
736.000000	9.910124
737.000000	9.959859
738.000000	9.976947
739.000000	9.994545
740.000000	10.013321
741.000000	10.032703
742.000000	10.050183
743.000000	10.067335
744.000000	10.118000
745.000000	10.168022
746.000000	10.218975
747.000000	10.270513
748.000000	10.321416
749.000000	10.372479
750.000000	10.422873
751.000000	10.472853
752.000000	10.523791
753.000000	10.574734
754.000000	10.593266
755.000000	10.612505
756.000000	10.630559
757.000000	10.648371
758.000000	10.667231
759.000000	10.685673
760.000000	10.737053
761.000000	10.788623
762.000000	10.840469
763.000000	10.892880
764.000000	10.944576
765.000000	10.996591
766.000000	11.049013
767.000000	11.101518
768.000000	11.154457
769.000000	11.206571
770.000000	11.225643
771.000000	11.245004
772.000000	11.264999
773.000000	11.285224
774.000000	11.304184
775.000000	11.323192
776.000000	11.375933
777.000000	11.428245
778.000000	11.479996
779.000000	11.532669
780.000000	11.585500
781.000000	11.638090
782.000000	11.689867
783.000000	11.741779
784.000000	11.794827
785.000000	11.847383
786.000000	11.866299
787.000000	11.886123
788.000000	11.905986
789.000000	11.926476
790.000000	11.947642
791.000000	11.968566
792.000000	12.022646
793.000000	12.074758
794.000000	12.126785
795.000000	12.179986
796.000000	12.234077
797.000000	12.286938
798.000000	12.340529
799.000000	12.393242
800.000000	12.445016
801.000000	12.497087
802.000000	12.517685
803.000000	12.538261
804.000000	12.558797
805.000000	12.577917
806.000000	12.597783
807.000000	12.619344
808.000000	12.641312
809.000000	12.697130
810.000000	12.754980
811.000000	12.811751
812.000000	12.866752
813.000000	12.923413
814.000000	12.978968
815.000000	13.036675
816.000000	13.091152
817.000000	13.143833
818.000000	13.195315
819.000000	13.213549
820.000000	13.230220
821.000000	13.247087
822.000000	13.265268
823.000000	13.283604
824.000000	13.303021
825.000000	13.319397
826.000000	13.336706
827.000000	13.355038
828.000000	13.403602
829.000000	13.451665
830.000000	13.500736
831.000000	13.548417
832.000000	13.595499
833.000000	13.641731
834.000000	13.685497
835.000000	13.731882
836.000000	13.778390
837.000000	13.822693
838.000000	13.839181
839.000000	13.854461
840.000000	13.869401
841.000000	13.886661
842.000000	13.898578
843.000000	13.911052
844.000000	13.927413
845.000000	13.940068
846.000000	13.942789
847.000000	13.947689
848.000000	13.950801
849.000000	13.983506
850.000000	14.020816
851.000000	14.018663
852.000000	14.053940
853.000000	14.088467
854.000000	14.115280
855.000000	14.143024
856.000000	14.174987
857.000000	14.234909
858.000000	14.641074
859.000000	14.678500
860.000000	14.736038
861.000000	14.832912
862.000000	14.898492
863.000000	14.940683
864.000000	15.013930
865.000000	15.089815
866.000000	15.172303
867.000000	15.200267
868.000000	14.880375
869.000000	14.901503
870.000000	14.870722
871.000000	14.864247
872.000000	14.855532
873.000000	14.845283
874.000000	14.809567
875.000000	14.771585
876.000000	14.733750
877.000000	14.720147
878.000000	14.731635
879.000000	14.716945
880.000000	14.727535
881.000000	14.713180
882.000000	14.724455
883.000000	14.735210
884.000000	14.745133
885.000000	14.731078
886.000000	14.716020
887.000000	14.702208
888.000000	14.662463
889.000000	14.647737
890.000000	14.633355
891.000000	14.618918
892.000000	14.580228
893.000000	14.566120
894.000000	14.551650
895.000000	14.562420
896.000000	14.573465
897.000000	14.584955
898.000000	14.597410
899.000000	14.609615
900.000000	14.621465
901.000000	14.633377
902.000000	14.619765
903.000000	14.631367
904.000000	14.621160
905.000000	14.611155
906.000000	14.600903
907.000000	14.589220
908.000000	14.579120
909.000000	14.568820
910.000000	14.558630
911.000000	14.549135
912.000000	14.565648
913.000000	14.557393
914.000000	14.573190
915.000000	14.587533
916.000000	14.602720
917.000000	14.620060
918.000000	14.636152
919.000000	14.652655
920.000000	14.670440
921.000000	14.689042
922.000000	14.705295
923.000000	14.722830
924.000000	14.739308
925.000000	14.757022
926.000000	14.773782
927.000000	14.789652
928.000000	14.805218
929.000000	14.821318
930.000000	14.836087
931.000000	14.849335
932.000000	14.864650
933.000000	14.879435
934.000000	14.894768
935.000000	14.910080
936.000000	14.925198
937.000000	14.940295
938.000000	14.955443
939.000000	14.969515
940.000000	14.984140
941.000000	14.998408
942.000000	15.010950
943.000000	15.022088
944.000000	15.033940
945.000000	15.046212
946.000000	15.058890
947.000000	15.071078
948.000000	15.082565
949.000000	15.095045
950.000000	15.107120
951.000000	15.118707
952.000000	15.130982
953.000000	15.144692
954.000000	15.155767
955.000000	15.166663
956.000000	15.177547
957.000000	15.189003
958.000000	15.201925
959.000000	15.212953
960.000000	15.223545
961.000000	15.234863
962.000000	15.270580
963.000000	15.304773
964.000000	15.341140
965.000000	15.375662
966.000000	15.409682
967.000000	15.443612
968.000000	15.476170
969.000000	15.509683
970.000000	15.543340
971.000000	15.576878
972.000000	15.585782
973.000000	15.594435
974.000000	15.601972
975.000000	15.610165
976.000000	15.619515
977.000000	15.628573
978.000000	15.637047
979.000000	15.644940
980.000000	15.652677
981.000000	15.660595
982.000000	15.668158
983.000000	15.676773
984.000000	15.685447
985.000000	15.693388
986.000000	15.700380
987.000000	15.707370
988.000000	15.715280
989.000000	15.722902
990.000000	15.730635
991.000000	15.738507
992.000000	15.746397
993.000000	15.754313
994.000000	15.762155
995.000000	15.770022
996.000000	15.777877
997.000000	15.785410
998.000000	15.792777
999.000000	15.800595
1000.000000	15.808112
1001.000000	15.815590
1002.000000	15.822890
1003.000000	15.829607
1004.000000	15.836455
1005.000000	15.843318
1006.000000	15.849695
1007.000000	15.855795
1008.000000	15.861878
1009.000000	15.868270
1010.000000	15.874920
1011.000000	15.880800
1012.000000	15.886105
1013.000000	15.891660
1014.000000	15.897302
1015.000000	15.902883
1016.000000	15.907867
1017.000000	15.913108
1018.000000	15.919210
1019.000000	15.925642
1020.000000	15.956413
1021.000000	15.987290
1022.000000	16.019692
1023.000000	16.052340
1024.000000	16.084350
1025.000000	16.116300
1026.000000	16.149252
1027.000000	16.182805
1028.000000	16.216023
1029.000000	16.248800
1030.000000	16.257202
1031.000000	16.266310
1032.000000	16.274560
1033.000000	16.282615
1034.000000	16.291272
1035.000000	16.300440
1036.000000	16.309615
1037.000000	16.318207
1038.000000	16.326702
1039.000000	16.335630
1040.000000	16.344640
1041.000000	16.353190
1042.000000	16.361877
1043.000000	16.370745
1044.000000	16.379290
1045.000000	16.387633
1046.000000	16.396300
1047.000000	16.404823
1048.000000	16.413560
1049.000000	16.422445
1050.000000	16.431208
1051.000000	16.440262
1052.000000	16.449235
1053.000000	16.457977
1054.000000	16.466790
1055.000000	16.476273
1056.000000	16.485467
1057.000000	16.495125
1058.000000	16.530237
1059.000000	16.564722
1060.000000	16.599448
1061.000000	16.634625
1062.000000	16.669472
1063.000000	16.703972
1064.000000	16.738437
1065.000000	16.772655
1066.000000	16.807727
1067.000000	16.842347
1068.000000	16.852162
1069.000000	16.863015
1070.000000	16.873225
1071.000000	16.882560
1072.000000	16.891803
1073.000000	16.901747
1074.000000	16.912308
1075.000000	16.922702
1076.000000	16.933197
1077.000000	16.943913
1078.000000	16.953505
1079.000000	16.962097
1080.000000	16.971637
1081.000000	16.981570
1082.000000	16.992245
1083.000000	17.002845
1084.000000	17.012265
1085.000000	17.021757
1086.000000	17.030153
1087.000000	17.039202
1088.000000	17.047945
1089.000000	17.057150
1090.000000	17.065780
1091.000000	17.073678
1092.000000	17.080942
1093.000000	17.087865
1094.000000	17.095840
1095.000000	17.103777
1096.000000	17.136825
1097.000000	17.168433
1098.000000	17.200440
1099.000000	17.231950
1100.000000	17.263257
1101.000000	17.295130
1102.000000	17.326945
1103.000000	17.358740
1104.000000	17.390422
1105.000000	17.422238
1106.000000	17.427478
1107.000000	17.432837
1108.000000	17.438422
1109.000000	17.443660
1110.000000	17.448793
1111.000000	17.453772
1112.000000	17.457422
1113.000000	17.461132
1114.000000	17.465553
1115.000000	17.468293
1116.000000	17.471967
1117.000000	17.475685
1118.000000	17.479077
1119.000000	17.483145
1120.000000	17.485640
1121.000000	17.488653
1122.000000	17.492870
1123.000000	17.496050
1124.000000	17.496930
1125.000000	17.498460
1126.000000	17.499488
1127.000000	17.499435
1128.000000	17.497925
1129.000000	17.494827
1130.000000	17.490713
1131.000000	17.482513
1132.000000	17.472240
1133.000000	17.461688
1134.000000	17.452807
1135.000000	17.418682
1136.000000	17.383085
1137.000000	17.345580
1138.000000	17.305843
1139.000000	17.264862
1140.000000	17.225350
1141.000000	17.187312
1142.000000	17.149917
1143.000000	17.112078
1144.000000	17.072690
1145.000000	17.058160
1146.000000	17.043440
1147.000000	17.031840
1148.000000	17.020917
1149.000000	17.010720
1150.000000	17.000140
1151.000000	16.991217
1152.000000	16.980817
1153.000000	16.970820
1154.000000	16.959912
1155.000000	16.947870
1156.000000	16.935220
1157.000000	16.894183
1158.000000	16.852252
1159.000000	16.809860
1160.000000	16.767200
1161.000000	16.720638
1162.000000	16.673553
1163.000000	16.624212
1164.000000	16.573363
1165.000000	16.521583
1166.000000	16.469573
1167.000000	16.441765
1168.000000	16.415890
1169.000000	16.388965
1170.000000	16.360967
1171.000000	16.334815
1172.000000	16.309977
1173.000000	16.262702
1174.000000	16.216930
