PE UV       SUBTECH     SPECTRUM    ASCII       PEDS        4.00        
   -1
INBUCR0132-4.Sample.ASC
24/02/07
12:35:23.00
24/02/07
12:35:23.00
Vinicio Soto Monge
Color café con ambos élitros (Det: A. Solís) COSTA RICA Prov. Limón. Veragua Rainforest. Campamento. 400-440 m. 24-27 FEB 2009. R. Villalobos. Tp. Luz Mercurio. L_N_212220_625230 #95892 INB0004200339 INBIOCRI COSTA RICA 
250,000000
1
Lambda 1050
1050L1511233
PerkinElmer UV WinLab 6.3.2.0749 / 2.02.05 Lambda 900 UV/VIS/NIR, Aug  7 2015 09:38:08

0
0
3350/servo 860,8/2
0
0
UV/VIS
1
1
1
DoubleDePol,CommonBeamDepol,RBeamAtt,SBeamAtt,60mm sphere, WB InGaAs Detector
0
0
0
0
Program
Program
3350/servo 860,8/2
3350/0,2 860,8/0,2
3350/0,2 860,8/0,2
0
15.00
 
 
 
0
 
860,8
319,2
860,8
Front
100
on
S:100 R:100
0
0
0
0
 
0
 
 
 
0
 
 
0
0
0
0
0
 
 
 
 
0
0


0
0
#HDR
-1
-1
#GR
nm
%R
1.0
0.0
2500,000000
-1,000000
2251
8
16,320100
1,256600
#DATA

250.000000	nan
251.000000	nan
252.000000	nan
253.000000	nan
254.000000	nan
255.000000	nan
256.000000	nan
257.000000	nan
258.000000	nan
259.000000	3.994555
260.000000	3.984057
261.000000	3.970759
262.000000	3.956564
263.000000	3.940053
264.000000	3.922160
265.000000	3.904892
266.000000	3.886738
267.000000	3.870761
268.000000	3.854724
269.000000	3.837400
270.000000	3.819208
271.000000	3.804606
272.000000	3.790131
273.000000	3.776611
274.000000	3.762848
275.000000	3.749732
276.000000	3.738650
277.000000	3.728159
278.000000	3.717447
279.000000	3.707897
280.000000	3.699739
281.000000	3.689667
282.000000	3.680850
283.000000	3.672718
284.000000	3.667255
285.000000	3.662095
286.000000	3.657938
287.000000	3.652224
288.000000	3.649471
289.000000	3.647005
290.000000	3.643638
291.000000	3.642232
292.000000	3.641315
293.000000	3.641080
294.000000	3.639813
295.000000	3.641014
296.000000	3.637476
297.000000	3.636682
298.000000	3.634487
299.000000	3.632101
300.000000	3.630782
301.000000	3.630067
302.000000	3.629446
303.000000	3.626061
304.000000	3.623380
305.000000	3.619466
306.000000	3.617238
307.000000	3.612760
308.000000	3.610299
309.000000	3.610594
310.000000	3.607119
311.000000	3.603647
312.000000	3.599745
313.000000	3.598487
314.000000	3.596984
315.000000	3.597262
316.000000	3.599718
317.000000	3.620178
318.000000	3.633231
319.000000	3.643528
320.000000	3.657739
321.000000	3.667129
322.000000	3.683142
323.000000	3.689226
324.000000	3.701850
325.000000	3.712790
326.000000	3.721120
327.000000	3.710497
328.000000	3.702286
329.000000	3.696456
330.000000	3.690083
331.000000	3.686712
332.000000	3.676985
333.000000	3.677702
334.000000	3.673989
335.000000	3.666381
336.000000	3.660293
337.000000	3.659772
338.000000	3.658612
339.000000	3.657507
340.000000	3.656227
341.000000	3.654192
342.000000	3.651864
343.000000	3.649626
344.000000	3.645543
345.000000	3.642527
346.000000	3.643221
347.000000	3.635936
348.000000	3.634208
349.000000	3.631240
350.000000	3.628629
351.000000	3.628839
352.000000	3.626221
353.000000	3.623890
354.000000	3.623421
355.000000	3.622970
356.000000	3.619116
357.000000	3.617677
358.000000	3.615511
359.000000	3.615055
360.000000	3.612432
361.000000	3.610390
362.000000	3.610075
363.000000	3.607430
364.000000	3.603719
365.000000	3.600709
366.000000	3.599172
367.000000	3.599761
368.000000	3.598655
369.000000	3.593667
370.000000	3.590758
371.000000	3.586420
372.000000	3.584022
373.000000	3.583637
374.000000	3.581566
375.000000	3.578166
376.000000	3.572757
377.000000	3.558074
378.000000	3.544173
379.000000	3.531448
380.000000	3.518102
381.000000	3.505452
382.000000	3.492611
383.000000	3.478915
384.000000	3.465548
385.000000	3.455498
386.000000	3.446106
387.000000	3.445187
388.000000	3.444924
389.000000	3.444609
390.000000	3.444208
391.000000	3.444653
392.000000	3.444618
393.000000	3.444661
394.000000	3.445490
395.000000	3.445836
396.000000	3.446714
397.000000	3.447302
398.000000	3.448150
399.000000	3.449189
400.000000	3.450500
401.000000	3.451635
402.000000	3.452768
403.000000	3.454467
404.000000	3.456536
405.000000	3.458636
406.000000	3.460903
407.000000	3.463682
408.000000	3.466467
409.000000	3.470043
410.000000	3.473977
411.000000	3.477970
412.000000	3.482580
413.000000	3.487623
414.000000	3.493048
415.000000	3.499116
416.000000	3.505897
417.000000	3.513737
418.000000	3.522168
419.000000	3.531148
420.000000	3.540868
421.000000	3.551212
422.000000	3.562174
423.000000	3.573856
424.000000	3.586222
425.000000	3.599534
426.000000	3.613400
427.000000	3.627970
428.000000	3.643124
429.000000	3.659064
430.000000	3.675965
431.000000	3.693610
432.000000	3.711625
433.000000	3.730311
434.000000	3.749909
435.000000	3.770031
436.000000	3.790722
437.000000	3.812062
438.000000	3.834220
439.000000	3.856588
440.000000	3.878775
441.000000	3.901349
442.000000	3.924864
443.000000	3.949123
444.000000	3.973510
445.000000	3.997804
446.000000	4.022291
447.000000	4.047262
448.000000	4.072077
449.000000	4.097430
450.000000	4.123437
451.000000	4.149863
452.000000	4.176019
453.000000	4.202032
454.000000	4.228819
455.000000	4.256258
456.000000	4.283727
457.000000	4.311329
458.000000	4.339800
459.000000	4.368570
460.000000	4.397384
461.000000	4.425929
462.000000	4.455180
463.000000	4.485012
464.000000	4.514289
465.000000	4.543624
466.000000	4.573425
467.000000	4.603247
468.000000	4.633318
469.000000	4.663390
470.000000	4.693637
471.000000	4.724351
472.000000	4.755024
473.000000	4.786114
474.000000	4.817705
475.000000	4.849724
476.000000	4.882000
477.000000	4.914558
478.000000	4.947157
479.000000	4.979955
480.000000	5.013294
481.000000	5.047235
482.000000	5.081797
483.000000	5.116214
484.000000	5.150573
485.000000	5.185061
486.000000	5.220366
487.000000	5.256346
488.000000	5.292728
489.000000	5.329726
490.000000	5.367305
491.000000	5.405266
492.000000	5.443371
493.000000	5.482445
494.000000	5.522368
495.000000	5.562714
496.000000	5.603681
497.000000	5.645010
498.000000	5.687060
499.000000	5.729929
500.000000	5.772781
501.000000	5.816488
502.000000	5.861239
503.000000	5.905863
504.000000	5.951052
505.000000	5.997044
506.000000	6.043557
507.000000	6.090338
508.000000	6.137897
509.000000	6.185877
510.000000	6.235071
511.000000	6.284741
512.000000	6.335336
513.000000	6.386728
514.000000	6.438808
515.000000	6.492010
516.000000	6.545653
517.000000	6.600403
518.000000	6.655576
519.000000	6.711733
520.000000	6.768565
521.000000	6.826793
522.000000	6.885488
523.000000	6.945589
524.000000	7.007007
525.000000	7.069347
526.000000	7.132449
527.000000	7.196776
528.000000	7.262293
529.000000	7.328818
530.000000	7.396122
531.000000	7.464255
532.000000	7.533806
533.000000	7.604313
534.000000	7.675757
535.000000	7.747712
536.000000	7.821263
537.000000	7.895645
538.000000	7.970674
539.000000	8.046535
540.000000	8.123455
541.000000	8.200911
542.000000	8.279001
543.000000	8.357491
544.000000	8.436985
545.000000	8.517217
546.000000	8.598050
547.000000	8.679350
548.000000	8.761439
549.000000	8.844193
550.000000	8.927532
551.000000	9.011737
552.000000	9.096316
553.000000	9.181507
554.000000	9.267199
555.000000	9.353304
556.000000	9.440071
557.000000	9.527067
558.000000	9.615498
559.000000	9.703321
560.000000	9.786419
561.000000	9.869229
562.000000	9.952112
563.000000	10.036720
564.000000	10.121214
565.000000	10.207007
566.000000	10.292352
567.000000	10.379022
568.000000	10.465084
569.000000	10.552854
570.000000	10.646601
571.000000	10.741749
572.000000	10.837896
573.000000	10.934195
574.000000	11.030864
575.000000	11.127862
576.000000	11.226204
577.000000	11.324904
578.000000	11.424602
579.000000	11.524467
580.000000	11.625313
581.000000	11.726591
582.000000	11.828140
583.000000	11.930027
584.000000	12.033052
585.000000	12.136767
586.000000	12.240559
587.000000	12.344968
588.000000	12.450399
589.000000	12.556029
590.000000	12.661271
591.000000	12.766957
592.000000	12.874232
593.000000	12.982081
594.000000	13.089937
595.000000	13.198411
596.000000	13.306658
597.000000	13.415987
598.000000	13.525495
599.000000	13.635857
600.000000	13.746945
601.000000	13.859233
602.000000	13.970711
603.000000	14.081996
604.000000	14.194678
605.000000	14.307282
606.000000	14.421527
607.000000	14.534915
608.000000	14.648310
609.000000	14.762382
610.000000	14.877629
611.000000	14.992131
612.000000	15.107720
613.000000	15.223651
614.000000	15.339663
615.000000	15.455461
616.000000	15.571961
617.000000	15.689105
618.000000	15.806110
619.000000	15.922627
620.000000	16.039400
621.000000	16.156736
622.000000	16.273923
623.000000	16.391118
624.000000	16.508764
625.000000	16.626536
626.000000	16.744462
627.000000	16.862538
628.000000	16.981221
629.000000	17.100806
630.000000	17.220152
631.000000	17.340668
632.000000	17.462599
633.000000	17.584430
634.000000	17.705629
635.000000	17.829772
636.000000	17.952928
637.000000	18.077449
638.000000	18.202364
639.000000	18.328051
640.000000	18.454302
641.000000	18.580814
642.000000	18.706808
643.000000	18.834295
644.000000	18.962381
645.000000	19.089885
646.000000	19.219301
647.000000	19.349012
648.000000	19.478550
649.000000	19.609076
650.000000	19.739936
651.000000	19.870707
652.000000	20.001770
653.000000	20.133803
654.000000	20.266548
655.000000	20.398158
656.000000	20.528639
657.000000	20.660289
658.000000	20.794094
659.000000	20.926544
660.000000	21.057799
661.000000	21.188734
662.000000	21.320617
663.000000	21.451384
664.000000	21.581340
665.000000	21.711340
666.000000	21.841925
667.000000	21.970460
668.000000	22.096213
669.000000	22.223744
670.000000	22.351846
671.000000	22.479280
672.000000	22.605843
673.000000	22.732861
674.000000	22.859409
675.000000	22.986302
676.000000	23.112607
677.000000	23.237830
678.000000	23.363518
679.000000	23.487658
680.000000	23.611706
681.000000	23.736256
682.000000	23.858463
683.000000	23.980063
684.000000	24.101965
685.000000	24.222843
686.000000	24.343253
687.000000	24.463071
688.000000	24.582633
689.000000	24.701948
690.000000	24.821208
691.000000	24.938604
692.000000	25.057365
693.000000	25.176097
694.000000	25.293620
695.000000	25.409531
696.000000	25.526783
697.000000	25.644731
698.000000	25.762180
699.000000	25.878010
700.000000	25.993042
701.000000	26.109174
702.000000	26.224010
703.000000	26.338064
704.000000	26.452344
705.000000	26.568355
706.000000	26.682775
707.000000	26.794725
708.000000	26.906736
709.000000	27.019112
710.000000	27.131845
711.000000	27.245712
712.000000	27.359291
713.000000	27.471655
714.000000	27.584445
715.000000	27.695321
716.000000	27.805356
717.000000	27.917808
718.000000	28.030633
719.000000	28.143813
720.000000	28.254619
721.000000	28.362056
722.000000	28.470146
723.000000	28.580350
724.000000	28.688952
725.000000	28.797788
726.000000	28.907267
727.000000	29.014832
728.000000	29.122988
729.000000	29.228973
730.000000	29.334723
731.000000	29.442302
732.000000	29.551986
733.000000	29.660269
734.000000	29.769074
735.000000	29.876465
736.000000	29.980997
737.000000	30.087496
738.000000	30.192400
739.000000	30.297969
740.000000	30.404249
741.000000	30.508601
742.000000	30.611189
743.000000	30.713341
744.000000	30.814782
745.000000	30.918510
746.000000	31.023786
747.000000	31.127359
748.000000	31.231550
749.000000	31.335652
750.000000	31.439296
751.000000	31.544586
752.000000	31.649262
753.000000	31.753676
754.000000	31.857968
755.000000	31.960070
756.000000	32.061809
757.000000	32.165585
758.000000	32.269658
759.000000	32.373382
760.000000	32.477171
761.000000	32.578544
762.000000	32.677210
763.000000	32.778775
764.000000	32.883260
765.000000	32.986586
766.000000	33.089027
767.000000	33.188210
768.000000	33.287053
769.000000	33.388203
770.000000	33.488305
771.000000	33.587579
772.000000	33.690724
773.000000	33.790478
774.000000	33.886857
775.000000	33.984704
776.000000	34.082527
777.000000	34.183350
778.000000	34.280091
779.000000	34.374495
780.000000	34.470094
781.000000	34.569550
782.000000	34.667725
783.000000	34.762897
784.000000	34.859190
785.000000	34.957965
786.000000	35.058795
787.000000	35.154604
788.000000	35.251857
789.000000	35.348801
790.000000	35.445605
791.000000	35.538538
792.000000	35.631458
793.000000	35.727002
794.000000	35.820060
795.000000	35.909702
796.000000	36.000084
797.000000	36.092353
798.000000	36.183963
799.000000	36.275112
800.000000	36.364343
801.000000	36.452987
802.000000	36.540272
803.000000	36.633679
804.000000	36.726535
805.000000	36.824348
806.000000	36.914420
807.000000	37.005306
808.000000	37.098757
809.000000	37.190469
810.000000	37.283419
811.000000	37.377805
812.000000	37.470007
813.000000	37.554592
814.000000	37.640787
815.000000	37.715383
816.000000	37.797052
817.000000	37.881541
818.000000	37.959625
819.000000	38.033393
820.000000	38.110212
821.000000	38.183449
822.000000	38.254340
823.000000	38.329263
824.000000	38.397947
825.000000	38.476247
826.000000	38.548511
827.000000	38.615073
828.000000	38.684361
829.000000	38.753597
830.000000	38.818086
831.000000	38.885641
832.000000	38.952279
833.000000	39.010552
834.000000	39.072357
835.000000	39.132702
836.000000	39.182766
837.000000	39.240360
838.000000	39.296810
839.000000	39.353710
840.000000	39.408214
841.000000	39.454553
842.000000	39.503690
843.000000	39.554009
844.000000	39.603050
845.000000	39.648396
846.000000	39.702898
847.000000	39.741317
848.000000	39.772041
849.000000	39.813875
850.000000	39.850396
851.000000	39.893583
852.000000	39.915582
853.000000	39.954740
854.000000	39.994541
855.000000	40.028701
856.000000	40.061483
857.000000	40.112657
858.000000	40.368265
859.000000	40.483338
860.000000	40.605895
861.000000	40.747835
862.000000	40.923992
863.000000	41.068115
864.000000	41.221393
865.000000	41.365004
866.000000	41.497800
867.000000	41.617891
868.000000	41.532155
869.000000	41.577257
870.000000	41.607547
871.000000	41.600345
872.000000	41.573190
873.000000	41.555042
874.000000	41.532043
875.000000	41.526455
876.000000	41.501130
877.000000	41.477402
878.000000	41.456527
879.000000	41.430245
880.000000	41.423243
881.000000	41.421060
882.000000	41.416980
883.000000	41.409332
884.000000	41.384557
885.000000	41.360280
886.000000	41.363067
887.000000	41.353845
888.000000	41.339967
889.000000	41.321605
890.000000	41.306730
891.000000	41.289972
892.000000	41.276075
893.000000	41.259425
894.000000	41.244592
895.000000	41.211317
896.000000	41.190033
897.000000	41.180455
898.000000	41.167308
899.000000	41.154720
900.000000	41.124275
901.000000	41.103590
902.000000	41.081755
903.000000	41.071368
904.000000	41.069090
905.000000	41.074768
906.000000	41.067427
907.000000	41.052025
908.000000	41.044497
909.000000	41.045530
910.000000	41.047875
911.000000	41.046768
912.000000	41.044928
913.000000	41.039612
914.000000	41.033705
915.000000	41.033590
916.000000	41.034195
917.000000	41.040757
918.000000	41.044945
919.000000	41.041490
920.000000	41.045657
921.000000	41.054270
922.000000	41.062162
923.000000	41.070663
924.000000	41.071835
925.000000	41.069338
926.000000	41.068323
927.000000	41.071348
928.000000	41.075635
929.000000	41.082483
930.000000	41.079410
931.000000	41.079095
932.000000	41.083580
933.000000	41.086728
934.000000	41.097415
935.000000	41.107782
936.000000	41.112705
937.000000	41.113498
938.000000	41.114142
939.000000	41.116290
940.000000	41.119500
941.000000	41.117262
942.000000	41.109170
943.000000	41.103713
944.000000	41.098092
945.000000	41.091595
946.000000	41.089517
947.000000	41.082887
948.000000	41.079800
949.000000	41.079730
950.000000	41.083850
951.000000	41.087915
952.000000	41.091120
953.000000	41.089993
954.000000	41.087270
955.000000	41.084738
956.000000	41.086528
957.000000	41.089145
958.000000	41.088385
959.000000	41.083470
960.000000	41.078077
961.000000	41.073882
962.000000	41.074288
963.000000	41.077830
964.000000	41.078363
965.000000	41.077970
966.000000	41.074137
967.000000	41.072392
968.000000	41.073395
969.000000	41.074775
970.000000	41.072263
971.000000	41.068900
972.000000	41.066770
973.000000	41.064132
974.000000	41.062545
975.000000	41.060518
976.000000	41.056960
977.000000	41.052277
978.000000	41.048813
979.000000	41.045705
980.000000	41.044500
981.000000	41.042082
982.000000	41.037512
983.000000	41.031290
984.000000	41.026153
985.000000	41.024248
986.000000	41.023432
987.000000	41.021368
988.000000	41.017040
989.000000	41.013470
990.000000	41.011443
991.000000	41.010362
992.000000	41.009960
993.000000	41.008473
994.000000	41.006580
995.000000	41.004967
996.000000	41.004230
997.000000	41.004897
998.000000	41.004590
999.000000	41.002313
1000.000000	40.999513
1001.000000	40.997722
1002.000000	40.996783
1003.000000	40.997293
1004.000000	40.995868
1005.000000	40.991985
1006.000000	40.988540
1007.000000	40.985860
1008.000000	40.985345
1009.000000	40.986238
1010.000000	40.986807
1011.000000	40.986088
1012.000000	40.984133
1013.000000	40.983355
1014.000000	40.985980
1015.000000	40.990535
1016.000000	40.995420
1017.000000	40.999083
1018.000000	41.002848
1019.000000	41.008475
1020.000000	41.016843
1021.000000	41.026605
1022.000000	41.035303
1023.000000	41.043220
1024.000000	41.052790
1025.000000	41.062790
1026.000000	41.073097
1027.000000	41.086805
1028.000000	41.100957
1029.000000	41.113707
1030.000000	41.124925
1031.000000	41.137100
1032.000000	41.152130
1033.000000	41.167590
1034.000000	41.181305
1035.000000	41.195450
1036.000000	41.210260
1037.000000	41.223570
1038.000000	41.237405
1039.000000	41.251047
1040.000000	41.264067
1041.000000	41.276013
1042.000000	41.287653
1043.000000	41.301265
1044.000000	41.315155
1045.000000	41.326342
1046.000000	41.337033
1047.000000	41.349018
1048.000000	41.360402
1049.000000	41.373047
1050.000000	41.386215
1051.000000	41.399313
1052.000000	41.411830
1053.000000	41.425185
1054.000000	41.438690
1055.000000	41.454115
1056.000000	41.470017
1057.000000	41.485325
1058.000000	41.500085
1059.000000	41.515175
1060.000000	41.530662
1061.000000	41.547363
1062.000000	41.564815
1063.000000	41.581058
1064.000000	41.598290
1065.000000	41.617182
1066.000000	41.634718
1067.000000	41.650780
1068.000000	41.668112
1069.000000	41.685358
1070.000000	41.703885
1071.000000	41.721275
1072.000000	41.738793
1073.000000	41.755400
1074.000000	41.770425
1075.000000	41.784107
1076.000000	41.800160
1077.000000	41.817635
1078.000000	41.834753
1079.000000	41.850927
1080.000000	41.864742
1081.000000	41.880698
1082.000000	41.896220
1083.000000	41.911635
1084.000000	41.926825
1085.000000	41.941800
1086.000000	41.955362
1087.000000	41.968355
1088.000000	41.980823
1089.000000	41.994062
1090.000000	42.006902
1091.000000	42.018062
1092.000000	42.029230
1093.000000	42.040435
1094.000000	42.051823
1095.000000	42.063345
1096.000000	42.074567
1097.000000	42.083727
1098.000000	42.092223
1099.000000	42.101437
1100.000000	42.110313
1101.000000	42.118745
1102.000000	42.126067
1103.000000	42.131862
1104.000000	42.139233
1105.000000	42.145850
1106.000000	42.150935
1107.000000	42.156430
1108.000000	42.161887
1109.000000	42.165045
1110.000000	42.168745
1111.000000	42.172560
1112.000000	42.176370
1113.000000	42.178315
1114.000000	42.177725
1115.000000	42.177850
1116.000000	42.176690
1117.000000	42.175747
1118.000000	42.173695
1119.000000	42.170210
1120.000000	42.164915
1121.000000	42.158405
1122.000000	42.150087
1123.000000	42.140358
1124.000000	42.126832
1125.000000	42.106997
1126.000000	42.084065
1127.000000	42.055737
1128.000000	42.024430
1129.000000	41.989938
1130.000000	41.950428
1131.000000	41.903180
1132.000000	41.850713
1133.000000	41.797910
1134.000000	41.743980
1135.000000	41.687993
1136.000000	41.628200
1137.000000	41.565135
1138.000000	41.500698
1139.000000	41.436110
1140.000000	41.374207
1141.000000	41.314490
1142.000000	41.255852
1143.000000	41.197828
1144.000000	41.141577
1145.000000	41.090440
1146.000000	41.043892
1147.000000	41.000840
1148.000000	40.958750
1149.000000	40.916508
1150.000000	40.874627
1151.000000	40.834450
1152.000000	40.794393
1153.000000	40.750175
1154.000000	40.704403
1155.000000	40.653115
1156.000000	40.597732
1157.000000	40.537765
1158.000000	40.473120
1159.000000	40.403693
1160.000000	40.328007
1161.000000	40.246245
1162.000000	40.160745
1163.000000	40.072685
1164.000000	39.979098
1165.000000	39.883815
1166.000000	39.788085
1167.000000	39.693750
