PE UV       SUBTECH     SPECTRUM    ASCII       PEDS        4.00        
   -1
INBUCR0232-4.Sample.ASC
24/02/08
11:59:15.00
24/02/08
11:59:15.00
Vinicio Soto Monge
Plateado. Extremos de las patas morados.
250,000000
1
Lambda 1050
1050L1511233
PerkinElmer UV WinLab 6.3.2.0749 / 2.02.05 Lambda 900 UV/VIS/NIR, Aug  7 2015 09:38:08

0
0
3350/servo 860,8/2
0
0
UV/VIS
1
1
1
DoubleDePol,CommonBeamDepol,RBeamAtt,SBeamAtt,60mm sphere, WB InGaAs Detector
0
0
0
0
Program
Program
3350/servo 860,8/2
3350/0,2 860,8/0,2
3350/0,2 860,8/0,2
0
15.00
 
 
 
0
 
860,8
319,2
860,8
Front
100
on
S:100 R:100
0
0
0
0
 
0
 
 
 
0
 
 
0
0
0
0
0
 
 
 
 
0
0


0
0
#HDR
-1
-1
#GR
nm
%R
1.0
0.0
2500,000000
-1,000000
2251
8
15,638800
1,495600
#DATA

250.000000	nan
251.000000	nan
252.000000	nan
253.000000	nan
254.000000	nan
255.000000	nan
256.000000	nan
257.000000	nan
258.000000	nan
259.000000	4.211352
260.000000	4.198303
261.000000	4.185300
262.000000	4.168917
263.000000	4.154293
264.000000	4.138238
265.000000	4.120032
266.000000	4.102231
267.000000	4.083169
268.000000	4.065389
269.000000	4.046720
270.000000	4.029464
271.000000	4.013165
272.000000	3.998658
273.000000	3.984412
274.000000	3.968939
275.000000	3.956424
276.000000	3.945195
277.000000	3.935376
278.000000	3.925478
279.000000	3.916038
280.000000	3.908103
281.000000	3.899464
282.000000	3.891723
283.000000	3.884483
284.000000	3.880893
285.000000	3.876044
286.000000	3.871284
287.000000	3.866091
288.000000	3.861558
289.000000	3.860159
290.000000	3.855893
291.000000	3.854884
292.000000	3.852617
293.000000	3.851008
294.000000	3.847111
295.000000	3.845429
296.000000	3.841376
297.000000	3.838812
298.000000	3.835745
299.000000	3.830424
300.000000	3.826053
301.000000	3.821080
302.000000	3.817614
303.000000	3.811104
304.000000	3.808929
305.000000	3.805678
306.000000	3.798352
307.000000	3.791541
308.000000	3.786093
309.000000	3.780487
310.000000	3.776484
311.000000	3.772327
312.000000	3.767991
313.000000	3.765511
314.000000	3.762737
315.000000	3.758588
316.000000	3.762661
317.000000	3.776976
318.000000	3.798729
319.000000	3.821160
320.000000	3.834238
321.000000	3.849423
322.000000	3.861513
323.000000	3.884753
324.000000	3.901386
325.000000	3.922941
326.000000	3.939644
327.000000	3.945471
328.000000	3.944272
329.000000	3.939339
330.000000	3.942141
331.000000	3.946519
332.000000	3.958121
333.000000	3.961052
334.000000	3.971549
335.000000	3.982838
336.000000	3.994293
337.000000	4.009796
338.000000	4.032115
339.000000	4.059723
340.000000	4.092977
341.000000	4.127644
342.000000	4.162269
343.000000	4.204366
344.000000	4.253633
345.000000	4.306475
346.000000	4.374278
347.000000	4.447941
348.000000	4.524469
349.000000	4.616591
350.000000	4.715514
351.000000	4.828668
352.000000	4.959837
353.000000	5.103067
354.000000	5.258599
355.000000	5.432633
356.000000	5.620455
357.000000	5.827848
358.000000	6.055250
359.000000	6.298445
360.000000	6.564762
361.000000	6.851437
362.000000	7.155537
363.000000	7.478832
364.000000	7.826151
365.000000	8.189835
366.000000	8.570118
367.000000	8.965050
368.000000	9.378769
369.000000	9.811376
370.000000	10.253578
371.000000	10.703527
372.000000	11.156707
373.000000	11.614981
374.000000	12.071550
375.000000	12.531156
376.000000	12.996751
377.000000	13.470066
378.000000	13.934461
379.000000	14.384324
380.000000	14.827297
381.000000	15.257498
382.000000	15.679342
383.000000	16.087149
384.000000	16.479405
385.000000	16.852833
386.000000	17.202308
387.000000	17.521401
388.000000	17.821866
389.000000	18.106282
390.000000	18.371221
391.000000	18.616200
392.000000	18.841070
393.000000	19.049117
394.000000	19.239630
395.000000	19.412138
396.000000	19.567055
397.000000	19.706454
398.000000	19.827628
399.000000	19.930767
400.000000	20.018895
401.000000	20.091209
402.000000	20.149493
403.000000	20.191099
404.000000	20.216594
405.000000	20.228810
406.000000	20.226950
407.000000	20.211358
408.000000	20.184688
409.000000	20.146155
410.000000	20.095458
411.000000	20.033969
412.000000	19.961789
413.000000	19.882573
414.000000	19.798058
415.000000	19.709859
416.000000	19.619661
417.000000	19.530547
418.000000	19.445413
419.000000	19.366739
420.000000	19.297764
421.000000	19.241057
422.000000	19.200760
423.000000	19.178661
424.000000	19.176027
425.000000	19.194986
426.000000	19.236133
427.000000	19.297221
428.000000	19.377431
429.000000	19.475308
430.000000	19.587165
431.000000	19.709952
432.000000	19.837986
433.000000	19.966164
434.000000	20.089334
435.000000	20.201503
436.000000	20.300134
437.000000	20.382631
438.000000	20.444579
439.000000	20.484285
440.000000	20.500839
441.000000	20.493008
442.000000	20.461795
443.000000	20.407603
444.000000	20.332343
445.000000	20.239392
446.000000	20.130198
447.000000	20.007338
448.000000	19.874506
449.000000	19.736076
450.000000	19.595681
451.000000	19.456316
452.000000	19.322402
453.000000	19.198871
454.000000	19.090757
455.000000	19.001750
456.000000	18.934272
457.000000	18.889460
458.000000	18.867189
459.000000	18.866029
460.000000	18.883858
461.000000	18.919070
462.000000	18.967941
463.000000	19.025122
464.000000	19.083718
465.000000	19.137929
466.000000	19.183450
467.000000	19.215683
468.000000	19.231264
469.000000	19.227560
470.000000	19.203567
471.000000	19.158794
472.000000	19.093372
473.000000	19.009557
474.000000	18.911557
475.000000	18.803667
476.000000	18.689735
477.000000	18.575359
478.000000	18.466830
479.000000	18.369306
480.000000	18.287127
481.000000	18.224043
482.000000	18.183014
483.000000	18.166260
484.000000	18.175134
485.000000	18.207714
486.000000	18.261901
487.000000	18.334549
488.000000	18.420884
489.000000	18.515704
490.000000	18.614691
491.000000	18.712923
492.000000	18.805984
493.000000	18.889927
494.000000	18.962105
495.000000	19.020561
496.000000	19.065756
497.000000	19.098595
498.000000	19.120023
499.000000	19.133223
500.000000	19.142277
501.000000	19.151244
502.000000	19.165444
503.000000	19.188259
504.000000	19.223957
505.000000	19.277429
506.000000	19.353417
507.000000	19.456285
508.000000	19.592086
509.000000	19.764487
510.000000	19.975351
511.000000	20.228338
512.000000	20.523376
513.000000	20.860399
514.000000	21.235691
515.000000	21.643266
516.000000	22.074682
517.000000	22.520365
518.000000	22.969082
519.000000	23.410431
520.000000	23.835399
521.000000	24.234288
522.000000	24.600967
523.000000	24.930177
524.000000	25.219730
525.000000	25.471493
526.000000	25.688577
527.000000	25.875850
528.000000	26.038474
529.000000	26.181606
530.000000	26.307923
531.000000	26.422316
532.000000	26.526579
533.000000	26.622720
534.000000	26.712968
535.000000	26.797478
536.000000	26.875473
537.000000	26.947243
538.000000	27.012688
539.000000	27.069805
540.000000	27.120909
541.000000	27.165326
542.000000	27.204030
543.000000	27.237585
544.000000	27.265860
545.000000	27.289342
546.000000	27.309690
547.000000	27.326772
548.000000	27.340037
549.000000	27.353209
550.000000	27.364538
551.000000	27.374565
552.000000	27.382622
553.000000	27.389922
554.000000	27.396554
555.000000	27.401518
556.000000	27.404820
557.000000	27.406172
558.000000	27.405377
559.000000	27.401680
560.000000	27.387255
561.000000	27.369006
562.000000	27.347693
563.000000	27.323976
564.000000	27.297159
565.000000	27.268297
566.000000	27.235791
567.000000	27.201338
568.000000	27.164617
569.000000	27.124703
570.000000	27.089142
571.000000	27.050795
572.000000	27.008108
573.000000	26.959363
574.000000	26.903362
575.000000	26.838845
576.000000	26.766086
577.000000	26.681709
578.000000	26.585040
579.000000	26.474485
580.000000	26.347806
581.000000	26.203987
582.000000	26.041652
583.000000	25.860861
584.000000	25.661632
585.000000	25.445385
586.000000	25.214981
587.000000	24.974694
588.000000	24.732948
589.000000	24.496441
590.000000	24.278139
591.000000	24.084378
592.000000	23.921814
593.000000	23.795208
594.000000	23.702773
595.000000	23.642171
596.000000	23.606509
597.000000	23.589176
598.000000	23.577651
599.000000	23.564089
600.000000	23.536753
601.000000	23.488785
602.000000	23.417410
603.000000	23.321000
604.000000	23.203926
605.000000	23.071301
606.000000	22.930153
607.000000	22.786646
608.000000	22.648940
609.000000	22.517495
610.000000	22.397105
611.000000	22.290751
612.000000	22.197278
613.000000	22.115734
614.000000	22.049172
615.000000	21.996053
616.000000	21.955827
617.000000	21.929078
618.000000	21.913290
619.000000	21.909831
620.000000	21.915558
621.000000	21.924772
622.000000	21.936396
623.000000	21.946052
624.000000	21.947490
625.000000	21.938403
626.000000	21.919630
627.000000	21.890888
628.000000	21.854717
629.000000	21.814651
630.000000	21.775004
631.000000	21.743805
632.000000	21.721468
633.000000	21.713544
634.000000	21.719950
635.000000	21.740057
636.000000	21.771310
637.000000	21.809560
638.000000	21.851998
639.000000	21.896503
640.000000	21.938819
641.000000	21.976074
642.000000	22.012015
643.000000	22.046674
644.000000	22.083743
645.000000	22.123892
646.000000	22.169874
647.000000	22.223177
648.000000	22.285110
649.000000	22.352903
650.000000	22.427098
651.000000	22.503641
652.000000	22.580786
653.000000	22.655765
654.000000	22.725491
655.000000	22.792643
656.000000	22.855586
657.000000	22.917150
658.000000	22.978240
659.000000	23.042708
660.000000	23.110789
661.000000	23.187197
662.000000	23.270151
663.000000	23.357912
664.000000	23.453228
665.000000	23.552901
666.000000	23.656087
667.000000	23.758403
668.000000	23.860175
669.000000	23.959008
670.000000	24.054873
671.000000	24.147244
672.000000	24.237797
673.000000	24.327994
674.000000	24.418305
675.000000	24.511578
676.000000	24.606516
677.000000	24.706533
678.000000	24.810367
679.000000	24.916631
680.000000	25.026490
681.000000	25.138778
682.000000	25.250977
683.000000	25.363149
684.000000	25.472593
685.000000	25.578954
686.000000	25.684166
687.000000	25.788836
688.000000	25.891796
689.000000	25.994064
690.000000	26.096116
691.000000	26.198516
692.000000	26.303346
693.000000	26.409609
694.000000	26.518831
695.000000	26.630317
696.000000	26.742546
697.000000	26.851591
698.000000	26.959342
699.000000	27.068604
700.000000	27.175743
701.000000	27.279680
702.000000	27.382399
703.000000	27.483985
704.000000	27.584717
705.000000	27.685576
706.000000	27.786383
707.000000	27.889033
708.000000	27.994887
709.000000	28.099207
710.000000	28.203916
711.000000	28.312517
712.000000	28.419721
713.000000	28.526466
714.000000	28.631634
715.000000	28.731610
716.000000	28.829145
717.000000	28.924843
718.000000	29.015950
719.000000	29.105171
720.000000	29.192410
721.000000	29.275177
722.000000	29.356768
723.000000	29.437564
724.000000	29.518756
725.000000	29.600960
726.000000	29.683840
727.000000	29.766634
728.000000	29.849503
729.000000	29.932067
730.000000	30.016159
731.000000	30.101909
732.000000	30.188454
733.000000	30.276270
734.000000	30.362306
735.000000	30.447846
736.000000	30.532312
737.000000	30.617794
738.000000	30.704267
739.000000	30.791713
740.000000	30.878371
741.000000	30.964300
742.000000	31.050100
743.000000	31.133158
744.000000	31.215070
745.000000	31.298023
746.000000	31.379739
747.000000	31.457763
748.000000	31.534213
749.000000	31.607490
750.000000	31.676908
751.000000	31.743453
752.000000	31.810148
753.000000	31.878677
754.000000	31.944842
755.000000	32.006994
756.000000	32.069995
757.000000	32.134487
758.000000	32.199817
759.000000	32.267069
760.000000	32.338024
761.000000	32.409307
762.000000	32.476811
763.000000	32.544335
764.000000	32.618817
765.000000	32.693459
766.000000	32.767616
767.000000	32.843177
768.000000	32.917046
769.000000	32.994426
770.000000	33.070730
771.000000	33.146108
772.000000	33.223681
773.000000	33.300652
774.000000	33.375745
775.000000	33.453881
776.000000	33.534567
777.000000	33.613358
778.000000	33.693857
779.000000	33.772924
780.000000	33.852143
781.000000	33.933775
782.000000	34.017997
783.000000	34.101212
784.000000	34.183114
785.000000	34.264355
786.000000	34.343580
787.000000	34.424378
788.000000	34.500443
789.000000	34.577945
790.000000	34.656927
791.000000	34.730380
792.000000	34.803321
793.000000	34.879268
794.000000	34.957104
795.000000	35.034040
796.000000	35.114480
797.000000	35.193402
798.000000	35.274444
799.000000	35.356074
800.000000	35.436215
801.000000	35.520349
802.000000	35.605971
803.000000	35.689249
804.000000	35.769751
805.000000	35.851452
806.000000	35.932360
807.000000	36.016682
808.000000	36.099925
809.000000	36.181394
810.000000	36.263800
811.000000	36.347658
812.000000	36.431310
813.000000	36.515572
814.000000	36.602990
815.000000	36.686522
816.000000	36.774593
817.000000	36.865873
818.000000	36.960022
819.000000	37.054529
820.000000	37.150874
821.000000	37.245295
822.000000	37.338574
823.000000	37.435733
824.000000	37.526935
825.000000	37.617860
826.000000	37.704948
827.000000	37.787059
828.000000	37.869160
829.000000	37.949202
830.000000	38.024766
831.000000	38.102702
832.000000	38.179297
833.000000	38.250140
834.000000	38.323443
835.000000	38.404038
836.000000	38.477252
837.000000	38.541315
838.000000	38.609195
839.000000	38.681600
840.000000	38.747729
841.000000	38.816180
842.000000	38.880589
843.000000	38.947511
844.000000	38.996070
845.000000	39.043417
846.000000	39.098407
847.000000	39.153866
848.000000	39.203018
849.000000	39.234684
850.000000	39.267507
851.000000	39.299496
852.000000	39.325551
853.000000	39.362849
854.000000	39.406168
855.000000	39.442540
856.000000	39.465820
857.000000	39.503007
858.000000	39.582522
859.000000	39.710821
860.000000	39.834057
861.000000	39.938958
862.000000	40.050087
863.000000	40.132946
864.000000	40.224278
865.000000	40.313261
866.000000	40.406596
867.000000	40.484429
868.000000	40.505393
869.000000	40.462575
870.000000	40.441505
871.000000	40.419805
872.000000	40.386140
873.000000	40.366692
874.000000	40.343853
875.000000	40.321455
876.000000	40.296262
877.000000	40.267610
878.000000	40.252290
879.000000	40.253460
880.000000	40.233873
881.000000	40.214485
882.000000	40.207230
883.000000	40.191543
884.000000	40.171837
885.000000	40.144738
886.000000	40.124952
887.000000	40.099985
888.000000	40.064855
889.000000	40.034923
890.000000	39.999055
891.000000	39.981053
892.000000	39.958165
893.000000	39.928038
894.000000	39.898365
895.000000	39.875755
896.000000	39.841850
897.000000	39.819383
898.000000	39.803573
899.000000	39.778545
900.000000	39.754812
901.000000	39.723788
902.000000	39.686905
903.000000	39.662090
904.000000	39.641072
905.000000	39.617402
906.000000	39.591527
907.000000	39.563578
908.000000	39.530183
909.000000	39.500775
910.000000	39.480987
911.000000	39.460255
912.000000	39.442530
913.000000	39.415590
914.000000	39.385827
915.000000	39.357520
916.000000	39.335600
917.000000	39.311182
918.000000	39.290520
919.000000	39.271615
920.000000	39.247228
921.000000	39.223843
922.000000	39.202177
923.000000	39.183837
924.000000	39.168520
925.000000	39.150275
926.000000	39.131318
927.000000	39.116188
928.000000	39.094830
929.000000	39.072433
930.000000	39.054147
931.000000	39.031780
932.000000	39.008235
933.000000	38.987080
934.000000	38.962742
935.000000	38.940735
936.000000	38.919410
937.000000	38.893095
938.000000	38.871850
939.000000	38.852425
940.000000	38.828905
941.000000	38.807690
942.000000	38.787545
943.000000	38.761537
944.000000	38.736795
945.000000	38.715362
946.000000	38.691437
947.000000	38.672318
948.000000	38.653220
949.000000	38.634177
950.000000	38.619100
951.000000	38.600760
952.000000	38.583430
953.000000	38.571027
954.000000	38.562877
955.000000	38.551605
956.000000	38.541255
957.000000	38.528903
958.000000	38.519847
959.000000	38.513343
960.000000	38.506665
961.000000	38.500875
962.000000	38.495590
963.000000	38.491087
964.000000	38.484092
965.000000	38.478797
966.000000	38.476630
967.000000	38.476188
968.000000	38.474400
969.000000	38.473130
970.000000	38.471350
971.000000	38.471193
972.000000	38.471865
973.000000	38.475088
974.000000	38.477702
975.000000	38.481112
976.000000	38.485348
977.000000	38.490890
978.000000	38.497312
979.000000	38.503245
980.000000	38.509743
981.000000	38.518023
982.000000	38.527207
983.000000	38.534805
984.000000	38.544597
985.000000	38.555685
986.000000	38.565718
987.000000	38.576273
988.000000	38.586775
989.000000	38.597025
990.000000	38.610508
991.000000	38.625705
992.000000	38.640873
993.000000	38.657370
994.000000	38.674357
995.000000	38.690727
996.000000	38.707637
997.000000	38.725735
998.000000	38.744523
999.000000	38.763675
1000.000000	38.783442
1001.000000	38.803863
1002.000000	38.824355
1003.000000	38.844135
1004.000000	38.864477
1005.000000	38.886205
1006.000000	38.907632
1007.000000	38.927900
1008.000000	38.949140
1009.000000	38.970700
1010.000000	38.991960
1011.000000	39.013892
1012.000000	39.036325
1013.000000	39.059578
1014.000000	39.083622
1015.000000	39.107950
1016.000000	39.132337
1017.000000	39.157050
1018.000000	39.183932
1019.000000	39.213152
1020.000000	39.242648
1021.000000	39.270938
1022.000000	39.299150
1023.000000	39.328595
1024.000000	39.359198
1025.000000	39.390910
1026.000000	39.424883
1027.000000	39.461082
1028.000000	39.496323
1029.000000	39.529958
1030.000000	39.563172
1031.000000	39.597305
1032.000000	39.630950
1033.000000	39.665147
1034.000000	39.699485
1035.000000	39.733550
1036.000000	39.767765
1037.000000	39.801513
1038.000000	39.834600
1039.000000	39.867430
1040.000000	39.900967
1041.000000	39.933995
1042.000000	39.969078
1043.000000	40.003843
1044.000000	40.037115
1045.000000	40.070608
1046.000000	40.103655
1047.000000	40.136713
1048.000000	40.170542
1049.000000	40.204640
1050.000000	40.237913
1051.000000	40.271835
1052.000000	40.305342
1053.000000	40.338885
1054.000000	40.373148
1055.000000	40.407742
1056.000000	40.441850
1057.000000	40.475522
1058.000000	40.509735
1059.000000	40.545243
1060.000000	40.581538
1061.000000	40.616532
1062.000000	40.650050
1063.000000	40.684550
1064.000000	40.719647
1065.000000	40.752800
1066.000000	40.786710
1067.000000	40.821598
1068.000000	40.856633
1069.000000	40.890340
1070.000000	40.923243
1071.000000	40.956868
1072.000000	40.991845
1073.000000	41.026272
1074.000000	41.060987
1075.000000	41.096930
1076.000000	41.132352
1077.000000	41.165567
1078.000000	41.197383
1079.000000	41.229808
1080.000000	41.262040
1081.000000	41.293390
1082.000000	41.325040
1083.000000	41.356280
1084.000000	41.386328
1085.000000	41.413953
1086.000000	41.441580
1087.000000	41.471375
1088.000000	41.501690
1089.000000	41.530688
1090.000000	41.559720
1091.000000	41.588610
1092.000000	41.616573
1093.000000	41.643690
1094.000000	41.671055
1095.000000	41.699850
1096.000000	41.727055
1097.000000	41.753042
1098.000000	41.777165
1099.000000	41.802675
1100.000000	41.827320
1101.000000	41.852073
1102.000000	41.875903
1103.000000	41.899197
1104.000000	41.920753
1105.000000	41.942498
1106.000000	41.965055
1107.000000	41.985960
1108.000000	42.007777
1109.000000	42.027110
1110.000000	42.045935
1111.000000	42.064190
1112.000000	42.081778
1113.000000	42.099460
1114.000000	42.117270
1115.000000	42.132758
1116.000000	42.148595
1117.000000	42.164497
1118.000000	42.177725
1119.000000	42.188992
1120.000000	42.199303
1121.000000	42.208845
1122.000000	42.216757
1123.000000	42.221787
1124.000000	42.222515
1125.000000	42.221285
1126.000000	42.214633
1127.000000	42.204525
1128.000000	42.191910
1129.000000	42.177180
1130.000000	42.158442
1131.000000	42.133210
1132.000000	42.103713
1133.000000	42.073250
1134.000000	42.042793
1135.000000	42.007980
1136.000000	41.970795
1137.000000	41.930100
1138.000000	41.886142
1139.000000	41.842168
1140.000000	41.798307
1141.000000	41.756107
1142.000000	41.714910
1143.000000	41.672612
1144.000000	41.630420
1145.000000	41.591657
1146.000000	41.555995
1147.000000	41.522897
1148.000000	41.492345
1149.000000	41.461448
1150.000000	41.430188
1151.000000	41.397982
1152.000000	41.366600
1153.000000	41.333402
1154.000000	41.298070
1155.000000	41.259990
1156.000000	41.217470
1157.000000	41.170408
1158.000000	41.119895
1159.000000	41.065480
1160.000000	41.006448
1161.000000	40.944805
1162.000000	40.877792
1163.000000	40.807457
1164.000000	40.735210
1165.000000	40.660412
1166.000000	40.584697
