PE UV       SUBTECH     SPECTRUM    ASCII       PEDS        4.00        
   -1
INBUCR0325-4.Sample.ASC
24/02/09
10:21:22.00
24/02/09
10:21:22.00
Vinicio Soto Monge
Estacion Cuatro Esquinas. P. N. Tortuguero. Prov. Limón, COSTA RICA, 1 m. Jul 1993. R. Delgado. L. N. 280000_590500. #2247. INBIOCRI001930356
250,000000
1
Lambda 1050
1050L1511233
PerkinElmer UV WinLab 6.3.2.0749 / 2.02.05 Lambda 900 UV/VIS/NIR, Aug  7 2015 09:38:08

0
0
3350/servo 860,8/2
0
0
UV/VIS
1
1
1
DoubleDePol,CommonBeamDepol,RBeamAtt,SBeamAtt,60mm sphere, WB InGaAs Detector
0
0
0
0
Program
Program
3350/servo 860,8/2
3350/0,2 860,8/0,2
3350/0,2 860,8/0,2
0
15.00
 
 
 
0
 
860,8
319,2
860,8
Front
100
on
S:100 R:100
0
0
0
0
 
0
 
 
 
0
 
 
0
0
0
0
0
 
 
 
 
0
0


0
0
#HDR
-1
-1
#GR
nm
%R
1.0
0.0
2500,000000
-1,000000
2251
8
17,282600
1,461400
#DATA

250.000000	nan
251.000000	nan
252.000000	nan
253.000000	nan
254.000000	nan
255.000000	nan
256.000000	nan
257.000000	nan
258.000000	nan
259.000000	5.968705
260.000000	5.965276
261.000000	5.961369
262.000000	5.957566
263.000000	5.951798
264.000000	5.945850
265.000000	5.940421
266.000000	5.933842
267.000000	5.928072
268.000000	5.922400
269.000000	5.916603
270.000000	5.909812
271.000000	5.903644
272.000000	5.898551
273.000000	5.893708
274.000000	5.889947
275.000000	5.885468
276.000000	5.882198
277.000000	5.877346
278.000000	5.874458
279.000000	5.871720
280.000000	5.867879
281.000000	5.867165
282.000000	5.863828
283.000000	5.863394
284.000000	5.860822
285.000000	5.857802
286.000000	5.855682
287.000000	5.854911
288.000000	5.852434
289.000000	5.850286
290.000000	5.849755
291.000000	5.848360
292.000000	5.846770
293.000000	5.843806
294.000000	5.840968
295.000000	5.838815
296.000000	5.838557
297.000000	5.837168
298.000000	5.836686
299.000000	5.834671
300.000000	5.832418
301.000000	5.830359
302.000000	5.826767
303.000000	5.823245
304.000000	5.822172
305.000000	5.821814
306.000000	5.819844
307.000000	5.819393
308.000000	5.817124
309.000000	5.817678
310.000000	5.815037
311.000000	5.813710
312.000000	5.815044
313.000000	5.816059
314.000000	5.815831
315.000000	5.816982
316.000000	5.817361
317.000000	5.871925
318.000000	5.918320
319.000000	5.972363
320.000000	6.024764
321.000000	6.070541
322.000000	6.117429
323.000000	6.163742
324.000000	6.208171
325.000000	6.258077
326.000000	6.304916
327.000000	6.289972
328.000000	6.290462
329.000000	6.280090
330.000000	6.273619
331.000000	6.274133
332.000000	6.272854
333.000000	6.271766
334.000000	6.271275
335.000000	6.258525
336.000000	6.256275
337.000000	6.256591
338.000000	6.255896
339.000000	6.252847
340.000000	6.253416
341.000000	6.247211
342.000000	6.242224
343.000000	6.237856
344.000000	6.238315
345.000000	6.240972
346.000000	6.235911
347.000000	6.233250
348.000000	6.226176
349.000000	6.224147
350.000000	6.222711
351.000000	6.222214
352.000000	6.219987
353.000000	6.219056
354.000000	6.214435
355.000000	6.211734
356.000000	6.209374
357.000000	6.209036
358.000000	6.207353
359.000000	6.206210
360.000000	6.201654
361.000000	6.197987
362.000000	6.195686
363.000000	6.192149
364.000000	6.188833
365.000000	6.225294
366.000000	6.259306
367.000000	6.294739
368.000000	6.333275
369.000000	6.367748
370.000000	6.403177
371.000000	6.442182
372.000000	6.477433
373.000000	6.512899
374.000000	6.546611
375.000000	6.541215
376.000000	6.540317
377.000000	6.528006
378.000000	6.513768
379.000000	6.502006
380.000000	6.489936
381.000000	6.476038
382.000000	6.466190
383.000000	6.456139
384.000000	6.447820
385.000000	6.439102
386.000000	6.428753
387.000000	6.427541
388.000000	6.426595
389.000000	6.425513
390.000000	6.424370
391.000000	6.423390
392.000000	6.421775
393.000000	6.420691
394.000000	6.419526
395.000000	6.418213
396.000000	6.417075
397.000000	6.416642
398.000000	6.415841
399.000000	6.414864
400.000000	6.414149
401.000000	6.413065
402.000000	6.412606
403.000000	6.411782
404.000000	6.410932
405.000000	6.410160
406.000000	6.409506
407.000000	6.408232
408.000000	6.407005
409.000000	6.406312
410.000000	6.405570
411.000000	6.404577
412.000000	6.403889
413.000000	6.403266
414.000000	6.402377
415.000000	6.401698
416.000000	6.400599
417.000000	6.399638
418.000000	6.399077
419.000000	6.398220
420.000000	6.397154
421.000000	6.396444
422.000000	6.395260
423.000000	6.394098
424.000000	6.393273
425.000000	6.392585
426.000000	6.392082
427.000000	6.391328
428.000000	6.390019
429.000000	6.388802
430.000000	6.426795
431.000000	6.464750
432.000000	6.503129
433.000000	6.541591
434.000000	6.579959
435.000000	6.618159
436.000000	6.656265
437.000000	6.694484
438.000000	6.733221
439.000000	6.771861
440.000000	6.771326
441.000000	6.770996
442.000000	6.770310
443.000000	6.769670
444.000000	6.769103
445.000000	6.768309
446.000000	6.767559
447.000000	6.767027
448.000000	6.766460
449.000000	6.766124
450.000000	6.765722
451.000000	6.764946
452.000000	6.764038
453.000000	6.763223
454.000000	6.762727
455.000000	6.762222
456.000000	6.761367
457.000000	6.760440
458.000000	6.759597
459.000000	6.758796
460.000000	6.758065
461.000000	6.757620
462.000000	6.757418
463.000000	6.757282
464.000000	6.756974
465.000000	6.756998
466.000000	6.757677
467.000000	6.758682
468.000000	6.759280
469.000000	6.759736
470.000000	6.760733
471.000000	6.761700
472.000000	6.762956
473.000000	6.764339
474.000000	6.765784
475.000000	6.767318
476.000000	6.768803
477.000000	6.770293
478.000000	6.772263
479.000000	6.774448
480.000000	6.776514
481.000000	6.778935
482.000000	6.781455
483.000000	6.784214
484.000000	6.787478
485.000000	6.791309
486.000000	6.795570
487.000000	6.800459
488.000000	6.806024
489.000000	6.812422
490.000000	6.819560
491.000000	6.827550
492.000000	6.836576
493.000000	6.846351
494.000000	6.856942
495.000000	6.868003
496.000000	6.879579
497.000000	6.891795
498.000000	6.904614
499.000000	6.918265
500.000000	6.932721
501.000000	6.948036
502.000000	6.964404
503.000000	6.981969
504.000000	7.000336
505.000000	7.020293
506.000000	7.042121
507.000000	7.065356
508.000000	7.090058
509.000000	7.115839
510.000000	7.143053
511.000000	7.171524
512.000000	7.200726
513.000000	7.231203
514.000000	7.263039
515.000000	7.296058
516.000000	7.329973
517.000000	7.403909
518.000000	7.479025
519.000000	7.555556
520.000000	7.633223
521.000000	7.712174
522.000000	7.792572
523.000000	7.874278
524.000000	7.957408
525.000000	8.041567
526.000000	8.127024
527.000000	8.174883
528.000000	8.224123
529.000000	8.274781
530.000000	8.327257
531.000000	8.381413
532.000000	8.476692
533.000000	8.573569
534.000000	8.672145
535.000000	8.772378
536.000000	8.874227
537.000000	8.977358
538.000000	9.081616
539.000000	9.186867
540.000000	9.332277
541.000000	9.478865
542.000000	9.586841
543.000000	9.695340
544.000000	9.804280
545.000000	9.914009
546.000000	10.063544
547.000000	10.213981
548.000000	10.365658
549.000000	10.518339
550.000000	10.632667
551.000000	10.787318
552.000000	10.943537
553.000000	11.101030
554.000000	11.259758
555.000000	11.419740
556.000000	11.581078
557.000000	11.743052
558.000000	11.906152
559.000000	12.069128
560.000000	12.222159
561.000000	12.373638
562.000000	12.524427
563.000000	12.674865
564.000000	12.825279
565.000000	12.975444
566.000000	13.086099
567.000000	13.235876
568.000000	13.384817
569.000000	13.535036
570.000000	13.695934
571.000000	13.819512
572.000000	13.944101
573.000000	14.070041
574.000000	14.196998
575.000000	14.324831
576.000000	14.453935
577.000000	14.545223
578.000000	14.637824
579.000000	14.731575
580.000000	14.826591
581.000000	14.922559
582.000000	15.019556
583.000000	15.116914
584.000000	15.214545
585.000000	15.312526
586.000000	15.409552
587.000000	15.505881
588.000000	15.601986
589.000000	15.696725
590.000000	15.789017
591.000000	15.879545
592.000000	15.967408
593.000000	16.051726
594.000000	16.132286
595.000000	16.208767
596.000000	16.242186
597.000000	16.271253
598.000000	16.295665
599.000000	16.314328
600.000000	16.328695
601.000000	16.337008
602.000000	16.339355
603.000000	16.336868
604.000000	16.329181
605.000000	16.316604
606.000000	16.338840
607.000000	16.355182
608.000000	16.327601
609.000000	16.296698
610.000000	16.260989
611.000000	16.222679
612.000000	16.181105
613.000000	16.136838
614.000000	16.090240
615.000000	16.039872
616.000000	15.986570
617.000000	15.931049
618.000000	15.912335
619.000000	15.890994
620.000000	15.867805
621.000000	15.842315
622.000000	15.815151
623.000000	15.785867
624.000000	15.753912
625.000000	15.722275
626.000000	15.688453
627.000000	15.654560
628.000000	15.618528
629.000000	15.581104
630.000000	15.542628
631.000000	15.501951
632.000000	15.459300
633.000000	15.415449
634.000000	15.370555
635.000000	15.323375
636.000000	15.275488
637.000000	15.225494
638.000000	15.175020
639.000000	15.123971
640.000000	15.070711
641.000000	15.016524
642.000000	14.961703
643.000000	14.904772
644.000000	14.846803
645.000000	14.786741
646.000000	14.725652
647.000000	14.664278
648.000000	14.600843
649.000000	14.534955
650.000000	14.468844
651.000000	14.402005
652.000000	14.333710
653.000000	14.265433
654.000000	14.195299
655.000000	14.125389
656.000000	14.015694
657.000000	13.904643
658.000000	13.793488
659.000000	13.682721
660.000000	13.571362
661.000000	13.459452
662.000000	13.347516
663.000000	13.234714
664.000000	13.123307
665.000000	13.011388
666.000000	12.938154
667.000000	12.865628
668.000000	12.753784
669.000000	12.641444
670.000000	12.529783
671.000000	12.418508
672.000000	12.307589
673.000000	12.197693
674.000000	12.087876
675.000000	11.979198
676.000000	11.871114
677.000000	11.763015
678.000000	11.695055
679.000000	11.589001
680.000000	11.483599
681.000000	11.378761
682.000000	11.275383
683.000000	11.172191
684.000000	11.069942
685.000000	10.968512
686.000000	10.868222
687.000000	10.769614
688.000000	10.672173
689.000000	10.615502
690.000000	10.559806
691.000000	10.505095
692.000000	10.451796
693.000000	10.400358
694.000000	10.311130
695.000000	10.223196
696.000000	10.137754
697.000000	10.053121
698.000000	9.969657
699.000000	9.887362
700.000000	9.806525
701.000000	9.726934
702.000000	9.648388
703.000000	9.571470
704.000000	9.534485
705.000000	9.498363
706.000000	9.462223
707.000000	9.427593
708.000000	9.393783
709.000000	9.360934
710.000000	9.329106
711.000000	9.298922
712.000000	9.269599
713.000000	9.240346
714.000000	9.212233
715.000000	9.185564
716.000000	9.160095
717.000000	9.134478
718.000000	9.109519
719.000000	9.085566
720.000000	9.063127
721.000000	9.041265
722.000000	9.020327
723.000000	9.000038
724.000000	8.980020
725.000000	8.960673
726.000000	8.942103
727.000000	8.924783
728.000000	8.908647
729.000000	8.893085
730.000000	8.877346
731.000000	8.862252
732.000000	8.847347
733.000000	8.832996
734.000000	8.820004
735.000000	8.808095
736.000000	8.796818
737.000000	8.786456
738.000000	8.776248
739.000000	8.766143
740.000000	8.756991
741.000000	8.748484
742.000000	8.740149
743.000000	8.733235
744.000000	8.727368
745.000000	8.721166
746.000000	8.715556
747.000000	8.710729
748.000000	8.706810
749.000000	8.703100
750.000000	8.698757
751.000000	8.695314
752.000000	8.693509
753.000000	8.692215
754.000000	8.691397
755.000000	8.691465
756.000000	8.691795
757.000000	8.692253
758.000000	8.693313
759.000000	8.695501
760.000000	8.699374
761.000000	8.703680
762.000000	8.708321
763.000000	8.712839
764.000000	8.717395
765.000000	8.723521
766.000000	8.730173
767.000000	8.736592
768.000000	8.743916
769.000000	8.751882
770.000000	8.759819
771.000000	8.768251
772.000000	8.776888
773.000000	8.786097
774.000000	8.796383
775.000000	8.805694
776.000000	8.814904
777.000000	8.826372
778.000000	8.877579
779.000000	8.929190
780.000000	8.981682
781.000000	9.033538
782.000000	9.086607
783.000000	9.140363
784.000000	9.194076
785.000000	9.248298
786.000000	9.303930
787.000000	9.359503
788.000000	9.376622
789.000000	9.394989
790.000000	9.412801
791.000000	9.432118
792.000000	9.450985
793.000000	9.470925
794.000000	9.491332
795.000000	9.511594
796.000000	9.532283
797.000000	9.552703
798.000000	9.573726
799.000000	9.593728
800.000000	9.614256
801.000000	9.635725
802.000000	9.658270
803.000000	9.681183
804.000000	9.703611
805.000000	9.727011
806.000000	9.749865
807.000000	9.774593
808.000000	9.798525
809.000000	9.824491
810.000000	9.851872
811.000000	9.878837
812.000000	9.905423
813.000000	9.932065
814.000000	9.958676
815.000000	9.987185
816.000000	10.016260
817.000000	10.044033
818.000000	10.072892
819.000000	10.100497
820.000000	10.128798
821.000000	10.155818
822.000000	10.223779
823.000000	10.291203
824.000000	10.360691
825.000000	10.427835
826.000000	10.496443
827.000000	10.565275
828.000000	10.632909
829.000000	10.701089
830.000000	10.770117
831.000000	10.841122
832.000000	10.872668
833.000000	10.904229
834.000000	10.933976
835.000000	10.964526
836.000000	10.994915
837.000000	11.026316
838.000000	11.059154
839.000000	11.089209
840.000000	11.120970
841.000000	11.151795
842.000000	11.181452
843.000000	11.209652
844.000000	11.235553
845.000000	11.263457
846.000000	11.296447
847.000000	11.325274
848.000000	11.353412
849.000000	11.390207
850.000000	11.423721
851.000000	11.452020
852.000000	11.483601
853.000000	11.517016
854.000000	11.550740
855.000000	11.575808
856.000000	11.597090
857.000000	11.668120
858.000000	12.200869
859.000000	12.280274
860.000000	12.358600
861.000000	12.466475
862.000000	12.544983
863.000000	12.623145
864.000000	12.677937
865.000000	12.738807
866.000000	12.771265
867.000000	12.807037
868.000000	12.355518
869.000000	12.325943
870.000000	12.347015
871.000000	12.318532
872.000000	12.317038
873.000000	12.316575
874.000000	12.316703
875.000000	12.318952
876.000000	12.347263
877.000000	12.302113
878.000000	12.284113
879.000000	12.291982
880.000000	12.250125
881.000000	12.236648
882.000000	12.222555
883.000000	12.208885
884.000000	12.197100
885.000000	12.209915
886.000000	12.198975
887.000000	12.237858
888.000000	12.250840
889.000000	12.265520
890.000000	12.256135
891.000000	12.271063
892.000000	12.287140
893.000000	12.302878
894.000000	12.318963
895.000000	12.309480
896.000000	12.326078
897.000000	12.342437
898.000000	12.384638
899.000000	12.425923
900.000000	12.467378
901.000000	12.508942
902.000000	12.525218
903.000000	12.543110
904.000000	12.584490
905.000000	12.627627
906.000000	12.668978
907.000000	12.686470
908.000000	12.705127
909.000000	12.722265
910.000000	12.765185
911.000000	12.782737
912.000000	12.825795
913.000000	12.867373
914.000000	12.911005
915.000000	12.953900
916.000000	12.997488
917.000000	13.040637
918.000000	13.081768
919.000000	13.124585
920.000000	13.143203
921.000000	13.159963
922.000000	13.203030
923.000000	13.221093
924.000000	13.263510
925.000000	13.306335
926.000000	13.350108
927.000000	13.391827
928.000000	13.434707
929.000000	13.478045
930.000000	13.544605
931.000000	13.612045
932.000000	13.653317
933.000000	13.695118
934.000000	13.712292
935.000000	13.754338
936.000000	13.771167
937.000000	13.789055
938.000000	13.806320
939.000000	13.847035
940.000000	13.888372
941.000000	13.930305
942.000000	13.971472
943.000000	14.037350
944.000000	14.077955
945.000000	14.118902
946.000000	14.184880
947.000000	14.250970
948.000000	14.292260
949.000000	14.334973
950.000000	14.377783
951.000000	14.420298
952.000000	14.463237
953.000000	14.506425
954.000000	14.574000
955.000000	14.615743
956.000000	14.656950
957.000000	14.698410
958.000000	14.766163
959.000000	14.808810
960.000000	14.851085
961.000000	14.893390
962.000000	14.935470
963.000000	14.976990
964.000000	15.020188
965.000000	15.064472
966.000000	15.107878
967.000000	15.150720
968.000000	15.192240
969.000000	15.234203
970.000000	15.276310
971.000000	15.318598
972.000000	15.361465
973.000000	15.405105
974.000000	15.448285
975.000000	15.490847
976.000000	15.533837
977.000000	15.577115
978.000000	15.620925
979.000000	15.664143
980.000000	15.707465
981.000000	15.751272
982.000000	15.795652
983.000000	15.840158
984.000000	15.882878
985.000000	15.924663
986.000000	15.991990
987.000000	16.060512
988.000000	16.103037
989.000000	16.170887
990.000000	16.239060
991.000000	16.306880
992.000000	16.373700
993.000000	16.439872
994.000000	16.507133
995.000000	16.574813
996.000000	16.617753
997.000000	16.659623
998.000000	16.726952
999.000000	16.768943
1000.000000	16.810098
1001.000000	16.851045
1002.000000	16.892455
1003.000000	16.934123
1004.000000	16.975420
1005.000000	17.016638
1006.000000	17.057785
1007.000000	17.098987
1008.000000	17.139618
1009.000000	17.179755
1010.000000	17.220515
1011.000000	17.262603
1012.000000	17.303832
1013.000000	17.344580
1014.000000	17.386740
1015.000000	17.428983
1016.000000	17.470122
1017.000000	17.511698
1018.000000	17.554033
1019.000000	17.596805
1020.000000	17.664578
1021.000000	17.731420
1022.000000	17.798425
1023.000000	17.866347
1024.000000	17.932733
1025.000000	17.999057
1026.000000	18.066503
1027.000000	18.134295
1028.000000	18.201970
1029.000000	18.269407
1030.000000	18.311625
1031.000000	18.353448
1032.000000	18.395140
1033.000000	18.436505
1034.000000	18.478970
1035.000000	18.521618
1036.000000	18.563600
1037.000000	18.605638
1038.000000	18.647565
1039.000000	18.689608
1040.000000	18.731410
1041.000000	18.772985
1042.000000	18.815143
1043.000000	18.857342
1044.000000	18.898662
1045.000000	18.940008
1046.000000	18.981967
1047.000000	19.023515
1048.000000	19.089935
1049.000000	19.156707
1050.000000	19.224020
1051.000000	19.291792
1052.000000	19.359168
1053.000000	19.426455
1054.000000	19.493850
1055.000000	19.561402
1056.000000	19.629037
1057.000000	19.696310
1058.000000	19.739010
1059.000000	19.781650
1060.000000	19.823810
1061.000000	19.866190
1062.000000	19.908785
1063.000000	19.951017
1064.000000	19.993338
1065.000000	20.035530
1066.000000	20.077023
1067.000000	20.119000
1068.000000	20.160697
1069.000000	20.201980
1070.000000	20.243930
1071.000000	20.285655
1072.000000	20.327122
1073.000000	20.393240
1074.000000	20.459007
1075.000000	20.524355
1076.000000	20.590525
1077.000000	20.656402
1078.000000	20.721943
1079.000000	20.788632
1080.000000	20.854442
1081.000000	20.919835
1082.000000	20.985067
1083.000000	21.026110
1084.000000	21.066565
1085.000000	21.106838
1086.000000	21.147903
1087.000000	21.189220
1088.000000	21.230635
1089.000000	21.271020
1090.000000	21.310985
1091.000000	21.351295
1092.000000	21.391368
1093.000000	21.431693
1094.000000	21.473115
1095.000000	21.514065
1096.000000	21.552997
1097.000000	21.591133
1098.000000	21.629088
1099.000000	21.668257
1100.000000	21.706845
1101.000000	21.745600
1102.000000	21.784533
1103.000000	21.822250
1104.000000	21.883605
1105.000000	21.945485
1106.000000	22.007963
1107.000000	22.070667
1108.000000	22.133423
1109.000000	22.193925
1110.000000	22.255450
1111.000000	22.316350
1112.000000	22.376235
1113.000000	22.435853
1114.000000	22.470962
1115.000000	22.506453
1116.000000	22.541708
1117.000000	22.577047
1118.000000	22.611760
1119.000000	22.645975
1120.000000	22.680010
1121.000000	22.713963
1122.000000	22.748260
1123.000000	22.782227
1124.000000	22.815773
1125.000000	22.847600
1126.000000	22.877513
1127.000000	22.906515
1128.000000	22.935530
1129.000000	22.964208
1130.000000	22.991675
1131.000000	23.016475
1132.000000	23.039595
1133.000000	23.063000
1134.000000	23.086842
1135.000000	23.111815
1136.000000	23.135862
1137.000000	23.157632
1138.000000	23.177038
1139.000000	23.196033
1140.000000	23.214347
1141.000000	23.233817
1142.000000	23.253455
1143.000000	23.272285
1144.000000	23.289767
1145.000000	23.306590
1146.000000	23.349995
1147.000000	23.394280
1148.000000	23.439180
1149.000000	23.484482
1150.000000	23.530255
1151.000000	23.576245
1152.000000	23.622370
1153.000000	23.668582
1154.000000	23.713527
1155.000000	23.756702
1156.000000	23.773463
1157.000000	23.789932
1158.000000	23.804398
1159.000000	23.817178
1160.000000	23.828870
1161.000000	23.838348
1162.000000	23.847372
1163.000000	23.853835
1164.000000	23.858850
1165.000000	23.863145
1166.000000	23.866150
1167.000000	23.868810
1168.000000	23.871412
1169.000000	23.875098
1170.000000	23.877688
1171.000000	23.881870
1172.000000	23.885192
1173.000000	23.890027
1174.000000	23.895788
1175.000000	23.902910
