PE UV       SUBTECH     SPECTRUM    ASCII       PEDS        4.00        
   -1
INBUCR0126-4.Sample.ASC
24/02/07
11:54:53.00
24/02/07
11:54:53.00
Vinicio Soto Monge
Color café con ambos élitros (Det: A. Solís) COSTA RICA Prov. Guanacaste, Bagaces, P.N Palo Verde, Sector Palo Verde. 10 m. 6-27 MAY 2000. W. Porras. de Luz. L_N_260300_390150 #57445 INB0003168439 INBIOCRI COSTA RICA 
250,000000
1
Lambda 1050
1050L1511233
PerkinElmer UV WinLab 6.3.2.0749 / 2.02.05 Lambda 900 UV/VIS/NIR, Aug  7 2015 09:38:08

0
0
3350/servo 860,8/2
0
0
UV/VIS
1
1
1
DoubleDePol,CommonBeamDepol,RBeamAtt,SBeamAtt,60mm sphere, WB InGaAs Detector
0
0
0
0
Program
Program
3350/servo 860,8/2
3350/0,2 860,8/0,2
3350/0,2 860,8/0,2
0
15.00
 
 
 
0
 
860,8
319,2
860,8
Front
100
on
S:100 R:100
0
0
0
0
 
0
 
 
 
0
 
 
0
0
0
0
0
 
 
 
 
0
0


0
0
#HDR
-1
-1
#GR
nm
%R
1.0
0.0
2500,000000
-1,000000
2251
8
14,684900
1,075400
#DATA

250.000000	nan
251.000000	nan
252.000000	nan
253.000000	nan
254.000000	nan
255.000000	nan
256.000000	nan
257.000000	nan
258.000000	nan
259.000000	3.903348
260.000000	3.895362
261.000000	3.883406
262.000000	3.873697
263.000000	3.860429
264.000000	3.848928
265.000000	3.838480
266.000000	3.825318
267.000000	3.811829
268.000000	3.797640
269.000000	3.782954
270.000000	3.766893
271.000000	3.752493
272.000000	3.735138
273.000000	3.719759
274.000000	3.705555
275.000000	3.689739
276.000000	3.677172
277.000000	3.663016
278.000000	3.650674
279.000000	3.641259
280.000000	3.632967
281.000000	3.625605
282.000000	3.616838
283.000000	3.613235
284.000000	3.608510
285.000000	3.604958
286.000000	3.599865
287.000000	3.598256
288.000000	3.597625
289.000000	3.595378
290.000000	3.593193
291.000000	3.591723
292.000000	3.593428
293.000000	3.593365
294.000000	3.594041
295.000000	3.597567
296.000000	3.600427
297.000000	3.602737
298.000000	3.602561
299.000000	3.604436
300.000000	3.606603
301.000000	3.608689
302.000000	3.609359
303.000000	3.607714
304.000000	3.607365
305.000000	3.605547
306.000000	3.603806
307.000000	3.603314
308.000000	3.604248
309.000000	3.604778
310.000000	3.602466
311.000000	3.601618
312.000000	3.597552
313.000000	3.596546
314.000000	3.596134
315.000000	3.594789
316.000000	3.595131
317.000000	3.615234
318.000000	3.629280
319.000000	3.647077
320.000000	3.662785
321.000000	3.678517
322.000000	3.694392
323.000000	3.711918
324.000000	3.724165
325.000000	3.738891
326.000000	3.742695
327.000000	3.732275
328.000000	3.721469
329.000000	3.711226
330.000000	3.710441
331.000000	3.700769
332.000000	3.694114
333.000000	3.685431
334.000000	3.680160
335.000000	3.674272
336.000000	3.677091
337.000000	3.671527
338.000000	3.672916
339.000000	3.665509
340.000000	3.655068
341.000000	3.651187
342.000000	3.646125
343.000000	3.642674
344.000000	3.638082
345.000000	3.635445
346.000000	3.630942
347.000000	3.628189
348.000000	3.626758
349.000000	3.630753
350.000000	3.631098
351.000000	3.630395
352.000000	3.629680
353.000000	3.627025
354.000000	3.626940
355.000000	3.620995
356.000000	3.621760
357.000000	3.620693
358.000000	3.619404
359.000000	3.614838
360.000000	3.610633
361.000000	3.607323
362.000000	3.606855
363.000000	3.606331
364.000000	3.606186
365.000000	3.608101
366.000000	3.605433
367.000000	3.603777
368.000000	3.601185
369.000000	3.599980
370.000000	3.599326
371.000000	3.601272
372.000000	3.600263
373.000000	3.596416
374.000000	3.589006
375.000000	3.585705
376.000000	3.584996
377.000000	3.576948
378.000000	3.568059
379.000000	3.559850
380.000000	3.551646
381.000000	3.542349
382.000000	3.534604
383.000000	3.529703
384.000000	3.526867
385.000000	3.519781
386.000000	3.511547
387.000000	3.511750
388.000000	3.512545
389.000000	3.513305
390.000000	3.514377
391.000000	3.514794
392.000000	3.515016
393.000000	3.516148
394.000000	3.517587
395.000000	3.519791
396.000000	3.521845
397.000000	3.523325
398.000000	3.524833
399.000000	3.526908
400.000000	3.529299
401.000000	3.532359
402.000000	3.535767
403.000000	3.538903
404.000000	3.542328
405.000000	3.545343
406.000000	3.549305
407.000000	3.554283
408.000000	3.559560
409.000000	3.565621
410.000000	3.571953
411.000000	3.578920
412.000000	3.586880
413.000000	3.595623
414.000000	3.604995
415.000000	3.615416
416.000000	3.626509
417.000000	3.638630
418.000000	3.651441
419.000000	3.664978
420.000000	3.679913
421.000000	3.695948
422.000000	3.712495
423.000000	3.729872
424.000000	3.748155
425.000000	3.767357
426.000000	3.787364
427.000000	3.808141
428.000000	3.829910
429.000000	3.852455
430.000000	3.875489
431.000000	3.899126
432.000000	3.923484
433.000000	3.948257
434.000000	3.973687
435.000000	3.999953
436.000000	4.026960
437.000000	4.054462
438.000000	4.082715
439.000000	4.111916
440.000000	4.141952
441.000000	4.172195
442.000000	4.202955
443.000000	4.234598
444.000000	4.267006
445.000000	4.299987
446.000000	4.333050
447.000000	4.366450
448.000000	4.400462
449.000000	4.434812
450.000000	4.469854
451.000000	4.505948
452.000000	4.542632
453.000000	4.579721
454.000000	4.617282
455.000000	4.655424
456.000000	4.694588
457.000000	4.734534
458.000000	4.774757
459.000000	4.815050
460.000000	4.855555
461.000000	4.896481
462.000000	4.937951
463.000000	4.980001
464.000000	5.022512
465.000000	5.065410
466.000000	5.108492
467.000000	5.151859
468.000000	5.196022
469.000000	5.240944
470.000000	5.285896
471.000000	5.330836
472.000000	5.375967
473.000000	5.421861
474.000000	5.467848
475.000000	5.513629
476.000000	5.559692
477.000000	5.605917
478.000000	5.652184
479.000000	5.698355
480.000000	5.744725
481.000000	5.791744
482.000000	5.838863
483.000000	5.885107
484.000000	5.931441
485.000000	5.978144
486.000000	6.024808
487.000000	6.071273
488.000000	6.117217
489.000000	6.163002
490.000000	6.209340
491.000000	6.255180
492.000000	6.300993
493.000000	6.347156
494.000000	6.393197
495.000000	6.439126
496.000000	6.485081
497.000000	6.531183
498.000000	6.577396
499.000000	6.623596
500.000000	6.669811
501.000000	6.715976
502.000000	6.762306
503.000000	6.808447
504.000000	6.855167
505.000000	6.902305
506.000000	6.949262
507.000000	6.996518
508.000000	7.044299
509.000000	7.092730
510.000000	7.140856
511.000000	7.189706
512.000000	7.238814
513.000000	7.288474
514.000000	7.338152
515.000000	7.388044
516.000000	7.438778
517.000000	7.490119
518.000000	7.541716
519.000000	7.593601
520.000000	7.646483
521.000000	7.700096
522.000000	7.754705
523.000000	7.809800
524.000000	7.865744
525.000000	7.922404
526.000000	7.979343
527.000000	8.036565
528.000000	8.094809
529.000000	8.153719
530.000000	8.213071
531.000000	8.272862
532.000000	8.333023
533.000000	8.393870
534.000000	8.455033
535.000000	8.516410
536.000000	8.578980
537.000000	8.641834
538.000000	8.704644
539.000000	8.767700
540.000000	8.831240
541.000000	8.895304
542.000000	8.959317
543.000000	9.024208
544.000000	9.089297
545.000000	9.155071
546.000000	9.220626
547.000000	9.286810
548.000000	9.353174
549.000000	9.419800
550.000000	9.486581
551.000000	9.553341
552.000000	9.620789
553.000000	9.688052
554.000000	9.756044
555.000000	9.823548
556.000000	9.891650
557.000000	9.959195
558.000000	10.027735
559.000000	10.096361
560.000000	10.162080
561.000000	10.227674
562.000000	10.292938
563.000000	10.358683
564.000000	10.424233
565.000000	10.490133
566.000000	10.556121
567.000000	10.622801
568.000000	10.689217
569.000000	10.756480
570.000000	10.827210
571.000000	10.898156
572.000000	10.969679
573.000000	11.041785
574.000000	11.114492
575.000000	11.187814
576.000000	11.261454
577.000000	11.335398
578.000000	11.409878
579.000000	11.484328
580.000000	11.559448
581.000000	11.634983
582.000000	11.711018
583.000000	11.786730
584.000000	11.862850
585.000000	11.939119
586.000000	12.016591
587.000000	12.094621
588.000000	12.173418
589.000000	12.252225
590.000000	12.331406
591.000000	12.411106
592.000000	12.492099
593.000000	12.572858
594.000000	12.654167
595.000000	12.736771
596.000000	12.818550
597.000000	12.901661
598.000000	12.984725
599.000000	13.068555
600.000000	13.152947
601.000000	13.237997
602.000000	13.323134
603.000000	13.409030
604.000000	13.495188
605.000000	13.580038
606.000000	13.665680
607.000000	13.751826
608.000000	13.838766
609.000000	13.924916
610.000000	14.010614
611.000000	14.096218
612.000000	14.181930
613.000000	14.268218
614.000000	14.353278
615.000000	14.439975
616.000000	14.527053
617.000000	14.612956
618.000000	14.697544
619.000000	14.783414
620.000000	14.868749
621.000000	14.954101
622.000000	15.038967
623.000000	15.123579
624.000000	15.208675
625.000000	15.294030
626.000000	15.377617
627.000000	15.461626
628.000000	15.544972
629.000000	15.628069
630.000000	15.711982
631.000000	15.795648
632.000000	15.878633
633.000000	15.961184
634.000000	16.043867
635.000000	16.126141
636.000000	16.209874
637.000000	16.292051
638.000000	16.374863
639.000000	16.457463
640.000000	16.539242
641.000000	16.621547
642.000000	16.704221
643.000000	16.786796
644.000000	16.869205
645.000000	16.950409
646.000000	17.031241
647.000000	17.112238
648.000000	17.193167
649.000000	17.274683
650.000000	17.357215
651.000000	17.438321
652.000000	17.519502
653.000000	17.600126
654.000000	17.681484
655.000000	17.762024
656.000000	17.842840
657.000000	17.924698
658.000000	18.007437
659.000000	18.087893
660.000000	18.167215
661.000000	18.247762
662.000000	18.328247
663.000000	18.408880
664.000000	18.488447
665.000000	18.568618
666.000000	18.647682
667.000000	18.726107
668.000000	18.804120
669.000000	18.884264
670.000000	18.963577
671.000000	19.041686
672.000000	19.119705
673.000000	19.198329
674.000000	19.276686
675.000000	19.355589
676.000000	19.434569
677.000000	19.513149
678.000000	19.589657
679.000000	19.666292
680.000000	19.743485
681.000000	19.820288
682.000000	19.896043
683.000000	19.972064
684.000000	20.048242
685.000000	20.123977
686.000000	20.198808
687.000000	20.274008
688.000000	20.350277
689.000000	20.425766
690.000000	20.500975
691.000000	20.576811
692.000000	20.654193
693.000000	20.730282
694.000000	20.806571
695.000000	20.883378
696.000000	20.960982
697.000000	21.037610
698.000000	21.113958
699.000000	21.191055
700.000000	21.267569
701.000000	21.343709
702.000000	21.418496
703.000000	21.492608
704.000000	21.567587
705.000000	21.641916
706.000000	21.715732
707.000000	21.791663
708.000000	21.868107
709.000000	21.943186
710.000000	22.019063
711.000000	22.094800
712.000000	22.170682
713.000000	22.248401
714.000000	22.325969
715.000000	22.402584
716.000000	22.479676
717.000000	22.554882
718.000000	22.630401
719.000000	22.706214
720.000000	22.782035
721.000000	22.859061
722.000000	22.935836
723.000000	23.012520
724.000000	23.089713
725.000000	23.167756
726.000000	23.245754
727.000000	23.324861
728.000000	23.404396
729.000000	23.484185
730.000000	23.562895
731.000000	23.639113
732.000000	23.715779
733.000000	23.794144
734.000000	23.871692
735.000000	23.949565
736.000000	24.027292
737.000000	24.104134
738.000000	24.182175
739.000000	24.260019
740.000000	24.338235
741.000000	24.419599
742.000000	24.500585
743.000000	24.580339
744.000000	24.659922
745.000000	24.739761
746.000000	24.820050
747.000000	24.901578
748.000000	24.982320
749.000000	25.064178
750.000000	25.148622
751.000000	25.229866
752.000000	25.311236
753.000000	25.393555
754.000000	25.474650
755.000000	25.555806
756.000000	25.638290
757.000000	25.718907
758.000000	25.800012
759.000000	25.880212
760.000000	25.960668
761.000000	26.046757
762.000000	26.134171
763.000000	26.217946
764.000000	26.301937
765.000000	26.389143
766.000000	26.475923
767.000000	26.564347
768.000000	26.651767
769.000000	26.738503
770.000000	26.824322
771.000000	26.907439
772.000000	26.989495
773.000000	27.072833
774.000000	27.160040
775.000000	27.243936
776.000000	27.330557
777.000000	27.415300
778.000000	27.499452
779.000000	27.584407
780.000000	27.668697
781.000000	27.754225
782.000000	27.840165
783.000000	27.927719
784.000000	28.014167
785.000000	28.100975
786.000000	28.185846
787.000000	28.273373
788.000000	28.362969
789.000000	28.452096
790.000000	28.540794
791.000000	28.627979
792.000000	28.717467
793.000000	28.806383
794.000000	28.893355
795.000000	28.980155
796.000000	29.068162
797.000000	29.155259
798.000000	29.241704
799.000000	29.331352
800.000000	29.422268
801.000000	29.517706
802.000000	29.611531
803.000000	29.698598
804.000000	29.790931
805.000000	29.882026
806.000000	29.970391
807.000000	30.062287
808.000000	30.153579
809.000000	30.237897
810.000000	30.330442
811.000000	30.414686
812.000000	30.499512
813.000000	30.589914
814.000000	30.677451
815.000000	30.764883
816.000000	30.851897
817.000000	30.938360
818.000000	31.024935
819.000000	31.114514
820.000000	31.194249
821.000000	31.277239
822.000000	31.359091
823.000000	31.439452
824.000000	31.517338
825.000000	31.595203
826.000000	31.676431
827.000000	31.755280
828.000000	31.835352
829.000000	31.911654
830.000000	31.990415
831.000000	32.063006
832.000000	32.138677
833.000000	32.218910
834.000000	32.299202
835.000000	32.379393
836.000000	32.450830
837.000000	32.519862
838.000000	32.591862
839.000000	32.661311
840.000000	32.727401
841.000000	32.802451
842.000000	32.869722
843.000000	32.941539
844.000000	33.010398
845.000000	33.079495
846.000000	33.150254
847.000000	33.214491
848.000000	33.269601
849.000000	33.326232
850.000000	33.393603
851.000000	33.447782
852.000000	33.498482
853.000000	33.552611
854.000000	33.602546
855.000000	33.635594
856.000000	33.678547
857.000000	33.744207
858.000000	33.941025
859.000000	34.082993
860.000000	34.189857
861.000000	34.326420
862.000000	34.444414
863.000000	34.562529
864.000000	34.676318
865.000000	34.806542
866.000000	34.925922
867.000000	35.025463
868.000000	34.989450
869.000000	35.024918
870.000000	35.080737
871.000000	35.108000
872.000000	35.164897
873.000000	35.204985
874.000000	35.258760
875.000000	35.293435
876.000000	35.341195
877.000000	35.394940
878.000000	35.450995
879.000000	35.482905
880.000000	35.509080
881.000000	35.542860
882.000000	35.562915
883.000000	35.584785
884.000000	35.619508
885.000000	35.673110
886.000000	35.707307
887.000000	35.741303
888.000000	35.764140
889.000000	35.801195
890.000000	35.854245
891.000000	35.896802
892.000000	35.943762
893.000000	35.982725
894.000000	36.004168
895.000000	36.031960
896.000000	36.066205
897.000000	36.099200
898.000000	36.139745
899.000000	36.179997
900.000000	36.208005
901.000000	36.237958
902.000000	36.275963
903.000000	36.321215
904.000000	36.368585
905.000000	36.403317
906.000000	36.438818
907.000000	36.468755
908.000000	36.506752
909.000000	36.536862
910.000000	36.569835
911.000000	36.617540
912.000000	36.660373
913.000000	36.703045
914.000000	36.742027
915.000000	36.782285
916.000000	36.823480
917.000000	36.868830
918.000000	36.911572
919.000000	36.959128
920.000000	37.007677
921.000000	37.044263
922.000000	37.085020
923.000000	37.129590
924.000000	37.170950
925.000000	37.214732
926.000000	37.260590
927.000000	37.302348
928.000000	37.346015
929.000000	37.387200
930.000000	37.429257
931.000000	37.473510
932.000000	37.516575
933.000000	37.557470
934.000000	37.599258
935.000000	37.639075
936.000000	37.677978
937.000000	37.718135
938.000000	37.755840
939.000000	37.795705
940.000000	37.831933
941.000000	37.866153
942.000000	37.896723
943.000000	37.930700
944.000000	37.967745
945.000000	38.006687
946.000000	38.042815
947.000000	38.082245
948.000000	38.121860
949.000000	38.158802
950.000000	38.198418
951.000000	38.239027
952.000000	38.277230
953.000000	38.312928
954.000000	38.349653
955.000000	38.385100
956.000000	38.421615
957.000000	38.454077
958.000000	38.486255
959.000000	38.519800
960.000000	38.552657
961.000000	38.586323
962.000000	38.620455
963.000000	38.653150
964.000000	38.683262
965.000000	38.713145
966.000000	38.741830
967.000000	38.770472
968.000000	38.801150
969.000000	38.832885
970.000000	38.863878
971.000000	38.895070
972.000000	38.927357
973.000000	38.959883
974.000000	38.991605
975.000000	39.023705
976.000000	39.055523
977.000000	39.089402
978.000000	39.120998
979.000000	39.150515
980.000000	39.180540
981.000000	39.210462
982.000000	39.238183
983.000000	39.264922
984.000000	39.291398
985.000000	39.319147
986.000000	39.347927
987.000000	39.374155
988.000000	39.401247
989.000000	39.429378
990.000000	39.457322
991.000000	39.483990
992.000000	39.510960
993.000000	39.538127
994.000000	39.566803
995.000000	39.594853
996.000000	39.621388
997.000000	39.648360
998.000000	39.675330
999.000000	39.702040
1000.000000	39.728507
1001.000000	39.755898
1002.000000	39.783917
1003.000000	39.811538
1004.000000	39.838223
1005.000000	39.864918
1006.000000	39.891582
1007.000000	39.917450
1008.000000	39.943530
1009.000000	39.968927
1010.000000	39.993958
1011.000000	40.019605
1012.000000	40.046085
1013.000000	40.073163
1014.000000	40.099685
1015.000000	40.126295
1016.000000	40.153675
1017.000000	40.180870
1018.000000	40.207843
1019.000000	40.235598
1020.000000	40.264020
1021.000000	40.293823
1022.000000	40.323655
1023.000000	40.353617
1024.000000	40.385423
1025.000000	40.417013
1026.000000	40.448503
1027.000000	40.481915
1028.000000	40.515260
1029.000000	40.547890
1030.000000	40.581442
1031.000000	40.615160
1032.000000	40.649142
1033.000000	40.683415
1034.000000	40.716650
1035.000000	40.748753
1036.000000	40.781210
1037.000000	40.814555
1038.000000	40.848610
1039.000000	40.882390
1040.000000	40.915360
1041.000000	40.946948
1042.000000	40.977578
1043.000000	41.008202
1044.000000	41.039400
1045.000000	41.072230
1046.000000	41.104493
1047.000000	41.135782
1048.000000	41.166580
1049.000000	41.197305
1050.000000	41.228527
1051.000000	41.261550
1052.000000	41.296220
1053.000000	41.330298
1054.000000	41.363050
1055.000000	41.395353
1056.000000	41.428112
1057.000000	41.461000
1058.000000	41.494298
1059.000000	41.529717
1060.000000	41.563965
1061.000000	41.595470
1062.000000	41.626765
1063.000000	41.658037
1064.000000	41.690547
1065.000000	41.722988
1066.000000	41.756723
1067.000000	41.789627
1068.000000	41.821758
1069.000000	41.853542
1070.000000	41.886175
1071.000000	41.919953
1072.000000	41.952960
1073.000000	41.986630
1074.000000	42.018735
1075.000000	42.050798
1076.000000	42.082927
1077.000000	42.116605
1078.000000	42.150310
1079.000000	42.182293
1080.000000	42.213660
1081.000000	42.243895
1082.000000	42.273733
1083.000000	42.301902
1084.000000	42.331185
1085.000000	42.360165
1086.000000	42.387527
1087.000000	42.413702
1088.000000	42.439400
1089.000000	42.464643
1090.000000	42.489333
1091.000000	42.514060
1092.000000	42.538240
1093.000000	42.562233
1094.000000	42.585805
1095.000000	42.609315
1096.000000	42.632478
1097.000000	42.654272
1098.000000	42.675635
1099.000000	42.696995
1100.000000	42.717413
1101.000000	42.737303
1102.000000	42.755713
1103.000000	42.774417
1104.000000	42.791528
1105.000000	42.807855
1106.000000	42.823545
1107.000000	42.839683
1108.000000	42.855068
1109.000000	42.868685
1110.000000	42.882347
1111.000000	42.895442
1112.000000	42.908763
1113.000000	42.919615
1114.000000	42.930687
1115.000000	42.940373
1116.000000	42.949020
1117.000000	42.955522
1118.000000	42.961368
1119.000000	42.967433
1120.000000	42.971495
1121.000000	42.974585
1122.000000	42.975295
1123.000000	42.975777
1124.000000	42.972710
1125.000000	42.966327
1126.000000	42.956570
1127.000000	42.944518
1128.000000	42.928717
1129.000000	42.910103
1130.000000	42.886062
1131.000000	42.855632
1132.000000	42.820070
1133.000000	42.782120
1134.000000	42.744100
1135.000000	42.703285
1136.000000	42.658878
1137.000000	42.608150
1138.000000	42.554365
1139.000000	42.497465
1140.000000	42.441920
1141.000000	42.387832
1142.000000	42.334970
1143.000000	42.280535
1144.000000	42.225220
1145.000000	42.171082
1146.000000	42.119312
1147.000000	42.071735
1148.000000	42.025170
1149.000000	41.979168
1150.000000	41.933110
1151.000000	41.887365
1152.000000	41.841520
1153.000000	41.794337
1154.000000	41.744560
1155.000000	41.692155
1156.000000	41.636180
1157.000000	41.576158
1158.000000	41.513670
1159.000000	41.446115
1160.000000	41.373595
1161.000000	41.297242
1162.000000	41.217017
1163.000000	41.133218
1164.000000	41.045460
1165.000000	40.955157
1166.000000	40.864342
1167.000000	40.774167
