PE UV       SUBTECH     SPECTRUM    ASCII       PEDS        4.00        
   -1
INBUCR0136-4.Sample.ASC
24/02/07
14:46:10.00
24/02/07
14:46:10.00
Vinicio Soto Monge
Pelidnota parallela. Color café con ambos élitros. Pelidnota parallela. Det: A. Solís. COSTA RICA, Prov. Puntarenas. Estación Altamira. 1 km. S del Cerro Biolley. 1450 m. 7 ABR - 10 MAY 1997 #46227. INBIOCRI002538670
250,000000
1
Lambda 1050
1050L1511233
PerkinElmer UV WinLab 6.3.2.0749 / 2.02.05 Lambda 900 UV/VIS/NIR, Aug  7 2015 09:38:08

0
0
3350/servo 860,8/2
0
0
UV/VIS
1
1
1
DoubleDePol,CommonBeamDepol,RBeamAtt,SBeamAtt,60mm sphere, WB InGaAs Detector
0
0
0
0
Program
Program
3350/servo 860,8/2
3350/0,2 860,8/0,2
3350/0,2 860,8/0,2
0
15.00
 
 
 
0
 
860,8
319,2
860,8
Front
100
on
S:100 R:100
0
0
0
0
 
0
 
 
 
0
 
 
0
0
0
0
0
 
 
 
 
0
0


0
0
#HDR
-1
-1
#GR
nm
%R
1.0
0.0
2500,000000
-1,000000
2251
8
15,055700
0,974600
#DATA

250.000000	nan
251.000000	nan
252.000000	nan
253.000000	nan
254.000000	nan
255.000000	nan
256.000000	nan
257.000000	nan
258.000000	nan
259.000000	4.013523
260.000000	4.004291
261.000000	3.996501
262.000000	3.986316
263.000000	3.972853
264.000000	3.961119
265.000000	3.948360
266.000000	3.933174
267.000000	3.921761
268.000000	3.908667
269.000000	3.895491
270.000000	3.879737
271.000000	3.864517
272.000000	3.850592
273.000000	3.838120
274.000000	3.826368
275.000000	3.815075
276.000000	3.805266
277.000000	3.793918
278.000000	3.783276
279.000000	3.775109
280.000000	3.768406
281.000000	3.761769
282.000000	3.755154
283.000000	3.752966
284.000000	3.748636
285.000000	3.743904
286.000000	3.739616
287.000000	3.738385
288.000000	3.735070
289.000000	3.734253
290.000000	3.732708
291.000000	3.730167
292.000000	3.729237
293.000000	3.724714
294.000000	3.722546
295.000000	3.720429
296.000000	3.720644
297.000000	3.716240
298.000000	3.714525
299.000000	3.712641
300.000000	3.708839
301.000000	3.704920
302.000000	3.699824
303.000000	3.695644
304.000000	3.691471
305.000000	3.690361
306.000000	3.685442
307.000000	3.681790
308.000000	3.679736
309.000000	3.675492
310.000000	3.673845
311.000000	3.671321
312.000000	3.668540
313.000000	3.670077
314.000000	3.668128
315.000000	3.665645
316.000000	3.665852
317.000000	3.689395
318.000000	3.712064
319.000000	3.742735
320.000000	3.771753
321.000000	3.793929
322.000000	3.817801
323.000000	3.838029
324.000000	3.869197
325.000000	3.888443
326.000000	3.907358
327.000000	3.899483
328.000000	3.891699
329.000000	3.873130
330.000000	3.859959
331.000000	3.848826
332.000000	3.835858
333.000000	3.822968
334.000000	3.805947
335.000000	3.796426
336.000000	3.782628
337.000000	3.775304
338.000000	3.766770
339.000000	3.756218
340.000000	3.740740
341.000000	3.737093
342.000000	3.731089
343.000000	3.722787
344.000000	3.714862
345.000000	3.709116
346.000000	3.705680
347.000000	3.697337
348.000000	3.696987
349.000000	3.696154
350.000000	3.694708
351.000000	3.689180
352.000000	3.685896
353.000000	3.686031
354.000000	3.682134
355.000000	3.680044
356.000000	3.675575
357.000000	3.675746
358.000000	3.667334
359.000000	3.660071
360.000000	3.656772
361.000000	3.653437
362.000000	3.651912
363.000000	3.644784
364.000000	3.637982
365.000000	3.631586
366.000000	3.630917
367.000000	3.626614
368.000000	3.622191
369.000000	3.620941
370.000000	3.617954
371.000000	3.607793
372.000000	3.599665
373.000000	3.592808
374.000000	3.582059
375.000000	3.569845
376.000000	3.565314
377.000000	3.553667
378.000000	3.543503
379.000000	3.533376
380.000000	3.523699
381.000000	3.518775
382.000000	3.512438
383.000000	3.508599
384.000000	3.507086
385.000000	3.507524
386.000000	3.498213
387.000000	3.496191
388.000000	3.494863
389.000000	3.494448
390.000000	3.493847
391.000000	3.493193
392.000000	3.492262
393.000000	3.491719
394.000000	3.491871
395.000000	3.490936
396.000000	3.490085
397.000000	3.490034
398.000000	3.489891
399.000000	3.488693
400.000000	3.487634
401.000000	3.486929
402.000000	3.486176
403.000000	3.485847
404.000000	3.485654
405.000000	3.486297
406.000000	3.486673
407.000000	3.486933
408.000000	3.487636
409.000000	3.488709
410.000000	3.490140
411.000000	3.492207
412.000000	3.494899
413.000000	3.497707
414.000000	3.500917
415.000000	3.504870
416.000000	3.509294
417.000000	3.514565
418.000000	3.520837
419.000000	3.527962
420.000000	3.535860
421.000000	3.544631
422.000000	3.554399
423.000000	3.565668
424.000000	3.577911
425.000000	3.590668
426.000000	3.604745
427.000000	3.620042
428.000000	3.636060
429.000000	3.652958
430.000000	3.670385
431.000000	3.688449
432.000000	3.707154
433.000000	3.726181
434.000000	3.745607
435.000000	3.765864
436.000000	3.786569
437.000000	3.807302
438.000000	3.828367
439.000000	3.850098
440.000000	3.872495
441.000000	3.895673
442.000000	3.919528
443.000000	3.943481
444.000000	3.968507
445.000000	3.994167
446.000000	4.020516
447.000000	4.047184
448.000000	4.074297
449.000000	4.102209
450.000000	4.130650
451.000000	4.159239
452.000000	4.188333
453.000000	4.218227
454.000000	4.248222
455.000000	4.278574
456.000000	4.309238
457.000000	4.341016
458.000000	4.373357
459.000000	4.405653
460.000000	4.438432
461.000000	4.471859
462.000000	4.505530
463.000000	4.539965
464.000000	4.574912
465.000000	4.609969
466.000000	4.645392
467.000000	4.680874
468.000000	4.716914
469.000000	4.753474
470.000000	4.790226
471.000000	4.827294
472.000000	4.864649
473.000000	4.901806
474.000000	4.939306
475.000000	4.977502
476.000000	5.015859
477.000000	5.054375
478.000000	5.093255
479.000000	5.132353
480.000000	5.171545
481.000000	5.210619
482.000000	5.249497
483.000000	5.288964
484.000000	5.329152
485.000000	5.369794
486.000000	5.410725
487.000000	5.452326
488.000000	5.494562
489.000000	5.537631
490.000000	5.581705
491.000000	5.626350
492.000000	5.672201
493.000000	5.718769
494.000000	5.765403
495.000000	5.812335
496.000000	5.860343
497.000000	5.908738
498.000000	5.957488
499.000000	6.006373
500.000000	6.055499
501.000000	6.106087
502.000000	6.157200
503.000000	6.208599
504.000000	6.260601
505.000000	6.313626
506.000000	6.366811
507.000000	6.420369
508.000000	6.474502
509.000000	6.529316
510.000000	6.585113
511.000000	6.640666
512.000000	6.696632
513.000000	6.753173
514.000000	6.810593
515.000000	6.868316
516.000000	6.926806
517.000000	6.985963
518.000000	7.045872
519.000000	7.106179
520.000000	7.167469
521.000000	7.229977
522.000000	7.293093
523.000000	7.356789
524.000000	7.421189
525.000000	7.486442
526.000000	7.552714
527.000000	7.620183
528.000000	7.688194
529.000000	7.757468
530.000000	7.827175
531.000000	7.898056
532.000000	7.969936
533.000000	8.043293
534.000000	8.117710
535.000000	8.193023
536.000000	8.269528
537.000000	8.346578
538.000000	8.424722
539.000000	8.504158
540.000000	8.583991
541.000000	8.664138
542.000000	8.745570
543.000000	8.827702
544.000000	8.910886
545.000000	8.994542
546.000000	9.078628
547.000000	9.163794
548.000000	9.249733
549.000000	9.335371
550.000000	9.422395
551.000000	9.510014
552.000000	9.597715
553.000000	9.685969
554.000000	9.774677
555.000000	9.863708
556.000000	9.953399
557.000000	10.043498
558.000000	10.134217
559.000000	10.224874
560.000000	10.313171
561.000000	10.401169
562.000000	10.489368
563.000000	10.578182
564.000000	10.666828
565.000000	10.756689
566.000000	10.846439
567.000000	10.936767
568.000000	11.027403
569.000000	11.119661
570.000000	11.214343
571.000000	11.310799
572.000000	11.408185
573.000000	11.506094
574.000000	11.604858
575.000000	11.703982
576.000000	11.803947
577.000000	11.904284
578.000000	12.005008
579.000000	12.106355
580.000000	12.208895
581.000000	12.311293
582.000000	12.414584
583.000000	12.517849
584.000000	12.622174
585.000000	12.726790
586.000000	12.832024
587.000000	12.937942
588.000000	13.043901
589.000000	13.149843
590.000000	13.256484
591.000000	13.364184
592.000000	13.472503
593.000000	13.581789
594.000000	13.690696
595.000000	13.800111
596.000000	13.909680
597.000000	14.019238
598.000000	14.130336
599.000000	14.241842
600.000000	14.354344
601.000000	14.467644
602.000000	14.579869
603.000000	14.693515
604.000000	14.806746
605.000000	14.921265
606.000000	15.036614
607.000000	15.152968
608.000000	15.269391
609.000000	15.385484
610.000000	15.501406
611.000000	15.617608
612.000000	15.736276
613.000000	15.854675
614.000000	15.974430
615.000000	16.093806
616.000000	16.213096
617.000000	16.332365
618.000000	16.451545
619.000000	16.571934
620.000000	16.693179
621.000000	16.814190
622.000000	16.934404
623.000000	17.053030
624.000000	17.173039
625.000000	17.292743
626.000000	17.413680
627.000000	17.535469
628.000000	17.657906
629.000000	17.780408
630.000000	17.902901
631.000000	18.025643
632.000000	18.149812
633.000000	18.275950
634.000000	18.401583
635.000000	18.528553
636.000000	18.655112
637.000000	18.782387
638.000000	18.910195
639.000000	19.039260
640.000000	19.168074
641.000000	19.297929
642.000000	19.428225
643.000000	19.558407
644.000000	19.689811
645.000000	19.821463
646.000000	19.953791
647.000000	20.086519
648.000000	20.220641
649.000000	20.355257
650.000000	20.490972
651.000000	20.626714
652.000000	20.761642
653.000000	20.898135
654.000000	21.035487
655.000000	21.173273
656.000000	21.311897
657.000000	21.450836
658.000000	21.587977
659.000000	21.724818
660.000000	21.861876
661.000000	21.999525
662.000000	22.138324
663.000000	22.276709
664.000000	22.414483
665.000000	22.551263
666.000000	22.687631
667.000000	22.824432
668.000000	22.962406
669.000000	23.100427
670.000000	23.237175
671.000000	23.373955
672.000000	23.509720
673.000000	23.645621
674.000000	23.780513
675.000000	23.916388
676.000000	24.052094
677.000000	24.186706
678.000000	24.320442
679.000000	24.454562
680.000000	24.588798
681.000000	24.721834
682.000000	24.854911
683.000000	24.987571
684.000000	25.120035
685.000000	25.251497
686.000000	25.383083
687.000000	25.513306
688.000000	25.643578
689.000000	25.772065
690.000000	25.900512
691.000000	26.029098
692.000000	26.158048
693.000000	26.285778
694.000000	26.413674
695.000000	26.541858
696.000000	26.668580
697.000000	26.794814
698.000000	26.920401
699.000000	27.047105
700.000000	27.173275
701.000000	27.297342
702.000000	27.420254
703.000000	27.544367
704.000000	27.668205
705.000000	27.789888
706.000000	27.911366
707.000000	28.032119
708.000000	28.153905
709.000000	28.275724
710.000000	28.396864
711.000000	28.519113
712.000000	28.641535
713.000000	28.761314
714.000000	28.880320
715.000000	29.000008
716.000000	29.120124
717.000000	29.241558
718.000000	29.360591
719.000000	29.480248
720.000000	29.601060
721.000000	29.721201
722.000000	29.840456
723.000000	29.960148
724.000000	30.080273
725.000000	30.201204
726.000000	30.320809
727.000000	30.439198
728.000000	30.560239
729.000000	30.679912
730.000000	30.797867
731.000000	30.915596
732.000000	31.033094
733.000000	31.150325
734.000000	31.267136
735.000000	31.384128
736.000000	31.500074
737.000000	31.615442
738.000000	31.730443
739.000000	31.846229
740.000000	31.962414
741.000000	32.079014
742.000000	32.194694
743.000000	32.311999
744.000000	32.428533
745.000000	32.543186
746.000000	32.661350
747.000000	32.780269
748.000000	32.896695
749.000000	33.011774
750.000000	33.127777
751.000000	33.244476
752.000000	33.361028
753.000000	33.476885
754.000000	33.594079
755.000000	33.711685
756.000000	33.826142
757.000000	33.940227
758.000000	34.056144
759.000000	34.172079
760.000000	34.287023
761.000000	34.403708
762.000000	34.520747
763.000000	34.637568
764.000000	34.752378
765.000000	34.864921
766.000000	34.977884
767.000000	35.091253
768.000000	35.205754
769.000000	35.321382
770.000000	35.436129
771.000000	35.547717
772.000000	35.660815
773.000000	35.774306
774.000000	35.886364
775.000000	36.000982
776.000000	36.116286
777.000000	36.232612
778.000000	36.346329
779.000000	36.458619
780.000000	36.572297
781.000000	36.686721
782.000000	36.796707
783.000000	36.909971
784.000000	37.027954
785.000000	37.143769
786.000000	37.256957
787.000000	37.367034
788.000000	37.477769
789.000000	37.587457
790.000000	37.698486
791.000000	37.809721
792.000000	37.923301
793.000000	38.032330
794.000000	38.138015
795.000000	38.244602
796.000000	38.353817
797.000000	38.462969
798.000000	38.574189
799.000000	38.683463
800.000000	38.789492
801.000000	38.895110
802.000000	39.001728
803.000000	39.109481
804.000000	39.213409
805.000000	39.322242
806.000000	39.428891
807.000000	39.535833
808.000000	39.637370
809.000000	39.741244
810.000000	39.846432
811.000000	39.950394
812.000000	40.056907
813.000000	40.160936
814.000000	40.263773
815.000000	40.360447
816.000000	40.461949
817.000000	40.562082
818.000000	40.658553
819.000000	40.756338
820.000000	40.848689
821.000000	40.941934
822.000000	41.026738
823.000000	41.113221
824.000000	41.201016
825.000000	41.293742
826.000000	41.380734
827.000000	41.469167
828.000000	41.559211
829.000000	41.643035
830.000000	41.732150
831.000000	41.814107
832.000000	41.897560
833.000000	41.971630
834.000000	42.048191
835.000000	42.119989
836.000000	42.189229
837.000000	42.257800
838.000000	42.328460
839.000000	42.396856
840.000000	42.459776
841.000000	42.517075
842.000000	42.580795
843.000000	42.641169
844.000000	42.693767
845.000000	42.747963
846.000000	42.801130
847.000000	42.864594
848.000000	42.917821
849.000000	42.970520
850.000000	43.015131
851.000000	43.053970
852.000000	43.105717
853.000000	43.158398
854.000000	43.190755
855.000000	43.217177
856.000000	43.263324
857.000000	43.292214
858.000000	43.489998
859.000000	43.589820
860.000000	43.719656
861.000000	43.864420
862.000000	43.967591
863.000000	44.090870
864.000000	44.223266
865.000000	44.351741
866.000000	44.455367
867.000000	44.559084
868.000000	44.505387
869.000000	44.551618
870.000000	44.567963
871.000000	44.577010
872.000000	44.595793
873.000000	44.601852
874.000000	44.624023
875.000000	44.636467
876.000000	44.656748
877.000000	44.679745
878.000000	44.691535
879.000000	44.702948
880.000000	44.721425
881.000000	44.730538
882.000000	44.752140
883.000000	44.763532
884.000000	44.772290
885.000000	44.789400
886.000000	44.804350
887.000000	44.814310
888.000000	44.828965
889.000000	44.834980
890.000000	44.846407
891.000000	44.861187
892.000000	44.866217
893.000000	44.867770
894.000000	44.873525
895.000000	44.878438
896.000000	44.884190
897.000000	44.888890
898.000000	44.886865
899.000000	44.886328
900.000000	44.876655
901.000000	44.877515
902.000000	44.882800
903.000000	44.893940
904.000000	44.895933
905.000000	44.897787
906.000000	44.893268
907.000000	44.896280
908.000000	44.900310
909.000000	44.911930
910.000000	44.923243
911.000000	44.937065
912.000000	44.947767
913.000000	44.960538
914.000000	44.975617
915.000000	44.998698
916.000000	45.021947
917.000000	45.039075
918.000000	45.060750
919.000000	45.078457
920.000000	45.093077
921.000000	45.103610
922.000000	45.117835
923.000000	45.135030
924.000000	45.152370
925.000000	45.164525
926.000000	45.179400
927.000000	45.195842
928.000000	45.209762
929.000000	45.221385
930.000000	45.236142
931.000000	45.251270
932.000000	45.264460
933.000000	45.276605
934.000000	45.289230
935.000000	45.298275
936.000000	45.304240
937.000000	45.309065
938.000000	45.315202
939.000000	45.321928
940.000000	45.328807
941.000000	45.332875
942.000000	45.337083
943.000000	45.336778
944.000000	45.335760
945.000000	45.336385
946.000000	45.339353
947.000000	45.343915
948.000000	45.348665
949.000000	45.352370
950.000000	45.352868
951.000000	45.355882
952.000000	45.359880
953.000000	45.365662
954.000000	45.369650
955.000000	45.372943
956.000000	45.371935
957.000000	45.371057
958.000000	45.369740
959.000000	45.368200
960.000000	45.368855
961.000000	45.366972
962.000000	45.363932
963.000000	45.359590
964.000000	45.354827
965.000000	45.352580
966.000000	45.351165
967.000000	45.346412
968.000000	45.342062
969.000000	45.339985
970.000000	45.334740
971.000000	45.329237
972.000000	45.323867
973.000000	45.318985
974.000000	45.314210
975.000000	45.306532
976.000000	45.300512
977.000000	45.294915
978.000000	45.286780
979.000000	45.276855
980.000000	45.271098
981.000000	45.264562
982.000000	45.254965
983.000000	45.245117
984.000000	45.236585
985.000000	45.229982
986.000000	45.221393
987.000000	45.212592
988.000000	45.206280
989.000000	45.200802
990.000000	45.194525
991.000000	45.189010
992.000000	45.186300
993.000000	45.183572
994.000000	45.179230
995.000000	45.174315
996.000000	45.172240
997.000000	45.172783
998.000000	45.170130
999.000000	45.166965
1000.000000	45.164097
1001.000000	45.159957
1002.000000	45.155275
1003.000000	45.150633
1004.000000	45.147422
1005.000000	45.143377
1006.000000	45.136280
1007.000000	45.127442
1008.000000	45.120938
1009.000000	45.114308
1010.000000	45.106955
1011.000000	45.100930
1012.000000	45.094738
1013.000000	45.088568
1014.000000	45.083028
1015.000000	45.078140
1016.000000	45.075317
1017.000000	45.073090
1018.000000	45.071805
1019.000000	45.071683
1020.000000	45.072413
1021.000000	45.074965
1022.000000	45.078765
1023.000000	45.083948
1024.000000	45.090333
1025.000000	45.098280
1026.000000	45.107140
1027.000000	45.116390
1028.000000	45.125575
1029.000000	45.135775
1030.000000	45.146608
1031.000000	45.157243
1032.000000	45.168613
1033.000000	45.180285
1034.000000	45.190845
1035.000000	45.202235
1036.000000	45.214563
1037.000000	45.226768
1038.000000	45.238003
1039.000000	45.248715
1040.000000	45.260352
1041.000000	45.272113
1042.000000	45.283243
1043.000000	45.293920
1044.000000	45.304635
1045.000000	45.314487
1046.000000	45.322677
1047.000000	45.331868
1048.000000	45.343077
1049.000000	45.354745
1050.000000	45.365310
1051.000000	45.375220
1052.000000	45.385753
1053.000000	45.397697
1054.000000	45.410007
1055.000000	45.423457
1056.000000	45.439095
1057.000000	45.454147
1058.000000	45.467720
1059.000000	45.481650
1060.000000	45.497192
1061.000000	45.512543
1062.000000	45.528612
1063.000000	45.544135
1064.000000	45.559818
1065.000000	45.575045
1066.000000	45.589380
1067.000000	45.604615
1068.000000	45.621513
1069.000000	45.638435
1070.000000	45.654405
1071.000000	45.669480
1072.000000	45.684235
1073.000000	45.699735
1074.000000	45.714960
1075.000000	45.731133
1076.000000	45.745485
1077.000000	45.758475
1078.000000	45.771142
1079.000000	45.783260
1080.000000	45.795700
1081.000000	45.808450
1082.000000	45.819985
1083.000000	45.829693
1084.000000	45.840193
1085.000000	45.849550
1086.000000	45.859245
1087.000000	45.868762
1088.000000	45.876118
1089.000000	45.884605
1090.000000	45.891553
1091.000000	45.896857
1092.000000	45.901452
1093.000000	45.906077
1094.000000	45.909862
1095.000000	45.912883
1096.000000	45.915643
1097.000000	45.917230
1098.000000	45.919897
1099.000000	45.919848
1100.000000	45.918902
1101.000000	45.920000
1102.000000	45.921357
1103.000000	45.922195
1104.000000	45.921022
1105.000000	45.918885
1106.000000	45.915420
1107.000000	45.913043
1108.000000	45.908358
1109.000000	45.903625
1110.000000	45.899163
1111.000000	45.893287
1112.000000	45.885737
1113.000000	45.877605
1114.000000	45.868093
1115.000000	45.858022
1116.000000	45.847115
1117.000000	45.834238
1118.000000	45.820385
1119.000000	45.804733
1120.000000	45.785277
1121.000000	45.764133
1122.000000	45.738993
1123.000000	45.711373
1124.000000	45.681525
1125.000000	45.647140
1126.000000	45.608777
1127.000000	45.565470
1128.000000	45.517938
1129.000000	45.465260
1130.000000	45.407388
1131.000000	45.341310
1132.000000	45.269708
1133.000000	45.194905
1134.000000	45.116432
1135.000000	45.033608
1136.000000	44.945298
1137.000000	44.853470
1138.000000	44.758477
1139.000000	44.662235
1140.000000	44.567075
1141.000000	44.473143
1142.000000	44.381887
1143.000000	44.289110
1144.000000	44.197745
1145.000000	44.109725
1146.000000	44.026477
1147.000000	43.946650
1148.000000	43.869220
1149.000000	43.792695
1150.000000	43.714807
1151.000000	43.640230
1152.000000	43.565640
1153.000000	43.489890
1154.000000	43.411298
1155.000000	43.327613
1156.000000	43.239562
1157.000000	43.147255
1158.000000	43.050018
1159.000000	42.946940
1160.000000	42.841503
1161.000000	42.728455
1162.000000	42.610833
1163.000000	42.489930
1164.000000	42.365163
1165.000000	42.240308
1166.000000	42.113853
1167.000000	41.987088
