PE UV       SUBTECH     SPECTRUM    ASCII       PEDS        4.00        
   -1
INBUCR0121-5.Sample.ASC
24/02/12
14:23:16.00
24/02/12
14:23:16.00
Vinicio Soto Monge
P. strigosa. Color café sin élitro izquierdo (Det: A. Solís) COSTA RICA Prov. Puntarenas. Isla San Lucas. Puesto Isla San Lucas alrededores del puesto. 0-100m 14-15 SEP 2005  #84359 INB0003969555 
250,000000
1
Lambda 1050
1050L1511233
PerkinElmer UV WinLab 6.3.2.0749 / 2.02.05 Lambda 900 UV/VIS/NIR, Aug  7 2015 09:38:08

0
0
3350/servo 860,8/2
0
0
UV/VIS
1
1
1
DoubleDePol,CommonBeamDepol,RBeamAtt,SBeamAtt,60mm sphere, WB InGaAs Detector
0
0
0
0
Program
Program
3350/servo 860,8/2
3350/0,2 860,8/0,2
3350/0,2 860,8/0,2
0
15.00
 
 
 
0
 
860,8
150
860,8
Front
100
on
S:100 R:100
0
0
0
0
 
0
 
 
 
0
 
 
0
0
0
0
0
 
 
 
 
0
0


0
0
#HDR
-1
-1
#GR
nm
%R
1.0
0.0
2500,000000
-1,000000
2251
8
21,734000
1,545300
#DATA

250.000000	nan
251.000000	nan
252.000000	nan
253.000000	nan
254.000000	nan
255.000000	nan
256.000000	nan
257.000000	nan
258.000000	nan
259.000000	2.975434
260.000000	2.906047
261.000000	2.872671
262.000000	2.802209
263.000000	2.745668
264.000000	2.669717
265.000000	2.613103
266.000000	2.579585
267.000000	2.533007
268.000000	2.499442
269.000000	2.473096
270.000000	2.439284
271.000000	2.425401
272.000000	2.399284
273.000000	2.376210
274.000000	2.357140
275.000000	2.351906
276.000000	2.336149
277.000000	2.327415
278.000000	2.327615
279.000000	2.322509
280.000000	2.310558
281.000000	2.303889
282.000000	2.295775
283.000000	2.283958
284.000000	2.283359
285.000000	2.270193
286.000000	2.262006
287.000000	2.259733
288.000000	2.253127
289.000000	2.243637
290.000000	2.235244
291.000000	2.230471
292.000000	2.232155
293.000000	2.238597
294.000000	2.235367
295.000000	2.235016
296.000000	2.239439
297.000000	2.236944
298.000000	2.236827
299.000000	2.237216
300.000000	2.239145
301.000000	2.239421
302.000000	2.240073
303.000000	2.236766
304.000000	2.238194
305.000000	2.240068
306.000000	2.238808
307.000000	2.241848
308.000000	2.244642
309.000000	2.248548
310.000000	2.249592
311.000000	2.253789
312.000000	2.255038
313.000000	2.254864
314.000000	2.255069
315.000000	2.255972
316.000000	2.256998
317.000000	2.287889
318.000000	2.309961
319.000000	2.327266
320.000000	2.348724
321.000000	2.372028
322.000000	2.401107
323.000000	2.416956
324.000000	2.439350
325.000000	2.456193
326.000000	2.471325
327.000000	2.456769
328.000000	2.451484
329.000000	2.444916
330.000000	2.433206
331.000000	2.427193
332.000000	2.416548
333.000000	2.413605
334.000000	2.404667
335.000000	2.404299
336.000000	2.402290
337.000000	2.402852
338.000000	2.396875
339.000000	2.398895
340.000000	2.402405
341.000000	2.397065
342.000000	2.395410
343.000000	2.397637
344.000000	2.398393
345.000000	2.395685
346.000000	2.398099
347.000000	2.391465
348.000000	2.392166
349.000000	2.395134
350.000000	2.396510
351.000000	2.396459
352.000000	2.391218
353.000000	2.392222
354.000000	2.391397
355.000000	2.389675
356.000000	2.384302
357.000000	2.389385
358.000000	2.395344
359.000000	2.394929
360.000000	2.392087
361.000000	2.390231
362.000000	2.392151
363.000000	2.390290
364.000000	2.389854
365.000000	2.390733
366.000000	2.394731
367.000000	2.393335
368.000000	2.387488
369.000000	2.382675
370.000000	2.385270
371.000000	2.386636
372.000000	2.388023
373.000000	2.389335
374.000000	2.387586
375.000000	2.386292
376.000000	2.383818
377.000000	2.377984
378.000000	2.374167
379.000000	2.372053
380.000000	2.367837
381.000000	2.365130
382.000000	2.361143
383.000000	2.358399
384.000000	2.359113
385.000000	2.359736
386.000000	2.360167
387.000000	2.364600
388.000000	2.368977
389.000000	2.374261
390.000000	2.379602
391.000000	2.383951
392.000000	2.389125
393.000000	2.394716
394.000000	2.400370
395.000000	2.406099
396.000000	2.411878
397.000000	2.417751
398.000000	2.423746
399.000000	2.429532
400.000000	2.435417
401.000000	2.442499
402.000000	2.449223
403.000000	2.454992
404.000000	2.460745
405.000000	2.466486
406.000000	2.472622
407.000000	2.479379
408.000000	2.485728
409.000000	2.491982
410.000000	2.498571
411.000000	2.504772
412.000000	2.510972
413.000000	2.517834
414.000000	2.524858
415.000000	2.532073
416.000000	2.539176
417.000000	2.546093
418.000000	2.553622
419.000000	2.561379
420.000000	2.569016
421.000000	2.576977
422.000000	2.585841
423.000000	2.595464
424.000000	2.604566
425.000000	2.613602
426.000000	2.622973
427.000000	2.632406
428.000000	2.642145
429.000000	2.651835
430.000000	2.661847
431.000000	2.672292
432.000000	2.682482
433.000000	2.691845
434.000000	2.702088
435.000000	2.713052
436.000000	2.724553
437.000000	2.736104
438.000000	2.747265
439.000000	2.758619
440.000000	2.770336
441.000000	2.781837
442.000000	2.793045
443.000000	2.804580
444.000000	2.816604
445.000000	2.829069
446.000000	2.840884
447.000000	2.852651
448.000000	2.865041
449.000000	2.877666
450.000000	2.890244
451.000000	2.902711
452.000000	2.915488
453.000000	2.929058
454.000000	2.942387
455.000000	2.954931
456.000000	2.967866
457.000000	2.981620
458.000000	2.995264
459.000000	3.008653
460.000000	3.022271
461.000000	3.036316
462.000000	3.050293
463.000000	3.064106
464.000000	3.078086
465.000000	3.092626
466.000000	3.107792
467.000000	3.122174
468.000000	3.136342
469.000000	3.151162
470.000000	3.166517
471.000000	3.181818
472.000000	3.197148
473.000000	3.212400
474.000000	3.227749
475.000000	3.243056
476.000000	3.257951
477.000000	3.273089
478.000000	3.288788
479.000000	3.304384
480.000000	3.318793
481.000000	3.332784
482.000000	3.347152
483.000000	3.361705
484.000000	3.376678
485.000000	3.392124
486.000000	3.408296
487.000000	3.425947
488.000000	3.444185
489.000000	3.463039
490.000000	3.483443
491.000000	3.505402
492.000000	3.528104
493.000000	3.551470
494.000000	3.575612
495.000000	3.600513
496.000000	3.625743
497.000000	3.650863
498.000000	3.676473
499.000000	3.702543
500.000000	3.728886
501.000000	3.755583
502.000000	3.782772
503.000000	3.810325
504.000000	3.837922
505.000000	3.865682
506.000000	3.893461
507.000000	3.920978
508.000000	3.948788
509.000000	3.976930
510.000000	4.004773
511.000000	4.032527
512.000000	4.059989
513.000000	4.087512
514.000000	4.114960
515.000000	4.142255
516.000000	4.169455
517.000000	4.197072
518.000000	4.224401
519.000000	4.251346
520.000000	4.278891
521.000000	4.306664
522.000000	4.334619
523.000000	4.362644
524.000000	4.391171
525.000000	4.420189
526.000000	4.450342
527.000000	4.481046
528.000000	4.512495
529.000000	4.545018
530.000000	4.578457
531.000000	4.612380
532.000000	4.647351
533.000000	4.683280
534.000000	4.720158
535.000000	4.757774
536.000000	4.795843
537.000000	4.835235
538.000000	4.875185
539.000000	4.915805
540.000000	4.956613
541.000000	4.998269
542.000000	5.040523
543.000000	5.083537
544.000000	5.126749
545.000000	5.169986
546.000000	5.214101
547.000000	5.257772
548.000000	5.301780
549.000000	5.345373
550.000000	5.389673
551.000000	5.434279
552.000000	5.478820
553.000000	5.523186
554.000000	5.567471
555.000000	5.611879
556.000000	5.655534
557.000000	5.699061
558.000000	5.742062
559.000000	5.785243
560.000000	5.822456
561.000000	5.858015
562.000000	5.892963
563.000000	5.927202
564.000000	5.961130
565.000000	5.994665
566.000000	6.027975
567.000000	6.061252
568.000000	6.093800
569.000000	6.126054
570.000000	6.163498
571.000000	6.201535
572.000000	6.239324
573.000000	6.276919
574.000000	6.314480
575.000000	6.351495
576.000000	6.388187
577.000000	6.424408
578.000000	6.461506
579.000000	6.497807
580.000000	6.533700
581.000000	6.569320
582.000000	6.605187
583.000000	6.640654
584.000000	6.675814
585.000000	6.711494
586.000000	6.746953
587.000000	6.781839
588.000000	6.815754
589.000000	6.850360
590.000000	6.884695
591.000000	6.919608
592.000000	6.953889
593.000000	6.988525
594.000000	7.022437
595.000000	7.056973
596.000000	7.091038
597.000000	7.125886
598.000000	7.161060
599.000000	7.196314
600.000000	7.231474
601.000000	7.266480
602.000000	7.301121
603.000000	7.336319
604.000000	7.372624
605.000000	7.407799
606.000000	7.443707
607.000000	7.479516
608.000000	7.515819
609.000000	7.551222
610.000000	7.587916
611.000000	7.624258
612.000000	7.661256
613.000000	7.698860
614.000000	7.736512
615.000000	7.774112
616.000000	7.812118
617.000000	7.850811
618.000000	7.890066
619.000000	7.930039
620.000000	7.970223
621.000000	8.010598
622.000000	8.051786
623.000000	8.092895
624.000000	8.134404
625.000000	8.177069
626.000000	8.219894
627.000000	8.263430
628.000000	8.306434
629.000000	8.351107
630.000000	8.395652
631.000000	8.440821
632.000000	8.486885
633.000000	8.533928
634.000000	8.580770
635.000000	8.627736
636.000000	8.675804
637.000000	8.724111
638.000000	8.773062
639.000000	8.822038
640.000000	8.872240
641.000000	8.923520
642.000000	8.975364
643.000000	9.026584
644.000000	9.078617
645.000000	9.131832
646.000000	9.185658
647.000000	9.239562
648.000000	9.294157
649.000000	9.348679
650.000000	9.403049
651.000000	9.457602
652.000000	9.512496
653.000000	9.567136
654.000000	9.622069
655.000000	9.677013
656.000000	9.731813
657.000000	9.786504
658.000000	9.841181
659.000000	9.896293
660.000000	9.951268
661.000000	10.005421
662.000000	10.058641
663.000000	10.113241
664.000000	10.167616
665.000000	10.222029
666.000000	10.276530
667.000000	10.331576
668.000000	10.387006
669.000000	10.442029
670.000000	10.497591
671.000000	10.554942
672.000000	10.613979
673.000000	10.673533
674.000000	10.734759
675.000000	10.797021
676.000000	10.860522
677.000000	10.924373
678.000000	10.988650
679.000000	11.054873
680.000000	11.122567
681.000000	11.191130
682.000000	11.259191
683.000000	11.327864
684.000000	11.396489
685.000000	11.464674
686.000000	11.533642
687.000000	11.604357
688.000000	11.675023
689.000000	11.745104
690.000000	11.814547
691.000000	11.882080
692.000000	11.950608
693.000000	12.019407
694.000000	12.088058
695.000000	12.156668
696.000000	12.224232
697.000000	12.290975
698.000000	12.356244
699.000000	12.420889
700.000000	12.486075
701.000000	12.552817
702.000000	12.619287
703.000000	12.684888
704.000000	12.750062
705.000000	12.814887
706.000000	12.880166
707.000000	12.945167
708.000000	13.010741
709.000000	13.076847
710.000000	13.141934
711.000000	13.208111
712.000000	13.273842
713.000000	13.339253
714.000000	13.405314
715.000000	13.472067
716.000000	13.538346
717.000000	13.605019
718.000000	13.674117
719.000000	13.742805
720.000000	13.810994
721.000000	13.877717
722.000000	13.945224
723.000000	14.013301
724.000000	14.080985
725.000000	14.148991
726.000000	14.217229
727.000000	14.284815
728.000000	14.351662
729.000000	14.419423
730.000000	14.489017
731.000000	14.560190
732.000000	14.630733
733.000000	14.700100
734.000000	14.769377
735.000000	14.839110
736.000000	14.909260
737.000000	14.980031
738.000000	15.051591
739.000000	15.123382
740.000000	15.195084
741.000000	15.265486
742.000000	15.334914
743.000000	15.405844
744.000000	15.477729
745.000000	15.548812
746.000000	15.619853
747.000000	15.691549
748.000000	15.762360
749.000000	15.833704
750.000000	15.904324
751.000000	15.974123
752.000000	16.045007
753.000000	16.115816
754.000000	16.187378
755.000000	16.259249
756.000000	16.329477
757.000000	16.400387
758.000000	16.472444
759.000000	16.542641
760.000000	16.613154
761.000000	16.685962
762.000000	16.759623
763.000000	16.831386
764.000000	16.902244
765.000000	16.974377
766.000000	17.048534
767.000000	17.120771
768.000000	17.191940
769.000000	17.265371
770.000000	17.341176
771.000000	17.417408
772.000000	17.491728
773.000000	17.566351
774.000000	17.641039
775.000000	17.715766
776.000000	17.791203
777.000000	17.867131
778.000000	17.943288
779.000000	18.017975
780.000000	18.090434
781.000000	18.160321
782.000000	18.232164
783.000000	18.307154
784.000000	18.382034
785.000000	18.455363
786.000000	18.526926
787.000000	18.601340
788.000000	18.677183
789.000000	18.751859
790.000000	18.827060
791.000000	18.904167
792.000000	18.979431
793.000000	19.056072
794.000000	19.133609
795.000000	19.210387
796.000000	19.287376
797.000000	19.363272
798.000000	19.437457
799.000000	19.510838
800.000000	19.583143
801.000000	19.654679
802.000000	19.730218
803.000000	19.804289
804.000000	19.878145
805.000000	19.953276
806.000000	20.027524
807.000000	20.098981
808.000000	20.174156
809.000000	20.251928
810.000000	20.330795
811.000000	20.407641
812.000000	20.480180
813.000000	20.553465
814.000000	20.627743
815.000000	20.699404
816.000000	20.774354
817.000000	20.848151
818.000000	20.918867
819.000000	20.986657
820.000000	21.055333
821.000000	21.123630
822.000000	21.191287
823.000000	21.256404
824.000000	21.321369
825.000000	21.384949
826.000000	21.444124
827.000000	21.509114
828.000000	21.568516
829.000000	21.629668
830.000000	21.691708
831.000000	21.753969
832.000000	21.811384
833.000000	21.872499
834.000000	21.930788
835.000000	21.992831
836.000000	22.055304
837.000000	22.108274
838.000000	22.163716
839.000000	22.224131
840.000000	22.282313
841.000000	22.336083
842.000000	22.388759
843.000000	22.440900
844.000000	22.486711
845.000000	22.536464
846.000000	22.586700
847.000000	22.636352
848.000000	22.679822
849.000000	22.718817
850.000000	22.745183
851.000000	22.790531
852.000000	22.825208
853.000000	22.865999
854.000000	22.902815
855.000000	22.947036
856.000000	22.984457
857.000000	23.031964
858.000000	23.316955
859.000000	23.404191
860.000000	23.512605
861.000000	23.614308
862.000000	23.742752
863.000000	23.842713
864.000000	23.941956
865.000000	24.008789
866.000000	24.087220
867.000000	24.158282
868.000000	24.001585
869.000000	24.043878
870.000000	24.079817
871.000000	24.097355
872.000000	24.083447
873.000000	24.095385
874.000000	24.091645
875.000000	24.111078
876.000000	24.119290
877.000000	24.136210
878.000000	24.154175
879.000000	24.156842
880.000000	24.156965
881.000000	24.152620
882.000000	24.163630
883.000000	24.168760
884.000000	24.191723
885.000000	24.201398
886.000000	24.215785
887.000000	24.227135
888.000000	24.226440
889.000000	24.236207
890.000000	24.237255
891.000000	24.244578
892.000000	24.253808
893.000000	24.259867
894.000000	24.267598
895.000000	24.288790
896.000000	24.307688
897.000000	24.323487
898.000000	24.335190
899.000000	24.345148
900.000000	24.366357
901.000000	24.389070
902.000000	24.415980
903.000000	24.442438
904.000000	24.471550
905.000000	24.491112
906.000000	24.510490
907.000000	24.515673
908.000000	24.537840
909.000000	24.562695
910.000000	24.589328
911.000000	24.616385
912.000000	24.637670
913.000000	24.653270
914.000000	24.678470
915.000000	24.705285
916.000000	24.730975
917.000000	24.769838
918.000000	24.798385
919.000000	24.829670
920.000000	24.853675
921.000000	24.876258
922.000000	24.906965
923.000000	24.939987
924.000000	24.963752
925.000000	24.987102
926.000000	25.012555
927.000000	25.035248
928.000000	25.063353
929.000000	25.080985
930.000000	25.101260
931.000000	25.126960
932.000000	25.145812
933.000000	25.168968
934.000000	25.189013
935.000000	25.215348
936.000000	25.239922
937.000000	25.263278
938.000000	25.283020
939.000000	25.306873
940.000000	25.326120
941.000000	25.344045
942.000000	25.363117
943.000000	25.375555
944.000000	25.392218
945.000000	25.403415
946.000000	25.417060
947.000000	25.428645
948.000000	25.442037
949.000000	25.458067
950.000000	25.472668
951.000000	25.489795
952.000000	25.507082
953.000000	25.528073
954.000000	25.547622
955.000000	25.566645
956.000000	25.584978
957.000000	25.605625
958.000000	25.625295
959.000000	25.642210
960.000000	25.660277
961.000000	25.677640
962.000000	25.693743
963.000000	25.709522
964.000000	25.723132
965.000000	25.736155
966.000000	25.749018
967.000000	25.762498
968.000000	25.774617
969.000000	25.786780
970.000000	25.800102
971.000000	25.810593
972.000000	25.822492
973.000000	25.834770
974.000000	25.849905
975.000000	25.865707
976.000000	25.880268
977.000000	25.893308
978.000000	25.906903
979.000000	25.920455
980.000000	25.933345
981.000000	25.947200
982.000000	25.959600
983.000000	25.971075
984.000000	25.982762
985.000000	25.995375
986.000000	26.006550
987.000000	26.017493
988.000000	26.027585
989.000000	26.038500
990.000000	26.048447
991.000000	26.058320
992.000000	26.068372
993.000000	26.080780
994.000000	26.092140
995.000000	26.099867
996.000000	26.108587
997.000000	26.119715
998.000000	26.130637
999.000000	26.139762
1000.000000	26.149667
1001.000000	26.160283
1002.000000	26.170855
1003.000000	26.179960
1004.000000	26.189515
1005.000000	26.201270
1006.000000	26.211280
1007.000000	26.219170
1008.000000	26.228627
1009.000000	26.239825
1010.000000	26.249550
1011.000000	26.259733
1012.000000	26.270563
1013.000000	26.279800
1014.000000	26.288605
1015.000000	26.296760
1016.000000	26.306800
1017.000000	26.317967
1018.000000	26.328407
1019.000000	26.339580
1020.000000	26.351075
1021.000000	26.360647
1022.000000	26.371073
1023.000000	26.382060
1024.000000	26.392442
1025.000000	26.404388
1026.000000	26.416428
1027.000000	26.428397
1028.000000	26.440530
1029.000000	26.452378
1030.000000	26.465053
1031.000000	26.478528
1032.000000	26.490213
1033.000000	26.501790
1034.000000	26.514350
1035.000000	26.526977
1036.000000	26.539755
1037.000000	26.552375
1038.000000	26.565385
1039.000000	26.578095
1040.000000	26.590087
1041.000000	26.602162
1042.000000	26.614340
1043.000000	26.627108
1044.000000	26.639783
1045.000000	26.651357
1046.000000	26.661998
1047.000000	26.673060
1048.000000	26.684603
1049.000000	26.696045
1050.000000	26.707385
1051.000000	26.718863
1052.000000	26.729975
1053.000000	26.741593
1054.000000	26.753557
1055.000000	26.765720
1056.000000	26.778730
1057.000000	26.790168
1058.000000	26.800403
1059.000000	26.811545
1060.000000	26.823230
1061.000000	26.834300
1062.000000	26.846170
1063.000000	26.857385
1064.000000	26.867275
1065.000000	26.876707
1066.000000	26.886352
1067.000000	26.897922
1068.000000	26.910215
1069.000000	26.921610
1070.000000	26.932080
1071.000000	26.942265
1072.000000	26.952860
1073.000000	26.963640
1074.000000	26.976010
1075.000000	26.988048
1076.000000	26.999030
1077.000000	27.008105
1078.000000	27.016597
1079.000000	27.026188
1080.000000	27.036310
1081.000000	27.047287
1082.000000	27.057442
1083.000000	27.066733
1084.000000	27.074365
1085.000000	27.081983
1086.000000	27.090845
1087.000000	27.100595
1088.000000	27.109245
1089.000000	27.115208
1090.000000	27.121210
1091.000000	27.126292
1092.000000	27.132182
1093.000000	27.139122
1094.000000	27.145238
1095.000000	27.151947
1096.000000	27.156427
1097.000000	27.161928
1098.000000	27.167402
1099.000000	27.174475
1100.000000	27.179202
1101.000000	27.183595
1102.000000	27.186990
1103.000000	27.188885
1104.000000	27.192790
1105.000000	27.196042
1106.000000	27.200085
1107.000000	27.201940
1108.000000	27.204563
1109.000000	27.206370
1110.000000	27.208985
1111.000000	27.211260
1112.000000	27.213443
1113.000000	27.215010
1114.000000	27.214405
1115.000000	27.213555
1116.000000	27.211825
1117.000000	27.209427
1118.000000	27.206738
1119.000000	27.200498
1120.000000	27.195647
1121.000000	27.189775
1122.000000	27.183837
1123.000000	27.176283
1124.000000	27.167770
1125.000000	27.158502
1126.000000	27.148175
1127.000000	27.137552
1128.000000	27.124705
1129.000000	27.112553
1130.000000	27.095308
1131.000000	27.075243
1132.000000	27.052310
1133.000000	27.030818
1134.000000	27.010795
1135.000000	26.990812
1136.000000	26.968007
1137.000000	26.942602
1138.000000	26.915502
1139.000000	26.889455
1140.000000	26.865130
1141.000000	26.841777
1142.000000	26.817852
1143.000000	26.791780
1144.000000	26.763907
1145.000000	26.735855
1146.000000	26.710197
1147.000000	26.686257
1148.000000	26.663158
1149.000000	26.639100
1150.000000	26.614688
1151.000000	26.589972
1152.000000	26.565915
1153.000000	26.542652
1154.000000	26.517970
1155.000000	26.490018
1156.000000	26.460195
1157.000000	26.427353
1158.000000	26.393255
1159.000000	26.356695
1160.000000	26.319133
1161.000000	26.280323
1162.000000	26.240623
1163.000000	26.197662
1164.000000	26.153330
1165.000000	26.108950
1166.000000	26.063313
1167.000000	26.018405
1168.000000	25.973382
1169.000000	25.930375
1170.000000	25.888685
1171.000000	25.847458
1172.000000	25.806540
