PE UV       SUBTECH     SPECTRUM    ASCII       PEDS        4.00        
   -1
INBUCR0431-4.Sample.ASC
24/02/09
14:51:43.00
24/02/09
14:51:43.00
Vinicio Soto Monge
Chrysina aurigans. Det: A. Solís. COSTA RICA. Prov. Alajuela, Upala, Bijagua. P.N. Volcán Tenorio. Alberg. Heliconias. Send. Heliconias. 700 m. 13 NOV 2001. A. López. T. de Luz #65610. INB00033997038. Tiene únicamente la parte superior del élitro derecho.
250,000000
1
Lambda 1050
1050L1511233
PerkinElmer UV WinLab 6.3.2.0749 / 2.02.05 Lambda 900 UV/VIS/NIR, Aug  7 2015 09:38:08

0
0
3350/servo 860,8/2
0
0
UV/VIS
1
1
1
DoubleDePol,CommonBeamDepol,RBeamAtt,SBeamAtt,60mm sphere, WB InGaAs Detector
0
0
0
0
Program
Program
3350/servo 860,8/2
3350/0,2 860,8/0,2
3350/0,2 860,8/0,2
0
15.00
 
 
 
0
 
860,8
319,2
860,8
Front
100
on
S:100 R:100
0
0
0
0
 
0
 
 
 
0
 
 
0
0
0
0
0
 
 
 
 
0
0


0
0
#HDR
-1
-1
#GR
nm
%R
1.0
0.0
2500,000000
-1,000000
2251
8
17,518000
1,050100
#DATA

250.000000	nan
251.000000	nan
252.000000	nan
253.000000	nan
254.000000	nan
255.000000	nan
256.000000	nan
257.000000	nan
258.000000	nan
259.000000	3.859328
260.000000	3.857636
261.000000	3.855399
262.000000	3.853551
263.000000	3.852265
264.000000	3.851437
265.000000	3.851710
266.000000	3.848077
267.000000	3.845033
268.000000	3.842036
269.000000	3.840161
270.000000	3.838404
271.000000	3.837164
272.000000	3.834358
273.000000	3.832873
274.000000	3.831180
275.000000	3.829165
276.000000	3.829533
277.000000	3.828652
278.000000	3.826872
279.000000	3.824232
280.000000	3.823097
281.000000	3.821499
282.000000	3.820576
283.000000	3.818805
284.000000	3.816889
285.000000	3.813160
286.000000	3.810312
287.000000	3.809144
288.000000	3.808105
289.000000	3.808966
290.000000	3.807186
291.000000	3.807575
292.000000	3.806950
293.000000	3.806932
294.000000	3.806015
295.000000	3.807915
296.000000	3.808927
297.000000	3.807883
298.000000	3.806863
299.000000	3.805149
300.000000	3.805068
301.000000	3.803007
302.000000	3.802135
303.000000	3.800064
304.000000	3.800818
305.000000	3.797532
306.000000	3.797246
307.000000	3.795885
308.000000	3.795263
309.000000	3.794619
310.000000	3.794436
311.000000	3.794243
312.000000	3.794446
313.000000	3.793472
314.000000	3.790014
315.000000	3.790450
316.000000	3.789879
317.000000	3.813476
318.000000	3.838344
319.000000	3.854486
320.000000	3.867953
321.000000	3.873691
322.000000	3.883167
323.000000	3.891334
324.000000	3.904268
325.000000	3.917422
326.000000	3.920142
327.000000	3.911156
328.000000	3.894011
329.000000	3.880324
330.000000	3.870458
331.000000	3.870258
332.000000	3.862880
333.000000	3.860202
334.000000	3.855288
335.000000	3.853694
336.000000	3.859923
337.000000	3.849055
338.000000	3.846008
339.000000	3.849233
340.000000	3.848558
341.000000	3.844427
342.000000	3.845615
343.000000	3.843554
344.000000	3.835638
345.000000	3.828471
346.000000	3.820479
347.000000	3.821272
348.000000	3.818494
349.000000	3.812306
350.000000	3.811278
351.000000	3.811306
352.000000	3.809346
353.000000	3.809288
354.000000	3.810089
355.000000	3.806296
356.000000	3.803494
357.000000	3.801781
358.000000	3.805903
359.000000	3.808927
360.000000	3.808935
361.000000	3.806616
362.000000	3.804672
363.000000	3.801862
364.000000	3.800687
365.000000	3.798154
366.000000	3.798488
367.000000	3.794732
368.000000	3.786863
369.000000	3.782128
370.000000	3.778905
371.000000	3.777331
372.000000	3.773515
373.000000	3.766513
374.000000	3.761273
375.000000	3.758419
376.000000	3.754135
377.000000	3.744440
378.000000	3.766760
379.000000	3.788470
380.000000	3.808715
381.000000	3.830018
382.000000	3.853868
383.000000	3.881285
384.000000	3.908666
385.000000	3.933620
386.000000	3.958160
387.000000	3.989503
388.000000	3.989940
389.000000	3.990620
390.000000	3.991481
391.000000	3.992242
392.000000	3.993048
393.000000	3.993506
394.000000	3.994208
395.000000	3.995154
396.000000	3.996038
397.000000	3.997011
398.000000	3.997729
399.000000	3.998697
400.000000	3.999965
401.000000	4.001207
402.000000	4.001936
403.000000	4.002735
404.000000	4.003535
405.000000	4.004826
406.000000	4.005901
407.000000	4.006803
408.000000	4.008053
409.000000	4.009021
410.000000	4.010005
411.000000	4.011006
412.000000	4.012289
413.000000	4.013774
414.000000	4.015146
415.000000	4.016167
416.000000	4.017446
417.000000	4.018905
418.000000	4.020394
419.000000	4.022027
420.000000	4.023812
421.000000	4.056261
422.000000	4.088715
423.000000	4.121238
424.000000	4.153854
425.000000	4.186710
426.000000	4.219704
427.000000	4.252752
428.000000	4.285697
429.000000	4.318723
430.000000	4.351837
431.000000	4.354362
432.000000	4.356696
433.000000	4.358971
434.000000	4.361573
435.000000	4.364345
436.000000	4.366976
437.000000	4.369715
438.000000	4.372560
439.000000	4.375512
440.000000	4.378377
441.000000	4.381288
442.000000	4.384718
443.000000	4.388342
444.000000	4.391618
445.000000	4.394625
446.000000	4.397923
447.000000	4.401381
448.000000	4.404992
449.000000	4.408732
450.000000	4.412429
451.000000	4.416277
452.000000	4.450939
453.000000	4.485557
454.000000	4.520361
455.000000	4.555520
456.000000	4.590682
457.000000	4.625889
458.000000	4.661157
459.000000	4.696370
460.000000	4.731959
461.000000	4.767937
462.000000	4.773207
463.000000	4.778650
464.000000	4.784257
465.000000	4.790058
466.000000	4.795871
467.000000	4.801796
468.000000	4.807986
469.000000	4.814273
470.000000	4.820394
471.000000	4.826286
472.000000	4.832346
473.000000	4.838581
474.000000	4.844918
475.000000	4.851210
476.000000	4.857620
477.000000	4.894707
478.000000	4.931838
479.000000	4.969090
480.000000	5.006260
481.000000	5.043445
482.000000	5.080511
483.000000	5.117866
484.000000	5.155907
485.000000	5.194826
486.000000	5.265333
487.000000	5.306004
488.000000	5.347671
489.000000	5.390409
490.000000	5.434743
491.000000	5.480593
492.000000	5.558704
493.000000	5.638470
494.000000	5.719844
495.000000	5.802860
496.000000	5.857084
497.000000	5.913786
498.000000	6.004429
499.000000	6.099401
500.000000	6.199408
501.000000	6.305904
502.000000	6.390180
503.000000	6.515234
504.000000	6.652392
505.000000	6.803753
506.000000	6.971259
507.000000	7.156647
508.000000	7.360512
509.000000	7.582635
510.000000	7.822438
511.000000	8.077566
512.000000	8.343930
513.000000	8.586385
514.000000	8.861435
515.000000	9.133137
516.000000	9.396562
517.000000	9.647682
518.000000	9.853074
519.000000	10.041311
520.000000	10.211184
521.000000	10.393708
522.000000	10.560005
523.000000	10.712346
524.000000	10.822635
525.000000	10.923766
526.000000	11.017599
527.000000	11.105581
528.000000	11.188692
529.000000	11.268031
530.000000	11.374891
531.000000	11.448273
532.000000	11.519393
533.000000	11.588473
534.000000	11.655792
535.000000	11.721245
536.000000	11.785480
537.000000	11.849433
538.000000	11.912700
539.000000	11.975250
540.000000	12.006238
541.000000	12.036385
542.000000	12.066077
543.000000	12.094563
544.000000	12.121554
545.000000	12.148143
546.000000	12.174236
547.000000	12.198939
548.000000	12.253562
549.000000	12.308005
550.000000	12.362894
551.000000	12.417906
552.000000	12.471638
553.000000	12.525005
554.000000	12.577151
555.000000	12.627860
556.000000	12.677056
557.000000	12.725324
558.000000	12.741723
559.000000	12.755476
560.000000	12.753086
561.000000	12.746191
562.000000	12.736662
563.000000	12.725083
564.000000	12.711717
565.000000	12.697647
566.000000	12.682706
567.000000	12.668429
568.000000	12.654552
569.000000	12.642739
570.000000	12.645235
571.000000	12.650097
572.000000	12.656013
573.000000	12.660543
574.000000	12.664131
575.000000	12.665564
576.000000	12.665535
577.000000	12.662267
578.000000	12.657431
579.000000	12.650290
580.000000	12.642969
581.000000	12.637382
582.000000	12.633309
583.000000	12.631572
584.000000	12.631762
585.000000	12.633747
586.000000	12.635245
587.000000	12.636121
588.000000	12.635353
589.000000	12.632411
590.000000	12.627167
591.000000	12.619387
592.000000	12.609612
593.000000	12.599924
594.000000	12.592494
595.000000	12.586899
596.000000	12.585525
597.000000	12.587400
598.000000	12.591652
599.000000	12.597261
600.000000	12.601471
601.000000	12.603371
602.000000	12.602031
603.000000	12.596064
604.000000	12.584767
605.000000	12.569884
606.000000	12.553130
607.000000	12.536724
608.000000	12.521947
609.000000	12.510438
610.000000	12.503632
611.000000	12.500233
612.000000	12.499967
613.000000	12.531989
614.000000	12.565083
615.000000	12.596057
616.000000	12.623456
617.000000	12.647190
618.000000	12.666771
619.000000	12.684581
620.000000	12.701645
621.000000	12.718788
622.000000	12.739112
623.000000	12.733262
624.000000	12.731403
625.000000	12.733958
626.000000	12.739327
627.000000	12.746146
628.000000	12.753112
629.000000	12.756815
630.000000	12.757578
631.000000	12.755605
632.000000	12.750275
633.000000	12.743211
634.000000	12.735523
635.000000	12.729545
636.000000	12.725944
637.000000	12.724876
638.000000	12.727132
639.000000	12.733004
640.000000	12.740027
641.000000	12.748471
642.000000	12.755908
643.000000	12.761348
644.000000	12.764149
645.000000	12.764271
646.000000	12.762456
647.000000	12.759984
648.000000	12.758333
649.000000	12.758409
650.000000	12.760677
651.000000	12.764812
652.000000	12.771800
653.000000	12.781071
654.000000	12.792339
655.000000	12.804882
656.000000	12.817297
657.000000	12.859379
658.000000	12.900142
659.000000	12.938863
660.000000	12.976309
661.000000	13.014903
662.000000	13.054141
663.000000	13.095047
664.000000	13.136644
665.000000	13.178638
666.000000	13.222175
667.000000	13.236073
668.000000	13.249929
669.000000	13.264755
670.000000	13.279959
671.000000	13.294803
672.000000	13.309682
673.000000	13.323323
674.000000	13.337272
675.000000	13.352400
676.000000	13.369177
677.000000	13.387178
678.000000	13.406025
679.000000	13.425534
680.000000	13.445329
681.000000	13.464032
682.000000	13.482449
683.000000	13.501792
684.000000	13.521615
685.000000	13.540573
686.000000	13.589654
687.000000	13.639542
688.000000	13.689673
689.000000	13.740631
690.000000	13.793228
691.000000	13.847493
692.000000	13.902095
693.000000	13.955836
694.000000	14.007657
695.000000	14.058996
696.000000	14.079554
697.000000	14.099174
698.000000	14.118325
699.000000	14.137082
700.000000	14.155564
701.000000	14.173742
702.000000	14.192005
703.000000	14.210864
704.000000	14.231774
705.000000	14.252301
706.000000	14.271908
707.000000	14.290296
708.000000	14.308484
709.000000	14.325921
710.000000	14.342788
711.000000	14.358745
712.000000	14.373535
713.000000	14.387844
714.000000	14.401167
715.000000	14.446414
716.000000	14.491509
717.000000	14.536957
718.000000	14.582146
719.000000	14.626783
720.000000	14.671086
721.000000	14.715682
722.000000	14.760510
723.000000	14.805207
724.000000	14.849501
725.000000	14.861663
726.000000	14.872845
727.000000	14.884152
728.000000	14.896067
729.000000	14.908079
730.000000	14.919576
731.000000	14.930590
732.000000	14.942407
733.000000	14.954361
734.000000	14.966227
735.000000	14.977574
736.000000	14.989450
737.000000	15.002351
738.000000	15.014785
739.000000	15.026458
740.000000	15.038260
741.000000	15.080081
742.000000	15.121261
743.000000	15.162743
744.000000	15.204990
745.000000	15.248786
746.000000	15.292827
747.000000	15.335815
748.000000	15.379163
749.000000	15.423347
750.000000	15.468323
751.000000	15.483959
752.000000	15.500309
753.000000	15.516378
754.000000	15.531659
755.000000	15.545357
756.000000	15.559717
757.000000	15.574582
758.000000	15.587819
759.000000	15.601349
760.000000	15.617251
761.000000	15.633438
762.000000	15.679373
763.000000	15.725713
764.000000	15.772964
765.000000	15.821736
766.000000	15.870824
767.000000	15.920768
768.000000	15.971398
769.000000	16.020756
770.000000	16.068620
771.000000	16.116147
772.000000	16.134181
773.000000	16.152715
774.000000	16.171208
775.000000	16.189508
776.000000	16.207669
777.000000	16.225534
778.000000	16.245134
779.000000	16.266418
780.000000	16.286249
781.000000	16.336672
782.000000	16.386941
783.000000	16.436650
784.000000	16.487639
785.000000	16.538740
786.000000	16.588823
787.000000	16.639425
788.000000	16.690118
789.000000	16.741955
790.000000	16.794891
791.000000	16.817513
792.000000	16.841200
793.000000	16.863562
794.000000	16.883026
795.000000	16.903174
796.000000	16.925472
797.000000	16.946975
798.000000	16.968789
799.000000	16.989771
800.000000	17.011699
801.000000	17.062986
802.000000	17.113805
803.000000	17.167941
804.000000	17.223660
805.000000	17.278906
806.000000	17.333842
807.000000	17.387380
808.000000	17.441340
809.000000	17.494521
810.000000	17.548224
811.000000	17.573259
812.000000	17.599730
813.000000	17.624718
814.000000	17.649304
815.000000	17.672690
816.000000	17.694494
817.000000	17.718426
818.000000	17.740258
819.000000	17.763233
820.000000	17.782901
821.000000	17.800795
822.000000	17.816856
823.000000	17.830332
824.000000	17.843302
825.000000	17.858197
826.000000	17.872655
827.000000	17.916243
828.000000	17.961107
829.000000	18.004264
830.000000	18.047057
831.000000	18.088302
832.000000	18.126952
833.000000	18.170111
834.000000	18.211895
835.000000	18.249885
836.000000	18.291387
837.000000	18.300678
838.000000	18.310444
839.000000	18.315759
840.000000	18.318333
841.000000	18.327379
842.000000	18.337745
843.000000	18.339503
844.000000	18.345324
845.000000	18.349292
846.000000	18.353566
847.000000	18.356244
848.000000	18.354880
849.000000	18.360609
850.000000	18.365429
851.000000	18.373152
852.000000	18.367692
853.000000	18.372056
854.000000	18.368559
855.000000	18.365830
856.000000	18.356713
857.000000	18.369511
858.000000	18.631363
859.000000	18.658678
860.000000	18.716868
861.000000	18.744417
862.000000	18.762845
863.000000	18.780146
864.000000	18.829497
865.000000	18.908753
866.000000	18.967415
867.000000	19.032372
868.000000	18.852320
869.000000	18.879517
870.000000	18.856558
871.000000	18.857800
872.000000	18.857817
873.000000	18.879635
874.000000	18.874352
875.000000	18.843250
876.000000	18.835715
877.000000	18.778285
878.000000	18.744735
879.000000	18.735490
880.000000	18.727152
881.000000	18.742337
882.000000	18.755553
883.000000	18.743012
884.000000	18.731293
885.000000	18.719830
886.000000	18.707767
887.000000	18.696285
888.000000	18.682350
889.000000	18.669328
890.000000	18.653970
891.000000	18.638523
892.000000	18.623605
893.000000	18.607875
894.000000	18.591490
895.000000	18.573277
896.000000	18.556777
897.000000	18.564105
898.000000	18.547100
899.000000	18.529367
900.000000	18.536822
901.000000	18.519520
902.000000	18.527793
903.000000	18.536370
904.000000	18.544825
905.000000	18.529248
906.000000	18.537155
907.000000	18.520248
908.000000	18.529300
909.000000	18.512095
910.000000	18.493725
911.000000	18.475642
912.000000	18.457812
913.000000	18.441887
914.000000	18.426962
915.000000	18.436048
916.000000	18.419895
917.000000	18.429092
918.000000	18.413532
919.000000	18.423970
920.000000	18.435020
921.000000	18.446442
922.000000	18.455660
923.000000	18.461205
924.000000	18.467160
925.000000	18.471808
926.000000	18.476188
927.000000	18.479998
928.000000	18.482238
929.000000	18.484327
930.000000	18.487005
931.000000	18.488825
932.000000	18.491768
933.000000	18.497647
934.000000	18.501683
935.000000	18.508592
936.000000	18.515877
937.000000	18.522565
938.000000	18.529250
939.000000	18.535685
940.000000	18.540420
941.000000	18.544020
942.000000	18.546988
943.000000	18.548198
944.000000	18.549845
945.000000	18.550375
946.000000	18.550548
947.000000	18.550805
948.000000	18.552500
949.000000	18.555433
950.000000	18.560022
951.000000	18.564770
952.000000	18.570653
953.000000	18.576695
954.000000	18.583243
955.000000	18.590113
956.000000	18.596113
957.000000	18.602228
958.000000	18.606900
959.000000	18.610907
960.000000	18.614065
961.000000	18.617012
962.000000	18.619447
963.000000	18.623915
964.000000	18.627935
965.000000	18.631895
966.000000	18.636373
967.000000	18.640808
968.000000	18.646753
969.000000	18.651933
970.000000	18.657890
971.000000	18.664397
972.000000	18.671402
973.000000	18.677308
974.000000	18.682678
975.000000	18.687518
976.000000	18.692473
977.000000	18.697922
978.000000	18.703350
979.000000	18.708610
980.000000	18.713287
981.000000	18.719028
982.000000	18.723813
983.000000	18.728162
984.000000	18.733282
985.000000	18.739045
986.000000	18.744995
987.000000	18.749925
988.000000	18.754943
989.000000	18.761408
990.000000	18.768105
991.000000	18.774217
992.000000	18.781408
993.000000	18.788635
994.000000	18.795220
995.000000	18.802143
996.000000	18.809350
997.000000	18.816933
998.000000	18.824397
999.000000	18.830965
1000.000000	18.837343
1001.000000	18.844127
1002.000000	18.850513
1003.000000	18.857520
1004.000000	18.865018
1005.000000	18.896802
1006.000000	18.928460
1007.000000	18.960933
1008.000000	18.993730
1009.000000	19.026300
1010.000000	19.058522
1011.000000	19.090280
1012.000000	19.121767
1013.000000	19.153413
1014.000000	19.184908
1015.000000	19.191787
1016.000000	19.198512
1017.000000	19.205160
1018.000000	19.211747
1019.000000	19.218905
1020.000000	19.227725
1021.000000	19.236700
1022.000000	19.245263
1023.000000	19.253855
1024.000000	19.262755
1025.000000	19.272078
1026.000000	19.282195
1027.000000	19.292298
1028.000000	19.302070
1029.000000	19.312342
1030.000000	19.321938
1031.000000	19.331100
1032.000000	19.341510
1033.000000	19.352877
1034.000000	19.364230
1035.000000	19.374952
1036.000000	19.385287
1037.000000	19.395680
1038.000000	19.406182
1039.000000	19.416240
1040.000000	19.425970
1041.000000	19.435782
1042.000000	19.444707
1043.000000	19.453340
1044.000000	19.462432
1045.000000	19.471470
1046.000000	19.480640
1047.000000	19.489555
1048.000000	19.498195
1049.000000	19.506967
1050.000000	19.516163
1051.000000	19.525955
1052.000000	19.535603
1053.000000	19.544918
1054.000000	19.554022
1055.000000	19.588078
1056.000000	19.621733
1057.000000	19.655825
1058.000000	19.690103
1059.000000	19.724045
1060.000000	19.757720
1061.000000	19.791705
1062.000000	19.826955
1063.000000	19.861405
1064.000000	19.894928
1065.000000	19.903942
1066.000000	19.913707
1067.000000	19.923043
1068.000000	19.932610
1069.000000	19.942618
1070.000000	19.953115
1071.000000	19.963810
1072.000000	19.973520
1073.000000	19.984290
1074.000000	19.995233
1075.000000	20.006058
1076.000000	20.016920
1077.000000	20.027305
1078.000000	20.036723
1079.000000	20.046642
1080.000000	20.056540
1081.000000	20.065810
1082.000000	20.075680
1083.000000	20.085767
1084.000000	20.095095
1085.000000	20.104960
1086.000000	20.114822
1087.000000	20.124142
1088.000000	20.134715
1089.000000	20.145142
1090.000000	20.155608
1091.000000	20.165290
1092.000000	20.173325
1093.000000	20.180557
1094.000000	20.188437
1095.000000	20.194867
1096.000000	20.200337
1097.000000	20.207853
1098.000000	20.215105
1099.000000	20.220965
1100.000000	20.226245
1101.000000	20.231960
1102.000000	20.238683
1103.000000	20.245532
1104.000000	20.252488
1105.000000	20.260207
1106.000000	20.268545
1107.000000	20.274683
1108.000000	20.279840
1109.000000	20.286217
1110.000000	20.293005
1111.000000	20.324677
1112.000000	20.355487
1113.000000	20.385760
1114.000000	20.415935
1115.000000	20.445030
1116.000000	20.473532
1117.000000	20.503517
1118.000000	20.534323
1119.000000	20.563435
1120.000000	20.591552
1121.000000	20.594490
1122.000000	20.598485
1123.000000	20.602360
1124.000000	20.605483
1125.000000	20.607970
1126.000000	20.609578
1127.000000	20.609803
1128.000000	20.609280
1129.000000	20.584077
1130.000000	20.557592
1131.000000	20.528435
1132.000000	20.496195
1133.000000	20.462563
1134.000000	20.430990
1135.000000	20.401150
1136.000000	20.369483
1137.000000	20.336420
1138.000000	20.301775
1139.000000	20.290938
1140.000000	20.280210
1141.000000	20.271505
1142.000000	20.263075
1143.000000	20.255698
1144.000000	20.246512
1145.000000	20.236575
1146.000000	20.228807
1147.000000	20.222168
1148.000000	20.216230
1149.000000	20.210420
1150.000000	20.205075
1151.000000	20.200235
1152.000000	20.198135
1153.000000	20.193998
1154.000000	20.189248
1155.000000	20.182218
1156.000000	20.173728
1157.000000	20.164935
1158.000000	20.153745
1159.000000	20.116510
1160.000000	20.078310
1161.000000	20.036900
1162.000000	19.992400
1163.000000	19.947713
