PE UV       SUBTECH     SPECTRUM    ASCII       PEDS        4.00        
   -1
INBUCR0122-5.Sample.ASC
24/02/12
14:35:35.00
24/02/12
14:35:35.00
Vinicio Soto Monge
Pelidnota strigosa. Color café con ambos élitros (Det: A. Solís) COSTA RICA Prov. Guanacaste. Cañas. Reserva Leones. Naciente Quebrada Leones Cabo Blanco. 800-900m 25-26 SEP 2008 J.A. Azofeifa. Tp Luz Mercurio L_N_291200_422800 #94907 INB0004171901 
250,000000
1
Lambda 1050
1050L1511233
PerkinElmer UV WinLab 6.3.2.0749 / 2.02.05 Lambda 900 UV/VIS/NIR, Aug  7 2015 09:38:08

0
0
3350/servo 860,8/2
0
0
UV/VIS
1
1
1
DoubleDePol,CommonBeamDepol,RBeamAtt,SBeamAtt,60mm sphere, WB InGaAs Detector
0
0
0
0
Program
Program
3350/servo 860,8/2
3350/0,2 860,8/0,2
3350/0,2 860,8/0,2
0
15.00
 
 
 
0
 
860,8
150
860,8
Front
100
on
S:100 R:100
0
0
0
0
 
0
 
 
 
0
 
 
0
0
0
0
0
 
 
 
 
0
0


0
0
#HDR
-1
-1
#GR
nm
%R
1.0
0.0
2500,000000
-1,000000
2251
8
21,534800
1,590000
#DATA

250.000000	nan
251.000000	nan
252.000000	nan
253.000000	nan
254.000000	nan
255.000000	nan
256.000000	nan
257.000000	nan
258.000000	nan
259.000000	3.352313
260.000000	3.336084
261.000000	3.298283
262.000000	3.273100
263.000000	3.241523
264.000000	3.224561
265.000000	3.217510
266.000000	3.189975
267.000000	3.159727
268.000000	3.150749
269.000000	3.124739
270.000000	3.099465
271.000000	3.074538
272.000000	3.041915
273.000000	3.016457
274.000000	2.996040
275.000000	2.966545
276.000000	2.945659
277.000000	2.933242
278.000000	2.921079
279.000000	2.916548
280.000000	2.904971
281.000000	2.890389
282.000000	2.883798
283.000000	2.882860
284.000000	2.879623
285.000000	2.880623
286.000000	2.873391
287.000000	2.861454
288.000000	2.847376
289.000000	2.840451
290.000000	2.836272
291.000000	2.835673
292.000000	2.835885
293.000000	2.835737
294.000000	2.830422
295.000000	2.824475
296.000000	2.820465
297.000000	2.819538
298.000000	2.817886
299.000000	2.816515
300.000000	2.811338
301.000000	2.805774
302.000000	2.800455
303.000000	2.794058
304.000000	2.789425
305.000000	2.780907
306.000000	2.781075
307.000000	2.782004
308.000000	2.780587
309.000000	2.777151
310.000000	2.777153
311.000000	2.778409
312.000000	2.779962
313.000000	2.776704
314.000000	2.777250
315.000000	2.779873
316.000000	2.778213
317.000000	2.807287
318.000000	2.842305
319.000000	2.870364
320.000000	2.899777
321.000000	2.933928
322.000000	2.945291
323.000000	2.968972
324.000000	2.989473
325.000000	3.009971
326.000000	3.025338
327.000000	3.015416
328.000000	2.998170
329.000000	2.986610
330.000000	2.967105
331.000000	2.938650
332.000000	2.939553
333.000000	2.929436
334.000000	2.923313
335.000000	2.920776
336.000000	2.916815
337.000000	2.905661
338.000000	2.899521
339.000000	2.892591
340.000000	2.893917
341.000000	2.895474
342.000000	2.885078
343.000000	2.874879
344.000000	2.863860
345.000000	2.852604
346.000000	2.841880
347.000000	2.837436
348.000000	2.831900
349.000000	2.827166
350.000000	2.824493
351.000000	2.820604
352.000000	2.819163
353.000000	2.819153
354.000000	2.815654
355.000000	2.812399
356.000000	2.816893
357.000000	2.815601
358.000000	2.813503
359.000000	2.811621
360.000000	2.799963
361.000000	2.795204
362.000000	2.794172
363.000000	2.794681
364.000000	2.792566
365.000000	2.788896
366.000000	2.783414
367.000000	2.781345
368.000000	2.781917
369.000000	2.773249
370.000000	2.768941
371.000000	2.765741
372.000000	2.757126
373.000000	2.747385
374.000000	2.739332
375.000000	2.732522
376.000000	2.727907
377.000000	2.713038
378.000000	2.694603
379.000000	2.687010
380.000000	2.680422
381.000000	2.671071
382.000000	2.664534
383.000000	2.658330
384.000000	2.654094
385.000000	2.649960
386.000000	2.641574
387.000000	2.641544
388.000000	2.642100
389.000000	2.641661
390.000000	2.641753
391.000000	2.641350
392.000000	2.640911
393.000000	2.641007
394.000000	2.640571
395.000000	2.640215
396.000000	2.640437
397.000000	2.640790
398.000000	2.641233
399.000000	2.641671
400.000000	2.642032
401.000000	2.643133
402.000000	2.643963
403.000000	2.644338
404.000000	2.645396
405.000000	2.646528
406.000000	2.647543
407.000000	2.648323
408.000000	2.648970
409.000000	2.650033
410.000000	2.651928
411.000000	2.654139
412.000000	2.656865
413.000000	2.660090
414.000000	2.663275
415.000000	2.666806
416.000000	2.670589
417.000000	2.674990
418.000000	2.680220
419.000000	2.686060
420.000000	2.692175
421.000000	2.698375
422.000000	2.704698
423.000000	2.711204
424.000000	2.718266
425.000000	2.726009
426.000000	2.734470
427.000000	2.742915
428.000000	2.751741
429.000000	2.760472
430.000000	2.769644
431.000000	2.779358
432.000000	2.789467
433.000000	2.800053
434.000000	2.811086
435.000000	2.822401
436.000000	2.833848
437.000000	2.845739
438.000000	2.857933
439.000000	2.871006
440.000000	2.883939
441.000000	2.897026
442.000000	2.911132
443.000000	2.925546
444.000000	2.939889
445.000000	2.954536
446.000000	2.969451
447.000000	2.984702
448.000000	3.000434
449.000000	3.015929
450.000000	3.031845
451.000000	3.048595
452.000000	3.065403
453.000000	3.082165
454.000000	3.099305
455.000000	3.116771
456.000000	3.134366
457.000000	3.152105
458.000000	3.170037
459.000000	3.188771
460.000000	3.207978
461.000000	3.227073
462.000000	3.245986
463.000000	3.265350
464.000000	3.285147
465.000000	3.305535
466.000000	3.326429
467.000000	3.347504
468.000000	3.368792
469.000000	3.390570
470.000000	3.412497
471.000000	3.434498
472.000000	3.456993
473.000000	3.480180
474.000000	3.503483
475.000000	3.526494
476.000000	3.549770
477.000000	3.573705
478.000000	3.598371
479.000000	3.622941
480.000000	3.647508
481.000000	3.672330
482.000000	3.697097
483.000000	3.722001
484.000000	3.747761
485.000000	3.774817
486.000000	3.802377
487.000000	3.830386
488.000000	3.858607
489.000000	3.887825
490.000000	3.918734
491.000000	3.950665
492.000000	3.983969
493.000000	4.018496
494.000000	4.053486
495.000000	4.088596
496.000000	4.124689
497.000000	4.161659
498.000000	4.199440
499.000000	4.238481
500.000000	4.277447
501.000000	4.317323
502.000000	4.357630
503.000000	4.398330
504.000000	4.439946
505.000000	4.481979
506.000000	4.525334
507.000000	4.569677
508.000000	4.614227
509.000000	4.658965
510.000000	4.704576
511.000000	4.750994
512.000000	4.798051
513.000000	4.845948
514.000000	4.894222
515.000000	4.944007
516.000000	4.994295
517.000000	5.044750
518.000000	5.096760
519.000000	5.149703
520.000000	5.203884
521.000000	5.259029
522.000000	5.315575
523.000000	5.373003
524.000000	5.431818
525.000000	5.491451
526.000000	5.551941
527.000000	5.613919
528.000000	5.677349
529.000000	5.741814
530.000000	5.807024
531.000000	5.872829
532.000000	5.940217
533.000000	6.009126
534.000000	6.078897
535.000000	6.149634
536.000000	6.221573
537.000000	6.293999
538.000000	6.366608
539.000000	6.440192
540.000000	6.514749
541.000000	6.590504
542.000000	6.666535
543.000000	6.742955
544.000000	6.821024
545.000000	6.899555
546.000000	6.979035
547.000000	7.059079
548.000000	7.140236
549.000000	7.221768
550.000000	7.303882
551.000000	7.387270
552.000000	7.471061
553.000000	7.554912
554.000000	7.638896
555.000000	7.723989
556.000000	7.809741
557.000000	7.896762
558.000000	7.984099
559.000000	8.072073
560.000000	8.152158
561.000000	8.231950
562.000000	8.312286
563.000000	8.394057
564.000000	8.477306
565.000000	8.562063
566.000000	8.648193
567.000000	8.736350
568.000000	8.827129
569.000000	8.920423
570.000000	9.024687
571.000000	9.132656
572.000000	9.244225
573.000000	9.359547
574.000000	9.477859
575.000000	9.598791
576.000000	9.722687
577.000000	9.849768
578.000000	9.978528
579.000000	10.109911
580.000000	10.243733
581.000000	10.379369
582.000000	10.517031
583.000000	10.653816
584.000000	10.791653
585.000000	10.928826
586.000000	11.065247
587.000000	11.200294
588.000000	11.332958
589.000000	11.463208
590.000000	11.590294
591.000000	11.712328
592.000000	11.829567
593.000000	11.943437
594.000000	12.050756
595.000000	12.152941
596.000000	12.248849
597.000000	12.337046
598.000000	12.420705
599.000000	12.496812
600.000000	12.566433
601.000000	12.630651
602.000000	12.687585
603.000000	12.739176
604.000000	12.784471
605.000000	12.825243
606.000000	12.859851
607.000000	12.889872
608.000000	12.914412
609.000000	12.935105
610.000000	12.952474
611.000000	12.965221
612.000000	12.975075
613.000000	12.982024
614.000000	12.987852
615.000000	12.991402
616.000000	12.993725
617.000000	12.996544
618.000000	12.999289
619.000000	13.001041
620.000000	13.003983
621.000000	13.009657
622.000000	13.016559
623.000000	13.024905
624.000000	13.035490
625.000000	13.048617
626.000000	13.065411
627.000000	13.086050
628.000000	13.110034
629.000000	13.139235
630.000000	13.172021
631.000000	13.207975
632.000000	13.249336
633.000000	13.295207
634.000000	13.344543
635.000000	13.397689
636.000000	13.454850
637.000000	13.515614
638.000000	13.580095
639.000000	13.648035
640.000000	13.717534
641.000000	13.790439
642.000000	13.865048
643.000000	13.942960
644.000000	14.023393
645.000000	14.105675
646.000000	14.190096
647.000000	14.274917
648.000000	14.361193
649.000000	14.448088
650.000000	14.536851
651.000000	14.626940
652.000000	14.718052
653.000000	14.808259
654.000000	14.899630
655.000000	14.989971
656.000000	15.079334
657.000000	15.169836
658.000000	15.261014
659.000000	15.352516
660.000000	15.443844
661.000000	15.533810
662.000000	15.623694
663.000000	15.714304
664.000000	15.803340
665.000000	15.894783
666.000000	15.985995
667.000000	16.076265
668.000000	16.166255
669.000000	16.255297
670.000000	16.342556
671.000000	16.429176
672.000000	16.516846
673.000000	16.604338
674.000000	16.690850
675.000000	16.777344
676.000000	16.865200
677.000000	16.951500
678.000000	17.036973
679.000000	17.123857
680.000000	17.212174
681.000000	17.299858
682.000000	17.386546
683.000000	17.472880
684.000000	17.559650
685.000000	17.645409
686.000000	17.730649
687.000000	17.816198
688.000000	17.901273
689.000000	17.984841
690.000000	18.070092
691.000000	18.157214
692.000000	18.242058
693.000000	18.325558
694.000000	18.410662
695.000000	18.494834
696.000000	18.578447
697.000000	18.662616
698.000000	18.746656
699.000000	18.830644
700.000000	18.912832
701.000000	18.993149
702.000000	19.073993
703.000000	19.155522
704.000000	19.237253
705.000000	19.319733
706.000000	19.401202
707.000000	19.482284
708.000000	19.563253
709.000000	19.644626
710.000000	19.726720
711.000000	19.808781
712.000000	19.890031
713.000000	19.970350
714.000000	20.051454
715.000000	20.129912
716.000000	20.208122
717.000000	20.288058
718.000000	20.366835
719.000000	20.446989
720.000000	20.528311
721.000000	20.608215
722.000000	20.689625
723.000000	20.772078
724.000000	20.848936
725.000000	20.927175
726.000000	21.008096
727.000000	21.088204
728.000000	21.168350
729.000000	21.245587
730.000000	21.321835
731.000000	21.400400
732.000000	21.476640
733.000000	21.553426
734.000000	21.633471
735.000000	21.713131
736.000000	21.790052
737.000000	21.867109
738.000000	21.946989
739.000000	22.026059
740.000000	22.102740
741.000000	22.180835
742.000000	22.261167
743.000000	22.340949
744.000000	22.420343
745.000000	22.496397
746.000000	22.574228
747.000000	22.654045
748.000000	22.732281
749.000000	22.811016
750.000000	22.891635
751.000000	22.969635
752.000000	23.047079
753.000000	23.122546
754.000000	23.197619
755.000000	23.276868
756.000000	23.357114
757.000000	23.435416
758.000000	23.513481
759.000000	23.590572
760.000000	23.665680
761.000000	23.742279
762.000000	23.819769
763.000000	23.895454
764.000000	23.972855
765.000000	24.051032
766.000000	24.128333
767.000000	24.203053
768.000000	24.275223
769.000000	24.351429
770.000000	24.430791
771.000000	24.506990
772.000000	24.582631
773.000000	24.661770
774.000000	24.737160
775.000000	24.815427
776.000000	24.889788
777.000000	24.967048
778.000000	25.047392
779.000000	25.125059
780.000000	25.202199
781.000000	25.280719
782.000000	25.360732
783.000000	25.437777
784.000000	25.514060
785.000000	25.588754
786.000000	25.670373
787.000000	25.750669
788.000000	25.825317
789.000000	25.901957
790.000000	25.975065
791.000000	26.051970
792.000000	26.131027
793.000000	26.208977
794.000000	26.285874
795.000000	26.360133
796.000000	26.431368
797.000000	26.494900
798.000000	26.562465
799.000000	26.636273
800.000000	26.714142
801.000000	26.783043
802.000000	26.847697
803.000000	26.921611
804.000000	26.998210
805.000000	27.069534
806.000000	27.138633
807.000000	27.213927
808.000000	27.294566
809.000000	27.372047
810.000000	27.443801
811.000000	27.522510
812.000000	27.601826
813.000000	27.671982
814.000000	27.740622
815.000000	27.815970
816.000000	27.891661
817.000000	27.966942
818.000000	28.034876
819.000000	28.095061
820.000000	28.154372
821.000000	28.221744
822.000000	28.284333
823.000000	28.349626
824.000000	28.410138
825.000000	28.463950
826.000000	28.519866
827.000000	28.581083
828.000000	28.649141
829.000000	28.714870
830.000000	28.779975
831.000000	28.836581
832.000000	28.890386
833.000000	28.943836
834.000000	29.002435
835.000000	29.053651
836.000000	29.115612
837.000000	29.167790
838.000000	29.200958
839.000000	29.233823
840.000000	29.260530
841.000000	29.292900
842.000000	29.337157
843.000000	29.382629
844.000000	29.421178
845.000000	29.470602
846.000000	29.491974
847.000000	29.517865
848.000000	29.567143
849.000000	29.606954
850.000000	29.677368
851.000000	29.732873
852.000000	29.765976
853.000000	29.816681
854.000000	29.853928
855.000000	29.913810
856.000000	29.950795
857.000000	30.001362
858.000000	30.207643
859.000000	30.313426
860.000000	30.391111
861.000000	30.486802
862.000000	30.605615
863.000000	30.681940
864.000000	30.722939
865.000000	30.788113
866.000000	30.895501
867.000000	30.992238
868.000000	30.916217
869.000000	30.934585
870.000000	30.955400
871.000000	30.935043
872.000000	30.939945
873.000000	30.967188
874.000000	31.038280
875.000000	31.074873
876.000000	31.079293
877.000000	31.083345
878.000000	31.100587
879.000000	31.107195
880.000000	31.134370
881.000000	31.194783
882.000000	31.208295
883.000000	31.202185
884.000000	31.205208
885.000000	31.206235
886.000000	31.236370
887.000000	31.235853
888.000000	31.232315
889.000000	31.251650
890.000000	31.251810
891.000000	31.236777
892.000000	31.239245
893.000000	31.256338
894.000000	31.272097
895.000000	31.267228
896.000000	31.254250
897.000000	31.281585
898.000000	31.297425
899.000000	31.315592
900.000000	31.303690
901.000000	31.317260
902.000000	31.320128
903.000000	31.319660
904.000000	31.322578
905.000000	31.334388
906.000000	31.361580
907.000000	31.373813
908.000000	31.384320
909.000000	31.385975
910.000000	31.418150
911.000000	31.438453
912.000000	31.460080
913.000000	31.492437
914.000000	31.521172
915.000000	31.548175
916.000000	31.567640
917.000000	31.578652
918.000000	31.604962
919.000000	31.632403
920.000000	31.656315
921.000000	31.680298
922.000000	31.708002
923.000000	31.730225
924.000000	31.750103
925.000000	31.765048
926.000000	31.777815
927.000000	31.791655
928.000000	31.804098
929.000000	31.824135
930.000000	31.843713
931.000000	31.854852
932.000000	31.864050
933.000000	31.874925
934.000000	31.893360
935.000000	31.921350
936.000000	31.945790
937.000000	31.978227
938.000000	31.995595
939.000000	32.012267
940.000000	32.023075
941.000000	32.040363
942.000000	32.061793
943.000000	32.078080
944.000000	32.092867
945.000000	32.097460
946.000000	32.101035
947.000000	32.105440
948.000000	32.119960
949.000000	32.134098
950.000000	32.155028
951.000000	32.170030
952.000000	32.186008
953.000000	32.201750
954.000000	32.214110
955.000000	32.235253
956.000000	32.257940
957.000000	32.272653
958.000000	32.280670
959.000000	32.292918
960.000000	32.306458
961.000000	32.323122
962.000000	32.334837
963.000000	32.346967
964.000000	32.358000
965.000000	32.363672
966.000000	32.367932
967.000000	32.375150
968.000000	32.385708
969.000000	32.393163
970.000000	32.400400
971.000000	32.406635
972.000000	32.412075
973.000000	32.417080
974.000000	32.424060
975.000000	32.431777
976.000000	32.438868
977.000000	32.446188
978.000000	32.453330
979.000000	32.459795
980.000000	32.463807
981.000000	32.469955
982.000000	32.474873
983.000000	32.481005
984.000000	32.487823
985.000000	32.494303
986.000000	32.499772
987.000000	32.504568
988.000000	32.509137
989.000000	32.517152
990.000000	32.528242
991.000000	32.535725
992.000000	32.543880
993.000000	32.551260
994.000000	32.556227
995.000000	32.562885
996.000000	32.572243
997.000000	32.582878
998.000000	32.593720
999.000000	32.603865
1000.000000	32.612362
1001.000000	32.619200
1002.000000	32.627095
1003.000000	32.638675
1004.000000	32.650500
1005.000000	32.658495
1006.000000	32.664825
1007.000000	32.670430
1008.000000	32.675818
1009.000000	32.678435
1010.000000	32.679482
1011.000000	32.686172
1012.000000	32.694288
1013.000000	32.697283
1014.000000	32.700550
1015.000000	32.706965
1016.000000	32.713508
1017.000000	32.722605
1018.000000	32.732997
1019.000000	32.744343
1020.000000	32.755893
1021.000000	32.763787
1022.000000	32.771657
1023.000000	32.782588
1024.000000	32.793760
1025.000000	32.805428
1026.000000	32.819617
1027.000000	32.831925
1028.000000	32.842063
1029.000000	32.852877
1030.000000	32.866552
1031.000000	32.882220
1032.000000	32.896543
1033.000000	32.910585
1034.000000	32.925953
1035.000000	32.941637
1036.000000	32.956660
1037.000000	32.971720
1038.000000	32.987252
1039.000000	33.002493
1040.000000	33.016422
1041.000000	33.030440
1042.000000	33.044845
1043.000000	33.061102
1044.000000	33.075608
1045.000000	33.088485
1046.000000	33.099432
1047.000000	33.111702
1048.000000	33.124797
1049.000000	33.137628
1050.000000	33.152372
1051.000000	33.164490
1052.000000	33.176007
1053.000000	33.188740
1054.000000	33.202072
1055.000000	33.216405
1056.000000	33.231942
1057.000000	33.245915
1058.000000	33.261582
1059.000000	33.277080
1060.000000	33.291048
1061.000000	33.307650
1062.000000	33.325428
1063.000000	33.341802
1064.000000	33.357710
1065.000000	33.371372
1066.000000	33.384540
1067.000000	33.400977
1068.000000	33.416455
1069.000000	33.433307
1070.000000	33.450272
1071.000000	33.467565
1072.000000	33.482925
1073.000000	33.496700
1074.000000	33.510975
1075.000000	33.529583
1076.000000	33.546540
1077.000000	33.563410
1078.000000	33.579008
1079.000000	33.593198
1080.000000	33.608423
1081.000000	33.621592
1082.000000	33.635890
1083.000000	33.651005
1084.000000	33.666275
1085.000000	33.676958
1086.000000	33.689792
1087.000000	33.699897
1088.000000	33.708872
1089.000000	33.720073
1090.000000	33.729195
1091.000000	33.738110
1092.000000	33.748047
1093.000000	33.757360
1094.000000	33.765245
1095.000000	33.774225
1096.000000	33.781977
1097.000000	33.789310
1098.000000	33.797350
1099.000000	33.803843
1100.000000	33.811255
1101.000000	33.819210
1102.000000	33.825968
1103.000000	33.830497
1104.000000	33.833938
1105.000000	33.838058
1106.000000	33.841752
1107.000000	33.845613
1108.000000	33.849065
1109.000000	33.850895
1110.000000	33.850590
1111.000000	33.849728
1112.000000	33.845940
1113.000000	33.843927
1114.000000	33.843940
1115.000000	33.841440
1116.000000	33.840135
1117.000000	33.838160
1118.000000	33.835693
1119.000000	33.832635
1120.000000	33.828155
1121.000000	33.824340
1122.000000	33.820847
1123.000000	33.816980
1124.000000	33.809380
1125.000000	33.801280
1126.000000	33.787812
1127.000000	33.769953
1128.000000	33.752080
1129.000000	33.732698
1130.000000	33.710278
1131.000000	33.680595
1132.000000	33.647222
1133.000000	33.610587
1134.000000	33.574287
1135.000000	33.536215
1136.000000	33.496210
1137.000000	33.455900
1138.000000	33.410660
1139.000000	33.363613
1140.000000	33.318970
1141.000000	33.275245
1142.000000	33.232690
1143.000000	33.190220
1144.000000	33.145333
1145.000000	33.104647
1146.000000	33.064845
1147.000000	33.027935
1148.000000	32.991723
1149.000000	32.954220
1150.000000	32.916662
1151.000000	32.882030
1152.000000	32.847133
1153.000000	32.809862
1154.000000	32.771835
1155.000000	32.728450
1156.000000	32.683402
1157.000000	32.633850
1158.000000	32.580970
1159.000000	32.526097
1160.000000	32.465605
1161.000000	32.403575
1162.000000	32.337743
1163.000000	32.268993
1164.000000	32.199410
1165.000000	32.127505
1166.000000	32.055272
