PE UV       SUBTECH     SPECTRUM    ASCII       PEDS        4.00        
   -1
INBUCR0142-4.Sample.ASC
24/02/07
15:12:37.00
24/02/07
15:12:37.00
Vinicio Soto Monge
Color café con ambos élitros. Pelidnota laevissima. Det: A. Solís. Finca Cafrosa, Embalce, 800 m NO. de Tigra, Puntarenas, Costa Rica. 1280 m.10-21 MAY 1996. E. Navarro, L_S_317800_596200 #7494. INBIOCRI002374952
250,000000
1
Lambda 1050
1050L1511233
PerkinElmer UV WinLab 6.3.2.0749 / 2.02.05 Lambda 900 UV/VIS/NIR, Aug  7 2015 09:38:08

0
0
3350/servo 860,8/2
0
0
UV/VIS
1
1
1
DoubleDePol,CommonBeamDepol,RBeamAtt,SBeamAtt,60mm sphere, WB InGaAs Detector
0
0
0
0
Program
Program
3350/servo 860,8/2
3350/0,2 860,8/0,2
3350/0,2 860,8/0,2
0
15.00
 
 
 
0
 
860,8
319,2
860,8
Front
100
on
S:100 R:100
0
0
0
0
 
0
 
 
 
0
 
 
0
0
0
0
0
 
 
 
 
0
0


0
0
#HDR
-1
-1
#GR
nm
%R
1.0
0.0
2500,000000
-1,000000
2251
8
16,966400
1,302900
#DATA

250.000000	nan
251.000000	nan
252.000000	nan
253.000000	nan
254.000000	nan
255.000000	nan
256.000000	nan
257.000000	nan
258.000000	nan
259.000000	4.373648
260.000000	4.358415
261.000000	4.344275
262.000000	4.326968
263.000000	4.306342
264.000000	4.284534
265.000000	4.262954
266.000000	4.240703
267.000000	4.215027
268.000000	4.192192
269.000000	4.169820
270.000000	4.146375
271.000000	4.121812
272.000000	4.099360
273.000000	4.078264
274.000000	4.058675
275.000000	4.040423
276.000000	4.022058
277.000000	4.005117
278.000000	3.987325
279.000000	3.969282
280.000000	3.956166
281.000000	3.942665
282.000000	3.930203
283.000000	3.918010
284.000000	3.907227
285.000000	3.897653
286.000000	3.890312
287.000000	3.884267
288.000000	3.879260
289.000000	3.878931
290.000000	3.874857
291.000000	3.873230
292.000000	3.873674
293.000000	3.874656
294.000000	3.877098
295.000000	3.879564
296.000000	3.879885
297.000000	3.883045
298.000000	3.885948
299.000000	3.884972
300.000000	3.887062
301.000000	3.888062
302.000000	3.888067
303.000000	3.883026
304.000000	3.878047
305.000000	3.873455
306.000000	3.872724
307.000000	3.867092
308.000000	3.863231
309.000000	3.860048
310.000000	3.854168
311.000000	3.849322
312.000000	3.840958
313.000000	3.839050
314.000000	3.836148
315.000000	3.832691
316.000000	3.827976
317.000000	3.839296
318.000000	3.857052
319.000000	3.869859
320.000000	3.870293
321.000000	3.877052
322.000000	3.889388
323.000000	3.895076
324.000000	3.903166
325.000000	3.911953
326.000000	3.915455
327.000000	3.911791
328.000000	3.895592
329.000000	3.879122
330.000000	3.876446
331.000000	3.872416
332.000000	3.865951
333.000000	3.866158
334.000000	3.863618
335.000000	3.859474
336.000000	3.858849
337.000000	3.852750
338.000000	3.853515
339.000000	3.859490
340.000000	3.862347
341.000000	3.860046
342.000000	3.857402
343.000000	3.853174
344.000000	3.849968
345.000000	3.850786
346.000000	3.851728
347.000000	3.852900
348.000000	3.851685
349.000000	3.852209
350.000000	3.856794
351.000000	3.860454
352.000000	3.864397
353.000000	3.869414
354.000000	3.874711
355.000000	3.877800
356.000000	3.881969
357.000000	3.886816
358.000000	3.892735
359.000000	3.896555
360.000000	3.898643
361.000000	3.901716
362.000000	3.905561
363.000000	3.910532
364.000000	3.914430
365.000000	3.918025
366.000000	3.923778
367.000000	3.927836
368.000000	3.930582
369.000000	3.934349
370.000000	3.939420
371.000000	3.946656
372.000000	3.951765
373.000000	3.956492
374.000000	3.963515
375.000000	3.968323
376.000000	3.970240
377.000000	3.965575
378.000000	3.962804
379.000000	3.960609
380.000000	3.958234
381.000000	3.954174
382.000000	3.952217
383.000000	3.950253
384.000000	3.946323
385.000000	3.944613
386.000000	3.943999
387.000000	3.950435
388.000000	3.957491
389.000000	3.964771
390.000000	3.971490
391.000000	3.978790
392.000000	3.986106
393.000000	3.993333
394.000000	4.000731
395.000000	4.007874
396.000000	4.015819
397.000000	4.024146
398.000000	4.032110
399.000000	4.040225
400.000000	4.048900
401.000000	4.057856
402.000000	4.066686
403.000000	4.075337
404.000000	4.085303
405.000000	4.096108
406.000000	4.107258
407.000000	4.119200
408.000000	4.132190
409.000000	4.146293
410.000000	4.162080
411.000000	4.179691
412.000000	4.199940
413.000000	4.222188
414.000000	4.246417
415.000000	4.273366
416.000000	4.303159
417.000000	4.335719
418.000000	4.371080
419.000000	4.408897
420.000000	4.448935
421.000000	4.491841
422.000000	4.537020
423.000000	4.584961
424.000000	4.634910
425.000000	4.686530
426.000000	4.739579
427.000000	4.793781
428.000000	4.849792
429.000000	4.907144
430.000000	4.965241
431.000000	5.023435
432.000000	5.082041
433.000000	5.141187
434.000000	5.201038
435.000000	5.261448
436.000000	5.322350
437.000000	5.383805
438.000000	5.445318
439.000000	5.506872
440.000000	5.569263
441.000000	5.632839
442.000000	5.697476
443.000000	5.762689
444.000000	5.828392
445.000000	5.894559
446.000000	5.961661
447.000000	6.029792
448.000000	6.098452
449.000000	6.167784
450.000000	6.237820
451.000000	6.308718
452.000000	6.380144
453.000000	6.452300
454.000000	6.524962
455.000000	6.598226
456.000000	6.672047
457.000000	6.746159
458.000000	6.821165
459.000000	6.896964
460.000000	6.973020
461.000000	7.048805
462.000000	7.124557
463.000000	7.201091
464.000000	7.277630
465.000000	7.354294
466.000000	7.431255
467.000000	7.508069
468.000000	7.584496
469.000000	7.660716
470.000000	7.737591
471.000000	7.814880
472.000000	7.891967
473.000000	7.968845
474.000000	8.046203
475.000000	8.123353
476.000000	8.200327
477.000000	8.277760
478.000000	8.355581
479.000000	8.433610
480.000000	8.510736
481.000000	8.587384
482.000000	8.664090
483.000000	8.740485
484.000000	8.816938
485.000000	8.894017
486.000000	8.971507
487.000000	9.049893
488.000000	9.128956
489.000000	9.208563
490.000000	9.288880
491.000000	9.370799
492.000000	9.454029
493.000000	9.538368
494.000000	9.624006
495.000000	9.710184
496.000000	9.796961
497.000000	9.884131
498.000000	9.972338
499.000000	10.061052
500.000000	10.151346
501.000000	10.242038
502.000000	10.333464
503.000000	10.425488
504.000000	10.518176
505.000000	10.612278
506.000000	10.707141
507.000000	10.802572
508.000000	10.897963
509.000000	10.994308
510.000000	11.090804
511.000000	11.188245
512.000000	11.286344
513.000000	11.385212
514.000000	11.484620
515.000000	11.584326
516.000000	11.684738
517.000000	11.786366
518.000000	11.888945
519.000000	11.992613
520.000000	12.097499
521.000000	12.203199
522.000000	12.309870
523.000000	12.418111
524.000000	12.527284
525.000000	12.637354
526.000000	12.749189
527.000000	12.861762
528.000000	12.975746
529.000000	13.090187
530.000000	13.206094
531.000000	13.322969
532.000000	13.440784
533.000000	13.559181
534.000000	13.678248
535.000000	13.798324
536.000000	13.919319
537.000000	14.040436
538.000000	14.162189
539.000000	14.285284
540.000000	14.408767
541.000000	14.532439
542.000000	14.656751
543.000000	14.781535
544.000000	14.907344
545.000000	15.033372
546.000000	15.158589
547.000000	15.285594
548.000000	15.413107
549.000000	15.540786
550.000000	15.668472
551.000000	15.796704
552.000000	15.925977
553.000000	16.055354
554.000000	16.184633
555.000000	16.314280
556.000000	16.444941
557.000000	16.575442
558.000000	16.705709
559.000000	16.835872
560.000000	16.961657
561.000000	17.086067
562.000000	17.210843
563.000000	17.335637
564.000000	17.461527
565.000000	17.587815
566.000000	17.714511
567.000000	17.840395
568.000000	17.966687
569.000000	18.093935
570.000000	18.226186
571.000000	18.360504
572.000000	18.493995
573.000000	18.627964
574.000000	18.762520
575.000000	18.897321
576.000000	19.032628
577.000000	19.167821
578.000000	19.303299
579.000000	19.439012
580.000000	19.575074
581.000000	19.711270
582.000000	19.848122
583.000000	19.985216
584.000000	20.121920
585.000000	20.259550
586.000000	20.396225
587.000000	20.534986
588.000000	20.673416
589.000000	20.811729
590.000000	20.950043
591.000000	21.088796
592.000000	21.226390
593.000000	21.363959
594.000000	21.501027
595.000000	21.638402
596.000000	21.776274
597.000000	21.912880
598.000000	22.049169
599.000000	22.185644
600.000000	22.322364
601.000000	22.459313
602.000000	22.596243
603.000000	22.733614
604.000000	22.870956
605.000000	23.005415
606.000000	23.140932
607.000000	23.276946
608.000000	23.413473
609.000000	23.548498
610.000000	23.682986
611.000000	23.817166
612.000000	23.951873
613.000000	24.085749
614.000000	24.219389
615.000000	24.353663
616.000000	24.487035
617.000000	24.618934
618.000000	24.750882
619.000000	24.883379
620.000000	25.016441
621.000000	25.148571
622.000000	25.280362
623.000000	25.411809
624.000000	25.542426
625.000000	25.673143
626.000000	25.804467
627.000000	25.936923
628.000000	26.069555
629.000000	26.202142
630.000000	26.333473
631.000000	26.465394
632.000000	26.599918
633.000000	26.735217
634.000000	26.871838
635.000000	27.011041
636.000000	27.150247
637.000000	27.289646
638.000000	27.431143
639.000000	27.575316
640.000000	27.722468
641.000000	27.870728
642.000000	28.019335
643.000000	28.170253
644.000000	28.323957
645.000000	28.478060
646.000000	28.633879
647.000000	28.792221
648.000000	28.952063
649.000000	29.111370
650.000000	29.272224
651.000000	29.434166
652.000000	29.595532
653.000000	29.756007
654.000000	29.915327
655.000000	30.074847
656.000000	30.233933
657.000000	30.391019
658.000000	30.545807
659.000000	30.701220
660.000000	30.853133
661.000000	31.002892
662.000000	31.151893
663.000000	31.301036
664.000000	31.449340
665.000000	31.595572
666.000000	31.740883
667.000000	31.886746
668.000000	32.031739
669.000000	32.174276
670.000000	32.316000
671.000000	32.455615
672.000000	32.595369
673.000000	32.732301
674.000000	32.868654
675.000000	33.002586
676.000000	33.134389
677.000000	33.263975
678.000000	33.392682
679.000000	33.521335
680.000000	33.648163
681.000000	33.774185
682.000000	33.897092
683.000000	34.020129
684.000000	34.140924
685.000000	34.260913
686.000000	34.379867
687.000000	34.497631
688.000000	34.613394
689.000000	34.726785
690.000000	34.840321
691.000000	34.953069
692.000000	35.065303
693.000000	35.176675
694.000000	35.286888
695.000000	35.396652
696.000000	35.504012
697.000000	35.609833
698.000000	35.716153
699.000000	35.821594
700.000000	35.926793
701.000000	36.031795
702.000000	36.135736
703.000000	36.239016
704.000000	36.341896
705.000000	36.443475
706.000000	36.544566
707.000000	36.646024
708.000000	36.745188
709.000000	36.844280
710.000000	36.943116
711.000000	37.040536
712.000000	37.136222
713.000000	37.230275
714.000000	37.324042
715.000000	37.418524
716.000000	37.513723
717.000000	37.608386
718.000000	37.701313
719.000000	37.794366
720.000000	37.886334
721.000000	37.979356
722.000000	38.071971
723.000000	38.163880
724.000000	38.255002
725.000000	38.345271
726.000000	38.436534
727.000000	38.528728
728.000000	38.621153
729.000000	38.711182
730.000000	38.797963
731.000000	38.882878
732.000000	38.969628
733.000000	39.056255
734.000000	39.140180
735.000000	39.224872
736.000000	39.310276
737.000000	39.393242
738.000000	39.476218
739.000000	39.561860
740.000000	39.646492
741.000000	39.732146
742.000000	39.818688
743.000000	39.903576
744.000000	39.988181
745.000000	40.072458
746.000000	40.154363
747.000000	40.236899
748.000000	40.320621
749.000000	40.402849
750.000000	40.485686
751.000000	40.564877
752.000000	40.640085
753.000000	40.717284
754.000000	40.798471
755.000000	40.880079
756.000000	40.959864
757.000000	41.039794
758.000000	41.121765
759.000000	41.201858
760.000000	41.283802
761.000000	41.367110
762.000000	41.450094
763.000000	41.531827
764.000000	41.613567
765.000000	41.692517
766.000000	41.770727
767.000000	41.847724
768.000000	41.921547
769.000000	41.994737
770.000000	42.069666
771.000000	42.145261
772.000000	42.220134
773.000000	42.293814
774.000000	42.367563
775.000000	42.442851
776.000000	42.519765
777.000000	42.598356
778.000000	42.676864
779.000000	42.755174
780.000000	42.828409
781.000000	42.905223
782.000000	42.983070
783.000000	43.063176
784.000000	43.140302
785.000000	43.214500
786.000000	43.288578
787.000000	43.364153
788.000000	43.438050
789.000000	43.512767
790.000000	43.588961
791.000000	43.662976
792.000000	43.735165
793.000000	43.808592
794.000000	43.883662
795.000000	43.959444
796.000000	44.036454
797.000000	44.108805
798.000000	44.182906
799.000000	44.257471
800.000000	44.330425
801.000000	44.401811
802.000000	44.476882
803.000000	44.552853
804.000000	44.621587
805.000000	44.693371
806.000000	44.766115
807.000000	44.839924
808.000000	44.911195
809.000000	44.975813
810.000000	45.043563
811.000000	45.112519
812.000000	45.182901
813.000000	45.241631
814.000000	45.307673
815.000000	45.370147
816.000000	45.430834
817.000000	45.487367
818.000000	45.543888
819.000000	45.605345
820.000000	45.667685
821.000000	45.725531
822.000000	45.777333
823.000000	45.840674
824.000000	45.893673
825.000000	45.947933
826.000000	45.995669
827.000000	46.047000
828.000000	46.099552
829.000000	46.149645
830.000000	46.192249
831.000000	46.239127
832.000000	46.285199
833.000000	46.320246
834.000000	46.364699
835.000000	46.400305
836.000000	46.438548
837.000000	46.478560
838.000000	46.513764
839.000000	46.549941
840.000000	46.587787
841.000000	46.613640
842.000000	46.640576
843.000000	46.672121
844.000000	46.703056
845.000000	46.734667
846.000000	46.769702
847.000000	46.794379
848.000000	46.811374
849.000000	46.829825
850.000000	46.850383
851.000000	46.873628
852.000000	46.893325
853.000000	46.910700
854.000000	46.925842
855.000000	46.953457
856.000000	46.969457
857.000000	46.979496
858.000000	47.042948
859.000000	47.149225
860.000000	47.255214
861.000000	47.361059
862.000000	47.466335
863.000000	47.582251
864.000000	47.664957
865.000000	47.744811
866.000000	47.836361
867.000000	47.948469
868.000000	48.017695
869.000000	48.030475
870.000000	48.024845
871.000000	48.027792
872.000000	48.028737
873.000000	48.031005
874.000000	48.070180
875.000000	48.078828
876.000000	48.086420
877.000000	48.066902
878.000000	48.053948
879.000000	48.052473
880.000000	48.062365
881.000000	48.051950
882.000000	48.053970
883.000000	48.033850
884.000000	48.008978
885.000000	47.996480
886.000000	47.988858
887.000000	47.993560
888.000000	47.992730
889.000000	47.981090
890.000000	47.964510
891.000000	47.966387
892.000000	47.958443
893.000000	47.958742
894.000000	47.950900
895.000000	47.950550
896.000000	47.936605
897.000000	47.925260
898.000000	47.915880
899.000000	47.910827
900.000000	47.908817
901.000000	47.902078
902.000000	47.890268
903.000000	47.873217
904.000000	47.864038
905.000000	47.860685
906.000000	47.861967
907.000000	47.863973
908.000000	47.852097
909.000000	47.841020
910.000000	47.827545
911.000000	47.817110
912.000000	47.815713
913.000000	47.822322
914.000000	47.823203
915.000000	47.818420
916.000000	47.813188
917.000000	47.806168
918.000000	47.813510
919.000000	47.822878
920.000000	47.840622
921.000000	47.855835
922.000000	47.860030
923.000000	47.859652
924.000000	47.863597
925.000000	47.874248
926.000000	47.885080
927.000000	47.896145
928.000000	47.895625
929.000000	47.891755
930.000000	47.888942
931.000000	47.885653
932.000000	47.891133
933.000000	47.899138
934.000000	47.904190
935.000000	47.903515
936.000000	47.900760
937.000000	47.898960
938.000000	47.898320
939.000000	47.901148
940.000000	47.901413
941.000000	47.899132
942.000000	47.894895
943.000000	47.890462
944.000000	47.886187
945.000000	47.882595
946.000000	47.878357
947.000000	47.872460
948.000000	47.867712
949.000000	47.863785
950.000000	47.862432
951.000000	47.864250
952.000000	47.864095
953.000000	47.861650
954.000000	47.859810
955.000000	47.858355
956.000000	47.856843
957.000000	47.856220
958.000000	47.858755
959.000000	47.859435
960.000000	47.855802
961.000000	47.849852
962.000000	47.844025
963.000000	47.839712
964.000000	47.835195
965.000000	47.830620
966.000000	47.825997
967.000000	47.822627
968.000000	47.817615
969.000000	47.813960
970.000000	47.811835
971.000000	47.810367
972.000000	47.809190
973.000000	47.806718
974.000000	47.802473
975.000000	47.797780
976.000000	47.794043
977.000000	47.788753
978.000000	47.783188
979.000000	47.776270
980.000000	47.768330
981.000000	47.760503
982.000000	47.752310
983.000000	47.747532
984.000000	47.744363
985.000000	47.741780
986.000000	47.738345
987.000000	47.732797
988.000000	47.726388
989.000000	47.721375
990.000000	47.716448
991.000000	47.712142
992.000000	47.709652
993.000000	47.704800
994.000000	47.700088
995.000000	47.695500
996.000000	47.690810
997.000000	47.688113
998.000000	47.685385
999.000000	47.681695
1000.000000	47.677907
1001.000000	47.673010
1002.000000	47.668430
1003.000000	47.664727
1004.000000	47.659020
1005.000000	47.652388
1006.000000	47.646080
1007.000000	47.641223
1008.000000	47.637870
1009.000000	47.634867
1010.000000	47.632290
1011.000000	47.631107
1012.000000	47.629085
1013.000000	47.624585
1014.000000	47.622005
1015.000000	47.622260
1016.000000	47.623690
1017.000000	47.624183
1018.000000	47.625058
1019.000000	47.626280
1020.000000	47.628732
1021.000000	47.631700
1022.000000	47.636200
1023.000000	47.643985
1024.000000	47.651985
1025.000000	47.658250
1026.000000	47.664178
1027.000000	47.671485
1028.000000	47.678570
1029.000000	47.687270
1030.000000	47.697492
1031.000000	47.707792
1032.000000	47.716505
1033.000000	47.725445
1034.000000	47.735862
1035.000000	47.747132
1036.000000	47.758373
1037.000000	47.769098
1038.000000	47.779272
1039.000000	47.788240
1040.000000	47.797353
1041.000000	47.806577
1042.000000	47.816388
1043.000000	47.826280
1044.000000	47.834852
1045.000000	47.842945
1046.000000	47.851038
1047.000000	47.860460
1048.000000	47.871023
1049.000000	47.881715
1050.000000	47.890955
1051.000000	47.899943
1052.000000	47.909867
1053.000000	47.919998
1054.000000	47.930932
1055.000000	47.942442
1056.000000	47.954918
1057.000000	47.967128
1058.000000	47.979108
1059.000000	47.992060
1060.000000	48.006125
1061.000000	48.020637
1062.000000	48.034573
1063.000000	48.047648
1064.000000	48.060430
1065.000000	48.073140
1066.000000	48.085655
1067.000000	48.098137
1068.000000	48.111900
1069.000000	48.125512
1070.000000	48.139220
1071.000000	48.151783
1072.000000	48.164300
1073.000000	48.176947
1074.000000	48.189428
1075.000000	48.202757
1076.000000	48.215790
1077.000000	48.228310
1078.000000	48.238408
1079.000000	48.247878
1080.000000	48.256865
1081.000000	48.267328
1082.000000	48.278350
1083.000000	48.287658
1084.000000	48.295260
1085.000000	48.303038
1086.000000	48.310885
1087.000000	48.317820
1088.000000	48.325133
1089.000000	48.332300
1090.000000	48.338260
1091.000000	48.342993
1092.000000	48.346848
1093.000000	48.352723
1094.000000	48.360553
1095.000000	48.366467
1096.000000	48.371200
1097.000000	48.375280
1098.000000	48.380380
1099.000000	48.385047
1100.000000	48.389288
1101.000000	48.391955
1102.000000	48.394293
1103.000000	48.395497
1104.000000	48.396220
1105.000000	48.396595
1106.000000	48.396940
1107.000000	48.397890
1108.000000	48.396428
1109.000000	48.393653
1110.000000	48.391790
1111.000000	48.391143
1112.000000	48.387910
1113.000000	48.383740
1114.000000	48.378147
1115.000000	48.372158
1116.000000	48.363735
1117.000000	48.355423
1118.000000	48.347385
1119.000000	48.338187
1120.000000	48.326770
1121.000000	48.314725
1122.000000	48.301200
1123.000000	48.285647
1124.000000	48.267162
1125.000000	48.245655
1126.000000	48.221250
1127.000000	48.191700
1128.000000	48.157330
1129.000000	48.119165
1130.000000	48.075300
1131.000000	48.022928
1132.000000	47.967377
1133.000000	47.909202
1134.000000	47.850580
1135.000000	47.789972
1136.000000	47.723990
1137.000000	47.653985
1138.000000	47.583245
1139.000000	47.511228
1140.000000	47.439260
1141.000000	47.370860
1142.000000	47.303243
1143.000000	47.236688
1144.000000	47.169695
1145.000000	47.104442
1146.000000	47.044690
1147.000000	46.987825
1148.000000	46.932603
1149.000000	46.877733
1150.000000	46.824152
1151.000000	46.770753
1152.000000	46.718097
1153.000000	46.662965
1154.000000	46.604277
1155.000000	46.540633
1156.000000	46.472567
1157.000000	46.402100
1158.000000	46.327105
1159.000000	46.248600
1160.000000	46.165408
1161.000000	46.076685
1162.000000	45.982862
1163.000000	45.885773
1164.000000	45.786185
