PE UV       SUBTECH     SPECTRUM    ASCII       PEDS        4.00        
   -1
INBUCR0312-4.Sample.ASC
24/02/08
16:14:52.00
24/02/08
16:14:52.00
Vinicio Soto Monge
COSTA RICA. Prov Limón. Sector La Catarata. Orilla de la carretera. 1450 m. MAY1996. R. Delgado. En Flores de Sauravia. L_N_190750_560600 #50826. En Flores de sauravia. INB0003014863 INBIOCRI  COSTA RICA
250,000000
1
Lambda 1050
1050L1511233
PerkinElmer UV WinLab 6.3.2.0749 / 2.02.05 Lambda 900 UV/VIS/NIR, Aug  7 2015 09:38:08

0
0
3350/servo 860,8/2
0
0
UV/VIS
1
1
1
DoubleDePol,CommonBeamDepol,RBeamAtt,SBeamAtt,60mm sphere, WB InGaAs Detector
0
0
0
0
Program
Program
3350/servo 860,8/2
3350/0,2 860,8/0,2
3350/0,2 860,8/0,2
0
15.00
 
 
 
0
 
860,8
319,2
860,8
Front
100
on
S:100 R:100
0
0
0
0
 
0
 
 
 
0
 
 
0
0
0
0
0
 
 
 
 
0
0


0
0
#HDR
-1
-1
#GR
nm
%R
1.0
0.0
2500,000000
-1,000000
2251
8
7,310900
0,734200
#DATA

250.000000	nan
251.000000	nan
252.000000	nan
253.000000	nan
254.000000	nan
255.000000	nan
256.000000	nan
257.000000	nan
258.000000	nan
259.000000	4.432276
260.000000	4.423864
261.000000	4.414694
262.000000	4.408399
263.000000	4.399115
264.000000	4.389983
265.000000	4.379366
266.000000	4.370519
267.000000	4.357214
268.000000	4.343013
269.000000	4.334482
270.000000	4.322731
271.000000	4.315816
272.000000	4.305031
273.000000	4.297081
274.000000	4.288248
275.000000	4.282705
276.000000	4.275328
277.000000	4.272056
278.000000	4.271026
279.000000	4.266865
280.000000	4.263174
281.000000	4.257881
282.000000	4.255801
283.000000	4.251186
284.000000	4.248604
285.000000	4.244411
286.000000	4.242700
287.000000	4.241601
288.000000	4.238477
289.000000	4.237333
290.000000	4.240182
291.000000	4.242395
292.000000	4.243948
293.000000	4.241577
294.000000	4.242469
295.000000	4.244432
296.000000	4.243855
297.000000	4.243264
298.000000	4.243501
299.000000	4.241006
300.000000	4.235635
301.000000	4.235276
302.000000	4.235483
303.000000	4.236324
304.000000	4.236317
305.000000	4.236021
306.000000	4.237585
307.000000	4.238976
308.000000	4.238401
309.000000	4.240450
310.000000	4.245378
311.000000	4.243638
312.000000	4.244554
313.000000	4.251662
314.000000	4.254714
315.000000	4.260664
316.000000	4.266242
317.000000	4.299627
318.000000	4.324251
319.000000	4.340413
320.000000	4.362953
321.000000	4.396466
322.000000	4.407905
323.000000	4.421908
324.000000	4.435412
325.000000	4.450306
326.000000	4.465787
327.000000	4.452637
328.000000	4.447880
329.000000	4.452431
330.000000	4.445878
331.000000	4.432100
332.000000	4.434180
333.000000	4.433724
334.000000	4.432582
335.000000	4.431008
336.000000	4.430524
337.000000	4.430540
338.000000	4.434036
339.000000	4.437685
340.000000	4.439116
341.000000	4.437240
342.000000	4.441031
343.000000	4.445411
344.000000	4.453952
345.000000	4.456988
346.000000	4.459638
347.000000	4.459648
348.000000	4.458440
349.000000	4.452420
350.000000	4.451235
351.000000	4.452745
352.000000	4.454433
353.000000	4.455587
354.000000	4.457261
355.000000	4.458273
356.000000	4.458222
357.000000	4.461202
358.000000	4.466463
359.000000	4.473764
360.000000	4.482128
361.000000	4.486033
362.000000	4.487126
363.000000	4.486461
364.000000	4.484323
365.000000	4.486479
366.000000	4.488185
367.000000	4.489938
368.000000	4.488156
369.000000	4.488751
370.000000	4.489598
371.000000	4.490697
372.000000	4.491334
373.000000	4.488334
374.000000	4.480950
375.000000	4.476465
376.000000	4.476668
377.000000	4.465076
378.000000	4.455009
379.000000	4.443436
380.000000	4.431025
381.000000	4.421339
382.000000	4.411871
383.000000	4.405704
384.000000	4.403900
385.000000	4.397228
386.000000	4.385395
387.000000	4.384339
388.000000	4.383746
389.000000	4.382900
390.000000	4.381985
391.000000	4.381064
392.000000	4.380907
393.000000	4.380858
394.000000	4.380383
395.000000	4.379740
396.000000	4.379673
397.000000	4.379952
398.000000	4.380478
399.000000	4.380774
400.000000	4.381229
401.000000	4.381568
402.000000	4.381308
403.000000	4.381187
404.000000	4.382157
405.000000	4.383355
406.000000	4.384307
407.000000	4.384991
408.000000	4.385624
409.000000	4.386450
410.000000	4.387478
411.000000	4.389090
412.000000	4.391299
413.000000	4.393318
414.000000	4.395313
415.000000	4.397377
416.000000	4.399935
417.000000	4.403052
418.000000	4.406480
419.000000	4.409981
420.000000	4.413676
421.000000	4.417465
422.000000	4.421777
423.000000	4.426325
424.000000	4.431142
425.000000	4.436757
426.000000	4.442930
427.000000	4.449431
428.000000	4.456620
429.000000	4.464765
430.000000	4.473615
431.000000	4.482826
432.000000	4.492117
433.000000	4.502440
434.000000	4.514554
435.000000	4.527270
436.000000	4.540834
437.000000	4.555837
438.000000	4.571846
439.000000	4.588939
440.000000	4.607559
441.000000	4.628532
442.000000	4.651786
443.000000	4.676625
444.000000	4.702218
445.000000	4.729911
446.000000	4.759518
447.000000	4.790381
448.000000	4.822746
449.000000	4.857015
450.000000	4.893339
451.000000	4.931351
452.000000	4.971432
453.000000	5.013896
454.000000	5.059791
455.000000	5.109352
456.000000	5.163253
457.000000	5.222505
458.000000	5.288665
459.000000	5.362402
460.000000	5.445005
461.000000	5.537256
462.000000	5.639850
463.000000	5.753282
464.000000	5.876526
465.000000	6.009176
466.000000	6.150329
467.000000	6.298291
468.000000	6.450274
469.000000	6.604072
470.000000	6.756301
471.000000	6.903729
472.000000	7.042800
473.000000	7.171423
474.000000	7.287100
475.000000	7.386854
476.000000	7.468185
477.000000	7.529077
478.000000	7.569474
479.000000	7.588522
480.000000	7.585670
481.000000	7.561552
482.000000	7.517314
483.000000	7.453608
484.000000	7.372300
485.000000	7.275448
486.000000	7.165840
487.000000	7.046038
488.000000	6.917618
489.000000	6.782498
490.000000	6.643543
491.000000	6.503020
492.000000	6.362578
493.000000	6.223921
494.000000	6.088391
495.000000	5.957530
496.000000	5.831789
497.000000	5.712533
498.000000	5.599980
499.000000	5.494583
500.000000	5.396584
501.000000	5.305866
502.000000	5.222138
503.000000	5.145321
504.000000	5.075347
505.000000	5.011541
506.000000	4.952990
507.000000	4.899816
508.000000	4.851399
509.000000	4.807460
510.000000	4.767244
511.000000	4.730139
512.000000	4.696614
513.000000	4.666016
514.000000	4.637661
515.000000	4.611644
516.000000	4.587927
517.000000	4.565028
518.000000	4.543823
519.000000	4.523908
520.000000	4.505440
521.000000	4.488458
522.000000	4.472307
523.000000	4.456732
524.000000	4.442643
525.000000	4.429145
526.000000	4.416477
527.000000	4.405210
528.000000	4.394409
529.000000	4.384403
530.000000	4.375263
531.000000	4.366747
532.000000	4.358912
533.000000	4.352110
534.000000	4.345533
535.000000	4.339792
536.000000	4.334588
537.000000	4.329931
538.000000	4.325692
539.000000	4.321949
540.000000	4.318629
541.000000	4.315699
542.000000	4.313375
543.000000	4.311046
544.000000	4.308901
545.000000	4.306919
546.000000	4.305259
547.000000	4.303440
548.000000	4.302141
549.000000	4.301066
550.000000	4.299741
551.000000	4.298595
552.000000	4.297230
553.000000	4.296469
554.000000	4.295577
555.000000	4.294496
556.000000	4.294149
557.000000	4.293723
558.000000	4.293285
559.000000	4.292262
560.000000	4.289903
561.000000	4.287395
562.000000	4.285002
563.000000	4.282481
564.000000	4.280081
565.000000	4.277831
566.000000	4.275089
567.000000	4.272819
568.000000	4.270364
569.000000	4.268739
570.000000	4.268333
571.000000	4.268284
572.000000	4.268375
573.000000	4.268414
574.000000	4.269151
575.000000	4.269734
576.000000	4.270329
577.000000	4.270938
578.000000	4.271386
579.000000	4.271984
580.000000	4.273120
581.000000	4.274311
582.000000	4.275384
583.000000	4.276244
584.000000	4.276964
585.000000	4.277949
586.000000	4.278993
587.000000	4.280273
588.000000	4.281996
589.000000	4.283220
590.000000	4.284189
591.000000	4.285389
592.000000	4.286994
593.000000	4.288886
594.000000	4.290865
595.000000	4.292983
596.000000	4.295099
597.000000	4.297479
598.000000	4.299228
599.000000	4.301847
600.000000	4.304459
601.000000	4.306873
602.000000	4.309521
603.000000	4.312636
604.000000	4.315688
605.000000	4.319441
606.000000	4.322728
607.000000	4.325967
608.000000	4.330437
609.000000	4.334638
610.000000	4.339612
611.000000	4.343858
612.000000	4.348931
613.000000	4.354135
614.000000	4.358983
615.000000	4.363396
616.000000	4.368893
617.000000	4.374807
618.000000	4.380571
619.000000	4.386082
620.000000	4.391371
621.000000	4.398309
622.000000	4.404594
623.000000	4.410619
624.000000	4.417364
625.000000	4.424546
626.000000	4.431646
627.000000	4.438387
628.000000	4.445369
629.000000	4.452905
630.000000	4.460772
631.000000	4.468110
632.000000	4.475708
633.000000	4.483968
634.000000	4.492397
635.000000	4.500922
636.000000	4.509667
637.000000	4.518628
638.000000	4.528387
639.000000	4.537803
640.000000	4.547414
641.000000	4.557571
642.000000	4.567821
643.000000	4.578670
644.000000	4.589739
645.000000	4.600466
646.000000	4.611419
647.000000	4.623806
648.000000	4.635043
649.000000	4.646878
650.000000	4.659469
651.000000	4.672176
652.000000	4.684615
653.000000	4.696826
654.000000	4.709876
655.000000	4.723379
656.000000	4.737135
657.000000	4.750456
658.000000	4.764624
659.000000	4.779527
660.000000	4.793779
661.000000	4.808426
662.000000	4.823771
663.000000	4.839567
664.000000	4.854817
665.000000	4.870902
666.000000	4.887080
667.000000	4.902899
668.000000	4.919511
669.000000	4.936114
670.000000	4.953699
671.000000	4.970950
672.000000	4.988542
673.000000	5.005850
674.000000	5.023806
675.000000	5.041723
676.000000	5.060074
677.000000	5.078743
678.000000	5.097221
679.000000	5.116174
680.000000	5.135166
681.000000	5.154517
682.000000	5.174483
683.000000	5.194835
684.000000	5.214851
685.000000	5.235180
686.000000	5.256010
687.000000	5.277055
688.000000	5.298122
689.000000	5.318686
690.000000	5.339768
691.000000	5.361174
692.000000	5.382184
693.000000	5.404232
694.000000	5.426942
695.000000	5.449251
696.000000	5.471038
697.000000	5.493349
698.000000	5.517095
699.000000	5.541796
700.000000	5.566303
701.000000	5.590609
702.000000	5.615141
703.000000	5.640198
704.000000	5.665292
705.000000	5.690448
706.000000	5.716439
707.000000	5.743104
708.000000	5.769158
709.000000	5.794840
710.000000	5.820861
711.000000	5.847677
712.000000	5.874900
713.000000	5.901034
714.000000	5.927671
715.000000	5.955623
716.000000	5.983775
717.000000	6.011935
718.000000	6.040330
719.000000	6.068869
720.000000	6.097571
721.000000	6.127352
722.000000	6.157416
723.000000	6.187288
724.000000	6.217591
725.000000	6.247830
726.000000	6.277960
727.000000	6.308190
728.000000	6.338456
729.000000	6.369608
730.000000	6.401348
731.000000	6.431973
732.000000	6.462162
733.000000	6.494101
734.000000	6.526492
735.000000	6.558570
736.000000	6.591064
737.000000	6.624785
738.000000	6.658513
739.000000	6.691347
740.000000	6.724130
741.000000	6.758421
742.000000	6.794042
743.000000	6.828684
744.000000	6.863447
745.000000	6.899392
746.000000	6.935046
747.000000	6.969050
748.000000	7.004226
749.000000	7.040841
750.000000	7.077451
751.000000	7.113666
752.000000	7.149854
753.000000	7.186290
754.000000	7.222234
755.000000	7.258608
756.000000	7.296224
757.000000	7.334872
758.000000	7.373330
759.000000	7.410619
760.000000	7.448329
761.000000	7.486913
762.000000	7.525869
763.000000	7.566182
764.000000	7.607782
765.000000	7.647974
766.000000	7.687306
767.000000	7.726055
768.000000	7.764880
769.000000	7.806088
770.000000	7.846629
771.000000	7.887156
772.000000	7.928285
773.000000	7.969216
774.000000	8.009583
775.000000	8.052218
776.000000	8.095542
777.000000	8.140242
778.000000	8.185400
779.000000	8.229322
780.000000	8.275043
781.000000	8.320803
782.000000	8.363752
783.000000	8.406935
784.000000	8.450911
785.000000	8.494088
786.000000	8.538922
787.000000	8.582139
788.000000	8.625512
789.000000	8.670581
790.000000	8.713997
791.000000	8.758267
792.000000	8.805819
793.000000	8.854702
794.000000	8.904233
795.000000	8.952412
796.000000	8.999607
797.000000	9.048793
798.000000	9.096566
799.000000	9.143701
800.000000	9.193854
801.000000	9.243081
802.000000	9.293022
803.000000	9.340210
804.000000	9.386766
805.000000	9.434772
806.000000	9.484202
807.000000	9.533930
808.000000	9.585133
809.000000	9.637558
810.000000	9.688129
811.000000	9.738598
812.000000	9.789487
813.000000	9.841442
814.000000	9.893796
815.000000	9.945391
816.000000	9.996558
817.000000	10.048583
818.000000	10.102054
819.000000	10.155037
820.000000	10.205987
821.000000	10.258648
822.000000	10.307973
823.000000	10.358312
824.000000	10.409370
825.000000	10.458622
826.000000	10.511162
827.000000	10.559078
828.000000	10.608623
829.000000	10.657823
830.000000	10.708164
831.000000	10.755987
832.000000	10.806599
833.000000	10.858290
834.000000	10.909493
835.000000	10.962837
836.000000	11.009463
837.000000	11.064527
838.000000	11.113038
839.000000	11.160115
840.000000	11.212928
841.000000	11.267602
842.000000	11.316111
843.000000	11.361687
844.000000	11.411540
845.000000	11.459738
846.000000	11.505348
847.000000	11.546845
848.000000	11.595999
849.000000	11.643969
850.000000	11.690345
851.000000	11.723805
852.000000	11.767968
853.000000	11.812221
854.000000	11.859157
855.000000	11.891420
856.000000	11.943908
857.000000	12.010841
858.000000	12.344355
859.000000	12.437479
860.000000	12.505625
861.000000	12.602928
862.000000	12.677278
863.000000	12.759574
864.000000	12.837932
865.000000	12.929944
866.000000	12.984908
867.000000	13.011075
868.000000	12.763870
869.000000	12.731305
870.000000	12.732522
871.000000	12.717388
872.000000	12.720785
873.000000	12.714405
874.000000	12.694123
875.000000	12.670190
876.000000	12.671468
877.000000	12.662290
878.000000	12.669975
879.000000	12.683620
880.000000	12.684372
881.000000	12.679840
882.000000	12.682435
883.000000	12.676035
884.000000	12.680505
885.000000	12.683393
886.000000	12.679710
887.000000	12.685137
888.000000	12.681955
889.000000	12.697432
890.000000	12.709473
891.000000	12.738783
892.000000	12.738750
893.000000	12.750373
894.000000	12.759803
895.000000	12.774320
896.000000	12.778900
897.000000	12.802200
898.000000	12.823868
899.000000	12.842830
900.000000	12.868180
901.000000	12.874998
902.000000	12.892830
903.000000	12.921762
904.000000	12.943585
905.000000	12.967602
906.000000	13.002857
907.000000	13.033975
908.000000	13.052198
909.000000	13.075463
910.000000	13.099013
911.000000	13.124777
912.000000	13.154503
913.000000	13.177542
914.000000	13.207485
915.000000	13.233818
916.000000	13.260818
917.000000	13.283325
918.000000	13.316258
919.000000	13.352273
920.000000	13.382640
921.000000	13.419573
922.000000	13.458868
923.000000	13.497197
924.000000	13.531400
925.000000	13.566378
926.000000	13.600748
927.000000	13.644573
928.000000	13.684725
929.000000	13.724112
930.000000	13.763475
931.000000	13.798080
932.000000	13.834252
933.000000	13.870030
934.000000	13.907080
935.000000	13.949325
936.000000	13.993715
937.000000	14.034075
938.000000	14.075000
939.000000	14.113247
940.000000	14.156072
941.000000	14.199740
942.000000	14.243087
943.000000	14.282950
944.000000	14.326303
945.000000	14.367435
946.000000	14.410965
947.000000	14.453782
948.000000	14.494665
949.000000	14.535143
950.000000	14.576090
951.000000	14.619200
952.000000	14.664665
953.000000	14.710225
954.000000	14.757990
955.000000	14.809730
956.000000	14.856565
957.000000	14.902490
958.000000	14.951365
959.000000	15.001240
960.000000	15.049765
961.000000	15.097255
962.000000	15.145267
963.000000	15.194405
964.000000	15.241208
965.000000	15.287015
966.000000	15.334868
967.000000	15.384672
968.000000	15.432363
969.000000	15.480620
970.000000	15.532163
971.000000	15.584268
972.000000	15.635468
973.000000	15.685540
974.000000	15.736722
975.000000	15.786618
976.000000	15.836605
977.000000	15.886320
978.000000	15.939730
979.000000	15.993755
980.000000	16.043703
981.000000	16.092470
982.000000	16.142965
983.000000	16.195473
984.000000	16.249350
985.000000	16.303245
986.000000	16.358432
987.000000	16.411825
988.000000	16.463717
989.000000	16.516053
990.000000	16.569835
991.000000	16.625950
992.000000	16.681048
993.000000	16.735707
994.000000	16.790015
995.000000	16.843810
996.000000	16.897353
997.000000	16.951982
998.000000	17.008260
999.000000	17.063320
1000.000000	17.117348
1001.000000	17.171925
1002.000000	17.228153
1003.000000	17.283518
1004.000000	17.338555
1005.000000	17.393437
1006.000000	17.448702
1007.000000	17.504938
1008.000000	17.560762
1009.000000	17.617048
1010.000000	17.674402
1011.000000	17.730425
1012.000000	17.785553
1013.000000	17.841797
1014.000000	17.897820
1015.000000	17.953810
1016.000000	18.010715
1017.000000	18.067777
1018.000000	18.124255
1019.000000	18.181092
1020.000000	18.238400
1021.000000	18.295870
1022.000000	18.354703
1023.000000	18.414068
1024.000000	18.473363
1025.000000	18.533853
1026.000000	18.593003
1027.000000	18.651150
1028.000000	18.710042
1029.000000	18.770545
1030.000000	18.831737
1031.000000	18.893453
1032.000000	18.954612
1033.000000	19.014637
1034.000000	19.075070
1035.000000	19.134792
1036.000000	19.194992
1037.000000	19.256980
1038.000000	19.319472
1039.000000	19.381235
1040.000000	19.442068
1041.000000	19.501745
1042.000000	19.560360
1043.000000	19.619570
1044.000000	19.678830
1045.000000	19.739632
1046.000000	19.800995
1047.000000	19.860665
1048.000000	19.920920
1049.000000	19.981655
1050.000000	20.042500
1051.000000	20.104065
1052.000000	20.166583
1053.000000	20.228717
1054.000000	20.291468
1055.000000	20.353213
1056.000000	20.414683
1057.000000	20.477938
1058.000000	20.540665
1059.000000	20.602465
1060.000000	20.664035
1061.000000	20.725653
1062.000000	20.786495
1063.000000	20.849035
1064.000000	20.911280
1065.000000	20.974607
1066.000000	21.037755
1067.000000	21.099095
1068.000000	21.161497
1069.000000	21.223780
1070.000000	21.287282
1071.000000	21.350887
1072.000000	21.414732
1073.000000	21.477992
1074.000000	21.539995
1075.000000	21.600788
1076.000000	21.663155
1077.000000	21.727462
1078.000000	21.789337
1079.000000	21.851110
1080.000000	21.911780
1081.000000	21.973177
1082.000000	22.035217
1083.000000	22.096393
1084.000000	22.158960
1085.000000	22.221777
1086.000000	22.282833
1087.000000	22.343330
1088.000000	22.404608
1089.000000	22.466120
1090.000000	22.527015
1091.000000	22.587847
1092.000000	22.647742
1093.000000	22.708650
1094.000000	22.770790
1095.000000	22.834355
1096.000000	22.897440
1097.000000	22.959402
1098.000000	23.021033
1099.000000	23.083202
1100.000000	23.146932
1101.000000	23.209120
1102.000000	23.271615
1103.000000	23.333965
1104.000000	23.395028
1105.000000	23.455080
1106.000000	23.514798
1107.000000	23.574960
1108.000000	23.636000
1109.000000	23.696575
1110.000000	23.756550
1111.000000	23.817097
1112.000000	23.876943
1113.000000	23.934958
1114.000000	23.994045
1115.000000	24.051830
1116.000000	24.110032
1117.000000	24.168715
1118.000000	24.225865
1119.000000	24.282755
1120.000000	24.338560
1121.000000	24.395293
1122.000000	24.450725
1123.000000	24.507225
1124.000000	24.560298
1125.000000	24.612452
1126.000000	24.664465
1127.000000	24.713567
1128.000000	24.763770
1129.000000	24.813295
1130.000000	24.861033
1131.000000	24.904132
1132.000000	24.946835
1133.000000	24.987895
1134.000000	25.030657
1135.000000	25.073835
1136.000000	25.113527
1137.000000	25.152310
1138.000000	25.190315
1139.000000	25.226077
1140.000000	25.261960
1141.000000	25.299633
1142.000000	25.336770
1143.000000	25.373242
1144.000000	25.409523
1145.000000	25.445577
1146.000000	25.481020
1147.000000	25.518648
1148.000000	25.555165
1149.000000	25.590843
1150.000000	25.626770
1151.000000	25.662933
1152.000000	25.699570
1153.000000	25.734933
1154.000000	25.767740
1155.000000	25.799160
1156.000000	25.829455
1157.000000	25.856673
1158.000000	25.883015
1159.000000	25.908450
1160.000000	25.931595
1161.000000	25.951150
1162.000000	25.968925
1163.000000	25.985652
1164.000000	25.999630
1165.000000	26.011585
1166.000000	26.025562
1167.000000	26.039403
1168.000000	26.050760
1169.000000	26.062935
1170.000000	26.075695
1171.000000	26.090877
1172.000000	26.105945
1173.000000	26.122550
1174.000000	26.141728
1175.000000	26.161942
1176.000000	26.182785
1177.000000	26.205215
1178.000000	26.230200
1179.000000	26.255480
