PE UV       SUBTECH     SPECTRUM    ASCII       PEDS        4.00        
   -1
INBUCR0116-5.Sample.ASC
24/02/12
13:56:59.00
24/02/12
13:56:59.00
Vinicio Soto Monge
Strigidia pubes. Color café con ambos élitros (Det: A. Solís) COSTA RICA Prov. Limón. R.B. Hitoy Cerere. Valle de la Estrella. Send. Espavel. 560m 23-27 SEP 2003 F. Rojas. B. Gamboa W. Araya. Luz Mercurio L_S_401200_569800 #75427. INB0003766766 
250,000000
1
Lambda 1050
1050L1511233
PerkinElmer UV WinLab 6.3.2.0749 / 2.02.05 Lambda 900 UV/VIS/NIR, Aug  7 2015 09:38:08

0
0
3350/servo 860,8/2
0
0
UV/VIS
1
1
1
DoubleDePol,CommonBeamDepol,RBeamAtt,SBeamAtt,60mm sphere, WB InGaAs Detector
0
0
0
0
Program
Program
3350/servo 860,8/2
3350/0,2 860,8/0,2
3350/0,2 860,8/0,2
0
15.00
 
 
 
0
 
860,8
150
860,8
Front
100
on
S:100 R:100
0
0
0
0
 
0
 
 
 
0
 
 
0
0
0
0
0
 
 
 
 
0
0


0
0
#HDR
-1
-1
#GR
nm
%R
1.0
0.0
2500,000000
-1,000000
2251
8
23,404700
1,453500
#DATA

250.000000	nan
251.000000	nan
252.000000	nan
253.000000	nan
254.000000	nan
255.000000	nan
256.000000	nan
257.000000	nan
258.000000	nan
259.000000	5.017034
260.000000	5.008406
261.000000	4.982894
262.000000	4.958934
263.000000	4.935897
264.000000	4.893132
265.000000	4.872820
266.000000	4.839271
267.000000	4.803689
268.000000	4.765970
269.000000	4.741489
270.000000	4.717425
271.000000	4.685704
272.000000	4.663671
273.000000	4.637965
274.000000	4.616803
275.000000	4.604087
276.000000	4.595725
277.000000	4.581190
278.000000	4.569435
279.000000	4.556609
280.000000	4.543738
281.000000	4.545724
282.000000	4.534469
283.000000	4.528895
284.000000	4.526576
285.000000	4.522109
286.000000	4.517442
287.000000	4.510416
288.000000	4.512066
289.000000	4.509504
290.000000	4.506689
291.000000	4.498015
292.000000	4.502977
293.000000	4.506983
294.000000	4.502937
295.000000	4.500802
296.000000	4.494335
297.000000	4.492135
298.000000	4.485650
299.000000	4.486266
300.000000	4.484847
301.000000	4.484407
302.000000	4.479923
303.000000	4.475439
304.000000	4.472274
305.000000	4.468106
306.000000	4.467188
307.000000	4.469285
308.000000	4.470835
309.000000	4.467138
310.000000	4.467393
311.000000	4.464888
312.000000	4.463526
313.000000	4.461670
314.000000	4.463301
315.000000	4.463286
316.000000	4.467611
317.000000	4.504179
318.000000	4.521889
319.000000	4.547467
320.000000	4.569813
321.000000	4.586431
322.000000	4.607217
323.000000	4.623788
324.000000	4.634893
325.000000	4.655590
326.000000	4.669729
327.000000	4.645601
328.000000	4.634607
329.000000	4.622296
330.000000	4.614554
331.000000	4.608026
332.000000	4.596414
333.000000	4.594117
334.000000	4.591246
335.000000	4.583407
336.000000	4.583670
337.000000	4.584683
338.000000	4.590118
339.000000	4.592093
340.000000	4.586568
341.000000	4.588775
342.000000	4.590311
343.000000	4.587452
344.000000	4.588232
345.000000	4.586432
346.000000	4.579290
347.000000	4.577471
348.000000	4.575726
349.000000	4.570366
350.000000	4.566909
351.000000	4.563560
352.000000	4.561578
353.000000	4.559873
354.000000	4.556807
355.000000	4.555333
356.000000	4.553701
357.000000	4.549916
358.000000	4.548910
359.000000	4.549976
360.000000	4.555255
361.000000	4.554338
362.000000	4.553846
363.000000	4.553242
364.000000	4.553735
365.000000	4.553542
366.000000	4.548750
367.000000	4.544003
368.000000	4.536599
369.000000	4.532769
370.000000	4.524239
371.000000	4.518218
372.000000	4.512790
373.000000	4.511540
374.000000	4.504099
375.000000	4.496020
376.000000	4.495705
377.000000	4.489636
378.000000	4.484064
379.000000	4.475439
380.000000	4.469801
381.000000	4.465429
382.000000	4.461055
383.000000	4.452656
384.000000	4.449204
385.000000	4.446736
386.000000	4.440211
387.000000	4.439877
388.000000	4.440083
389.000000	4.441066
390.000000	4.442087
391.000000	4.442636
392.000000	4.442165
393.000000	4.442231
394.000000	4.442861
395.000000	4.443526
396.000000	4.443385
397.000000	4.443505
398.000000	4.443863
399.000000	4.443933
400.000000	4.443321
401.000000	4.443125
402.000000	4.443525
403.000000	4.443826
404.000000	4.443741
405.000000	4.443626
406.000000	4.445168
407.000000	4.446709
408.000000	4.447000
409.000000	4.447185
410.000000	4.448345
411.000000	4.449623
412.000000	4.450911
413.000000	4.451985
414.000000	4.453101
415.000000	4.453929
416.000000	4.454384
417.000000	4.454545
418.000000	4.455366
419.000000	4.456699
420.000000	4.457659
421.000000	4.458123
422.000000	4.458655
423.000000	4.459554
424.000000	4.460532
425.000000	4.461553
426.000000	4.461905
427.000000	4.462818
428.000000	4.463970
429.000000	4.464585
430.000000	4.465227
431.000000	4.465816
432.000000	4.466540
433.000000	4.467663
434.000000	4.468565
435.000000	4.469451
436.000000	4.470999
437.000000	4.472736
438.000000	4.473833
439.000000	4.474920
440.000000	4.476108
441.000000	4.478062
442.000000	4.479371
443.000000	4.480078
444.000000	4.481348
445.000000	4.482684
446.000000	4.483573
447.000000	4.484032
448.000000	4.484945
449.000000	4.486270
450.000000	4.487514
451.000000	4.488289
452.000000	4.489221
453.000000	4.490854
454.000000	4.492428
455.000000	4.493400
456.000000	4.494335
457.000000	4.495655
458.000000	4.497501
459.000000	4.499170
460.000000	4.500368
461.000000	4.501596
462.000000	4.503193
463.000000	4.504634
464.000000	4.506042
465.000000	4.507643
466.000000	4.509328
467.000000	4.510657
468.000000	4.511483
469.000000	4.512153
470.000000	4.512908
471.000000	4.513670
472.000000	4.514017
473.000000	4.513509
474.000000	4.512845
475.000000	4.512520
476.000000	4.511552
477.000000	4.510193
478.000000	4.508690
479.000000	4.507151
480.000000	4.505490
481.000000	4.503319
482.000000	4.501298
483.000000	4.500503
484.000000	4.500406
485.000000	4.500658
486.000000	4.502034
487.000000	4.504582
488.000000	4.508442
489.000000	4.512844
490.000000	4.518104
491.000000	4.524680
492.000000	4.532104
493.000000	4.539466
494.000000	4.546866
495.000000	4.554597
496.000000	4.562383
497.000000	4.570002
498.000000	4.577378
499.000000	4.584771
500.000000	4.592719
501.000000	4.600414
502.000000	4.607940
503.000000	4.615372
504.000000	4.622687
505.000000	4.629940
506.000000	4.637463
507.000000	4.644858
508.000000	4.651702
509.000000	4.658750
510.000000	4.665349
511.000000	4.671786
512.000000	4.677949
513.000000	4.684054
514.000000	4.689864
515.000000	4.695197
516.000000	4.700035
517.000000	4.704585
518.000000	4.709242
519.000000	4.713806
520.000000	4.717977
521.000000	4.722191
522.000000	4.727178
523.000000	4.732353
524.000000	4.738009
525.000000	4.744284
526.000000	4.751373
527.000000	4.759690
528.000000	4.768767
529.000000	4.778638
530.000000	4.789605
531.000000	4.802075
532.000000	4.814976
533.000000	4.828725
534.000000	4.843623
535.000000	4.859908
536.000000	4.877104
537.000000	4.894878
538.000000	4.913469
539.000000	4.932880
540.000000	4.953089
541.000000	4.973685
542.000000	4.995028
543.000000	5.017405
544.000000	5.040665
545.000000	5.064093
546.000000	5.088340
547.000000	5.113458
548.000000	5.139343
549.000000	5.165916
550.000000	5.193023
551.000000	5.220791
552.000000	5.249788
553.000000	5.279537
554.000000	5.309495
555.000000	5.340183
556.000000	5.371780
557.000000	5.403856
558.000000	5.436350
559.000000	5.469480
560.000000	5.501557
561.000000	5.534196
562.000000	5.567173
563.000000	5.600426
564.000000	5.634660
565.000000	5.669678
566.000000	5.705198
567.000000	5.741068
568.000000	5.778112
569.000000	5.815779
570.000000	5.856242
571.000000	5.897353
572.000000	5.939214
573.000000	5.981657
574.000000	6.025136
575.000000	6.069480
576.000000	6.114408
577.000000	6.160520
578.000000	6.206681
579.000000	6.253428
580.000000	6.300777
581.000000	6.348578
582.000000	6.397095
583.000000	6.446712
584.000000	6.496747
585.000000	6.547106
586.000000	6.598100
587.000000	6.649738
588.000000	6.702148
589.000000	6.755279
590.000000	6.808475
591.000000	6.863166
592.000000	6.918515
593.000000	6.974454
594.000000	7.030519
595.000000	7.087876
596.000000	7.145396
597.000000	7.202670
598.000000	7.260752
599.000000	7.319506
600.000000	7.379397
601.000000	7.438986
602.000000	7.499339
603.000000	7.559531
604.000000	7.621368
605.000000	7.682913
606.000000	7.745569
607.000000	7.808888
608.000000	7.873040
609.000000	7.937534
610.000000	8.002107
611.000000	8.067920
612.000000	8.133712
613.000000	8.200729
614.000000	8.267394
615.000000	8.335022
616.000000	8.402324
617.000000	8.471468
618.000000	8.540050
619.000000	8.608986
620.000000	8.679158
621.000000	8.749686
622.000000	8.820364
623.000000	8.891504
624.000000	8.962636
625.000000	9.034710
626.000000	9.107904
627.000000	9.180760
628.000000	9.254662
629.000000	9.329039
630.000000	9.403947
631.000000	9.479153
632.000000	9.554940
633.000000	9.631480
634.000000	9.709971
635.000000	9.788301
636.000000	9.866932
637.000000	9.945995
638.000000	10.026420
639.000000	10.107986
640.000000	10.189519
641.000000	10.271801
642.000000	10.354948
643.000000	10.438917
644.000000	10.521987
645.000000	10.606658
646.000000	10.692556
647.000000	10.778734
648.000000	10.864759
649.000000	10.951388
650.000000	11.039354
651.000000	11.128044
652.000000	11.217749
653.000000	11.306661
654.000000	11.397705
655.000000	11.489120
656.000000	11.580434
657.000000	11.672109
658.000000	11.763710
659.000000	11.855653
660.000000	11.947771
661.000000	12.040319
662.000000	12.132210
663.000000	12.226159
664.000000	12.320029
665.000000	12.413218
666.000000	12.505627
667.000000	12.598555
668.000000	12.693013
669.000000	12.787317
670.000000	12.881142
671.000000	12.975196
672.000000	13.069510
673.000000	13.163565
674.000000	13.256802
675.000000	13.350222
676.000000	13.444875
677.000000	13.540051
678.000000	13.634744
679.000000	13.729881
680.000000	13.825175
681.000000	13.919887
682.000000	14.015618
683.000000	14.110083
684.000000	14.205242
685.000000	14.299970
686.000000	14.395185
687.000000	14.490255
688.000000	14.584682
689.000000	14.679344
690.000000	14.774968
691.000000	14.871553
692.000000	14.967058
693.000000	15.063763
694.000000	15.160557
695.000000	15.257994
696.000000	15.355501
697.000000	15.453258
698.000000	15.551859
699.000000	15.650272
700.000000	15.748046
701.000000	15.845347
702.000000	15.943758
703.000000	16.042242
704.000000	16.140223
705.000000	16.237730
706.000000	16.336375
707.000000	16.435244
708.000000	16.534273
709.000000	16.633982
710.000000	16.732283
711.000000	16.831767
712.000000	16.931939
713.000000	17.030678
714.000000	17.129333
715.000000	17.229421
716.000000	17.329311
717.000000	17.429733
718.000000	17.530226
719.000000	17.630253
720.000000	17.732305
721.000000	17.834090
722.000000	17.934939
723.000000	18.037571
724.000000	18.141456
725.000000	18.245010
726.000000	18.347378
727.000000	18.448931
728.000000	18.551707
729.000000	18.654374
730.000000	18.757623
731.000000	18.860369
732.000000	18.963709
733.000000	19.069143
734.000000	19.174598
735.000000	19.280546
736.000000	19.387512
737.000000	19.493840
738.000000	19.599280
739.000000	19.705983
740.000000	19.813141
741.000000	19.922374
742.000000	20.032534
743.000000	20.140280
744.000000	20.246747
745.000000	20.355384
746.000000	20.464740
747.000000	20.575744
748.000000	20.688327
749.000000	20.800383
750.000000	20.911783
751.000000	21.021546
752.000000	21.130403
753.000000	21.240438
754.000000	21.354506
755.000000	21.467232
756.000000	21.580554
757.000000	21.693883
758.000000	21.806916
759.000000	21.919983
760.000000	22.033936
761.000000	22.152227
762.000000	22.270586
763.000000	22.388836
764.000000	22.503969
765.000000	22.619645
766.000000	22.734834
767.000000	22.852087
768.000000	22.970835
769.000000	23.091586
770.000000	23.211318
771.000000	23.329601
772.000000	23.448099
773.000000	23.566109
774.000000	23.686644
775.000000	23.807997
776.000000	23.929837
777.000000	24.049640
778.000000	24.167846
779.000000	24.285718
780.000000	24.406803
781.000000	24.527871
782.000000	24.651102
783.000000	24.775872
784.000000	24.898285
785.000000	25.019360
786.000000	25.140468
787.000000	25.261838
788.000000	25.383964
789.000000	25.505776
790.000000	25.626643
791.000000	25.747131
792.000000	25.864349
793.000000	25.981844
794.000000	26.098402
795.000000	26.215535
796.000000	26.331299
797.000000	26.446697
798.000000	26.558518
799.000000	26.669884
800.000000	26.779546
801.000000	26.889176
802.000000	27.000092
803.000000	27.107894
804.000000	27.213311
805.000000	27.315518
806.000000	27.420052
807.000000	27.525328
808.000000	27.631248
809.000000	27.735100
810.000000	27.836361
811.000000	27.933777
812.000000	28.029500
813.000000	28.125221
814.000000	28.221008
815.000000	28.315361
816.000000	28.409164
817.000000	28.498563
818.000000	28.586490
819.000000	28.673088
820.000000	28.759112
821.000000	28.843091
822.000000	28.924725
823.000000	29.005089
824.000000	29.081102
825.000000	29.158263
826.000000	29.230966
827.000000	29.304065
828.000000	29.374014
829.000000	29.441670
830.000000	29.512364
831.000000	29.576473
832.000000	29.635788
833.000000	29.700463
834.000000	29.768891
835.000000	29.839915
836.000000	29.899911
837.000000	29.957899
838.000000	30.018146
839.000000	30.083817
840.000000	30.128984
841.000000	30.176918
842.000000	30.237920
843.000000	30.285847
844.000000	30.330740
845.000000	30.367846
846.000000	30.415995
847.000000	30.466723
848.000000	30.511750
849.000000	30.553882
850.000000	30.596399
851.000000	30.651553
852.000000	30.681746
853.000000	30.713844
854.000000	30.762576
855.000000	30.808385
856.000000	30.848673
857.000000	30.895159
858.000000	31.192724
859.000000	31.299629
860.000000	31.417837
861.000000	31.536125
862.000000	31.644186
863.000000	31.745389
864.000000	31.832653
865.000000	31.936990
866.000000	32.034688
867.000000	32.118799
868.000000	31.954038
869.000000	31.944266
870.000000	31.955874
871.000000	31.950558
872.000000	31.959134
873.000000	31.975946
874.000000	31.994062
875.000000	31.981184
876.000000	31.981032
877.000000	31.973354
878.000000	31.964328
879.000000	31.991844
880.000000	31.984380
881.000000	31.972974
882.000000	31.977522
883.000000	31.987004
884.000000	31.991976
885.000000	32.001636
886.000000	32.013020
887.000000	32.025046
888.000000	32.040850
889.000000	32.043500
890.000000	32.053702
891.000000	32.080278
892.000000	32.081990
893.000000	32.086498
894.000000	32.085522
895.000000	32.097830
896.000000	32.116472
897.000000	32.117996
898.000000	32.123754
899.000000	32.131976
900.000000	32.159480
901.000000	32.172188
902.000000	32.203678
903.000000	32.223144
904.000000	32.250630
905.000000	32.267206
906.000000	32.270420
907.000000	32.298254
908.000000	32.322564
909.000000	32.346136
910.000000	32.355182
911.000000	32.379074
912.000000	32.396868
913.000000	32.410848
914.000000	32.426492
915.000000	32.448518
916.000000	32.480292
917.000000	32.502776
918.000000	32.525042
919.000000	32.557074
920.000000	32.587310
921.000000	32.610886
922.000000	32.634388
923.000000	32.670530
924.000000	32.694218
925.000000	32.724116
926.000000	32.741240
927.000000	32.768446
928.000000	32.795830
929.000000	32.816998
930.000000	32.835126
931.000000	32.848536
932.000000	32.871998
933.000000	32.888444
934.000000	32.917306
935.000000	32.938264
936.000000	32.960550
937.000000	32.984884
938.000000	33.002544
939.000000	33.022588
940.000000	33.050148
941.000000	33.076498
942.000000	33.096812
943.000000	33.115380
944.000000	33.129472
945.000000	33.148114
946.000000	33.165684
947.000000	33.181432
948.000000	33.198608
949.000000	33.212424
950.000000	33.223310
951.000000	33.236764
952.000000	33.249552
953.000000	33.265352
954.000000	33.282536
955.000000	33.300100
956.000000	33.318600
957.000000	33.337234
958.000000	33.353194
959.000000	33.368408
960.000000	33.382440
961.000000	33.401904
962.000000	33.421088
963.000000	33.436898
964.000000	33.446590
965.000000	33.454514
966.000000	33.462614
967.000000	33.470556
968.000000	33.481416
969.000000	33.493882
970.000000	33.507834
971.000000	33.515978
972.000000	33.525410
973.000000	33.536856
974.000000	33.551864
975.000000	33.564788
976.000000	33.575826
977.000000	33.586558
978.000000	33.597998
979.000000	33.607946
980.000000	33.618280
981.000000	33.627526
982.000000	33.636176
983.000000	33.645784
984.000000	33.653260
985.000000	33.662544
986.000000	33.674162
987.000000	33.683360
988.000000	33.689570
989.000000	33.697456
990.000000	33.705898
991.000000	33.714372
992.000000	33.720528
993.000000	33.726204
994.000000	33.732862
995.000000	33.739302
996.000000	33.746156
997.000000	33.753340
998.000000	33.761012
999.000000	33.767878
1000.000000	33.775038
1001.000000	33.782740
1002.000000	33.792300
1003.000000	33.800858
1004.000000	33.808768
1005.000000	33.815228
1006.000000	33.819802
1007.000000	33.825578
1008.000000	33.832414
1009.000000	33.840048
1010.000000	33.846622
1011.000000	33.852490
1012.000000	33.857814
1013.000000	33.864268
1014.000000	33.870872
1015.000000	33.877956
1016.000000	33.885850
1017.000000	33.895442
1018.000000	33.905256
1019.000000	33.914616
1020.000000	33.923260
1021.000000	33.932080
1022.000000	33.942758
1023.000000	33.954222
1024.000000	33.967190
1025.000000	33.982030
1026.000000	33.998176
1027.000000	34.012646
1028.000000	34.027342
1029.000000	34.043498
1030.000000	34.059694
1031.000000	34.076102
1032.000000	34.092326
1033.000000	34.108882
1034.000000	34.124776
1035.000000	34.139500
1036.000000	34.154020
1037.000000	34.169460
1038.000000	34.184626
1039.000000	34.197902
1040.000000	34.212254
1041.000000	34.228000
1042.000000	34.242904
1043.000000	34.255544
1044.000000	34.267936
1045.000000	34.281632
1046.000000	34.294360
1047.000000	34.306832
1048.000000	34.319668
1049.000000	34.332954
1050.000000	34.346308
1051.000000	34.359404
1052.000000	34.372310
1053.000000	34.385450
1054.000000	34.399592
1055.000000	34.414012
1056.000000	34.428756
1057.000000	34.443248
1058.000000	34.457636
1059.000000	34.472392
1060.000000	34.487592
1061.000000	34.502618
1062.000000	34.518592
1063.000000	34.533936
1064.000000	34.549112
1065.000000	34.562780
1066.000000	34.575326
1067.000000	34.588654
1068.000000	34.602862
1069.000000	34.617008
1070.000000	34.630978
1071.000000	34.644734
1072.000000	34.657084
1073.000000	34.669828
1074.000000	34.682748
1075.000000	34.697356
1076.000000	34.711574
1077.000000	34.725046
1078.000000	34.737016
1079.000000	34.748082
1080.000000	34.758730
1081.000000	34.769024
1082.000000	34.779500
1083.000000	34.790490
1084.000000	34.800812
1085.000000	34.809448
1086.000000	34.818114
1087.000000	34.826212
1088.000000	34.834888
1089.000000	34.844064
1090.000000	34.851440
1091.000000	34.857642
1092.000000	34.865764
1093.000000	34.872572
1094.000000	34.879472
1095.000000	34.885604
1096.000000	34.891316
1097.000000	34.895992
1098.000000	34.899502
1099.000000	34.903166
1100.000000	34.907740
1101.000000	34.912408
1102.000000	34.913514
1103.000000	34.914922
1104.000000	34.916844
1105.000000	34.917850
1106.000000	34.919284
1107.000000	34.919078
1108.000000	34.918584
1109.000000	34.918082
1110.000000	34.916750
1111.000000	34.914856
1112.000000	34.912924
1113.000000	34.909556
1114.000000	34.903262
1115.000000	34.896860
1116.000000	34.888384
1117.000000	34.880986
1118.000000	34.872560
1119.000000	34.860362
1120.000000	34.846712
1121.000000	34.831496
1122.000000	34.815566
1123.000000	34.798552
1124.000000	34.778082
1125.000000	34.756276
1126.000000	34.732152
1127.000000	34.703948
1128.000000	34.672834
1129.000000	34.639786
1130.000000	34.601420
1131.000000	34.559018
1132.000000	34.510354
1133.000000	34.459846
1134.000000	34.410858
1135.000000	34.359234
1136.000000	34.304114
1137.000000	34.247142
1138.000000	34.187290
1139.000000	34.127042
1140.000000	34.068828
1141.000000	34.011786
1142.000000	33.957062
1143.000000	33.902412
1144.000000	33.845896
1145.000000	33.789924
1146.000000	33.735964
1147.000000	33.685200
1148.000000	33.635486
1149.000000	33.585536
1150.000000	33.532682
1151.000000	33.479844
1152.000000	33.428296
1153.000000	33.376226
1154.000000	33.323896
1155.000000	33.265804
1156.000000	33.206050
1157.000000	33.141736
1158.000000	33.075790
1159.000000	33.006068
1160.000000	32.936176
1161.000000	32.861828
1162.000000	32.783190
1163.000000	32.702590
1164.000000	32.618918
1165.000000	32.535876
1166.000000	32.452718
1167.000000	32.369698
1168.000000	32.288210
1169.000000	32.207870
