PE UV       SUBTECH     SPECTRUM    ASCII       PEDS        4.00        
   -1
INBUCR0223-4.Sample.ASC
24/02/08
10:38:59.00
24/02/08
10:38:59.00
Vinicio Soto Monge
Chrysina sp. Rojizo con bordes dorados. 
250,000000
1
Lambda 1050
1050L1511233
PerkinElmer UV WinLab 6.3.2.0749 / 2.02.05 Lambda 900 UV/VIS/NIR, Aug  7 2015 09:38:08

0
0
3350/servo 860,8/2
0
0
UV/VIS
1
1
1
DoubleDePol,CommonBeamDepol,RBeamAtt,SBeamAtt,60mm sphere, WB InGaAs Detector
0
0
0
0
Program
Program
3350/servo 860,8/2
3350/0,2 860,8/0,2
3350/0,2 860,8/0,2
0
15.00
 
 
 
0
 
860,8
319,2
860,8
Front
100
on
S:100 R:100
0
0
0
0
 
0
 
 
 
0
 
 
0
0
0
0
0
 
 
 
 
0
0


0
0
#HDR
-1
-1
#GR
nm
%R
1.0
0.0
2500,000000
-1,000000
2251
8
13,820200
1,162000
#DATA

250.000000	nan
251.000000	nan
252.000000	nan
253.000000	nan
254.000000	nan
255.000000	nan
256.000000	nan
257.000000	nan
258.000000	nan
259.000000	3.972315
260.000000	3.959494
261.000000	3.947349
262.000000	3.934254
263.000000	3.923948
264.000000	3.909673
265.000000	3.893806
266.000000	3.878831
267.000000	3.863390
268.000000	3.850144
269.000000	3.836790
270.000000	3.822241
271.000000	3.808332
272.000000	3.792807
273.000000	3.778788
274.000000	3.764566
275.000000	3.753234
276.000000	3.743940
277.000000	3.735412
278.000000	3.725356
279.000000	3.715147
280.000000	3.708939
281.000000	3.702028
282.000000	3.697691
283.000000	3.690871
284.000000	3.687412
285.000000	3.684705
286.000000	3.680237
287.000000	3.675980
288.000000	3.671560
289.000000	3.670444
290.000000	3.667810
291.000000	3.664408
292.000000	3.661954
293.000000	3.661710
294.000000	3.661901
295.000000	3.660679
296.000000	3.658544
297.000000	3.657104
298.000000	3.659861
299.000000	3.659022
300.000000	3.657240
301.000000	3.657996
302.000000	3.657906
303.000000	3.656694
304.000000	3.653869
305.000000	3.652196
306.000000	3.648794
307.000000	3.648742
308.000000	3.642923
309.000000	3.638732
310.000000	3.635103
311.000000	3.631427
312.000000	3.624752
313.000000	3.619245
314.000000	3.616564
315.000000	3.613351
316.000000	3.614951
317.000000	3.640239
318.000000	3.670909
319.000000	3.689152
320.000000	3.714291
321.000000	3.746104
322.000000	3.769039
323.000000	3.800500
324.000000	3.815938
325.000000	3.838295
326.000000	3.856626
327.000000	3.847797
328.000000	3.836954
329.000000	3.838284
330.000000	3.832007
331.000000	3.819457
332.000000	3.817668
333.000000	3.805220
334.000000	3.803657
335.000000	3.798591
336.000000	3.796857
337.000000	3.790732
338.000000	3.782311
339.000000	3.775026
340.000000	3.765640
341.000000	3.758601
342.000000	3.754194
343.000000	3.750677
344.000000	3.749770
345.000000	3.748366
346.000000	3.744683
347.000000	3.748755
348.000000	3.749530
349.000000	3.750383
350.000000	3.751875
351.000000	3.751834
352.000000	3.749524
353.000000	3.751391
354.000000	3.750491
355.000000	3.748260
356.000000	3.747503
357.000000	3.745196
358.000000	3.748269
359.000000	3.748069
360.000000	3.747423
361.000000	3.747391
362.000000	3.751654
363.000000	3.750856
364.000000	3.751934
365.000000	3.752062
366.000000	3.752204
367.000000	3.751429
368.000000	3.751463
369.000000	3.752216
370.000000	3.753151
371.000000	3.748752
372.000000	3.740980
373.000000	3.734116
374.000000	3.726320
375.000000	3.720005
376.000000	3.714030
377.000000	3.700805
378.000000	3.687737
379.000000	3.675653
380.000000	3.665817
381.000000	3.657713
382.000000	3.650420
383.000000	3.645088
384.000000	3.642360
385.000000	3.638039
386.000000	3.632148
387.000000	3.633400
388.000000	3.634177
389.000000	3.635787
390.000000	3.637607
391.000000	3.640105
392.000000	3.641847
393.000000	3.642434
394.000000	3.642725
395.000000	3.643852
396.000000	3.645288
397.000000	3.646994
398.000000	3.648792
399.000000	3.650301
400.000000	3.651568
401.000000	3.652697
402.000000	3.654240
403.000000	3.656676
404.000000	3.659867
405.000000	3.663316
406.000000	3.666123
407.000000	3.668898
408.000000	3.671676
409.000000	3.674731
410.000000	3.678051
411.000000	3.681455
412.000000	3.684765
413.000000	3.687931
414.000000	3.691194
415.000000	3.694623
416.000000	3.698458
417.000000	3.702531
418.000000	3.706716
419.000000	3.710648
420.000000	3.715115
421.000000	3.719997
422.000000	3.724912
423.000000	3.729875
424.000000	3.734925
425.000000	3.740391
426.000000	3.746050
427.000000	3.751498
428.000000	3.757136
429.000000	3.763078
430.000000	3.768793
431.000000	3.774597
432.000000	3.780763
433.000000	3.787326
434.000000	3.794161
435.000000	3.800777
436.000000	3.807295
437.000000	3.814188
438.000000	3.821527
439.000000	3.829314
440.000000	3.836734
441.000000	3.844228
442.000000	3.852036
443.000000	3.859723
444.000000	3.867060
445.000000	3.874436
446.000000	3.882244
447.000000	3.890442
448.000000	3.898297
449.000000	3.905773
450.000000	3.913995
451.000000	3.922463
452.000000	3.930772
453.000000	3.939094
454.000000	3.947794
455.000000	3.956915
456.000000	3.966090
457.000000	3.974853
458.000000	3.983702
459.000000	3.993037
460.000000	4.002521
461.000000	4.011912
462.000000	4.021447
463.000000	4.031325
464.000000	4.041279
465.000000	4.051165
466.000000	4.061350
467.000000	4.071713
468.000000	4.082535
469.000000	4.093687
470.000000	4.104315
471.000000	4.114957
472.000000	4.125822
473.000000	4.136703
474.000000	4.147407
475.000000	4.157731
476.000000	4.168000
477.000000	4.178088
478.000000	4.187792
479.000000	4.197376
480.000000	4.207254
481.000000	4.216738
482.000000	4.225741
483.000000	4.235111
484.000000	4.244962
485.000000	4.255502
486.000000	4.266253
487.000000	4.277601
488.000000	4.289481
489.000000	4.301547
490.000000	4.314627
491.000000	4.328489
492.000000	4.343178
493.000000	4.358206
494.000000	4.373125
495.000000	4.388298
496.000000	4.404148
497.000000	4.420425
498.000000	4.436983
499.000000	4.454229
500.000000	4.471480
501.000000	4.489366
502.000000	4.507910
503.000000	4.526717
504.000000	4.546030
505.000000	4.566161
506.000000	4.586237
507.000000	4.606404
508.000000	4.627094
509.000000	4.647890
510.000000	4.669381
511.000000	4.691395
512.000000	4.713622
513.000000	4.736440
514.000000	4.760273
515.000000	4.784487
516.000000	4.809622
517.000000	4.835944
518.000000	4.863697
519.000000	4.893031
520.000000	4.923862
521.000000	4.956669
522.000000	4.991591
523.000000	5.029312
524.000000	5.069839
525.000000	5.113035
526.000000	5.159160
527.000000	5.208931
528.000000	5.262006
529.000000	5.318322
530.000000	5.377842
531.000000	5.440540
532.000000	5.505642
533.000000	5.572716
534.000000	5.641143
535.000000	5.710434
536.000000	5.780452
537.000000	5.849637
538.000000	5.917543
539.000000	5.983631
540.000000	6.047567
541.000000	6.109054
542.000000	6.168724
543.000000	6.225939
544.000000	6.280705
545.000000	6.333852
546.000000	6.385158
547.000000	6.434804
548.000000	6.483897
549.000000	6.532427
550.000000	6.580672
551.000000	6.628791
552.000000	6.676330
553.000000	6.724399
554.000000	6.773395
555.000000	6.822685
556.000000	6.872723
557.000000	6.923581
558.000000	6.974698
559.000000	7.026641
560.000000	7.074023
561.000000	7.121038
562.000000	7.169675
563.000000	7.219102
564.000000	7.269207
565.000000	7.320099
566.000000	7.372239
567.000000	7.425011
568.000000	7.479684
569.000000	7.535234
570.000000	7.597975
571.000000	7.664059
572.000000	7.731361
573.000000	7.800944
574.000000	7.872483
575.000000	7.946980
576.000000	8.023484
577.000000	8.103724
578.000000	8.185975
579.000000	8.271613
580.000000	8.359587
581.000000	8.450366
582.000000	8.544503
583.000000	8.641956
584.000000	8.743202
585.000000	8.848366
586.000000	8.957315
587.000000	9.069551
588.000000	9.186333
589.000000	9.308395
590.000000	9.436243
591.000000	9.569421
592.000000	9.708725
593.000000	9.854639
594.000000	10.006766
595.000000	10.165637
596.000000	10.332782
597.000000	10.509019
598.000000	10.695746
599.000000	10.893110
600.000000	11.102901
601.000000	11.326476
602.000000	11.567069
603.000000	11.826384
604.000000	12.108587
605.000000	12.414449
606.000000	12.746429
607.000000	13.107212
608.000000	13.497027
609.000000	13.918056
610.000000	14.371553
611.000000	14.858810
612.000000	15.375801
613.000000	15.922871
614.000000	16.495577
615.000000	17.091572
616.000000	17.706549
617.000000	18.334749
618.000000	18.970539
619.000000	19.608843
620.000000	20.245292
621.000000	20.873540
622.000000	21.488423
623.000000	22.082836
624.000000	22.654732
625.000000	23.198597
626.000000	23.712470
627.000000	24.194492
628.000000	24.646989
629.000000	25.067048
630.000000	25.452275
631.000000	25.805420
632.000000	26.127886
633.000000	26.422952
634.000000	26.689851
635.000000	26.933291
636.000000	27.153834
637.000000	27.354102
638.000000	27.534742
639.000000	27.697924
640.000000	27.846921
641.000000	27.981902
642.000000	28.105377
643.000000	28.217913
644.000000	28.322449
645.000000	28.418658
646.000000	28.510041
647.000000	28.597429
648.000000	28.680151
649.000000	28.759053
650.000000	28.834889
651.000000	28.906888
652.000000	28.976377
653.000000	29.043370
654.000000	29.105798
655.000000	29.164994
656.000000	29.221705
657.000000	29.273632
658.000000	29.322510
659.000000	29.369366
660.000000	29.412927
661.000000	29.453321
662.000000	29.491176
663.000000	29.526165
664.000000	29.561496
665.000000	29.596719
666.000000	29.631215
667.000000	29.665945
668.000000	29.700353
669.000000	29.737921
670.000000	29.776810
671.000000	29.819040
672.000000	29.863330
673.000000	29.908228
674.000000	29.953635
675.000000	30.001429
676.000000	30.047070
677.000000	30.091364
678.000000	30.135669
679.000000	30.175545
680.000000	30.213111
681.000000	30.246935
682.000000	30.277723
683.000000	30.307263
684.000000	30.334873
685.000000	30.357037
686.000000	30.377520
687.000000	30.396208
688.000000	30.412702
689.000000	30.427339
690.000000	30.441592
691.000000	30.456645
692.000000	30.469559
693.000000	30.482406
694.000000	30.494033
695.000000	30.506674
696.000000	30.520286
697.000000	30.535890
698.000000	30.554012
699.000000	30.572949
700.000000	30.593623
701.000000	30.615442
702.000000	30.639024
703.000000	30.663681
704.000000	30.689672
705.000000	30.716767
706.000000	30.745564
707.000000	30.775260
708.000000	30.803386
709.000000	30.832714
710.000000	30.860400
711.000000	30.887442
712.000000	30.917161
713.000000	30.947965
714.000000	30.980219
715.000000	31.011884
716.000000	31.043875
717.000000	31.076325
718.000000	31.108669
719.000000	31.143392
720.000000	31.180045
721.000000	31.216530
722.000000	31.252230
723.000000	31.288010
724.000000	31.324419
725.000000	31.364441
726.000000	31.403967
727.000000	31.446433
728.000000	31.492739
729.000000	31.535376
730.000000	31.576477
731.000000	31.619554
732.000000	31.662358
733.000000	31.705101
734.000000	31.749925
735.000000	31.795261
736.000000	31.839997
737.000000	31.881656
738.000000	31.923017
739.000000	31.967706
740.000000	32.013729
741.000000	32.060690
742.000000	32.110432
743.000000	32.160399
744.000000	32.208226
745.000000	32.254651
746.000000	32.303793
747.000000	32.353205
748.000000	32.401558
749.000000	32.452099
750.000000	32.504208
751.000000	32.555644
752.000000	32.604873
753.000000	32.656067
754.000000	32.709482
755.000000	32.764278
756.000000	32.821179
757.000000	32.881707
758.000000	32.944013
759.000000	33.005416
760.000000	33.070381
761.000000	33.137061
762.000000	33.205568
763.000000	33.277113
764.000000	33.348041
765.000000	33.417898
766.000000	33.488582
767.000000	33.560862
768.000000	33.633998
769.000000	33.710069
770.000000	33.784866
771.000000	33.859089
772.000000	33.930598
773.000000	34.000372
774.000000	34.076578
775.000000	34.154670
776.000000	34.232101
777.000000	34.307311
778.000000	34.383599
779.000000	34.459216
780.000000	34.535794
781.000000	34.615475
782.000000	34.700871
783.000000	34.782687
784.000000	34.860372
785.000000	34.941065
786.000000	35.024103
787.000000	35.107442
788.000000	35.189349
789.000000	35.271117
790.000000	35.353055
791.000000	35.433697
792.000000	35.513028
793.000000	35.596338
794.000000	35.680456
795.000000	35.763287
796.000000	35.843532
797.000000	35.923224
798.000000	36.005556
799.000000	36.092211
800.000000	36.178065
801.000000	36.263833
802.000000	36.349933
803.000000	36.434709
804.000000	36.515081
805.000000	36.599411
806.000000	36.685364
807.000000	36.771846
808.000000	36.858113
809.000000	36.940669
810.000000	37.027870
811.000000	37.116697
812.000000	37.203897
813.000000	37.287063
814.000000	37.373027
815.000000	37.456303
816.000000	37.537085
817.000000	37.622578
818.000000	37.709139
819.000000	37.788383
820.000000	37.863755
821.000000	37.943049
822.000000	38.023296
823.000000	38.102657
824.000000	38.180014
825.000000	38.262071
826.000000	38.345129
827.000000	38.418385
828.000000	38.488581
829.000000	38.567000
830.000000	38.645530
831.000000	38.710087
832.000000	38.777974
833.000000	38.851480
834.000000	38.927791
835.000000	38.985900
836.000000	39.052153
837.000000	39.122290
838.000000	39.185036
839.000000	39.240399
840.000000	39.296334
841.000000	39.360337
842.000000	39.413831
843.000000	39.464788
844.000000	39.515715
845.000000	39.583499
846.000000	39.621355
847.000000	39.668675
848.000000	39.721336
849.000000	39.773571
850.000000	39.806349
851.000000	39.848824
852.000000	39.903157
853.000000	39.934403
854.000000	39.968329
855.000000	39.989775
856.000000	40.030507
857.000000	40.046736
858.000000	40.233018
859.000000	40.343231
860.000000	40.438133
861.000000	40.545999
862.000000	40.637141
863.000000	40.755939
864.000000	40.843983
865.000000	40.911281
866.000000	40.990193
867.000000	41.079289
868.000000	40.997200
869.000000	40.972617
870.000000	40.988195
871.000000	40.975215
872.000000	40.962812
873.000000	40.949555
874.000000	40.939058
875.000000	40.957905
876.000000	40.964112
877.000000	40.967828
878.000000	40.958465
879.000000	40.962902
880.000000	40.961083
881.000000	40.951045
882.000000	40.956750
883.000000	40.943370
884.000000	40.946180
885.000000	40.941480
886.000000	40.926043
887.000000	40.916675
888.000000	40.902985
889.000000	40.893705
890.000000	40.878925
891.000000	40.863325
892.000000	40.836645
893.000000	40.811253
894.000000	40.790190
895.000000	40.764978
896.000000	40.748195
897.000000	40.717588
898.000000	40.704057
899.000000	40.682898
900.000000	40.665550
901.000000	40.648760
902.000000	40.630440
903.000000	40.613510
904.000000	40.588910
905.000000	40.571158
906.000000	40.547917
907.000000	40.528725
908.000000	40.503127
909.000000	40.484260
910.000000	40.455550
911.000000	40.426660
912.000000	40.392768
913.000000	40.366252
914.000000	40.346632
915.000000	40.319317
916.000000	40.289362
917.000000	40.260385
918.000000	40.230995
919.000000	40.209855
920.000000	40.188680
921.000000	40.166387
922.000000	40.147652
923.000000	40.126025
924.000000	40.099115
925.000000	40.071722
926.000000	40.045710
927.000000	40.020933
928.000000	39.994400
929.000000	39.953220
930.000000	39.912225
931.000000	39.878377
932.000000	39.844268
933.000000	39.808847
934.000000	39.772850
935.000000	39.732760
936.000000	39.695985
937.000000	39.657562
938.000000	39.622030
939.000000	39.587913
940.000000	39.549878
941.000000	39.508888
942.000000	39.468448
943.000000	39.429090
944.000000	39.390515
945.000000	39.355332
946.000000	39.315463
947.000000	39.278078
948.000000	39.237730
949.000000	39.196357
950.000000	39.157410
951.000000	39.120070
952.000000	39.082822
953.000000	39.044828
954.000000	39.004110
955.000000	38.964883
956.000000	38.930325
957.000000	38.895725
958.000000	38.860422
959.000000	38.825420
960.000000	38.793470
961.000000	38.760775
962.000000	38.723730
963.000000	38.686220
964.000000	38.649493
965.000000	38.614938
966.000000	38.578375
967.000000	38.538798
968.000000	38.500377
969.000000	38.465475
970.000000	38.428003
971.000000	38.390415
972.000000	38.357180
973.000000	38.325520
974.000000	38.294322
975.000000	38.260343
976.000000	38.227918
977.000000	38.197007
978.000000	38.167490
979.000000	38.137017
980.000000	38.107222
981.000000	38.076133
982.000000	38.042613
983.000000	38.011475
984.000000	37.982682
985.000000	37.953752
986.000000	37.923057
987.000000	37.893672
988.000000	37.865967
989.000000	37.838345
990.000000	37.810575
991.000000	37.784253
992.000000	37.760895
993.000000	37.737055
994.000000	37.712197
995.000000	37.688225
996.000000	37.666045
997.000000	37.645593
998.000000	37.625015
999.000000	37.605128
1000.000000	37.586990
1001.000000	37.569522
1002.000000	37.551837
1003.000000	37.534897
1004.000000	37.518473
1005.000000	37.502480
1006.000000	37.487080
1007.000000	37.472522
1008.000000	37.458050
1009.000000	37.443055
1010.000000	37.429035
1011.000000	37.417088
1012.000000	37.406278
1013.000000	37.393355
1014.000000	37.381392
1015.000000	37.372075
1016.000000	37.363952
1017.000000	37.356078
1018.000000	37.349805
1019.000000	37.345920
1020.000000	37.341570
1021.000000	37.336433
1022.000000	37.331330
1023.000000	37.328755
1024.000000	37.327688
1025.000000	37.326705
1026.000000	37.325458
1027.000000	37.324045
1028.000000	37.322928
1029.000000	37.323673
1030.000000	37.326850
1031.000000	37.331032
1032.000000	37.336705
1033.000000	37.343040
1034.000000	37.349863
1035.000000	37.355967
1036.000000	37.362302
1037.000000	37.369613
1038.000000	37.377842
1039.000000	37.385625
1040.000000	37.391602
1041.000000	37.397463
1042.000000	37.402867
1043.000000	37.407353
1044.000000	37.412385
1045.000000	37.418818
1046.000000	37.425905
1047.000000	37.433505
1048.000000	37.439778
1049.000000	37.445553
1050.000000	37.452250
1051.000000	37.459705
1052.000000	37.468937
1053.000000	37.479825
1054.000000	37.489410
1055.000000	37.500245
1056.000000	37.511278
1057.000000	37.522005
1058.000000	37.533842
1059.000000	37.545072
1060.000000	37.557008
1061.000000	37.569675
1062.000000	37.581783
1063.000000	37.593823
1064.000000	37.606673
1065.000000	37.618740
1066.000000	37.632080
1067.000000	37.644357
1068.000000	37.656885
1069.000000	37.671743
1070.000000	37.687377
1071.000000	37.702450
1072.000000	37.717695
1073.000000	37.732888
1074.000000	37.748525
1075.000000	37.763243
1076.000000	37.777660
1077.000000	37.793825
1078.000000	37.810727
1079.000000	37.824985
1080.000000	37.838003
1081.000000	37.851590
1082.000000	37.865642
1083.000000	37.879903
1084.000000	37.893083
1085.000000	37.906953
1086.000000	37.921065
1087.000000	37.933892
1088.000000	37.943905
1089.000000	37.956142
1090.000000	37.969440
1091.000000	37.982515
1092.000000	37.994878
1093.000000	38.006665
1094.000000	38.019765
1095.000000	38.033102
1096.000000	38.044848
1097.000000	38.057115
1098.000000	38.070222
1099.000000	38.082563
1100.000000	38.093592
1101.000000	38.103995
1102.000000	38.113765
1103.000000	38.123177
1104.000000	38.131982
1105.000000	38.141355
1106.000000	38.151085
1107.000000	38.160085
1108.000000	38.169603
1109.000000	38.177935
1110.000000	38.186988
1111.000000	38.195747
1112.000000	38.203408
1113.000000	38.210780
1114.000000	38.217905
1115.000000	38.222333
1116.000000	38.228105
1117.000000	38.232932
1118.000000	38.236045
1119.000000	38.238858
1120.000000	38.240325
1121.000000	38.240048
1122.000000	38.240205
1123.000000	38.238400
1124.000000	38.232375
1125.000000	38.226582
1126.000000	38.216527
1127.000000	38.204870
1128.000000	38.192262
1129.000000	38.175345
1130.000000	38.154155
1131.000000	38.129928
1132.000000	38.101305
1133.000000	38.071630
1134.000000	38.043083
1135.000000	38.013120
1136.000000	37.979430
1137.000000	37.941865
1138.000000	37.902358
1139.000000	37.863470
1140.000000	37.826258
1141.000000	37.789455
1142.000000	37.754487
1143.000000	37.719035
1144.000000	37.683417
1145.000000	37.648103
1146.000000	37.616727
1147.000000	37.586742
1148.000000	37.557440
1149.000000	37.528852
1150.000000	37.501550
1151.000000	37.473525
1152.000000	37.445152
1153.000000	37.415460
1154.000000	37.383697
1155.000000	37.349925
1156.000000	37.311630
1157.000000	37.271805
1158.000000	37.229210
1159.000000	37.182772
1160.000000	37.131160
1161.000000	37.077605
1162.000000	37.020075
1163.000000	36.959965
1164.000000	36.898392
1165.000000	36.833672
1166.000000	36.770100
1167.000000	36.706180
1168.000000	36.640482
1169.000000	36.576968
1170.000000	36.516053
1171.000000	36.456582
1172.000000	36.399790
1173.000000	36.347923
1174.000000	36.298350
1175.000000	36.251263
1176.000000	36.208253
