PE UV       SUBTECH     SPECTRUM    ASCII       PEDS        4.00        
   -1
INBUCR0324-4.Sample.ASC
24/02/09
10:06:04.00
24/02/09
10:06:04.00
Vinicio Soto Monge
COSTA RICA. Prov. Guanacaste. Sector Santa María, 25 km al NE. de Liberia. 790 m. 9-27 OCT 1996. D. Briceño. Foso. L_N_304700_393450 #44748. INBIOCRI002492828.  (Aparentemente Phanaeus pyrois)
250,000000
1
Lambda 1050
1050L1511233
PerkinElmer UV WinLab 6.3.2.0749 / 2.02.05 Lambda 900 UV/VIS/NIR, Aug  7 2015 09:38:08

0
0
3350/servo 860,8/2
0
0
UV/VIS
1
1
1
DoubleDePol,CommonBeamDepol,RBeamAtt,SBeamAtt,60mm sphere, WB InGaAs Detector
0
0
0
0
Program
Program
3350/servo 860,8/2
3350/0,2 860,8/0,2
3350/0,2 860,8/0,2
0
15.00
 
 
 
0
 
860,8
319,2
860,8
Front
100
on
S:100 R:100
0
0
0
0
 
0
 
 
 
0
 
 
0
0
0
0
0
 
 
 
 
0
0


0
0
#HDR
-1
-1
#GR
nm
%R
1.0
0.0
2500,000000
-1,000000
2251
8
17,750600
1,236700
#DATA

250.000000	nan
251.000000	nan
252.000000	nan
253.000000	nan
254.000000	nan
255.000000	nan
256.000000	nan
257.000000	nan
258.000000	nan
259.000000	5.252315
260.000000	5.248356
261.000000	5.243727
262.000000	5.238103
263.000000	5.234035
264.000000	5.228139
265.000000	5.224200
266.000000	5.218932
267.000000	5.211561
268.000000	5.206370
269.000000	5.200127
270.000000	5.194245
271.000000	5.188247
272.000000	5.181783
273.000000	5.176500
274.000000	5.172828
275.000000	5.167951
276.000000	5.164580
277.000000	5.162006
278.000000	5.158138
279.000000	5.156468
280.000000	5.154505
281.000000	5.150980
282.000000	5.148911
283.000000	5.145138
284.000000	5.141382
285.000000	5.138328
286.000000	5.135609
287.000000	5.131904
288.000000	5.129034
289.000000	5.124563
290.000000	5.121248
291.000000	5.119031
292.000000	5.117452
293.000000	5.115631
294.000000	5.113113
295.000000	5.111520
296.000000	5.108905
297.000000	5.108492
298.000000	5.106030
299.000000	5.104135
300.000000	5.102264
301.000000	5.100397
302.000000	5.099434
303.000000	5.097657
304.000000	5.096547
305.000000	5.095238
306.000000	5.095123
307.000000	5.093318
308.000000	5.093598
309.000000	5.093370
310.000000	5.129063
311.000000	5.165677
312.000000	5.198996
313.000000	5.233793
314.000000	5.267644
315.000000	5.302886
316.000000	5.335650
317.000000	5.419751
318.000000	5.507849
319.000000	5.590837
320.000000	5.636006
321.000000	5.678773
322.000000	5.721984
323.000000	5.806413
324.000000	5.850623
325.000000	5.933227
326.000000	6.015842
327.000000	6.050699
328.000000	6.079682
329.000000	6.113376
330.000000	6.142685
331.000000	6.178424
332.000000	6.215321
333.000000	6.213266
334.000000	6.250832
335.000000	6.247372
336.000000	6.244090
337.000000	6.237962
338.000000	6.233822
339.000000	6.234983
340.000000	6.239504
341.000000	6.238542
342.000000	6.234681
343.000000	6.230247
344.000000	6.229780
345.000000	6.229653
346.000000	6.230498
347.000000	6.229745
348.000000	6.229006
349.000000	6.223134
350.000000	6.217700
351.000000	6.215176
352.000000	6.216156
353.000000	6.214621
354.000000	6.210763
355.000000	6.206962
356.000000	6.202411
357.000000	6.199801
358.000000	6.197073
359.000000	6.194903
360.000000	6.194155
361.000000	6.193855
362.000000	6.192236
363.000000	6.190270
364.000000	6.188471
365.000000	6.186763
366.000000	6.186741
367.000000	6.185968
368.000000	6.184057
369.000000	6.182726
370.000000	6.181600
371.000000	6.177407
372.000000	6.172928
373.000000	6.169240
374.000000	6.164171
375.000000	6.159567
376.000000	6.150291
377.000000	6.137119
378.000000	6.125336
379.000000	6.112941
380.000000	6.100674
381.000000	6.089468
382.000000	6.078353
383.000000	6.067608
384.000000	6.058515
385.000000	6.050175
386.000000	6.045490
387.000000	6.045497
388.000000	6.044833
389.000000	6.044313
390.000000	6.043786
391.000000	6.043100
392.000000	6.043077
393.000000	6.043057
394.000000	6.042576
395.000000	6.041838
396.000000	6.041279
397.000000	6.040141
398.000000	6.039072
399.000000	6.037666
400.000000	6.036507
401.000000	6.035331
402.000000	6.034134
403.000000	6.033183
404.000000	6.032367
405.000000	6.031432
406.000000	6.030432
407.000000	6.029360
408.000000	6.028456
409.000000	6.027701
410.000000	6.026922
411.000000	6.026571
412.000000	6.026024
413.000000	6.025432
414.000000	6.024681
415.000000	6.023797
416.000000	6.022902
417.000000	6.022016
418.000000	6.020790
419.000000	6.020031
420.000000	6.019512
421.000000	6.018625
422.000000	6.017931
423.000000	6.017363
424.000000	6.016700
425.000000	6.016107
426.000000	6.015369
427.000000	6.015122
428.000000	6.015005
429.000000	6.014397
430.000000	6.013735
431.000000	6.013221
432.000000	6.012662
433.000000	6.012094
434.000000	6.011649
435.000000	6.011095
436.000000	6.010798
437.000000	6.010322
438.000000	6.009924
439.000000	6.009709
440.000000	6.046077
441.000000	6.045740
442.000000	6.082196
443.000000	6.118556
444.000000	6.154554
445.000000	6.190629
446.000000	6.226710
447.000000	6.262583
448.000000	6.298384
449.000000	6.334176
450.000000	6.333454
451.000000	6.369631
452.000000	6.368866
453.000000	6.367865
454.000000	6.367283
455.000000	6.366888
456.000000	6.366470
457.000000	6.366091
458.000000	6.365639
459.000000	6.365225
460.000000	6.364574
461.000000	6.363602
462.000000	6.362784
463.000000	6.362283
464.000000	6.361831
465.000000	6.361380
466.000000	6.360967
467.000000	6.360519
468.000000	6.360138
469.000000	6.359871
470.000000	6.359811
471.000000	6.359785
472.000000	6.359550
473.000000	6.359291
474.000000	6.358892
475.000000	6.358341
476.000000	6.357759
477.000000	6.357235
478.000000	6.356758
479.000000	6.356136
480.000000	6.355290
481.000000	6.354376
482.000000	6.353158
483.000000	6.351896
484.000000	6.350795
485.000000	6.349751
486.000000	6.348667
487.000000	6.347730
488.000000	6.346925
489.000000	6.346101
490.000000	6.345452
491.000000	6.345009
492.000000	6.345241
493.000000	6.345596
494.000000	6.345898
495.000000	6.346237
496.000000	6.346677
497.000000	6.347220
498.000000	6.347987
499.000000	6.348825
500.000000	6.349549
501.000000	6.350288
502.000000	6.350827
503.000000	6.351433
504.000000	6.352193
505.000000	6.352965
506.000000	6.353617
507.000000	6.354208
508.000000	6.354562
509.000000	6.354766
510.000000	6.355089
511.000000	6.355347
512.000000	6.355576
513.000000	6.355708
514.000000	6.355659
515.000000	6.355367
516.000000	6.355296
517.000000	6.355045
518.000000	6.354672
519.000000	6.354453
520.000000	6.354370
521.000000	6.354383
522.000000	6.354401
523.000000	6.354363
524.000000	6.354488
525.000000	6.354859
526.000000	6.355309
527.000000	6.355853
528.000000	6.356720
529.000000	6.357557
530.000000	6.358376
531.000000	6.359268
532.000000	6.360348
533.000000	6.361703
534.000000	6.363066
535.000000	6.364490
536.000000	6.365819
537.000000	6.367146
538.000000	6.368331
539.000000	6.369909
540.000000	6.371433
541.000000	6.373009
542.000000	6.374450
543.000000	6.375976
544.000000	6.377386
545.000000	6.378845
546.000000	6.380381
547.000000	6.382199
548.000000	6.384240
549.000000	6.385995
550.000000	6.387792
551.000000	6.389759
552.000000	6.391699
553.000000	6.393548
554.000000	6.395527
555.000000	6.397785
556.000000	6.400122
557.000000	6.402319
558.000000	6.404563
559.000000	6.406732
560.000000	6.407231
561.000000	6.407442
562.000000	6.407988
563.000000	6.408497
564.000000	6.409374
565.000000	6.410259
566.000000	6.411310
567.000000	6.412763
568.000000	6.414046
569.000000	6.415718
570.000000	6.419430
571.000000	6.423661
572.000000	6.427971
573.000000	6.432580
574.000000	6.437680
575.000000	6.442643
576.000000	6.447726
577.000000	6.453262
578.000000	6.459256
579.000000	6.465457
580.000000	6.472002
581.000000	6.478796
582.000000	6.486117
583.000000	6.493681
584.000000	6.501184
585.000000	6.509308
586.000000	6.517737
587.000000	6.526104
588.000000	6.535119
589.000000	6.544444
590.000000	6.553795
591.000000	6.563473
592.000000	6.573574
593.000000	6.584012
594.000000	6.594704
595.000000	6.642200
596.000000	6.690047
597.000000	6.738028
598.000000	6.785916
599.000000	6.834086
600.000000	6.882650
601.000000	6.931916
602.000000	6.980966
603.000000	7.030236
604.000000	7.080323
605.000000	7.094457
606.000000	7.108997
607.000000	7.124469
608.000000	7.141251
609.000000	7.158991
610.000000	7.178171
611.000000	7.198248
612.000000	7.219874
613.000000	7.242968
614.000000	7.267094
615.000000	7.291917
616.000000	7.317689
617.000000	7.344785
618.000000	7.372094
619.000000	7.399150
620.000000	7.426059
621.000000	7.452337
622.000000	7.478081
623.000000	7.503151
624.000000	7.526802
625.000000	7.548984
626.000000	7.569731
627.000000	7.588274
628.000000	7.604771
629.000000	7.619847
630.000000	7.633085
631.000000	7.644452
632.000000	7.653359
633.000000	7.660273
634.000000	7.665108
635.000000	7.668593
636.000000	7.670326
637.000000	7.670023
638.000000	7.667994
639.000000	7.664759
640.000000	7.659297
641.000000	7.652295
642.000000	7.644664
643.000000	7.636058
644.000000	7.626509
645.000000	7.616016
646.000000	7.604711
647.000000	7.593548
648.000000	7.581862
649.000000	7.569678
650.000000	7.558168
651.000000	7.547228
652.000000	7.536610
653.000000	7.526925
654.000000	7.518509
655.000000	7.511186
656.000000	7.505704
657.000000	7.501675
658.000000	7.499567
659.000000	7.499347
660.000000	7.500832
661.000000	7.504128
662.000000	7.546095
663.000000	7.589090
664.000000	7.633705
665.000000	7.679610
666.000000	7.726610
667.000000	7.774212
668.000000	7.823365
669.000000	7.873515
670.000000	7.923947
671.000000	7.974471
672.000000	7.988644
673.000000	8.003538
674.000000	8.018293
675.000000	8.032987
676.000000	8.047475
677.000000	8.062117
678.000000	8.076540
679.000000	8.090823
680.000000	8.105240
681.000000	8.119782
682.000000	8.134267
683.000000	8.148945
684.000000	8.163376
685.000000	8.178489
686.000000	8.194408
687.000000	8.210502
688.000000	8.226681
689.000000	8.243279
690.000000	8.260262
691.000000	8.277474
692.000000	8.295394
693.000000	8.313580
694.000000	8.332638
695.000000	8.351916
696.000000	8.371178
697.000000	8.390907
698.000000	8.410940
699.000000	8.468172
700.000000	8.525816
701.000000	8.584387
702.000000	8.642317
703.000000	8.700514
704.000000	8.759094
705.000000	8.818278
706.000000	8.877560
707.000000	8.936643
708.000000	8.996087
709.000000	9.018857
710.000000	9.041680
711.000000	9.064278
712.000000	9.087873
713.000000	9.111432
714.000000	9.134718
715.000000	9.158301
716.000000	9.182059
717.000000	9.206799
718.000000	9.231534
719.000000	9.256399
720.000000	9.282070
721.000000	9.308061
722.000000	9.333636
723.000000	9.359994
724.000000	9.387009
725.000000	9.413823
726.000000	9.441339
727.000000	9.468730
728.000000	9.496392
729.000000	9.560600
730.000000	9.624904
731.000000	9.689833
732.000000	9.754910
733.000000	9.819780
734.000000	9.884808
735.000000	9.950584
736.000000	10.016122
737.000000	10.081509
738.000000	10.146673
739.000000	10.175329
740.000000	10.204508
741.000000	10.233614
742.000000	10.263849
743.000000	10.294464
744.000000	10.325705
745.000000	10.356354
746.000000	10.386962
747.000000	10.418793
748.000000	10.450913
749.000000	10.483111
750.000000	10.515223
751.000000	10.547406
752.000000	10.578696
753.000000	10.646531
754.000000	10.714752
755.000000	10.784192
756.000000	10.854248
757.000000	10.923588
758.000000	10.993549
759.000000	11.063857
760.000000	11.134132
761.000000	11.205410
762.000000	11.277510
763.000000	11.312548
764.000000	11.347164
765.000000	11.381546
766.000000	11.415705
767.000000	11.449806
768.000000	11.484007
769.000000	11.519117
770.000000	11.553704
771.000000	11.587650
772.000000	11.622713
773.000000	11.659057
774.000000	11.695163
775.000000	11.767448
776.000000	11.840485
777.000000	11.913338
778.000000	11.986765
779.000000	12.059610
780.000000	12.133899
781.000000	12.208366
782.000000	12.281837
783.000000	12.355421
784.000000	12.429713
785.000000	12.468277
786.000000	12.506568
787.000000	12.545101
788.000000	12.583223
789.000000	12.621616
790.000000	12.660036
791.000000	12.698276
792.000000	12.736937
793.000000	12.774280
794.000000	12.811954
795.000000	12.849525
796.000000	12.887234
797.000000	12.962868
798.000000	13.038640
799.000000	13.114392
800.000000	13.189973
801.000000	13.266359
802.000000	13.342386
803.000000	13.419612
804.000000	13.496034
805.000000	13.572736
806.000000	13.648159
807.000000	13.687603
808.000000	13.727818
809.000000	13.766904
810.000000	13.806898
811.000000	13.847612
812.000000	13.889614
813.000000	13.929555
814.000000	13.970624
815.000000	14.012011
816.000000	14.053375
817.000000	14.093366
818.000000	14.133942
819.000000	14.174704
820.000000	14.214146
821.000000	14.289503
822.000000	14.362315
823.000000	14.437786
824.000000	14.511915
825.000000	14.584968
826.000000	14.658924
827.000000	14.735752
828.000000	14.810747
829.000000	14.886613
830.000000	14.962552
831.000000	14.999748
832.000000	15.036785
833.000000	15.072079
834.000000	15.110170
835.000000	15.149732
836.000000	15.186655
837.000000	15.223266
838.000000	15.257815
839.000000	15.294026
840.000000	15.329600
841.000000	15.365744
842.000000	15.405585
843.000000	15.443887
844.000000	15.478928
845.000000	15.518730
846.000000	15.555915
847.000000	15.590106
848.000000	15.627302
849.000000	15.664500
850.000000	15.697158
851.000000	15.725505
852.000000	15.752518
853.000000	15.787049
854.000000	15.822557
855.000000	15.846285
856.000000	15.877413
857.000000	15.948149
858.000000	16.456333
859.000000	16.551142
860.000000	16.650180
861.000000	16.729930
862.000000	16.809261
863.000000	16.884136
864.000000	16.959044
865.000000	17.040189
866.000000	17.119509
867.000000	17.159242
868.000000	16.711610
869.000000	16.674225
870.000000	16.638287
871.000000	16.627025
872.000000	16.614382
873.000000	16.575470
874.000000	16.535925
875.000000	16.520275
876.000000	16.503790
877.000000	16.488290
878.000000	16.497018
879.000000	16.506115
880.000000	16.513623
881.000000	16.520922
882.000000	16.528607
883.000000	16.562072
884.000000	16.595363
885.000000	16.578855
886.000000	16.588120
887.000000	16.595620
888.000000	16.603162
889.000000	16.612090
890.000000	16.620530
891.000000	16.629235
892.000000	16.637647
893.000000	16.645210
894.000000	16.652910
895.000000	16.686690
896.000000	16.694927
897.000000	16.702975
898.000000	16.735950
899.000000	16.768430
900.000000	16.776673
901.000000	16.784298
902.000000	16.817102
903.000000	16.824778
904.000000	16.833103
905.000000	16.865720
906.000000	16.873427
907.000000	16.881740
908.000000	16.889630
909.000000	16.897793
910.000000	16.930888
911.000000	16.964725
912.000000	16.973797
913.000000	17.008970
914.000000	17.043852
915.000000	17.052992
916.000000	17.086882
917.000000	17.121930
918.000000	17.156760
919.000000	17.191130
920.000000	17.225338
921.000000	17.260005
922.000000	17.293613
923.000000	17.326028
924.000000	17.358715
925.000000	17.391978
926.000000	17.424983
927.000000	17.458122
928.000000	17.491563
929.000000	17.523855
930.000000	17.532357
931.000000	17.539127
932.000000	17.546202
933.000000	17.579102
934.000000	17.612295
935.000000	17.644678
936.000000	17.653867
937.000000	17.686498
938.000000	17.719278
939.000000	17.752075
940.000000	17.784310
941.000000	17.815812
942.000000	17.847845
943.000000	17.854270
944.000000	17.859892
945.000000	17.866477
946.000000	17.897697
947.000000	17.903992
948.000000	17.909475
949.000000	17.916172
950.000000	17.947640
951.000000	17.980635
952.000000	18.012738
953.000000	18.069900
954.000000	18.127420
955.000000	18.159488
956.000000	18.190450
957.000000	18.221675
958.000000	18.253085
959.000000	18.284920
960.000000	18.317213
961.000000	18.349085
962.000000	18.381363
963.000000	18.387532
964.000000	18.418340
965.000000	18.474287
966.000000	18.505250
967.000000	18.536442
968.000000	18.567640
969.000000	18.598160
970.000000	18.628310
971.000000	18.657615
972.000000	18.687303
973.000000	18.742840
974.000000	18.773468
975.000000	18.803593
976.000000	18.858107
977.000000	18.912457
978.000000	18.967505
979.000000	19.021877
980.000000	19.075192
981.000000	19.129438
982.000000	19.183985
983.000000	19.213025
984.000000	19.241660
985.000000	19.270125
986.000000	19.298955
987.000000	19.328285
988.000000	19.356407
989.000000	19.384045
990.000000	19.412852
991.000000	19.441247
992.000000	19.468580
993.000000	19.496250
994.000000	19.523463
995.000000	19.550975
996.000000	19.579025
997.000000	19.605860
998.000000	19.633273
999.000000	19.661430
1000.000000	19.688842
1001.000000	19.716165
1002.000000	19.743733
1003.000000	19.771085
1004.000000	19.798190
1005.000000	19.825010
1006.000000	19.851213
1007.000000	19.877985
1008.000000	19.904550
1009.000000	19.931168
1010.000000	19.957693
1011.000000	19.983607
1012.000000	20.009392
1013.000000	20.034540
1014.000000	20.060590
1015.000000	20.086073
1016.000000	20.110692
1017.000000	20.135787
1018.000000	20.161470
1019.000000	20.186925
1020.000000	20.212130
1021.000000	20.237765
1022.000000	20.263505
1023.000000	20.289790
1024.000000	20.315293
1025.000000	20.341237
1026.000000	20.367812
1027.000000	20.393403
1028.000000	20.418575
1029.000000	20.443615
1030.000000	20.468562
1031.000000	20.493347
1032.000000	20.517938
1033.000000	20.542022
1034.000000	20.566713
1035.000000	20.591622
1036.000000	20.616285
1037.000000	20.640405
1038.000000	20.664160
1039.000000	20.687980
1040.000000	20.711558
1041.000000	20.735408
1042.000000	20.759600
1043.000000	20.784400
1044.000000	20.808620
1045.000000	20.831945
1046.000000	20.855365
1047.000000	20.879495
1048.000000	20.928540
1049.000000	20.952088
1050.000000	20.975507
1051.000000	20.998147
1052.000000	21.020290
1053.000000	21.066908
1054.000000	21.113300
1055.000000	21.160700
1056.000000	21.208377
1057.000000	21.255907
1058.000000	21.278062
1059.000000	21.325922
1060.000000	21.374085
1061.000000	21.422438
1062.000000	21.470827
1063.000000	21.494392
1064.000000	21.518392
1065.000000	21.541405
1066.000000	21.563755
1067.000000	21.585895
1068.000000	21.607402
1069.000000	21.628922
1070.000000	21.650263
1071.000000	21.671855
1072.000000	21.693442
1073.000000	21.715083
1074.000000	21.735952
1075.000000	21.756763
1076.000000	21.777855
1077.000000	21.798797
1078.000000	21.820405
1079.000000	21.841960
1080.000000	21.863615
1081.000000	21.884548
1082.000000	21.905662
1083.000000	21.925625
1084.000000	21.945998
1085.000000	21.966132
1086.000000	21.985898
1087.000000	22.006547
1088.000000	22.026917
1089.000000	22.047080
1090.000000	22.066582
1091.000000	22.086110
1092.000000	22.105145
1093.000000	22.124515
1094.000000	22.143610
1095.000000	22.163090
1096.000000	22.181980
1097.000000	22.199200
1098.000000	22.217118
1099.000000	22.234323
1100.000000	22.251938
1101.000000	22.269838
1102.000000	22.287723
1103.000000	22.305665
1104.000000	22.323690
1105.000000	22.341260
1106.000000	22.359127
1107.000000	22.377778
1108.000000	22.395482
1109.000000	22.412992
1110.000000	22.430360
1111.000000	22.447358
1112.000000	22.463107
1113.000000	22.479368
1114.000000	22.494785
1115.000000	22.510652
1116.000000	22.526703
1117.000000	22.541933
1118.000000	22.556385
1119.000000	22.570978
1120.000000	22.586115
1121.000000	22.601858
1122.000000	22.618488
1123.000000	22.633975
1124.000000	22.649210
1125.000000	22.663830
1126.000000	22.677130
1127.000000	22.690250
1128.000000	22.704945
1129.000000	22.718780
1130.000000	22.730525
1131.000000	22.739398
1132.000000	22.745930
1133.000000	22.752735
1134.000000	22.761695
1135.000000	22.770888
1136.000000	22.806940
1137.000000	22.814945
1138.000000	22.845620
1139.000000	22.877252
1140.000000	22.908415
1141.000000	22.940602
1142.000000	22.973532
1143.000000	23.006740
1144.000000	23.037973
1145.000000	23.069345
1146.000000	23.073512
1147.000000	23.105925
1148.000000	23.113183
1149.000000	23.120308
1150.000000	23.128898
1151.000000	23.137993
1152.000000	23.148255
1153.000000	23.156580
1154.000000	23.163660
1155.000000	23.169730
1156.000000	23.175825
1157.000000	23.180777
1158.000000	23.185332
1159.000000	23.188110
1160.000000	23.190705
1161.000000	23.191498
1162.000000	23.191063
1163.000000	23.189980
1164.000000	23.188783
1165.000000	23.186625
1166.000000	23.183568
1167.000000	23.180570
1168.000000	23.178428
1169.000000	23.176085
1170.000000	23.172430
1171.000000	23.170120
1172.000000	23.167977
1173.000000	23.166720
1174.000000	23.167210
1175.000000	23.167675
1176.000000	23.169420
