PE UV       SUBTECH     SPECTRUM    ASCII       PEDS        4.00        
   -1
INBUCR0226-4.Sample.ASC
24/02/08
11:26:34.00
24/02/08
11:26:34.00
Vinicio Soto Monge
Parace ser C. aurigans. Dorado
250,000000
1
Lambda 1050
1050L1511233
PerkinElmer UV WinLab 6.3.2.0749 / 2.02.05 Lambda 900 UV/VIS/NIR, Aug  7 2015 09:38:08

0
0
3350/servo 860,8/2
0
0
UV/VIS
1
1
1
DoubleDePol,CommonBeamDepol,RBeamAtt,SBeamAtt,60mm sphere, WB InGaAs Detector
0
0
0
0
Program
Program
3350/servo 860,8/2
3350/0,2 860,8/0,2
3350/0,2 860,8/0,2
0
15.00
 
 
 
0
 
860,8
319,2
860,8
Front
100
on
S:100 R:100
0
0
0
0
 
0
 
 
 
0
 
 
0
0
0
0
0
 
 
 
 
0
0


0
0
#HDR
-1
-1
#GR
nm
%R
1.0
0.0
2500,000000
-1,000000
2251
8
16,068400
1,228800
#DATA

250.000000	nan
251.000000	nan
252.000000	nan
253.000000	nan
254.000000	nan
255.000000	nan
256.000000	nan
257.000000	nan
258.000000	nan
259.000000	4.000677
260.000000	3.992977
261.000000	3.983178
262.000000	3.973073
263.000000	3.963475
264.000000	3.953943
265.000000	3.941996
266.000000	3.931837
267.000000	3.921402
268.000000	3.908075
269.000000	3.894919
270.000000	3.880926
271.000000	3.871264
272.000000	3.861059
273.000000	3.851226
274.000000	3.840837
275.000000	3.836004
276.000000	3.828597
277.000000	3.822366
278.000000	3.816799
279.000000	3.811295
280.000000	3.808961
281.000000	3.803176
282.000000	3.799973
283.000000	3.795334
284.000000	3.791833
285.000000	3.788888
286.000000	3.786587
287.000000	3.783496
288.000000	3.782559
289.000000	3.779762
290.000000	3.777219
291.000000	3.774314
292.000000	3.771236
293.000000	3.769303
294.000000	3.766799
295.000000	3.759633
296.000000	3.756508
297.000000	3.752917
298.000000	3.748777
299.000000	3.746005
300.000000	3.742674
301.000000	3.739200
302.000000	3.736249
303.000000	3.732943
304.000000	3.729427
305.000000	3.726845
306.000000	3.721257
307.000000	3.720808
308.000000	3.716129
309.000000	3.714328
310.000000	3.709687
311.000000	3.705752
312.000000	3.700236
313.000000	3.696542
314.000000	3.693421
315.000000	3.693228
316.000000	3.693847
317.000000	3.705106
318.000000	3.719451
319.000000	3.741409
320.000000	3.757342
321.000000	3.775816
322.000000	3.785134
323.000000	3.792278
324.000000	3.805079
325.000000	3.809945
326.000000	3.816464
327.000000	3.803594
328.000000	3.796640
329.000000	3.779998
330.000000	3.769873
331.000000	3.752381
332.000000	3.747118
333.000000	3.745508
334.000000	3.740593
335.000000	3.744407
336.000000	3.741677
337.000000	3.743820
338.000000	3.737820
339.000000	3.735091
340.000000	3.731283
341.000000	3.738718
342.000000	3.738527
343.000000	3.737154
344.000000	3.735119
345.000000	3.733214
346.000000	3.732912
347.000000	3.738245
348.000000	3.743576
349.000000	3.747126
350.000000	3.749320
351.000000	3.747903
352.000000	3.753748
353.000000	3.756776
354.000000	3.758581
355.000000	3.761854
356.000000	3.764871
357.000000	3.765317
358.000000	3.765408
359.000000	3.768101
360.000000	3.774598
361.000000	3.779652
362.000000	3.780453
363.000000	3.785666
364.000000	3.792641
365.000000	3.795205
366.000000	3.798838
367.000000	3.799353
368.000000	3.804176
369.000000	3.807078
370.000000	3.806378
371.000000	3.805874
372.000000	3.808148
373.000000	3.805333
374.000000	3.797962
375.000000	3.794961
376.000000	3.796043
377.000000	3.790827
378.000000	3.784710
379.000000	3.777285
380.000000	3.774270
381.000000	3.771387
382.000000	3.768503
383.000000	3.768485
384.000000	3.770978
385.000000	3.769852
386.000000	3.765666
387.000000	3.769722
388.000000	3.772936
389.000000	3.776677
390.000000	3.780609
391.000000	3.784520
392.000000	3.788182
393.000000	3.791570
394.000000	3.795781
395.000000	3.800416
396.000000	3.804989
397.000000	3.808853
398.000000	3.813482
399.000000	3.818423
400.000000	3.823094
401.000000	3.827036
402.000000	3.830367
403.000000	3.834606
404.000000	3.839635
405.000000	3.844574
406.000000	3.849745
407.000000	3.855519
408.000000	3.861024
409.000000	3.865944
410.000000	3.871585
411.000000	3.878311
412.000000	3.885488
413.000000	3.892242
414.000000	3.898820
415.000000	3.905811
416.000000	3.912649
417.000000	3.919731
418.000000	3.927550
419.000000	3.935805
420.000000	3.943911
421.000000	3.951873
422.000000	3.960150
423.000000	3.968341
424.000000	3.976621
425.000000	3.984935
426.000000	3.993772
427.000000	4.002553
428.000000	4.011275
429.000000	4.020107
430.000000	4.028822
431.000000	4.037546
432.000000	4.046601
433.000000	4.055981
434.000000	4.065649
435.000000	4.075319
436.000000	4.084569
437.000000	4.094210
438.000000	4.104335
439.000000	4.114639
440.000000	4.125204
441.000000	4.136093
442.000000	4.147195
443.000000	4.158261
444.000000	4.169187
445.000000	4.180367
446.000000	4.192057
447.000000	4.203918
448.000000	4.215582
449.000000	4.226890
450.000000	4.238596
451.000000	4.250600
452.000000	4.262643
453.000000	4.275130
454.000000	4.288478
455.000000	4.302166
456.000000	4.315948
457.000000	4.329964
458.000000	4.344129
459.000000	4.359206
460.000000	4.374693
461.000000	4.389978
462.000000	4.405820
463.000000	4.422167
464.000000	4.438438
465.000000	4.454916
466.000000	4.471939
467.000000	4.489492
468.000000	4.507895
469.000000	4.526446
470.000000	4.545109
471.000000	4.564792
472.000000	4.584703
473.000000	4.604922
474.000000	4.625960
475.000000	4.647606
476.000000	4.669544
477.000000	4.691943
478.000000	4.714895
479.000000	4.738735
480.000000	4.763697
481.000000	4.789149
482.000000	4.815625
483.000000	4.843416
484.000000	4.872465
485.000000	4.903320
486.000000	4.936492
487.000000	4.971564
488.000000	5.008816
489.000000	5.048354
490.000000	5.090615
491.000000	5.136429
492.000000	5.186059
493.000000	5.239872
494.000000	5.298089
495.000000	5.361546
496.000000	5.430402
497.000000	5.505825
498.000000	5.589037
499.000000	5.680952
500.000000	5.782075
501.000000	5.893658
502.000000	6.016736
503.000000	6.152567
504.000000	6.302646
505.000000	6.467517
506.000000	6.649428
507.000000	6.849845
508.000000	7.069765
509.000000	7.313463
510.000000	7.584119
511.000000	7.885619
512.000000	8.222440
513.000000	8.600555
514.000000	9.025500
515.000000	9.503067
516.000000	10.038110
517.000000	10.634222
518.000000	11.294378
519.000000	12.018884
520.000000	12.806355
521.000000	13.652937
522.000000	14.551949
523.000000	15.494529
524.000000	16.470070
525.000000	17.465392
526.000000	18.465032
527.000000	19.452351
528.000000	20.411989
529.000000	21.327543
530.000000	22.183849
531.000000	22.970747
532.000000	23.680381
533.000000	24.308887
534.000000	24.854723
535.000000	25.320151
536.000000	25.712097
537.000000	26.039495
538.000000	26.310212
539.000000	26.533993
540.000000	26.722760
541.000000	26.884096
542.000000	27.025635
543.000000	27.151858
544.000000	27.266669
545.000000	27.371548
546.000000	27.468477
547.000000	27.558028
548.000000	27.641781
549.000000	27.720325
550.000000	27.794206
551.000000	27.865188
552.000000	27.933933
553.000000	27.999178
554.000000	28.062937
555.000000	28.126015
556.000000	28.188197
557.000000	28.249936
558.000000	28.311153
559.000000	28.371514
560.000000	28.420667
561.000000	28.466077
562.000000	28.508764
563.000000	28.548539
564.000000	28.585438
565.000000	28.618269
566.000000	28.647787
567.000000	28.672692
568.000000	28.694310
569.000000	28.711352
570.000000	28.736010
571.000000	28.759363
572.000000	28.779108
573.000000	28.794951
574.000000	28.808164
575.000000	28.818830
576.000000	28.825024
577.000000	28.828347
578.000000	28.827485
579.000000	28.823958
580.000000	28.817533
581.000000	28.806847
582.000000	28.795275
583.000000	28.783894
584.000000	28.771262
585.000000	28.757846
586.000000	28.743873
587.000000	28.728571
588.000000	28.712357
589.000000	28.696531
590.000000	28.677868
591.000000	28.659935
592.000000	28.640074
593.000000	28.618950
594.000000	28.594245
595.000000	28.568881
596.000000	28.541962
597.000000	28.515052
598.000000	28.486051
599.000000	28.453823
600.000000	28.421699
601.000000	28.387576
602.000000	28.354985
603.000000	28.326440
604.000000	28.304193
605.000000	28.285062
606.000000	28.267317
607.000000	28.250919
608.000000	28.235063
609.000000	28.222098
610.000000	28.207896
611.000000	28.192084
612.000000	28.170707
613.000000	28.141764
614.000000	28.102272
615.000000	28.058597
616.000000	28.017210
617.000000	27.979168
618.000000	27.948924
619.000000	27.922346
620.000000	27.898735
621.000000	27.876559
622.000000	27.857164
623.000000	27.839488
624.000000	27.824282
625.000000	27.806161
626.000000	27.779171
627.000000	27.741171
628.000000	27.691168
629.000000	27.634676
630.000000	27.579372
631.000000	27.532365
632.000000	27.492031
633.000000	27.458110
634.000000	27.428667
635.000000	27.402286
636.000000	27.381959
637.000000	27.366341
638.000000	27.354564
639.000000	27.341236
640.000000	27.321354
641.000000	27.288291
642.000000	27.245087
643.000000	27.197779
644.000000	27.157176
645.000000	27.127860
646.000000	27.110495
647.000000	27.105180
648.000000	27.108045
649.000000	27.118248
650.000000	27.133659
651.000000	27.155125
652.000000	27.180643
653.000000	27.200831
654.000000	27.209249
655.000000	27.202954
656.000000	27.183333
657.000000	27.156942
658.000000	27.134272
659.000000	27.125043
660.000000	27.129601
661.000000	27.148205
662.000000	27.177694
663.000000	27.220703
664.000000	27.272798
665.000000	27.332626
666.000000	27.395068
667.000000	27.453025
668.000000	27.497096
669.000000	27.521093
670.000000	27.528769
671.000000	27.525579
672.000000	27.518814
673.000000	27.515881
674.000000	27.523111
675.000000	27.542571
676.000000	27.574443
677.000000	27.620306
678.000000	27.676197
679.000000	27.740185
680.000000	27.806582
681.000000	27.867725
682.000000	27.919384
683.000000	27.955361
684.000000	27.972556
685.000000	27.975688
686.000000	27.971091
687.000000	27.963481
688.000000	27.961508
689.000000	27.968319
690.000000	27.990064
691.000000	28.025770
692.000000	28.073100
693.000000	28.129968
694.000000	28.191880
695.000000	28.251506
696.000000	28.303130
697.000000	28.341834
698.000000	28.366215
699.000000	28.378141
700.000000	28.378563
701.000000	28.375436
702.000000	28.375331
703.000000	28.383108
704.000000	28.404926
705.000000	28.442228
706.000000	28.493572
707.000000	28.556757
708.000000	28.628765
709.000000	28.702321
710.000000	28.771200
711.000000	28.830688
712.000000	28.877662
713.000000	28.912627
714.000000	28.935743
715.000000	28.952039
716.000000	28.968545
717.000000	28.991660
718.000000	29.024430
719.000000	29.069625
720.000000	29.132112
721.000000	29.211037
722.000000	29.299589
723.000000	29.389548
724.000000	29.479083
725.000000	29.563530
726.000000	29.637798
727.000000	29.700923
728.000000	29.753725
729.000000	29.797390
730.000000	29.836548
731.000000	29.875400
732.000000	29.920856
733.000000	29.979703
734.000000	30.051672
735.000000	30.136551
736.000000	30.234079
737.000000	30.337716
738.000000	30.445252
739.000000	30.553244
740.000000	30.652781
741.000000	30.744388
742.000000	30.824293
743.000000	30.892542
744.000000	30.954222
745.000000	31.008791
746.000000	31.061453
747.000000	31.117038
748.000000	31.176612
749.000000	31.247459
750.000000	31.331564
751.000000	31.424442
752.000000	31.527390
753.000000	31.637348
754.000000	31.748831
755.000000	31.858961
756.000000	31.962862
757.000000	32.058364
758.000000	32.148002
759.000000	32.226686
760.000000	32.296534
761.000000	32.360585
762.000000	32.420189
763.000000	32.477391
764.000000	32.537733
765.000000	32.608420
766.000000	32.689628
767.000000	32.780444
768.000000	32.880928
769.000000	32.989488
770.000000	33.100945
771.000000	33.210602
772.000000	33.317070
773.000000	33.419353
774.000000	33.511438
775.000000	33.592474
776.000000	33.663190
777.000000	33.728837
778.000000	33.787017
779.000000	33.845269
780.000000	33.907822
781.000000	33.980607
782.000000	34.065512
783.000000	34.162006
784.000000	34.266845
785.000000	34.382347
786.000000	34.503334
787.000000	34.623808
788.000000	34.741026
789.000000	34.848800
790.000000	34.945762
791.000000	35.033083
792.000000	35.108800
793.000000	35.177224
794.000000	35.244058
795.000000	35.306336
796.000000	35.370853
797.000000	35.443308
798.000000	35.524188
799.000000	35.618238
800.000000	35.723710
801.000000	35.833432
802.000000	35.949990
803.000000	36.065866
804.000000	36.175290
805.000000	36.280546
806.000000	36.377921
807.000000	36.468122
808.000000	36.547895
809.000000	36.614274
810.000000	36.677181
811.000000	36.746032
812.000000	36.812483
813.000000	36.885265
814.000000	36.965366
815.000000	37.045581
816.000000	37.137119
817.000000	37.238829
818.000000	37.345492
819.000000	37.456257
820.000000	37.557998
821.000000	37.650542
822.000000	37.738511
823.000000	37.820592
824.000000	37.896226
825.000000	37.967080
826.000000	38.029188
827.000000	38.083531
828.000000	38.138980
829.000000	38.196212
830.000000	38.262661
831.000000	38.330057
832.000000	38.409485
833.000000	38.487883
834.000000	38.569846
835.000000	38.658887
836.000000	38.747770
837.000000	38.836598
838.000000	38.914529
839.000000	38.994026
840.000000	39.058861
841.000000	39.115377
842.000000	39.160067
843.000000	39.207203
844.000000	39.254327
845.000000	39.300861
846.000000	39.342733
847.000000	39.389419
848.000000	39.452049
849.000000	39.514246
850.000000	39.574289
851.000000	39.643251
852.000000	39.716978
853.000000	39.789121
854.000000	39.859695
855.000000	39.920527
856.000000	39.995427
857.000000	40.049292
858.000000	40.176882
859.000000	40.271635
860.000000	40.404410
861.000000	40.530753
862.000000	40.649249
863.000000	40.766109
864.000000	40.866091
865.000000	40.964530
866.000000	41.075292
867.000000	41.187643
868.000000	41.205022
869.000000	41.285135
870.000000	41.305475
871.000000	41.344327
872.000000	41.386395
873.000000	41.427140
874.000000	41.467447
875.000000	41.523395
876.000000	41.562195
877.000000	41.593855
878.000000	41.634622
879.000000	41.642605
880.000000	41.689898
881.000000	41.719420
882.000000	41.746270
883.000000	41.771640
884.000000	41.804820
885.000000	41.835185
886.000000	41.849985
887.000000	41.893213
888.000000	41.929108
889.000000	41.955685
890.000000	41.971032
891.000000	41.994633
892.000000	42.012005
893.000000	42.029903
894.000000	42.044452
895.000000	42.054160
896.000000	42.069355
897.000000	42.071080
898.000000	42.090370
899.000000	42.110898
900.000000	42.127907
901.000000	42.140140
902.000000	42.164005
903.000000	42.182215
904.000000	42.205565
905.000000	42.224875
906.000000	42.243270
907.000000	42.257425
908.000000	42.265490
909.000000	42.273753
910.000000	42.283043
911.000000	42.291202
912.000000	42.295715
913.000000	42.303438
914.000000	42.313105
915.000000	42.325873
916.000000	42.337265
917.000000	42.353480
918.000000	42.365237
919.000000	42.379480
920.000000	42.400087
921.000000	42.418275
922.000000	42.433078
923.000000	42.447110
924.000000	42.463162
925.000000	42.476400
926.000000	42.491015
927.000000	42.499850
928.000000	42.507130
929.000000	42.514053
930.000000	42.512485
931.000000	42.509690
932.000000	42.505330
933.000000	42.502775
934.000000	42.497123
935.000000	42.491682
936.000000	42.487217
937.000000	42.489285
938.000000	42.494273
939.000000	42.496905
940.000000	42.502645
941.000000	42.504222
942.000000	42.503078
943.000000	42.500628
944.000000	42.499508
945.000000	42.496578
946.000000	42.491930
947.000000	42.483205
948.000000	42.471068
949.000000	42.456860
950.000000	42.441040
951.000000	42.426450
952.000000	42.416755
953.000000	42.405830
954.000000	42.393840
955.000000	42.384115
956.000000	42.376582
957.000000	42.367383
958.000000	42.358565
959.000000	42.354717
960.000000	42.351950
961.000000	42.349805
962.000000	42.345022
963.000000	42.337628
964.000000	42.327157
965.000000	42.312375
966.000000	42.294967
967.000000	42.278075
968.000000	42.258825
969.000000	42.236908
970.000000	42.214350
971.000000	42.189273
972.000000	42.163470
973.000000	42.139182
974.000000	42.116298
975.000000	42.094893
976.000000	42.073405
977.000000	42.051955
978.000000	42.033935
979.000000	42.014910
980.000000	41.996320
981.000000	41.979912
982.000000	41.963010
983.000000	41.943127
984.000000	41.922910
985.000000	41.901353
986.000000	41.877533
987.000000	41.852902
988.000000	41.825972
989.000000	41.798680
990.000000	41.771138
991.000000	41.740970
992.000000	41.711655
993.000000	41.686858
994.000000	41.664313
995.000000	41.641168
996.000000	41.618145
997.000000	41.596258
998.000000	41.575622
999.000000	41.554570
1000.000000	41.535052
1001.000000	41.516865
1002.000000	41.497447
1003.000000	41.476232
1004.000000	41.453373
1005.000000	41.431863
1006.000000	41.411365
1007.000000	41.388625
1008.000000	41.364175
1009.000000	41.340488
1010.000000	41.314955
1011.000000	41.288397
1012.000000	41.262738
1013.000000	41.238492
1014.000000	41.215992
1015.000000	41.193730
1016.000000	41.172477
1017.000000	41.152875
1018.000000	41.135200
1019.000000	41.119455
1020.000000	41.105600
1021.000000	41.094513
1022.000000	41.085065
1023.000000	41.075113
1024.000000	41.065555
1025.000000	41.057288
1026.000000	41.048942
1027.000000	41.040543
1028.000000	41.032005
1029.000000	41.023440
1030.000000	41.015105
1031.000000	41.006068
1032.000000	40.997147
1033.000000	40.988847
1034.000000	40.981710
1035.000000	40.975677
1036.000000	40.969695
1037.000000	40.965212
1038.000000	40.961930
1039.000000	40.958337
1040.000000	40.955640
1041.000000	40.953280
1042.000000	40.951930
1043.000000	40.950747
1044.000000	40.948927
1045.000000	40.945855
1046.000000	40.944968
1047.000000	40.944358
1048.000000	40.943602
1049.000000	40.942697
1050.000000	40.942405
1051.000000	40.942993
1052.000000	40.942690
1053.000000	40.943562
1054.000000	40.945588
1055.000000	40.947575
1056.000000	40.949225
1057.000000	40.952210
1058.000000	40.955745
1059.000000	40.960008
1060.000000	40.964092
1061.000000	40.969060
1062.000000	40.975515
1063.000000	40.983177
1064.000000	40.989455
1065.000000	40.996945
1066.000000	41.004705
1067.000000	41.011435
1068.000000	41.020150
1069.000000	41.030310
1070.000000	41.040357
1071.000000	41.049050
1072.000000	41.057750
1073.000000	41.065807
1074.000000	41.074372
1075.000000	41.082890
1076.000000	41.091685
1077.000000	41.101730
1078.000000	41.109995
1079.000000	41.118717
1080.000000	41.128085
1081.000000	41.138090
1082.000000	41.147712
1083.000000	41.156022
1084.000000	41.165067
1085.000000	41.174655
1086.000000	41.184715
1087.000000	41.193497
1088.000000	41.202932
1089.000000	41.211600
1090.000000	41.220675
1091.000000	41.230425
1092.000000	41.240520
1093.000000	41.249923
1094.000000	41.258868
1095.000000	41.267110
1096.000000	41.274295
1097.000000	41.280698
1098.000000	41.286995
1099.000000	41.291615
1100.000000	41.295803
1101.000000	41.300875
1102.000000	41.304568
1103.000000	41.309745
1104.000000	41.314460
1105.000000	41.317982
1106.000000	41.321983
1107.000000	41.326740
1108.000000	41.329397
1109.000000	41.333338
1110.000000	41.336018
1111.000000	41.336900
1112.000000	41.336975
1113.000000	41.335812
1114.000000	41.334912
1115.000000	41.333495
1116.000000	41.331980
1117.000000	41.329595
1118.000000	41.328180
1119.000000	41.324505
1120.000000	41.318337
1121.000000	41.311593
1122.000000	41.304560
1123.000000	41.295610
1124.000000	41.282125
1125.000000	41.266738
1126.000000	41.248985
1127.000000	41.225233
1128.000000	41.197387
1129.000000	41.166598
1130.000000	41.132198
1131.000000	41.090165
1132.000000	41.042038
1133.000000	40.992930
1134.000000	40.944128
1135.000000	40.893115
1136.000000	40.837612
1137.000000	40.780568
1138.000000	40.721038
1139.000000	40.661062
1140.000000	40.602243
1141.000000	40.545473
1142.000000	40.491220
1143.000000	40.434745
1144.000000	40.378545
1145.000000	40.323427
1146.000000	40.270577
1147.000000	40.219328
1148.000000	40.170135
1149.000000	40.120610
1150.000000	40.071990
1151.000000	40.023032
1152.000000	39.975355
1153.000000	39.926120
1154.000000	39.873150
1155.000000	39.817495
1156.000000	39.760227
1157.000000	39.701490
1158.000000	39.639342
1159.000000	39.572942
1160.000000	39.503102
1161.000000	39.429963
1162.000000	39.351220
1163.000000	39.270700
1164.000000	39.189193
1165.000000	39.107087
1166.000000	39.021165
1167.000000	38.936163
1168.000000	38.850577
1169.000000	38.766858
1170.000000	38.684578
1171.000000	38.607225
1172.000000	38.532960
1173.000000	38.463127
