PE UV       SUBTECH     SPECTRUM    ASCII       PEDS        4.00        
   -1
INBUCR0135-4.Sample.ASC
24/02/07
14:32:07.00
24/02/07
14:32:07.00
Vinicio Soto Monge
Color café con ambos élitros. Pelidnota parallela Det: A. Solís. Amubri, A. C. Amistad, Prov. Limón. COSTA RICA 70 m. 14-22 Agos 1993. G. M. Gallardo, L_S_385500_578000 #2194. INBIOCRI001935604
250,000000
1
Lambda 1050
1050L1511233
PerkinElmer UV WinLab 6.3.2.0749 / 2.02.05 Lambda 900 UV/VIS/NIR, Aug  7 2015 09:38:08

0
0
3350/servo 860,8/2
0
0
UV/VIS
1
1
1
DoubleDePol,CommonBeamDepol,RBeamAtt,SBeamAtt,60mm sphere, WB InGaAs Detector
0
0
0
0
Program
Program
3350/servo 860,8/2
3350/0,2 860,8/0,2
3350/0,2 860,8/0,2
0
15.00
 
 
 
0
 
860,8
319,2
860,8
Front
100
on
S:100 R:100
0
0
0
0
 
0
 
 
 
0
 
 
0
0
0
0
0
 
 
 
 
0
0


0
0
#HDR
-1
-1
#GR
nm
%R
1.0
0.0
2500,000000
-1,000000
2251
8
15,651400
0,895400
#DATA

250.000000	nan
251.000000	nan
252.000000	nan
253.000000	nan
254.000000	nan
255.000000	nan
256.000000	nan
257.000000	nan
258.000000	nan
259.000000	3.544289
260.000000	3.540821
261.000000	3.537461
262.000000	3.530638
263.000000	3.523890
264.000000	3.515366
265.000000	3.508100
266.000000	3.499767
267.000000	3.488669
268.000000	3.475209
269.000000	3.467110
270.000000	3.455789
271.000000	3.443307
272.000000	3.433183
273.000000	3.423319
274.000000	3.415238
275.000000	3.405566
276.000000	3.396276
277.000000	3.390469
278.000000	3.385184
279.000000	3.378767
280.000000	3.371376
281.000000	3.365453
282.000000	3.357969
283.000000	3.351051
284.000000	3.345881
285.000000	3.340375
286.000000	3.335382
287.000000	3.329702
288.000000	3.323712
289.000000	3.316577
290.000000	3.313182
291.000000	3.308730
292.000000	3.307583
293.000000	3.307421
294.000000	3.303679
295.000000	3.301993
296.000000	3.298087
297.000000	3.293976
298.000000	3.289325
299.000000	3.287172
300.000000	3.284897
301.000000	3.287950
302.000000	3.287687
303.000000	3.284691
304.000000	3.284764
305.000000	3.283934
306.000000	3.283589
307.000000	3.283153
308.000000	3.286786
309.000000	3.288968
310.000000	3.287803
311.000000	3.281680
312.000000	3.279761
313.000000	3.278256
314.000000	3.276844
315.000000	3.275187
316.000000	3.278364
317.000000	3.311155
318.000000	3.348482
319.000000	3.381316
320.000000	3.410362
321.000000	3.439800
322.000000	3.462262
323.000000	3.488641
324.000000	3.510563
325.000000	3.526752
326.000000	3.550749
327.000000	3.537888
328.000000	3.513863
329.000000	3.496750
330.000000	3.490620
331.000000	3.476176
332.000000	3.465663
333.000000	3.450564
334.000000	3.445469
335.000000	3.445206
336.000000	3.432167
337.000000	3.424242
338.000000	3.424046
339.000000	3.416939
340.000000	3.405622
341.000000	3.403780
342.000000	3.404488
343.000000	3.406341
344.000000	3.402458
345.000000	3.399183
346.000000	3.393883
347.000000	3.391283
348.000000	3.391384
349.000000	3.391329
350.000000	3.390294
351.000000	3.387828
352.000000	3.385230
353.000000	3.382049
354.000000	3.380830
355.000000	3.378969
356.000000	3.380126
357.000000	3.379696
358.000000	3.373680
359.000000	3.369168
360.000000	3.367023
361.000000	3.363858
362.000000	3.360685
363.000000	3.356625
364.000000	3.351111
365.000000	3.350914
366.000000	3.348509
367.000000	3.345274
368.000000	3.342872
369.000000	3.341459
370.000000	3.333915
371.000000	3.330498
372.000000	3.325400
373.000000	3.319111
374.000000	3.312830
375.000000	3.301526
376.000000	3.299905
377.000000	3.290700
378.000000	3.281359
379.000000	3.273266
380.000000	3.270171
381.000000	3.264011
382.000000	3.259153
383.000000	3.258061
384.000000	3.255966
385.000000	3.255069
386.000000	3.248100
387.000000	3.249625
388.000000	3.251234
389.000000	3.253501
390.000000	3.255654
391.000000	3.258526
392.000000	3.261263
393.000000	3.263636
394.000000	3.266525
395.000000	3.269769
396.000000	3.272633
397.000000	3.276390
398.000000	3.280063
399.000000	3.283306
400.000000	3.286904
401.000000	3.290060
402.000000	3.293538
403.000000	3.297277
404.000000	3.301084
405.000000	3.305299
406.000000	3.310098
407.000000	3.315375
408.000000	3.321044
409.000000	3.326959
410.000000	3.333578
411.000000	3.341352
412.000000	3.349600
413.000000	3.358121
414.000000	3.367672
415.000000	3.378001
416.000000	3.389012
417.000000	3.400314
418.000000	3.412381
419.000000	3.425716
420.000000	3.439662
421.000000	3.454606
422.000000	3.470577
423.000000	3.487281
424.000000	3.504350
425.000000	3.522075
426.000000	3.540151
427.000000	3.558928
428.000000	3.578776
429.000000	3.598794
430.000000	3.618806
431.000000	3.638963
432.000000	3.660019
433.000000	3.681934
434.000000	3.704115
435.000000	3.726638
436.000000	3.749721
437.000000	3.773591
438.000000	3.797345
439.000000	3.821511
440.000000	3.846679
441.000000	3.872235
442.000000	3.897515
443.000000	3.923387
444.000000	3.949980
445.000000	3.976846
446.000000	4.004257
447.000000	4.032113
448.000000	4.060553
449.000000	4.089695
450.000000	4.119183
451.000000	4.148918
452.000000	4.179077
453.000000	4.209608
454.000000	4.240666
455.000000	4.272151
456.000000	4.303732
457.000000	4.335927
458.000000	4.368878
459.000000	4.402156
460.000000	4.435503
461.000000	4.469254
462.000000	4.503624
463.000000	4.538497
464.000000	4.573568
465.000000	4.609393
466.000000	4.646034
467.000000	4.682738
468.000000	4.719521
469.000000	4.756436
470.000000	4.794412
471.000000	4.832882
472.000000	4.871494
473.000000	4.910258
474.000000	4.949380
475.000000	4.988524
476.000000	5.027848
477.000000	5.067277
478.000000	5.107248
479.000000	5.147892
480.000000	5.188310
481.000000	5.228651
482.000000	5.269358
483.000000	5.310688
484.000000	5.353069
485.000000	5.396021
486.000000	5.439533
487.000000	5.484317
488.000000	5.529689
489.000000	5.575963
490.000000	5.623138
491.000000	5.671545
492.000000	5.721048
493.000000	5.771329
494.000000	5.821622
495.000000	5.872443
496.000000	5.924363
497.000000	5.976958
498.000000	6.030012
499.000000	6.082832
500.000000	6.136646
501.000000	6.191554
502.000000	6.246387
503.000000	6.301489
504.000000	6.357441
505.000000	6.414866
506.000000	6.472451
507.000000	6.530211
508.000000	6.588366
509.000000	6.647651
510.000000	6.706325
511.000000	6.765473
512.000000	6.825564
513.000000	6.886150
514.000000	6.947203
515.000000	7.007720
516.000000	7.068509
517.000000	7.130080
518.000000	7.191990
519.000000	7.254142
520.000000	7.317824
521.000000	7.381236
522.000000	7.445189
523.000000	7.510233
524.000000	7.575946
525.000000	7.642681
526.000000	7.710125
527.000000	7.778069
528.000000	7.847562
529.000000	7.918036
530.000000	7.989317
531.000000	8.062018
532.000000	8.135714
533.000000	8.209861
534.000000	8.284547
535.000000	8.360237
536.000000	8.437340
537.000000	8.515348
538.000000	8.593626
539.000000	8.673121
540.000000	8.752965
541.000000	8.832966
542.000000	8.914091
543.000000	8.996027
544.000000	9.078421
545.000000	9.160969
546.000000	9.244142
547.000000	9.327688
548.000000	9.411694
549.000000	9.495414
550.000000	9.580010
551.000000	9.665492
552.000000	9.750565
553.000000	9.836035
554.000000	9.921796
555.000000	10.008333
556.000000	10.094233
557.000000	10.180714
558.000000	10.267285
559.000000	10.354160
560.000000	10.434062
561.000000	10.512886
562.000000	10.592400
563.000000	10.671960
564.000000	10.751757
565.000000	10.831991
566.000000	10.912912
567.000000	10.993528
568.000000	11.074998
569.000000	11.156996
570.000000	11.245541
571.000000	11.335620
572.000000	11.425645
573.000000	11.515657
574.000000	11.607041
575.000000	11.697996
576.000000	11.788418
577.000000	11.879559
578.000000	11.970640
579.000000	12.061892
580.000000	12.153854
581.000000	12.245583
582.000000	12.337606
583.000000	12.429944
584.000000	12.522400
585.000000	12.614824
586.000000	12.709174
587.000000	12.803637
588.000000	12.897219
589.000000	12.991576
590.000000	13.086123
591.000000	13.181183
592.000000	13.275456
593.000000	13.370795
594.000000	13.465551
595.000000	13.561486
596.000000	13.656357
597.000000	13.750821
598.000000	13.845876
599.000000	13.940989
600.000000	14.037303
601.000000	14.132898
602.000000	14.229981
603.000000	14.326333
604.000000	14.424121
605.000000	14.521080
606.000000	14.618456
607.000000	14.716260
608.000000	14.814942
609.000000	14.913627
610.000000	15.011580
611.000000	15.110984
612.000000	15.209652
613.000000	15.308087
614.000000	15.405533
615.000000	15.504575
616.000000	15.603659
617.000000	15.701935
618.000000	15.801486
619.000000	15.900192
620.000000	15.998424
621.000000	16.095967
622.000000	16.194599
623.000000	16.294107
624.000000	16.393901
625.000000	16.492456
626.000000	16.590426
627.000000	16.691037
628.000000	16.789490
629.000000	16.889682
630.000000	16.990907
631.000000	17.093808
632.000000	17.196442
633.000000	17.299341
634.000000	17.402442
635.000000	17.507449
636.000000	17.614315
637.000000	17.719691
638.000000	17.828374
639.000000	17.938145
640.000000	18.048250
641.000000	18.158322
642.000000	18.270012
643.000000	18.384579
644.000000	18.500227
645.000000	18.615249
646.000000	18.731789
647.000000	18.850456
648.000000	18.969080
649.000000	19.087901
650.000000	19.209809
651.000000	19.332459
652.000000	19.457040
653.000000	19.580821
654.000000	19.705348
655.000000	19.831991
656.000000	19.958210
657.000000	20.084874
658.000000	20.212150
659.000000	20.340550
660.000000	20.467521
661.000000	20.594125
662.000000	20.719060
663.000000	20.843479
664.000000	20.968705
665.000000	21.093677
666.000000	21.219119
667.000000	21.343816
668.000000	21.468752
669.000000	21.592464
670.000000	21.715962
671.000000	21.840175
672.000000	21.964676
673.000000	22.090509
674.000000	22.215194
675.000000	22.338630
676.000000	22.460202
677.000000	22.583536
678.000000	22.705547
679.000000	22.827516
680.000000	22.948875
681.000000	23.069759
682.000000	23.189370
683.000000	23.307484
684.000000	23.426964
685.000000	23.547669
686.000000	23.669855
687.000000	23.788646
688.000000	23.907374
689.000000	24.027573
690.000000	24.147597
691.000000	24.267034
692.000000	24.387037
693.000000	24.506962
694.000000	24.625652
695.000000	24.742275
696.000000	24.858084
697.000000	24.974892
698.000000	25.091717
699.000000	25.207616
700.000000	25.322634
701.000000	25.438909
702.000000	25.556210
703.000000	25.671772
704.000000	25.786001
705.000000	25.900520
706.000000	26.016754
707.000000	26.133364
708.000000	26.250080
709.000000	26.366057
710.000000	26.482683
711.000000	26.598710
712.000000	26.713785
713.000000	26.830129
714.000000	26.946821
715.000000	27.063574
716.000000	27.178552
717.000000	27.292815
718.000000	27.406816
719.000000	27.521386
720.000000	27.637180
721.000000	27.752475
722.000000	27.866455
723.000000	27.980796
724.000000	28.096986
725.000000	28.213442
726.000000	28.329825
727.000000	28.446901
728.000000	28.564213
729.000000	28.681423
730.000000	28.796322
731.000000	28.910804
732.000000	29.027817
733.000000	29.144047
734.000000	29.259209
735.000000	29.374099
736.000000	29.488798
737.000000	29.604523
738.000000	29.719923
739.000000	29.833156
740.000000	29.946781
741.000000	30.062763
742.000000	30.178481
743.000000	30.294470
744.000000	30.408937
745.000000	30.522576
746.000000	30.636244
747.000000	30.747464
748.000000	30.860302
749.000000	30.976217
750.000000	31.090885
751.000000	31.202872
752.000000	31.316213
753.000000	31.430885
754.000000	31.545193
755.000000	31.661888
756.000000	31.780062
757.000000	31.897851
758.000000	32.013320
759.000000	32.126414
760.000000	32.243608
761.000000	32.363670
762.000000	32.480651
763.000000	32.595848
764.000000	32.712037
765.000000	32.825499
766.000000	32.938583
767.000000	33.054661
768.000000	33.167833
769.000000	33.285508
770.000000	33.404025
771.000000	33.515580
772.000000	33.627797
773.000000	33.743204
774.000000	33.859869
775.000000	33.979805
776.000000	34.097328
777.000000	34.211660
778.000000	34.331143
779.000000	34.446638
780.000000	34.556271
781.000000	34.672342
782.000000	34.789684
783.000000	34.902831
784.000000	35.014716
785.000000	35.126701
786.000000	35.239645
787.000000	35.351456
788.000000	35.463142
789.000000	35.575349
790.000000	35.691591
791.000000	35.803572
792.000000	35.916533
793.000000	36.029568
794.000000	36.142478
795.000000	36.254277
796.000000	36.364932
797.000000	36.479800
798.000000	36.589194
799.000000	36.697052
800.000000	36.807303
801.000000	36.916183
802.000000	37.024312
803.000000	37.133845
804.000000	37.247088
805.000000	37.355803
806.000000	37.465843
807.000000	37.572991
808.000000	37.686069
809.000000	37.800010
810.000000	37.910551
811.000000	38.018121
812.000000	38.126336
813.000000	38.233027
814.000000	38.337270
815.000000	38.440106
816.000000	38.540840
817.000000	38.641105
818.000000	38.737727
819.000000	38.826428
820.000000	38.915012
821.000000	39.012715
822.000000	39.106450
823.000000	39.193163
824.000000	39.276205
825.000000	39.365478
826.000000	39.453313
827.000000	39.537279
828.000000	39.624453
829.000000	39.717580
830.000000	39.810085
831.000000	39.887745
832.000000	39.968130
833.000000	40.053333
834.000000	40.136049
835.000000	40.213461
836.000000	40.296392
837.000000	40.370155
838.000000	40.434830
839.000000	40.501864
840.000000	40.571551
841.000000	40.640350
842.000000	40.699796
843.000000	40.761288
844.000000	40.819004
845.000000	40.866532
846.000000	40.922466
847.000000	40.989824
848.000000	41.042933
849.000000	41.100186
850.000000	41.147131
851.000000	41.206795
852.000000	41.257042
853.000000	41.312979
854.000000	41.361784
855.000000	41.391822
856.000000	41.428641
857.000000	41.466469
858.000000	41.662942
859.000000	41.785116
860.000000	41.907604
861.000000	42.012789
862.000000	42.143019
863.000000	42.237892
864.000000	42.346737
865.000000	42.489408
866.000000	42.609657
867.000000	42.716053
868.000000	42.679862
869.000000	42.694173
870.000000	42.705618
871.000000	42.724315
872.000000	42.719878
873.000000	42.744975
874.000000	42.755490
875.000000	42.753473
876.000000	42.754775
877.000000	42.753478
878.000000	42.734462
879.000000	42.732937
880.000000	42.743992
881.000000	42.753100
882.000000	42.752247
883.000000	42.746748
884.000000	42.756163
885.000000	42.770355
886.000000	42.768380
887.000000	42.771455
888.000000	42.790177
889.000000	42.801345
890.000000	42.808838
891.000000	42.813545
892.000000	42.834090
893.000000	42.847930
894.000000	42.851910
895.000000	42.855600
896.000000	42.857543
897.000000	42.859220
898.000000	42.857292
899.000000	42.857230
900.000000	42.845703
901.000000	42.840795
902.000000	42.838923
903.000000	42.835608
904.000000	42.833020
905.000000	42.824410
906.000000	42.831145
907.000000	42.845367
908.000000	42.857530
909.000000	42.863618
910.000000	42.868158
911.000000	42.869568
912.000000	42.871460
913.000000	42.882545
914.000000	42.891818
915.000000	42.901618
916.000000	42.905225
917.000000	42.906748
918.000000	42.909858
919.000000	42.918595
920.000000	42.929662
921.000000	42.947685
922.000000	42.960380
923.000000	42.963387
924.000000	42.970443
925.000000	42.979658
926.000000	42.993333
927.000000	43.002050
928.000000	43.011805
929.000000	43.021050
930.000000	43.029697
931.000000	43.030957
932.000000	43.034017
933.000000	43.045240
934.000000	43.056025
935.000000	43.068115
936.000000	43.077557
937.000000	43.091260
938.000000	43.107322
939.000000	43.119385
940.000000	43.135323
941.000000	43.153680
942.000000	43.170630
943.000000	43.183150
944.000000	43.196165
945.000000	43.208580
946.000000	43.216815
947.000000	43.226970
948.000000	43.234970
949.000000	43.245620
950.000000	43.253050
951.000000	43.259113
952.000000	43.267242
953.000000	43.276020
954.000000	43.281842
955.000000	43.285435
956.000000	43.291890
957.000000	43.294670
958.000000	43.297195
959.000000	43.299237
960.000000	43.301525
961.000000	43.305435
962.000000	43.307118
963.000000	43.308022
964.000000	43.306410
965.000000	43.305195
966.000000	43.303883
967.000000	43.301302
968.000000	43.299197
969.000000	43.296393
970.000000	43.294075
971.000000	43.288607
972.000000	43.283095
973.000000	43.276045
974.000000	43.270708
975.000000	43.266528
976.000000	43.261358
977.000000	43.257247
978.000000	43.251710
979.000000	43.245707
980.000000	43.240080
981.000000	43.234427
982.000000	43.228405
983.000000	43.224673
984.000000	43.221637
985.000000	43.216702
986.000000	43.211635
987.000000	43.206547
988.000000	43.202120
989.000000	43.195948
990.000000	43.189228
991.000000	43.184362
992.000000	43.178043
993.000000	43.171157
994.000000	43.163597
995.000000	43.156968
996.000000	43.150880
997.000000	43.145035
998.000000	43.137825
999.000000	43.132085
1000.000000	43.126515
1001.000000	43.119805
1002.000000	43.114987
1003.000000	43.109898
1004.000000	43.105370
1005.000000	43.099470
1006.000000	43.092280
1007.000000	43.085228
1008.000000	43.078580
1009.000000	43.071382
1010.000000	43.063885
1011.000000	43.056005
1012.000000	43.047563
1013.000000	43.039015
1014.000000	43.032157
1015.000000	43.027392
1016.000000	43.022717
1017.000000	43.018240
1018.000000	43.014940
1019.000000	43.011140
1020.000000	43.008477
1021.000000	43.008673
1022.000000	43.010317
1023.000000	43.013985
1024.000000	43.016500
1025.000000	43.019332
1026.000000	43.024305
1027.000000	43.029205
1028.000000	43.034067
1029.000000	43.039695
1030.000000	43.045648
1031.000000	43.051662
1032.000000	43.057555
1033.000000	43.061070
1034.000000	43.065607
1035.000000	43.071162
1036.000000	43.076727
1037.000000	43.082828
1038.000000	43.089672
1039.000000	43.097653
1040.000000	43.105885
1041.000000	43.112810
1042.000000	43.119453
1043.000000	43.127820
1044.000000	43.137205
1045.000000	43.144858
1046.000000	43.152855
1047.000000	43.162472
1048.000000	43.171377
1049.000000	43.180170
1050.000000	43.189180
1051.000000	43.199573
1052.000000	43.210480
1053.000000	43.221958
1054.000000	43.232485
1055.000000	43.244097
1056.000000	43.255530
1057.000000	43.265812
1058.000000	43.278213
1059.000000	43.291843
1060.000000	43.305292
1061.000000	43.317960
1062.000000	43.330535
1063.000000	43.343010
1064.000000	43.355812
1065.000000	43.368565
1066.000000	43.382212
1067.000000	43.396570
1068.000000	43.409498
1069.000000	43.421492
1070.000000	43.434003
1071.000000	43.446647
1072.000000	43.459302
1073.000000	43.472325
1074.000000	43.485485
1075.000000	43.498035
1076.000000	43.508585
1077.000000	43.518305
1078.000000	43.528295
1079.000000	43.539300
1080.000000	43.549532
1081.000000	43.558487
1082.000000	43.566302
1083.000000	43.573155
1084.000000	43.579858
1085.000000	43.586267
1086.000000	43.594162
1087.000000	43.601120
1088.000000	43.605448
1089.000000	43.609212
1090.000000	43.614065
1091.000000	43.619537
1092.000000	43.625325
1093.000000	43.630990
1094.000000	43.635612
1095.000000	43.639655
1096.000000	43.641002
1097.000000	43.642665
1098.000000	43.645317
1099.000000	43.647197
1100.000000	43.647773
1101.000000	43.647768
1102.000000	43.646878
1103.000000	43.644675
1104.000000	43.642440
1105.000000	43.640485
1106.000000	43.639392
1107.000000	43.638350
1108.000000	43.635898
1109.000000	43.634210
1110.000000	43.630758
1111.000000	43.626660
1112.000000	43.622610
1113.000000	43.618490
1114.000000	43.612255
1115.000000	43.605117
1116.000000	43.596880
1117.000000	43.587812
1118.000000	43.579835
1119.000000	43.567818
1120.000000	43.555260
1121.000000	43.541785
1122.000000	43.527325
1123.000000	43.510717
1124.000000	43.491898
1125.000000	43.469115
1126.000000	43.442923
1127.000000	43.409958
1128.000000	43.372900
1129.000000	43.332775
1130.000000	43.287038
1131.000000	43.234922
1132.000000	43.176187
1133.000000	43.115863
1134.000000	43.054138
1135.000000	42.988595
1136.000000	42.916958
1137.000000	42.842737
1138.000000	42.764468
1139.000000	42.683780
1140.000000	42.603675
1141.000000	42.522605
1142.000000	42.441765
1143.000000	42.358435
1144.000000	42.272602
1145.000000	42.188893
1146.000000	42.108755
1147.000000	42.030163
1148.000000	41.950333
1149.000000	41.870722
1150.000000	41.790053
1151.000000	41.711405
1152.000000	41.632847
1153.000000	41.552825
1154.000000	41.469358
1155.000000	41.382757
1156.000000	41.291815
1157.000000	41.196117
1158.000000	41.098393
1159.000000	40.996797
1160.000000	40.888570
1161.000000	40.774210
1162.000000	40.654923
1163.000000	40.530420
1164.000000	40.404065
1165.000000	40.275028
1166.000000	40.145065
1167.000000	40.018183
1168.000000	39.895313
