PE UV       SUBTECH     SPECTRUM    ASCII       PEDS        4.00        
   -1
INBUCR0314-4.Sample.ASC
24/02/08
16:46:19.00
24/02/08
16:46:19.00
Vinicio Soto Monge
Estac. Pitilla, 700 m. 9 km S Santa Cecilia Guanacaste.  Pr. COSTA RICA 21 MAR -  21 APR 1989. GNP Blod Sur. 330200, 380200. INBIOCRI001036310. Sin élitro derecho
250,000000
1
Lambda 1050
1050L1511233
PerkinElmer UV WinLab 6.3.2.0749 / 2.02.05 Lambda 900 UV/VIS/NIR, Aug  7 2015 09:38:08

0
0
3350/servo 860,8/2
0
0
UV/VIS
1
1
1
DoubleDePol,CommonBeamDepol,RBeamAtt,SBeamAtt,60mm sphere, WB InGaAs Detector
0
0
0
0
Program
Program
3350/servo 860,8/2
3350/0,2 860,8/0,2
3350/0,2 860,8/0,2
0
15.00
 
 
 
0
 
860,8
319,2
860,8
Front
100
on
S:100 R:100
0
0
0
0
 
0
 
 
 
0
 
 
0
0
0
0
0
 
 
 
 
0
0


0
0
#HDR
-1
-1
#GR
nm
%R
1.0
0.0
2500,000000
-1,000000
2251
8
8,449500
0,592800
#DATA

250.000000	nan
251.000000	nan
252.000000	nan
253.000000	nan
254.000000	nan
255.000000	nan
256.000000	nan
257.000000	nan
258.000000	nan
259.000000	4.270732
260.000000	4.257504
261.000000	4.243664
262.000000	4.231960
263.000000	4.215672
264.000000	4.198881
265.000000	4.181057
266.000000	4.165241
267.000000	4.147636
268.000000	4.125573
269.000000	4.108691
270.000000	4.093364
271.000000	4.076596
272.000000	4.061664
273.000000	4.047676
274.000000	4.034620
275.000000	4.024101
276.000000	4.012407
277.000000	3.999984
278.000000	3.992321
279.000000	3.984425
280.000000	3.979516
281.000000	3.975408
282.000000	3.969989
283.000000	3.965070
284.000000	3.961688
285.000000	3.959710
286.000000	3.957955
287.000000	3.960815
288.000000	3.965501
289.000000	3.970479
290.000000	3.976009
291.000000	3.983075
292.000000	3.989683
293.000000	4.001107
294.000000	4.013829
295.000000	4.024896
296.000000	4.039970
297.000000	4.055999
298.000000	4.067799
299.000000	4.078892
300.000000	4.091567
301.000000	4.103029
302.000000	4.114289
303.000000	4.125576
304.000000	4.137918
305.000000	4.148355
306.000000	4.155642
307.000000	4.163523
308.000000	4.175362
309.000000	4.187154
310.000000	4.192744
311.000000	4.198924
312.000000	4.208347
313.000000	4.214071
314.000000	4.218456
315.000000	4.227427
316.000000	4.236749
317.000000	4.271482
318.000000	4.298296
319.000000	4.336614
320.000000	4.371133
321.000000	4.380390
322.000000	4.408807
323.000000	4.450863
324.000000	4.468180
325.000000	4.491064
326.000000	4.501392
327.000000	4.477219
328.000000	4.465073
329.000000	4.438661
330.000000	4.416237
331.000000	4.420360
332.000000	4.394766
333.000000	4.353873
334.000000	4.335068
335.000000	4.302888
336.000000	4.282312
337.000000	4.266333
338.000000	4.243976
339.000000	4.226451
340.000000	4.213625
341.000000	4.199451
342.000000	4.186690
343.000000	4.179283
344.000000	4.170591
345.000000	4.168281
346.000000	4.165860
347.000000	4.163128
348.000000	4.157594
349.000000	4.156687
350.000000	4.151548
351.000000	4.145303
352.000000	4.140874
353.000000	4.134770
354.000000	4.129173
355.000000	4.122256
356.000000	4.117707
357.000000	4.114599
358.000000	4.112925
359.000000	4.103158
360.000000	4.093095
361.000000	4.085447
362.000000	4.083560
363.000000	4.080533
364.000000	4.077540
365.000000	4.075690
366.000000	4.071110
367.000000	4.063483
368.000000	4.058815
369.000000	4.050356
370.000000	4.044193
371.000000	4.039710
372.000000	4.027765
373.000000	4.013038
374.000000	3.996233
375.000000	3.979876
376.000000	3.970929
377.000000	3.956679
378.000000	3.940396
379.000000	3.927856
380.000000	3.914938
381.000000	3.897631
382.000000	3.886391
383.000000	3.878529
384.000000	3.874257
385.000000	3.867685
386.000000	3.854204
387.000000	3.849147
388.000000	3.844365
389.000000	3.838982
390.000000	3.833966
391.000000	3.829327
392.000000	3.824692
393.000000	3.819846
394.000000	3.814261
395.000000	3.809027
396.000000	3.803881
397.000000	3.798419
398.000000	3.792779
399.000000	3.787882
400.000000	3.783304
401.000000	3.779456
402.000000	3.775794
403.000000	3.771628
404.000000	3.767581
405.000000	3.763819
406.000000	3.760557
407.000000	3.757185
408.000000	3.754184
409.000000	3.751207
410.000000	3.747751
411.000000	3.744017
412.000000	3.740586
413.000000	3.737396
414.000000	3.734681
415.000000	3.731924
416.000000	3.728825
417.000000	3.725543
418.000000	3.722369
419.000000	3.719598
420.000000	3.716267
421.000000	3.712902
422.000000	3.709594
423.000000	3.706628
424.000000	3.703512
425.000000	3.700790
426.000000	3.698242
427.000000	3.695701
428.000000	3.692993
429.000000	3.690043
430.000000	3.687738
431.000000	3.685917
432.000000	3.684017
433.000000	3.681731
434.000000	3.679546
435.000000	3.677189
436.000000	3.674887
437.000000	3.673056
438.000000	3.671340
439.000000	3.669774
440.000000	3.668107
441.000000	3.666175
442.000000	3.664411
443.000000	3.662906
444.000000	3.661452
445.000000	3.659874
446.000000	3.658070
447.000000	3.656243
448.000000	3.654749
449.000000	3.653493
450.000000	3.652374
451.000000	3.651094
452.000000	3.649530
453.000000	3.648307
454.000000	3.647509
455.000000	3.647033
456.000000	3.646707
457.000000	3.646503
458.000000	3.646102
459.000000	3.645806
460.000000	3.645475
461.000000	3.645806
462.000000	3.646583
463.000000	3.647485
464.000000	3.648193
465.000000	3.648887
466.000000	3.650418
467.000000	3.652076
468.000000	3.653873
469.000000	3.655813
470.000000	3.658468
471.000000	3.661080
472.000000	3.663843
473.000000	3.667030
474.000000	3.670869
475.000000	3.675229
476.000000	3.679397
477.000000	3.683871
478.000000	3.688966
479.000000	3.694323
480.000000	3.699733
481.000000	3.705501
482.000000	3.711989
483.000000	3.718697
484.000000	3.725781
485.000000	3.733394
486.000000	3.741767
487.000000	3.751726
488.000000	3.762471
489.000000	3.774411
490.000000	3.787095
491.000000	3.801195
492.000000	3.816828
493.000000	3.833819
494.000000	3.852629
495.000000	3.873524
496.000000	3.896660
497.000000	3.921303
498.000000	3.948072
499.000000	3.977497
500.000000	4.010326
501.000000	4.046178
502.000000	4.084850
503.000000	4.127740
504.000000	4.174001
505.000000	4.224041
506.000000	4.278104
507.000000	4.336477
508.000000	4.400489
509.000000	4.469837
510.000000	4.544991
511.000000	4.625996
512.000000	4.714055
513.000000	4.809470
514.000000	4.912751
515.000000	5.023817
516.000000	5.143683
517.000000	5.272084
518.000000	5.408955
519.000000	5.554741
520.000000	5.709388
521.000000	5.873547
522.000000	6.046285
523.000000	6.226684
524.000000	6.414746
525.000000	6.610622
526.000000	6.812303
527.000000	7.019744
528.000000	7.231483
529.000000	7.447599
530.000000	7.666500
531.000000	7.887074
532.000000	8.108542
533.000000	8.329844
534.000000	8.550311
535.000000	8.768060
536.000000	8.982736
537.000000	9.192320
538.000000	9.396290
539.000000	9.593030
540.000000	9.781035
541.000000	9.959719
542.000000	10.127664
543.000000	10.283187
544.000000	10.426372
545.000000	10.556751
546.000000	10.673464
547.000000	10.777247
548.000000	10.866870
549.000000	10.940818
550.000000	10.998086
551.000000	11.036596
552.000000	11.054148
553.000000	11.050365
554.000000	11.020315
555.000000	10.963863
556.000000	10.879734
557.000000	10.766506
558.000000	10.623530
559.000000	10.451708
560.000000	10.248346
561.000000	10.018565
562.000000	9.766684
563.000000	9.494960
564.000000	9.209202
565.000000	8.912002
566.000000	8.607800
567.000000	8.300666
568.000000	7.995722
569.000000	7.696741
570.000000	7.411027
571.000000	7.138886
572.000000	6.882278
573.000000	6.643607
574.000000	6.424995
575.000000	6.227266
576.000000	6.050466
577.000000	5.894701
578.000000	5.758274
579.000000	5.640285
580.000000	5.538909
581.000000	5.453097
582.000000	5.379974
583.000000	5.318781
584.000000	5.266402
585.000000	5.221074
586.000000	5.181814
587.000000	5.146530
588.000000	5.114772
589.000000	5.085034
590.000000	5.057591
591.000000	5.031358
592.000000	5.006637
593.000000	4.982396
594.000000	4.959637
595.000000	4.938766
596.000000	4.919186
597.000000	4.901788
598.000000	4.886376
599.000000	4.872915
600.000000	4.861673
601.000000	4.852073
602.000000	4.844744
603.000000	4.839104
604.000000	4.833799
605.000000	4.829639
606.000000	4.826208
607.000000	4.823106
608.000000	4.820768
609.000000	4.818647
610.000000	4.815869
611.000000	4.814186
612.000000	4.812175
613.000000	4.810246
614.000000	4.809199
615.000000	4.808304
616.000000	4.807444
617.000000	4.806426
618.000000	4.805402
619.000000	4.804420
620.000000	4.804359
621.000000	4.803707
622.000000	4.803285
623.000000	4.802752
624.000000	4.803089
625.000000	4.803583
626.000000	4.804962
627.000000	4.807360
628.000000	4.810434
629.000000	4.814884
630.000000	4.820980
631.000000	4.828748
632.000000	4.839008
633.000000	4.852139
634.000000	4.867403
635.000000	4.885873
636.000000	4.908242
637.000000	4.934120
638.000000	4.964367
639.000000	4.999655
640.000000	5.039802
641.000000	5.085808
642.000000	5.137450
643.000000	5.195873
644.000000	5.261498
645.000000	5.335089
646.000000	5.416319
647.000000	5.505683
648.000000	5.603210
649.000000	5.709023
650.000000	5.823986
651.000000	5.947278
652.000000	6.079309
653.000000	6.220399
654.000000	6.370651
655.000000	6.528111
656.000000	6.693032
657.000000	6.865431
658.000000	7.045686
659.000000	7.232277
660.000000	7.424874
661.000000	7.623253
662.000000	7.827859
663.000000	8.035818
664.000000	8.246464
665.000000	8.460775
666.000000	8.677225
667.000000	8.895337
668.000000	9.113581
669.000000	9.333250
670.000000	9.551954
671.000000	9.770198
672.000000	9.986542
673.000000	10.201188
674.000000	10.413599
675.000000	10.623190
676.000000	10.829238
677.000000	11.031990
678.000000	11.232447
679.000000	11.429723
680.000000	11.624625
681.000000	11.814525
682.000000	12.000836
683.000000	12.184917
684.000000	12.366414
685.000000	12.545077
686.000000	12.720963
687.000000	12.894774
688.000000	13.066212
689.000000	13.235273
690.000000	13.401932
691.000000	13.567871
692.000000	13.731021
693.000000	13.891664
694.000000	14.049907
695.000000	14.206284
696.000000	14.362549
697.000000	14.518077
698.000000	14.670647
699.000000	14.821433
700.000000	14.970469
701.000000	15.118467
702.000000	15.266081
703.000000	15.412378
704.000000	15.558445
705.000000	15.703091
706.000000	15.846237
707.000000	15.986612
708.000000	16.126738
709.000000	16.265858
710.000000	16.405447
711.000000	16.544243
712.000000	16.682403
713.000000	16.819996
714.000000	16.955856
715.000000	17.090869
716.000000	17.224736
717.000000	17.359043
718.000000	17.493565
719.000000	17.628859
720.000000	17.763189
721.000000	17.895353
722.000000	18.026006
723.000000	18.156474
724.000000	18.287007
725.000000	18.418121
726.000000	18.549476
727.000000	18.680380
728.000000	18.809365
729.000000	18.935514
730.000000	19.061605
731.000000	19.188923
732.000000	19.314740
733.000000	19.438905
734.000000	19.564329
735.000000	19.689720
736.000000	19.815372
737.000000	19.939991
738.000000	20.063591
739.000000	20.187098
740.000000	20.308684
741.000000	20.430601
742.000000	20.552981
743.000000	20.674698
744.000000	20.795684
745.000000	20.915706
746.000000	21.033800
747.000000	21.149816
748.000000	21.266647
749.000000	21.386330
750.000000	21.506018
751.000000	21.623749
752.000000	21.742179
753.000000	21.859662
754.000000	21.977852
755.000000	22.094693
756.000000	22.209013
757.000000	22.325972
758.000000	22.440913
759.000000	22.554333
760.000000	22.668100
761.000000	22.779833
762.000000	22.891308
763.000000	23.007411
764.000000	23.120234
765.000000	23.232820
766.000000	23.346033
767.000000	23.458498
768.000000	23.571951
769.000000	23.684447
770.000000	23.796472
771.000000	23.908962
772.000000	24.021089
773.000000	24.128832
774.000000	24.236001
775.000000	24.341879
776.000000	24.452951
777.000000	24.561404
778.000000	24.671018
779.000000	24.779770
780.000000	24.886127
781.000000	24.992539
782.000000	25.099520
783.000000	25.209258
784.000000	25.318402
785.000000	25.431034
786.000000	25.535961
787.000000	25.642293
788.000000	25.748664
789.000000	25.854837
790.000000	25.961068
791.000000	26.065072
792.000000	26.168144
793.000000	26.268081
794.000000	26.372116
795.000000	26.474182
796.000000	26.578863
797.000000	26.677313
798.000000	26.777087
799.000000	26.875905
800.000000	26.973476
801.000000	27.073655
802.000000	27.168932
803.000000	27.268035
804.000000	27.367315
805.000000	27.461848
806.000000	27.553102
807.000000	27.647379
808.000000	27.742830
809.000000	27.841102
810.000000	27.942073
811.000000	28.040172
812.000000	28.137650
813.000000	28.231785
814.000000	28.321965
815.000000	28.415800
816.000000	28.505731
817.000000	28.598124
818.000000	28.691254
819.000000	28.778179
820.000000	28.858013
821.000000	28.941591
822.000000	29.027278
823.000000	29.106864
824.000000	29.189269
825.000000	29.272620
826.000000	29.353874
827.000000	29.435564
828.000000	29.505955
829.000000	29.581057
830.000000	29.654900
831.000000	29.724084
832.000000	29.786893
833.000000	29.860229
834.000000	29.928904
835.000000	29.995172
836.000000	30.062386
837.000000	30.126281
838.000000	30.191301
839.000000	30.251505
840.000000	30.317534
841.000000	30.385295
842.000000	30.446949
843.000000	30.509188
844.000000	30.564718
845.000000	30.630720
846.000000	30.694210
847.000000	30.759722
848.000000	30.829519
849.000000	30.892138
850.000000	30.929006
851.000000	30.976326
852.000000	31.016542
853.000000	31.058839
854.000000	31.115992
855.000000	31.157018
856.000000	31.192329
857.000000	31.245109
858.000000	31.721271
859.000000	31.858400
860.000000	31.984893
861.000000	32.105398
862.000000	32.273402
863.000000	32.391650
864.000000	32.480889
865.000000	32.576922
866.000000	32.679600
867.000000	32.761129
868.000000	32.383375
869.000000	32.320568
870.000000	32.283017
871.000000	32.238540
872.000000	32.164262
873.000000	32.133780
874.000000	32.117120
875.000000	32.099573
876.000000	32.048203
877.000000	31.983980
878.000000	31.977900
879.000000	31.977180
880.000000	31.973630
881.000000	31.962428
882.000000	31.943580
883.000000	31.909010
884.000000	31.869700
885.000000	31.812670
886.000000	31.799765
887.000000	31.791332
888.000000	31.752045
889.000000	31.747170
890.000000	31.718412
891.000000	31.704282
892.000000	31.693885
893.000000	31.673572
894.000000	31.646173
895.000000	31.639817
896.000000	31.628155
897.000000	31.621540
898.000000	31.616973
899.000000	31.580663
900.000000	31.579172
901.000000	31.564707
902.000000	31.542422
903.000000	31.536352
904.000000	31.536587
905.000000	31.535028
906.000000	31.519985
907.000000	31.492960
908.000000	31.469027
909.000000	31.469820
910.000000	31.462120
911.000000	31.453925
912.000000	31.455915
913.000000	31.450170
914.000000	31.458350
915.000000	31.462833
916.000000	31.470548
917.000000	31.478285
918.000000	31.476290
919.000000	31.478462
920.000000	31.479035
921.000000	31.482592
922.000000	31.482835
923.000000	31.487720
924.000000	31.487362
925.000000	31.479030
926.000000	31.471700
927.000000	31.481645
928.000000	31.494630
929.000000	31.497988
930.000000	31.509020
931.000000	31.518730
932.000000	31.536570
933.000000	31.549100
934.000000	31.561340
935.000000	31.570855
936.000000	31.587538
937.000000	31.600635
938.000000	31.616505
939.000000	31.627362
940.000000	31.637295
941.000000	31.642993
942.000000	31.642488
943.000000	31.649020
944.000000	31.653590
945.000000	31.666375
946.000000	31.677617
947.000000	31.690300
948.000000	31.695070
949.000000	31.708290
950.000000	31.720318
951.000000	31.737502
952.000000	31.754795
953.000000	31.770765
954.000000	31.789055
955.000000	31.805100
956.000000	31.819825
957.000000	31.834353
958.000000	31.856125
959.000000	31.872218
960.000000	31.887138
961.000000	31.904405
962.000000	31.923675
963.000000	31.941260
964.000000	31.956493
965.000000	31.971535
966.000000	31.985035
967.000000	31.994280
968.000000	32.007710
969.000000	32.023680
970.000000	32.045323
971.000000	32.067785
972.000000	32.088107
973.000000	32.110350
974.000000	32.129000
975.000000	32.144607
976.000000	32.161597
977.000000	32.182567
978.000000	32.202430
979.000000	32.220598
980.000000	32.236033
981.000000	32.248450
982.000000	32.259878
983.000000	32.274942
984.000000	32.297120
985.000000	32.321072
986.000000	32.343840
987.000000	32.365650
988.000000	32.386945
989.000000	32.408102
990.000000	32.427532
991.000000	32.446877
992.000000	32.467780
993.000000	32.486775
994.000000	32.502403
995.000000	32.521735
996.000000	32.544615
997.000000	32.566058
998.000000	32.585485
999.000000	32.604870
1000.000000	32.626902
1001.000000	32.650430
1002.000000	32.672812
1003.000000	32.694473
1004.000000	32.715308
1005.000000	32.733908
1006.000000	32.753010
1007.000000	32.773365
1008.000000	32.794890
1009.000000	32.819367
1010.000000	32.841835
1011.000000	32.860905
1012.000000	32.878563
1013.000000	32.897888
1014.000000	32.921395
1015.000000	32.945387
1016.000000	32.966577
1017.000000	32.988157
1018.000000	33.010883
1019.000000	33.031860
1020.000000	33.055157
1021.000000	33.080933
1022.000000	33.107357
1023.000000	33.134925
1024.000000	33.159110
1025.000000	33.183515
1026.000000	33.213043
1027.000000	33.241088
1028.000000	33.266830
1029.000000	33.294057
1030.000000	33.319665
1031.000000	33.344637
1032.000000	33.371527
1033.000000	33.397405
1034.000000	33.422645
1035.000000	33.448580
1036.000000	33.472165
1037.000000	33.498487
1038.000000	33.525067
1039.000000	33.550285
1040.000000	33.574360
1041.000000	33.598895
1042.000000	33.623823
1043.000000	33.648743
1044.000000	33.676345
1045.000000	33.703218
1046.000000	33.731420
1047.000000	33.758790
1048.000000	33.786093
1049.000000	33.813722
1050.000000	33.842155
1051.000000	33.872605
1052.000000	33.902718
1053.000000	33.932933
1054.000000	33.963133
1055.000000	33.992902
1056.000000	34.021170
1057.000000	34.046765
1058.000000	34.072660
1059.000000	34.098950
1060.000000	34.128258
1061.000000	34.154510
1062.000000	34.179247
1063.000000	34.205090
1064.000000	34.229597
1065.000000	34.254535
1066.000000	34.281300
1067.000000	34.309987
1068.000000	34.340410
1069.000000	34.369425
1070.000000	34.396770
1071.000000	34.425638
1072.000000	34.456105
1073.000000	34.487315
1074.000000	34.515990
1075.000000	34.547403
1076.000000	34.577210
1077.000000	34.605775
1078.000000	34.633592
1079.000000	34.661960
1080.000000	34.689802
1081.000000	34.718490
1082.000000	34.747417
1083.000000	34.773162
1084.000000	34.801460
1085.000000	34.827650
1086.000000	34.854188
1087.000000	34.880798
1088.000000	34.907978
1089.000000	34.934390
1090.000000	34.959578
1091.000000	34.985703
1092.000000	35.012750
1093.000000	35.040510
1094.000000	35.066980
1095.000000	35.092627
1096.000000	35.118065
1097.000000	35.143302
1098.000000	35.168560
1099.000000	35.194972
1100.000000	35.221882
1101.000000	35.248672
1102.000000	35.272235
1103.000000	35.296470
1104.000000	35.322810
1105.000000	35.348665
1106.000000	35.375250
1107.000000	35.401920
1108.000000	35.428278
1109.000000	35.452765
1110.000000	35.477435
1111.000000	35.500815
1112.000000	35.526145
1113.000000	35.550380
1114.000000	35.571922
1115.000000	35.594955
1116.000000	35.617947
1117.000000	35.641148
1118.000000	35.663545
1119.000000	35.686745
1120.000000	35.708238
1121.000000	35.729343
1122.000000	35.750350
1123.000000	35.771670
1124.000000	35.792192
1125.000000	35.809230
1126.000000	35.824905
1127.000000	35.837365
1128.000000	35.850228
1129.000000	35.863797
1130.000000	35.873717
1131.000000	35.879368
1132.000000	35.882070
1133.000000	35.884900
1134.000000	35.887868
1135.000000	35.890155
1136.000000	35.889790
1137.000000	35.889902
1138.000000	35.885753
1139.000000	35.876947
1140.000000	35.870942
1141.000000	35.866858
1142.000000	35.861290
1143.000000	35.851965
1144.000000	35.843475
1145.000000	35.836685
1146.000000	35.831520
1147.000000	35.824213
1148.000000	35.818422
1149.000000	35.813617
1150.000000	35.809848
1151.000000	35.804412
1152.000000	35.802375
1153.000000	35.800767
1154.000000	35.794163
1155.000000	35.784345
1156.000000	35.773280
1157.000000	35.761148
1158.000000	35.747970
1159.000000	35.732435
1160.000000	35.714055
1161.000000	35.694587
1162.000000	35.669385
1163.000000	35.641802
1164.000000	35.614465
1165.000000	35.587477
1166.000000	35.557522
1167.000000	35.528185
1168.000000	35.497205
1169.000000	35.466955
1170.000000	35.438047
1171.000000	35.410427
1172.000000	35.384528
1173.000000	35.360367
1174.000000	35.339505
