PE UV       SUBTECH     SPECTRUM    ASCII       PEDS        4.00        
   -1
INBUCR0411-4.Sample.ASC
24/02/09
10:46:22.00
24/02/09
10:46:22.00
Vinicio Soto Monge
C. chalcothea Det: A Solís. INB0003489977 INBIOCRI COSTA RICA. COSTA RICA. Prov Cartago. R. F. Río Macho. Alrededor Estación la Esperanza. 2650 m. 26-29 MAY 2002, #69624. Sin élitros. Élitro DER en vial sin un cuadrito. 
250,000000
1
Lambda 1050
1050L1511233
PerkinElmer UV WinLab 6.3.2.0749 / 2.02.05 Lambda 900 UV/VIS/NIR, Aug  7 2015 09:38:08

0
0
3350/servo 860,8/2
0
0
UV/VIS
1
1
1
DoubleDePol,CommonBeamDepol,RBeamAtt,SBeamAtt,60mm sphere, WB InGaAs Detector
0
0
0
0
Program
Program
3350/servo 860,8/2
3350/0,2 860,8/0,2
3350/0,2 860,8/0,2
0
15.00
 
 
 
0
 
860,8
319,2
860,8
Front
100
on
S:100 R:100
0
0
0
0
 
0
 
 
 
0
 
 
0
0
0
0
0
 
 
 
 
0
0


0
0
#HDR
-1
-1
#GR
nm
%R
1.0
0.0
2500,000000
-1,000000
2251
8
18,138800
0,749700
#DATA

250.000000	nan
251.000000	nan
252.000000	nan
253.000000	nan
254.000000	nan
255.000000	nan
256.000000	nan
257.000000	nan
258.000000	nan
259.000000	4.396257
260.000000	4.392600
261.000000	4.389941
262.000000	4.385923
263.000000	4.381492
264.000000	4.377323
265.000000	4.371332
266.000000	4.363554
267.000000	4.358799
268.000000	4.351894
269.000000	4.346562
270.000000	4.340752
271.000000	4.334329
272.000000	4.325937
273.000000	4.321198
274.000000	4.315487
275.000000	4.309049
276.000000	4.306749
277.000000	4.301078
278.000000	4.295158
279.000000	4.288980
280.000000	4.286147
281.000000	4.284254
282.000000	4.284170
283.000000	4.279614
284.000000	4.276455
285.000000	4.274140
286.000000	4.273139
287.000000	4.272353
288.000000	4.274166
289.000000	4.275258
290.000000	4.276657
291.000000	4.277502
292.000000	4.279609
293.000000	4.284126
294.000000	4.287469
295.000000	4.292171
296.000000	4.293716
297.000000	4.298692
298.000000	4.302302
299.000000	4.306895
300.000000	4.309761
301.000000	4.313474
302.000000	4.316829
303.000000	4.318781
304.000000	4.320390
305.000000	4.322398
306.000000	4.326774
307.000000	4.329579
308.000000	4.334044
309.000000	4.335286
310.000000	4.339202
311.000000	4.341411
312.000000	4.344676
313.000000	4.347132
314.000000	4.351478
315.000000	4.356636
316.000000	4.358404
317.000000	4.408812
318.000000	4.468884
319.000000	4.495315
320.000000	4.547333
321.000000	4.565986
322.000000	4.622103
323.000000	4.668725
324.000000	4.697310
325.000000	4.741906
326.000000	4.785815
327.000000	4.760529
328.000000	4.722133
329.000000	4.747725
330.000000	4.738280
331.000000	4.766991
332.000000	4.761843
333.000000	4.772756
334.000000	4.790118
335.000000	4.790059
336.000000	4.767368
337.000000	4.786149
338.000000	4.812381
339.000000	4.814423
340.000000	4.822150
341.000000	4.821102
342.000000	4.816126
343.000000	4.801684
344.000000	4.801261
345.000000	4.798986
346.000000	4.827917
347.000000	4.834965
348.000000	4.833205
349.000000	4.825125
350.000000	4.820935
351.000000	4.823633
352.000000	4.823074
353.000000	4.828565
354.000000	4.829953
355.000000	4.833848
356.000000	4.832207
357.000000	4.827472
358.000000	4.827892
359.000000	4.835857
360.000000	4.837267
361.000000	4.834949
362.000000	4.838510
363.000000	4.840656
364.000000	4.846198
365.000000	4.817169
366.000000	4.817455
367.000000	4.819398
368.000000	4.823341
369.000000	4.822966
370.000000	4.822190
371.000000	4.825781
372.000000	4.821587
373.000000	4.816846
374.000000	4.808163
375.000000	4.827521
376.000000	4.824915
377.000000	4.825160
378.000000	4.821625
379.000000	4.817750
380.000000	4.817477
381.000000	4.815743
382.000000	4.817228
383.000000	4.820613
384.000000	4.825809
385.000000	4.836642
386.000000	4.839787
387.000000	4.844134
388.000000	4.847904
389.000000	4.851939
390.000000	4.856200
391.000000	4.860308
392.000000	4.865166
393.000000	4.869469
394.000000	4.873730
395.000000	4.878542
396.000000	4.882992
397.000000	4.887277
398.000000	4.891731
399.000000	4.896246
400.000000	4.901166
401.000000	4.906052
402.000000	4.910531
403.000000	4.915097
404.000000	4.919662
405.000000	4.924160
406.000000	4.928554
407.000000	4.932666
408.000000	4.936887
409.000000	4.941210
410.000000	4.945436
411.000000	4.949622
412.000000	4.954021
413.000000	4.958688
414.000000	4.963563
415.000000	4.968141
416.000000	4.972870
417.000000	4.977590
418.000000	4.982409
419.000000	4.987489
420.000000	4.992673
421.000000	4.997898
422.000000	5.003491
423.000000	5.009007
424.000000	5.014195
425.000000	5.019871
426.000000	5.025889
427.000000	5.032302
428.000000	5.038635
429.000000	5.044844
430.000000	5.051190
431.000000	5.057530
432.000000	5.063685
433.000000	5.070221
434.000000	5.077055
435.000000	5.084112
436.000000	5.091299
437.000000	5.098541
438.000000	5.105988
439.000000	5.113386
440.000000	5.120947
441.000000	5.129265
442.000000	5.137695
443.000000	5.145974
444.000000	5.154347
445.000000	5.162237
446.000000	5.170344
447.000000	5.178652
448.000000	5.187050
449.000000	5.195830
450.000000	5.204598
451.000000	5.213193
452.000000	5.222098
453.000000	5.230932
454.000000	5.239755
455.000000	5.248847
456.000000	5.257912
457.000000	5.267185
458.000000	5.276626
459.000000	5.286054
460.000000	5.295308
461.000000	5.304441
462.000000	5.313738
463.000000	5.323458
464.000000	5.333493
465.000000	5.343761
466.000000	5.384512
467.000000	5.425317
468.000000	5.466535
469.000000	5.507890
470.000000	5.549659
471.000000	5.591875
472.000000	5.634290
473.000000	5.677230
474.000000	5.720331
475.000000	5.763629
476.000000	5.776906
477.000000	5.790183
478.000000	5.803409
479.000000	5.817202
480.000000	5.831222
481.000000	5.845338
482.000000	5.859541
483.000000	5.873838
484.000000	5.888364
485.000000	5.903169
486.000000	5.918212
487.000000	5.933726
488.000000	5.949556
489.000000	5.965282
490.000000	5.981566
491.000000	6.028567
492.000000	6.075914
493.000000	6.123468
494.000000	6.171244
495.000000	6.219233
496.000000	6.268040
497.000000	6.317501
498.000000	6.367607
499.000000	6.418393
500.000000	6.469514
501.000000	6.521319
502.000000	6.573767
503.000000	6.626860
504.000000	6.680858
505.000000	6.735742
506.000000	6.790972
507.000000	6.846746
508.000000	6.903191
509.000000	6.960318
510.000000	7.048710
511.000000	7.107379
512.000000	7.166639
513.000000	7.226642
514.000000	7.287205
515.000000	7.348383
516.000000	7.440214
517.000000	7.532340
518.000000	7.624500
519.000000	7.716954
520.000000	7.778843
521.000000	7.840582
522.000000	7.932966
523.000000	8.025537
524.000000	8.117939
525.000000	8.210108
526.000000	8.271770
527.000000	8.333322
528.000000	8.394996
529.000000	8.487160
530.000000	8.579538
531.000000	8.671735
532.000000	8.733195
533.000000	8.794763
534.000000	8.856270
535.000000	8.917616
536.000000	8.979042
537.000000	9.040468
538.000000	9.101840
539.000000	9.132001
540.000000	9.162570
541.000000	9.192843
542.000000	9.223245
543.000000	9.252834
544.000000	9.282477
545.000000	9.311807
546.000000	9.340727
547.000000	9.369628
548.000000	9.397977
549.000000	9.426780
550.000000	9.454503
551.000000	9.482214
552.000000	9.509290
553.000000	9.536408
554.000000	9.562891
555.000000	9.589089
556.000000	9.614890
557.000000	9.639213
558.000000	9.663568
559.000000	9.687411
560.000000	9.707711
561.000000	9.726837
562.000000	9.745640
563.000000	9.763398
564.000000	9.750071
565.000000	9.736189
566.000000	9.722285
567.000000	9.708091
568.000000	9.693338
569.000000	9.677668
570.000000	9.665172
571.000000	9.652802
572.000000	9.609494
573.000000	9.566582
574.000000	9.553953
575.000000	9.541189
576.000000	9.528305
577.000000	9.516452
578.000000	9.504506
579.000000	9.492741
580.000000	9.450488
581.000000	9.408800
582.000000	9.397869
583.000000	9.386902
584.000000	9.375986
585.000000	9.365578
586.000000	9.354950
587.000000	9.344930
588.000000	9.334853
589.000000	9.325558
590.000000	9.346514
591.000000	9.368051
592.000000	9.389843
593.000000	9.411808
594.000000	9.433977
595.000000	9.456886
596.000000	9.480001
597.000000	9.502033
598.000000	9.524490
599.000000	9.546860
600.000000	9.569574
601.000000	9.591848
602.000000	9.614313
603.000000	9.635963
604.000000	9.658092
605.000000	9.679604
606.000000	9.701362
607.000000	9.724072
608.000000	9.745980
609.000000	9.767491
610.000000	9.789012
611.000000	9.810578
612.000000	9.831635
613.000000	9.853691
614.000000	9.874890
615.000000	9.896215
616.000000	9.917148
617.000000	9.937488
618.000000	9.958158
619.000000	9.979247
620.000000	10.000200
621.000000	10.020676
622.000000	10.041461
623.000000	10.061907
624.000000	10.083501
625.000000	10.104682
626.000000	10.125831
627.000000	10.147443
628.000000	10.170118
629.000000	10.191964
630.000000	10.213943
631.000000	10.236113
632.000000	10.259283
633.000000	10.282942
634.000000	10.306379
635.000000	10.330228
636.000000	10.354700
637.000000	10.379792
638.000000	10.404020
639.000000	10.430004
640.000000	10.456883
641.000000	10.483696
642.000000	10.510210
643.000000	10.537109
644.000000	10.564251
645.000000	10.591923
646.000000	10.619986
647.000000	10.647837
648.000000	10.676507
649.000000	10.704965
650.000000	10.732817
651.000000	10.761751
652.000000	10.790729
653.000000	10.819604
654.000000	10.849044
655.000000	10.877821
656.000000	10.906366
657.000000	10.934785
658.000000	10.963727
659.000000	10.992247
660.000000	11.021442
661.000000	11.050322
662.000000	11.079127
663.000000	11.107733
664.000000	11.166413
665.000000	11.225152
666.000000	11.283410
667.000000	11.341631
668.000000	11.399413
669.000000	11.456636
670.000000	11.513302
671.000000	11.570125
672.000000	11.626777
673.000000	11.683349
674.000000	11.709069
675.000000	11.735372
676.000000	11.761613
677.000000	11.787161
678.000000	11.812158
679.000000	11.837934
680.000000	11.863806
681.000000	11.888583
682.000000	11.913631
683.000000	11.938420
684.000000	11.963243
685.000000	11.987658
686.000000	12.012838
687.000000	12.038670
688.000000	12.063871
689.000000	12.118960
690.000000	12.173646
691.000000	12.230080
692.000000	12.285932
693.000000	12.341575
694.000000	12.397101
695.000000	12.452887
696.000000	12.508992
697.000000	12.564477
698.000000	12.620065
699.000000	12.645826
700.000000	12.672131
701.000000	12.697407
702.000000	12.722092
703.000000	12.747187
704.000000	12.772911
705.000000	12.798154
706.000000	12.823041
707.000000	12.878230
708.000000	12.934869
709.000000	12.991683
710.000000	13.048569
711.000000	13.105247
712.000000	13.161813
713.000000	13.218682
714.000000	13.275404
715.000000	13.332600
716.000000	13.389181
717.000000	13.415631
718.000000	13.441592
719.000000	13.467039
720.000000	13.492575
721.000000	13.548677
722.000000	13.605580
723.000000	13.663014
724.000000	13.721097
725.000000	13.778693
726.000000	13.835655
727.000000	13.892344
728.000000	13.949121
729.000000	14.006671
730.000000	14.065045
731.000000	14.094301
732.000000	14.123631
733.000000	14.181290
734.000000	14.237360
735.000000	14.294237
736.000000	14.352075
737.000000	14.410681
738.000000	14.469877
739.000000	14.528524
740.000000	14.585771
741.000000	14.642325
742.000000	14.698927
743.000000	14.726591
744.000000	14.785755
745.000000	14.844027
746.000000	14.901864
747.000000	14.959739
748.000000	15.016936
749.000000	15.074393
750.000000	15.131836
751.000000	15.189629
752.000000	15.247932
753.000000	15.306021
754.000000	15.363817
755.000000	15.421819
756.000000	15.480246
757.000000	15.538733
758.000000	15.597194
759.000000	15.655793
760.000000	15.715508
761.000000	15.775498
762.000000	15.834514
763.000000	15.922494
764.000000	15.979857
765.000000	16.038464
766.000000	16.098779
767.000000	16.157929
768.000000	16.216027
769.000000	16.274397
770.000000	16.332992
771.000000	16.420465
772.000000	16.509304
773.000000	16.570701
774.000000	16.630292
775.000000	16.689357
776.000000	16.747617
777.000000	16.805829
778.000000	16.864457
779.000000	16.953095
780.000000	17.041345
781.000000	17.099416
782.000000	17.157086
783.000000	17.214154
784.000000	17.272100
785.000000	17.331004
786.000000	17.391831
787.000000	17.452011
788.000000	17.542434
789.000000	17.603200
790.000000	17.663492
791.000000	17.724737
792.000000	17.785525
793.000000	17.845269
794.000000	17.907742
795.000000	17.969435
796.000000	18.027593
797.000000	18.116881
798.000000	18.177691
799.000000	18.238382
800.000000	18.297895
801.000000	18.356811
802.000000	18.417265
803.000000	18.479190
804.000000	18.540125
805.000000	18.598386
806.000000	18.687779
807.000000	18.748244
808.000000	18.809928
809.000000	18.869864
810.000000	18.931928
811.000000	18.993418
812.000000	19.052603
813.000000	19.111328
814.000000	19.168198
815.000000	19.229567
816.000000	19.259567
817.000000	19.288816
818.000000	19.345251
819.000000	19.401861
820.000000	19.459958
821.000000	19.516911
822.000000	19.575391
823.000000	19.633742
824.000000	19.693983
825.000000	19.749606
826.000000	19.808764
827.000000	19.868474
828.000000	19.894902
829.000000	19.922030
830.000000	19.946717
831.000000	19.970506
832.000000	19.995189
833.000000	20.019445
834.000000	20.041754
835.000000	20.062199
836.000000	20.080607
837.000000	20.131473
838.000000	20.185764
839.000000	20.234598
840.000000	20.280272
841.000000	20.331073
842.000000	20.379242
843.000000	20.427444
844.000000	20.478603
845.000000	20.531964
846.000000	20.577975
847.000000	20.591450
848.000000	20.604062
849.000000	20.622666
850.000000	20.641786
851.000000	20.653137
852.000000	20.659319
853.000000	20.672262
854.000000	20.674918
855.000000	20.681301
856.000000	20.686406
857.000000	20.717761
858.000000	21.040287
859.000000	21.110816
860.000000	21.183062
861.000000	21.285872
862.000000	21.394380
863.000000	21.469638
864.000000	21.553802
865.000000	21.633241
866.000000	21.694881
867.000000	21.727917
868.000000	21.469535
869.000000	21.460637
870.000000	21.425528
871.000000	21.389598
872.000000	21.351247
873.000000	21.336678
874.000000	21.320028
875.000000	21.278523
876.000000	21.285575
877.000000	21.268543
878.000000	21.251103
879.000000	21.233195
880.000000	21.240785
881.000000	21.221525
882.000000	21.178040
883.000000	21.161857
884.000000	21.118590
885.000000	21.101815
886.000000	21.060482
887.000000	21.043845
888.000000	21.027252
889.000000	21.010493
890.000000	20.993660
891.000000	20.976373
892.000000	20.984873
893.000000	20.941682
894.000000	20.951180
895.000000	20.934600
896.000000	20.918365
897.000000	20.901760
898.000000	20.884847
899.000000	20.868965
900.000000	20.852263
901.000000	20.837933
902.000000	20.822652
903.000000	20.832422
904.000000	20.817415
905.000000	20.828770
906.000000	20.839480
907.000000	20.851217
908.000000	20.863935
909.000000	20.876748
910.000000	20.890593
911.000000	20.878073
912.000000	20.891908
913.000000	20.881760
914.000000	20.896832
915.000000	20.886560
916.000000	20.878285
917.000000	20.869432
918.000000	20.859248
919.000000	20.876443
920.000000	20.868695
921.000000	20.886888
922.000000	20.879455
923.000000	20.896710
924.000000	20.888005
925.000000	20.904730
926.000000	20.920758
927.000000	20.937785
928.000000	20.954708
929.000000	20.945322
930.000000	20.961640
931.000000	20.977695
932.000000	20.995423
933.000000	21.013768
934.000000	21.058675
935.000000	21.103435
936.000000	21.122823
937.000000	21.142645
938.000000	21.163683
939.000000	21.208288
940.000000	21.252453
941.000000	21.296672
942.000000	21.340772
943.000000	21.384283
944.000000	21.403028
945.000000	21.422425
946.000000	21.466703
947.000000	21.510888
948.000000	21.555433
949.000000	21.576315
950.000000	21.596843
951.000000	21.618840
952.000000	21.640562
953.000000	21.662400
954.000000	21.683070
955.000000	21.703537
956.000000	21.725520
957.000000	21.746972
958.000000	21.768133
959.000000	21.789195
960.000000	21.811507
961.000000	21.832115
962.000000	21.851828
963.000000	21.871890
964.000000	21.893063
965.000000	21.914003
966.000000	21.934555
967.000000	21.954885
968.000000	21.976572
969.000000	21.997098
970.000000	22.017238
971.000000	22.038308
972.000000	22.059405
973.000000	22.081140
974.000000	22.101450
975.000000	22.122158
976.000000	22.142355
977.000000	22.163242
978.000000	22.183245
979.000000	22.204017
980.000000	22.224877
981.000000	22.245920
982.000000	22.268055
983.000000	22.288620
984.000000	22.334027
985.000000	22.380020
986.000000	22.426160
987.000000	22.471778
988.000000	22.517848
989.000000	22.564145
990.000000	22.609817
991.000000	22.655035
992.000000	22.700313
993.000000	22.746637
994.000000	22.767907
995.000000	22.788565
996.000000	22.809197
997.000000	22.829385
998.000000	22.849882
999.000000	22.869592
1000.000000	22.889470
1001.000000	22.910128
1002.000000	22.929500
1003.000000	22.948377
1004.000000	22.968152
1005.000000	22.987078
1006.000000	23.005825
1007.000000	23.025395
1008.000000	23.044240
1009.000000	23.063432
1010.000000	23.083063
1011.000000	23.101705
1012.000000	23.121175
1013.000000	23.141627
1014.000000	23.161867
1015.000000	23.207262
1016.000000	23.252870
1017.000000	23.297890
1018.000000	23.342615
1019.000000	23.387805
1020.000000	23.432858
1021.000000	23.478613
1022.000000	23.524567
1023.000000	23.570220
1024.000000	23.615603
1025.000000	23.635720
1026.000000	23.656267
1027.000000	23.677092
1028.000000	23.698092
1029.000000	23.719180
1030.000000	23.740412
1031.000000	23.760587
1032.000000	23.779998
1033.000000	23.799952
1034.000000	23.820025
1035.000000	23.840620
1036.000000	23.861325
1037.000000	23.881478
1038.000000	23.902013
1039.000000	23.922908
1040.000000	23.943352
1041.000000	23.963963
1042.000000	23.985095
1043.000000	24.030590
1044.000000	24.076515
1045.000000	24.122757
1046.000000	24.169115
1047.000000	24.215642
1048.000000	24.262197
1049.000000	24.308345
1050.000000	24.354330
1051.000000	24.400965
1052.000000	24.447597
1053.000000	24.468095
1054.000000	24.488648
1055.000000	24.509763
1056.000000	24.530757
1057.000000	24.551882
1058.000000	24.573083
1059.000000	24.595110
1060.000000	24.617815
1061.000000	24.640490
1062.000000	24.662803
1063.000000	24.685365
1064.000000	24.707940
1065.000000	24.729885
1066.000000	24.752262
1067.000000	24.775317
1068.000000	24.798270
1069.000000	24.820828
1070.000000	24.842907
1071.000000	24.889677
1072.000000	24.937932
1073.000000	24.987178
1074.000000	25.035835
1075.000000	25.084975
1076.000000	25.133790
1077.000000	25.182163
1078.000000	25.230670
1079.000000	25.278793
1080.000000	25.327328
1081.000000	25.350695
1082.000000	25.372390
1083.000000	25.394520
1084.000000	25.418552
1085.000000	25.442510
1086.000000	25.465935
1087.000000	25.489722
1088.000000	25.512552
1089.000000	25.535065
1090.000000	25.557525
1091.000000	25.580507
1092.000000	25.604765
1093.000000	25.629192
1094.000000	25.652358
1095.000000	25.674580
1096.000000	25.697247
1097.000000	25.719405
1098.000000	25.742670
1099.000000	25.766638
1100.000000	25.790165
1101.000000	25.814685
1102.000000	25.838167
1103.000000	25.885397
1104.000000	25.932015
1105.000000	25.979318
1106.000000	26.026935
1107.000000	26.074982
1108.000000	26.122487
1109.000000	26.169962
1110.000000	26.218080
1111.000000	26.264978
1112.000000	26.311307
1113.000000	26.333545
1114.000000	26.356605
1115.000000	26.379532
1116.000000	26.402103
1117.000000	26.424898
1118.000000	26.447455
1119.000000	26.468937
1120.000000	26.489860
1121.000000	26.510957
1122.000000	26.533687
1123.000000	26.556035
1124.000000	26.578220
1125.000000	26.599360
1126.000000	26.620255
1127.000000	26.639775
1128.000000	26.659060
1129.000000	26.679220
1130.000000	26.697427
1131.000000	26.713135
1132.000000	26.725700
1133.000000	26.739070
1134.000000	26.752398
1135.000000	26.767858
1136.000000	26.781392
1137.000000	26.792355
1138.000000	26.803355
1139.000000	26.812278
1140.000000	26.821555
1141.000000	26.832685
1142.000000	26.844407
1143.000000	26.855690
1144.000000	26.865263
1145.000000	26.874717
1146.000000	26.884115
1147.000000	26.895923
1148.000000	26.906502
1149.000000	26.917770
1150.000000	26.929552
1151.000000	26.940738
1152.000000	26.953240
1153.000000	26.965267
1154.000000	26.975957
1155.000000	26.985305
1156.000000	26.994297
1157.000000	27.002185
1158.000000	27.010015
1159.000000	27.017280
1160.000000	26.998582
1161.000000	26.977485
1162.000000	26.954265
1163.000000	26.927895
1164.000000	26.902572
1165.000000	26.875005
1166.000000	26.847327
1167.000000	26.819430
1168.000000	26.792517
1169.000000	26.765947
