PE UV       SUBTECH     SPECTRUM    ASCII       PEDS        4.00        
   -1
INBUCR0423-4.Sample.ASC
24/02/09
13:54:31.00
24/02/09
13:54:31.00
Vinicio Soto Monge
Chrysina aurora. Det: A. Solís. R. San Lorencito, 900 m. R. F. San Ramón, 5 km N de Colonia Palmareña. Prov Alajuela. COSTA RICA. 13-18 Jun 1993. I Curso Scarabaeidae. L-N-244500, 470700. INBIOCRI00139214
250,000000
1
Lambda 1050
1050L1511233
PerkinElmer UV WinLab 6.3.2.0749 / 2.02.05 Lambda 900 UV/VIS/NIR, Aug  7 2015 09:38:08

0
0
3350/servo 860,8/2
0
0
UV/VIS
1
1
1
DoubleDePol,CommonBeamDepol,RBeamAtt,SBeamAtt,60mm sphere, WB InGaAs Detector
0
0
0
0
Program
Program
3350/servo 860,8/2
3350/0,2 860,8/0,2
3350/0,2 860,8/0,2
0
15.00
 
 
 
0
 
860,8
319,2
860,8
Front
100
on
S:100 R:100
0
0
0
0
 
0
 
 
 
0
 
 
0
0
0
0
0
 
 
 
 
0
0


0
0
#HDR
-1
-1
#GR
nm
%R
1.0
0.0
2500,000000
-1,000000
2251
8
17,588500
1,073600
#DATA

250.000000	nan
251.000000	nan
252.000000	nan
253.000000	nan
254.000000	nan
255.000000	nan
256.000000	nan
257.000000	nan
258.000000	nan
259.000000	3.876503
260.000000	3.875726
261.000000	3.874792
262.000000	3.874023
263.000000	3.872620
264.000000	3.872667
265.000000	3.869994
266.000000	3.866928
267.000000	3.864268
268.000000	3.861497
269.000000	3.859858
270.000000	3.857563
271.000000	3.855425
272.000000	3.851281
273.000000	3.849349
274.000000	3.847035
275.000000	3.844154
276.000000	3.842890
277.000000	3.841541
278.000000	3.840102
279.000000	3.839402
280.000000	3.837242
281.000000	3.835433
282.000000	3.835330
283.000000	3.834317
284.000000	3.832601
285.000000	3.832521
286.000000	3.832137
287.000000	3.832223
288.000000	3.833484
289.000000	3.832115
290.000000	3.833787
291.000000	3.835378
292.000000	3.837499
293.000000	3.838271
294.000000	3.840862
295.000000	3.843076
296.000000	3.845237
297.000000	3.848078
298.000000	3.850339
299.000000	3.853766
300.000000	3.855629
301.000000	3.857885
302.000000	3.859895
303.000000	3.863618
304.000000	3.866030
305.000000	3.868823
306.000000	3.872324
307.000000	3.874698
308.000000	3.877734
309.000000	3.879693
310.000000	3.882605
311.000000	3.885596
312.000000	3.889510
313.000000	3.890489
314.000000	3.894223
315.000000	3.896676
316.000000	3.899994
317.000000	3.916007
318.000000	3.927057
319.000000	3.937285
320.000000	3.947754
321.000000	3.958959
322.000000	3.967082
323.000000	3.981525
324.000000	3.991557
325.000000	4.000840
326.000000	4.009902
327.000000	4.006848
328.000000	4.005434
329.000000	4.008465
330.000000	4.010580
331.000000	4.011328
332.000000	4.012576
333.000000	4.006997
334.000000	4.007358
335.000000	4.009132
336.000000	4.008354
337.000000	4.007974
338.000000	4.009673
339.000000	4.009614
340.000000	4.009740
341.000000	4.009563
342.000000	4.010039
343.000000	4.012994
344.000000	4.011800
345.000000	4.011464
346.000000	4.012271
347.000000	4.041674
348.000000	4.072274
349.000000	4.102921
350.000000	4.132561
351.000000	4.162175
352.000000	4.193388
353.000000	4.225854
354.000000	4.259254
355.000000	4.292313
356.000000	4.324013
357.000000	4.327070
358.000000	4.330026
359.000000	4.332376
360.000000	4.335757
361.000000	4.339432
362.000000	4.340817
363.000000	4.340206
364.000000	4.340427
365.000000	4.341778
366.000000	4.372535
367.000000	4.404717
368.000000	4.436564
369.000000	4.466701
370.000000	4.496141
371.000000	4.525229
372.000000	4.555731
373.000000	4.586991
374.000000	4.616406
375.000000	4.675475
376.000000	4.704107
377.000000	4.724776
378.000000	4.745498
379.000000	4.768013
380.000000	4.820582
381.000000	4.873278
382.000000	4.926661
383.000000	4.980652
384.000000	5.034656
385.000000	5.058457
386.000000	5.114292
387.000000	5.176586
388.000000	5.238812
389.000000	5.300778
390.000000	5.333100
391.000000	5.395430
392.000000	5.457200
393.000000	5.519191
394.000000	5.581703
395.000000	5.644118
396.000000	5.676934
397.000000	5.709632
398.000000	5.771465
399.000000	5.833609
400.000000	5.896025
401.000000	5.928833
402.000000	5.961301
403.000000	5.993555
404.000000	6.025882
405.000000	6.058579
406.000000	6.091109
407.000000	6.123316
408.000000	6.126018
409.000000	6.128938
410.000000	6.131865
411.000000	6.134558
412.000000	6.166913
413.000000	6.199740
414.000000	6.232591
415.000000	6.264944
416.000000	6.297181
417.000000	6.329872
418.000000	6.333316
419.000000	6.336164
420.000000	6.338880
421.000000	6.342031
422.000000	6.315954
423.000000	6.289710
424.000000	6.263182
425.000000	6.237066
426.000000	6.211223
427.000000	6.185226
428.000000	6.188554
429.000000	6.192022
430.000000	6.195852
431.000000	6.199771
432.000000	6.203516
433.000000	6.207504
434.000000	6.182298
435.000000	6.156675
436.000000	6.130788
437.000000	6.105298
438.000000	6.080180
439.000000	6.055200
440.000000	6.029900
441.000000	6.004393
442.000000	5.949568
443.000000	5.894568
444.000000	5.868700
445.000000	5.843077
446.000000	5.818196
447.000000	5.793347
448.000000	5.768316
449.000000	5.743315
450.000000	5.688995
451.000000	5.634869
452.000000	5.610261
453.000000	5.585755
454.000000	5.561620
455.000000	5.537449
456.000000	5.512851
457.000000	5.488217
458.000000	5.463619
459.000000	5.438999
460.000000	5.444090
461.000000	5.449179
462.000000	5.454232
463.000000	5.459377
464.000000	5.464762
465.000000	5.470408
466.000000	5.475911
467.000000	5.481333
468.000000	5.486975
469.000000	5.492756
470.000000	5.498226
471.000000	5.503411
472.000000	5.508700
473.000000	5.514033
474.000000	5.518918
475.000000	5.523525
476.000000	5.528181
477.000000	5.532812
478.000000	5.537318
479.000000	5.541443
480.000000	5.574601
481.000000	5.607413
482.000000	5.639617
483.000000	5.671522
484.000000	5.703772
485.000000	5.736587
486.000000	5.770026
487.000000	5.803907
488.000000	5.838141
489.000000	5.873414
490.000000	5.880671
491.000000	5.918929
492.000000	5.958005
493.000000	5.997882
494.000000	6.038493
495.000000	6.079427
496.000000	6.120515
497.000000	6.161698
498.000000	6.203384
499.000000	6.274712
500.000000	6.346159
501.000000	6.387512
502.000000	6.429367
503.000000	6.471613
504.000000	6.513813
505.000000	6.585403
506.000000	6.656900
507.000000	6.728693
508.000000	6.800340
509.000000	6.842019
510.000000	6.912813
511.000000	6.983939
512.000000	7.054688
513.000000	7.154431
514.000000	7.253591
515.000000	7.323003
516.000000	7.392246
517.000000	7.490419
518.000000	7.588228
519.000000	7.686072
520.000000	7.754322
521.000000	7.851906
522.000000	7.949629
523.000000	8.017896
524.000000	8.086379
525.000000	8.184695
526.000000	8.283484
527.000000	8.352949
528.000000	8.422787
529.000000	8.493102
530.000000	8.563610
531.000000	8.604951
532.000000	8.646738
533.000000	8.688728
534.000000	8.760504
535.000000	8.802761
536.000000	8.844902
537.000000	8.887558
538.000000	8.930459
539.000000	8.973276
540.000000	9.016324
541.000000	9.059453
542.000000	9.102373
543.000000	9.145484
544.000000	9.159095
545.000000	9.172533
546.000000	9.186021
547.000000	9.199468
548.000000	9.212567
549.000000	9.225675
550.000000	9.238743
551.000000	9.251881
552.000000	9.264779
553.000000	9.277389
554.000000	9.289867
555.000000	9.302373
556.000000	9.314544
557.000000	9.326619
558.000000	9.338657
559.000000	9.350633
560.000000	9.357958
561.000000	9.363749
562.000000	9.369568
563.000000	9.345644
564.000000	9.321669
565.000000	9.297634
566.000000	9.273311
567.000000	9.248847
568.000000	9.224318
569.000000	9.199776
570.000000	9.179005
571.000000	9.159462
572.000000	9.110519
573.000000	9.091337
574.000000	9.071924
575.000000	9.052696
576.000000	9.033821
577.000000	8.985287
578.000000	8.936743
579.000000	8.887966
580.000000	8.839642
581.000000	8.791368
582.000000	8.743078
583.000000	8.694616
584.000000	8.646019
585.000000	8.597636
586.000000	8.549439
587.000000	8.501174
588.000000	8.452956
589.000000	8.405150
590.000000	8.357292
591.000000	8.309228
592.000000	8.290810
593.000000	8.272328
594.000000	8.254359
595.000000	8.235972
596.000000	8.216995
597.000000	8.228127
598.000000	8.239200
599.000000	8.220539
600.000000	8.202147
601.000000	8.183375
602.000000	8.164717
603.000000	8.146277
604.000000	8.127960
605.000000	8.109737
606.000000	8.091565
607.000000	8.072972
608.000000	8.054539
609.000000	8.065574
610.000000	8.076548
611.000000	8.058683
612.000000	8.040359
613.000000	8.021689
614.000000	8.002871
615.000000	7.984234
616.000000	7.965867
617.000000	7.947605
618.000000	7.929074
619.000000	7.910670
620.000000	7.892271
621.000000	7.903166
622.000000	7.914418
623.000000	7.925868
624.000000	7.937484
625.000000	7.948402
626.000000	7.989056
627.000000	8.030144
628.000000	8.071763
629.000000	8.113246
630.000000	8.154658
631.000000	8.196404
632.000000	8.238216
633.000000	8.280508
634.000000	8.323086
635.000000	8.366400
636.000000	8.380417
637.000000	8.394152
638.000000	8.407679
639.000000	8.421598
640.000000	8.436282
641.000000	8.450950
642.000000	8.465645
643.000000	8.480081
644.000000	8.494613
645.000000	8.509896
646.000000	8.525018
647.000000	8.540153
648.000000	8.555955
649.000000	8.571848
650.000000	8.617424
651.000000	8.662746
652.000000	8.708843
653.000000	8.755402
654.000000	8.802288
655.000000	8.848453
656.000000	8.894905
657.000000	8.942024
658.000000	9.018423
659.000000	9.094892
660.000000	9.141364
661.000000	9.188562
662.000000	9.235623
663.000000	9.282616
664.000000	9.329176
665.000000	9.405831
666.000000	9.482202
667.000000	9.558415
668.000000	9.605119
669.000000	9.651619
670.000000	9.699019
671.000000	9.775616
672.000000	9.851487
673.000000	9.927413
674.000000	10.003491
675.000000	10.050039
676.000000	10.096865
677.000000	10.173027
678.000000	10.249168
679.000000	10.325495
680.000000	10.401277
681.000000	10.447975
682.000000	10.524628
683.000000	10.601140
684.000000	10.677392
685.000000	10.753026
686.000000	10.829018
687.000000	10.905020
688.000000	10.981410
689.000000	11.058023
690.000000	11.133959
691.000000	11.238999
692.000000	11.314085
693.000000	11.389739
694.000000	11.466073
695.000000	11.572033
696.000000	11.677935
697.000000	11.754673
698.000000	11.831225
699.000000	11.936395
700.000000	12.042379
701.000000	12.119122
702.000000	12.195732
703.000000	12.302202
704.000000	12.408534
705.000000	12.485672
706.000000	12.562672
707.000000	12.668052
708.000000	12.772890
709.000000	12.849366
710.000000	12.925814
711.000000	13.031488
712.000000	13.137574
713.000000	13.213677
714.000000	13.290233
715.000000	13.366257
716.000000	13.471782
717.000000	13.548774
718.000000	13.626301
719.000000	13.703045
720.000000	13.779668
721.000000	13.856696
722.000000	13.934005
723.000000	14.010924
724.000000	14.087128
725.000000	14.164008
726.000000	14.211690
727.000000	14.288931
728.000000	14.365862
729.000000	14.443161
730.000000	14.520512
731.000000	14.568798
732.000000	14.617439
733.000000	14.695404
734.000000	14.772869
735.000000	14.850221
736.000000	14.928101
737.000000	14.976653
738.000000	15.024884
739.000000	15.073339
740.000000	15.122240
741.000000	15.199889
742.000000	15.277473
743.000000	15.326425
744.000000	15.375183
745.000000	15.424056
746.000000	15.472698
747.000000	15.521335
748.000000	15.570881
749.000000	15.620543
750.000000	15.670008
751.000000	15.690604
752.000000	15.740609
753.000000	15.789549
754.000000	15.838946
755.000000	15.889033
756.000000	15.938584
757.000000	15.987341
758.000000	16.036126
759.000000	16.085148
760.000000	16.134500
761.000000	16.183493
762.000000	16.202497
763.000000	16.222436
764.000000	16.243049
765.000000	16.292832
766.000000	16.343139
767.000000	16.393935
768.000000	16.444643
769.000000	16.495539
770.000000	16.545510
771.000000	16.595008
772.000000	16.645830
773.000000	16.697163
774.000000	16.749004
775.000000	16.770752
776.000000	16.792352
777.000000	16.814835
778.000000	16.836341
779.000000	16.857259
780.000000	16.879025
781.000000	16.900737
782.000000	16.921551
783.000000	16.942478
784.000000	16.964036
785.000000	16.985520
786.000000	17.006275
787.000000	17.026429
788.000000	17.048652
789.000000	17.071511
790.000000	17.093415
791.000000	17.145529
792.000000	17.197683
793.000000	17.249441
794.000000	17.300264
795.000000	17.352567
796.000000	17.405738
797.000000	17.459066
798.000000	17.511222
799.000000	17.563121
800.000000	17.615128
801.000000	17.637992
802.000000	17.662554
803.000000	17.686902
804.000000	17.709525
805.000000	17.731474
806.000000	17.752341
807.000000	17.773250
808.000000	17.796357
809.000000	17.791614
810.000000	17.815410
811.000000	17.840822
812.000000	17.864680
813.000000	17.887331
814.000000	17.912436
815.000000	17.936297
816.000000	17.960133
817.000000	17.985339
818.000000	18.007784
819.000000	18.058447
820.000000	18.081161
821.000000	18.101615
822.000000	18.119901
823.000000	18.140050
824.000000	18.158942
825.000000	18.179251
826.000000	18.198887
827.000000	18.216792
828.000000	18.235156
829.000000	18.251340
830.000000	18.268111
831.000000	18.284665
832.000000	18.300308
833.000000	18.316621
834.000000	18.332909
835.000000	18.346900
836.000000	18.361501
837.000000	18.374973
838.000000	18.391592
839.000000	18.408403
840.000000	18.420636
841.000000	18.435352
842.000000	18.452759
843.000000	18.465512
844.000000	18.476819
845.000000	18.494848
846.000000	18.512985
847.000000	18.526571
848.000000	18.537357
849.000000	18.547485
850.000000	18.559540
851.000000	18.572084
852.000000	18.584780
853.000000	18.595801
854.000000	18.609044
855.000000	18.614025
856.000000	18.620270
857.000000	18.634556
858.000000	18.983789
859.000000	19.034478
860.000000	19.089785
861.000000	19.118343
862.000000	19.147227
863.000000	19.181157
864.000000	19.215468
865.000000	19.253204
866.000000	19.290063
867.000000	19.298694
868.000000	18.972120
869.000000	18.945762
870.000000	18.915292
871.000000	18.908158
872.000000	18.900168
873.000000	18.867832
874.000000	18.857077
875.000000	18.845510
876.000000	18.809058
877.000000	18.822835
878.000000	18.810737
879.000000	18.823453
880.000000	18.811495
881.000000	18.799857
882.000000	18.788792
883.000000	18.800833
884.000000	18.788818
885.000000	18.752090
886.000000	18.764018
887.000000	18.750625
888.000000	18.763003
889.000000	18.724843
890.000000	18.710928
891.000000	18.696015
892.000000	18.681203
893.000000	18.665230
894.000000	18.650820
895.000000	18.660528
896.000000	18.645185
897.000000	18.631180
898.000000	18.616142
899.000000	18.626155
900.000000	18.637652
901.000000	18.649830
902.000000	18.662005
903.000000	18.676332
904.000000	18.688207
905.000000	18.701470
906.000000	18.715925
907.000000	18.728790
908.000000	18.742170
909.000000	18.757247
910.000000	18.746830
911.000000	18.736945
912.000000	18.751742
913.000000	18.741040
914.000000	18.732325
915.000000	18.723363
916.000000	18.714717
917.000000	18.705637
918.000000	18.698057
919.000000	18.689387
920.000000	18.706193
921.000000	18.722935
922.000000	18.714145
923.000000	18.730065
924.000000	18.745570
925.000000	18.761170
926.000000	18.775645
927.000000	18.790995
928.000000	18.804720
929.000000	18.818200
930.000000	18.830022
931.000000	18.842248
932.000000	18.855770
933.000000	18.870442
934.000000	18.885317
935.000000	18.899695
936.000000	18.915512
937.000000	18.930965
938.000000	18.946632
939.000000	18.961745
940.000000	18.977360
941.000000	18.991882
942.000000	19.005038
943.000000	19.017893
944.000000	19.030100
945.000000	19.041090
946.000000	19.052003
947.000000	19.063932
948.000000	19.076503
949.000000	19.088835
950.000000	19.101155
951.000000	19.114540
952.000000	19.127730
953.000000	19.140745
954.000000	19.153618
955.000000	19.167893
956.000000	19.181075
957.000000	19.193448
958.000000	19.205170
959.000000	19.218550
960.000000	19.231600
961.000000	19.244177
962.000000	19.257413
963.000000	19.269425
964.000000	19.282750
965.000000	19.294797
966.000000	19.307572
967.000000	19.320293
968.000000	19.332150
969.000000	19.343268
970.000000	19.355135
971.000000	19.365682
972.000000	19.375972
973.000000	19.386600
974.000000	19.396397
975.000000	19.407455
976.000000	19.416833
977.000000	19.426825
978.000000	19.436253
979.000000	19.445425
980.000000	19.454987
981.000000	19.465387
982.000000	19.475653
983.000000	19.486250
984.000000	19.496320
985.000000	19.505312
986.000000	19.515328
987.000000	19.525100
988.000000	19.535253
989.000000	19.545485
990.000000	19.555080
991.000000	19.564530
992.000000	19.574045
993.000000	19.583452
994.000000	19.593555
995.000000	19.603558
996.000000	19.612905
997.000000	19.622048
998.000000	19.631760
999.000000	19.640190
1000.000000	19.648600
1001.000000	19.657923
1002.000000	19.666845
1003.000000	19.675540
1004.000000	19.683195
1005.000000	19.690685
1006.000000	19.699103
1007.000000	19.706672
1008.000000	19.714305
1009.000000	19.722888
1010.000000	19.731415
1011.000000	19.739055
1012.000000	19.746767
1013.000000	19.754790
1014.000000	19.762820
1015.000000	19.771003
1016.000000	19.778472
1017.000000	19.785865
1018.000000	19.793537
1019.000000	19.801647
1020.000000	19.810218
1021.000000	19.818378
1022.000000	19.826185
1023.000000	19.834242
1024.000000	19.842662
1025.000000	19.850715
1026.000000	19.859005
1027.000000	19.867997
1028.000000	19.877410
1029.000000	19.886547
1030.000000	19.895485
1031.000000	19.904995
1032.000000	19.914123
1033.000000	19.922930
1034.000000	19.932395
1035.000000	19.941903
1036.000000	19.951475
1037.000000	19.961633
1038.000000	19.971030
1039.000000	19.979965
1040.000000	19.988620
1041.000000	19.997305
1042.000000	20.006507
1043.000000	20.014608
1044.000000	20.022700
1045.000000	20.032085
1046.000000	20.040793
1047.000000	20.048413
1048.000000	20.081768
1049.000000	20.115158
1050.000000	20.148688
1051.000000	20.181497
1052.000000	20.213920
1053.000000	20.247710
1054.000000	20.281697
1055.000000	20.315293
1056.000000	20.348858
1057.000000	20.383400
1058.000000	20.392477
1059.000000	20.401542
1060.000000	20.410523
1061.000000	20.419890
1062.000000	20.429540
1063.000000	20.438570
1064.000000	20.446795
1065.000000	20.454902
1066.000000	20.464175
1067.000000	20.472910
1068.000000	20.481623
1069.000000	20.490770
1070.000000	20.500967
1071.000000	20.511123
1072.000000	20.520665
1073.000000	20.530893
1074.000000	20.541677
1075.000000	20.552443
1076.000000	20.562513
1077.000000	20.572368
1078.000000	20.581765
1079.000000	20.590297
1080.000000	20.598112
1081.000000	20.606800
1082.000000	20.615492
1083.000000	20.623090
1084.000000	20.629965
1085.000000	20.636978
1086.000000	20.644842
1087.000000	20.653400
1088.000000	20.661645
1089.000000	20.670053
1090.000000	20.678632
1091.000000	20.686485
1092.000000	20.694747
1093.000000	20.702655
1094.000000	20.710718
1095.000000	20.718478
1096.000000	20.725870
1097.000000	20.732090
1098.000000	20.737325
1099.000000	20.743942
1100.000000	20.750645
1101.000000	20.756808
1102.000000	20.787265
1103.000000	20.818680
1104.000000	20.849485
1105.000000	20.879938
1106.000000	20.910535
1107.000000	20.941553
1108.000000	20.973230
1109.000000	21.003708
1110.000000	21.033228
1111.000000	21.062262
1112.000000	21.067618
1113.000000	21.072122
1114.000000	21.076208
1115.000000	21.079642
1116.000000	21.082460
1117.000000	21.085080
1118.000000	21.087545
1119.000000	21.090147
1120.000000	21.091777
1121.000000	21.094650
1122.000000	21.096402
1123.000000	21.098322
1124.000000	21.100162
1125.000000	21.102697
1126.000000	21.079170
1127.000000	21.054713
1128.000000	21.029558
1129.000000	21.003020
1130.000000	20.976527
1131.000000	20.946158
1132.000000	20.913737
1133.000000	20.882105
1134.000000	20.852588
1135.000000	20.821722
1136.000000	20.814628
1137.000000	20.805420
1138.000000	20.796968
1139.000000	20.787942
1140.000000	20.778947
1141.000000	20.771835
1142.000000	20.765905
1143.000000	20.759058
1144.000000	20.751223
1145.000000	20.744265
1146.000000	20.738278
1147.000000	20.709595
1148.000000	20.679505
1149.000000	20.650543
1150.000000	20.622985
1151.000000	20.596108
1152.000000	20.568445
1153.000000	20.541992
1154.000000	20.514300
1155.000000	20.485895
1156.000000	20.456212
1157.000000	20.449303
1158.000000	20.442687
1159.000000	20.434868
1160.000000	20.425142
1161.000000	20.413970
1162.000000	20.402622
1163.000000	20.362705
1164.000000	20.322243
1165.000000	20.280820
1166.000000	20.239675
1167.000000	20.199760
1168.000000	20.158800
1169.000000	20.117690
1170.000000	20.077623
1171.000000	20.037670
1172.000000	19.997643
1173.000000	19.984000
