PE UV       SUBTECH     SPECTRUM    ASCII       PEDS        4.00        
   -1
INBUCR0424-4.Sample.ASC
24/02/09
14:11:40.00
24/02/09
14:11:40.00
Vinicio Soto Monge
Chrysina optima. R. Grande de Orosí. desde Puente R. Dos Amigos hasta la Represa. Prov. Cartago. COSTA RICA. 1400m-1800m. NOV 1995. R. Delgado, de Luz. L_N_18660_562000 #6371. INBIOCRI002361338. Falta élitro izquierdo
250,000000
1
Lambda 1050
1050L1511233
PerkinElmer UV WinLab 6.3.2.0749 / 2.02.05 Lambda 900 UV/VIS/NIR, Aug  7 2015 09:38:08

0
0
3350/servo 860,8/2
0
0
UV/VIS
1
1
1
DoubleDePol,CommonBeamDepol,RBeamAtt,SBeamAtt,60mm sphere, WB InGaAs Detector
0
0
0
0
Program
Program
3350/servo 860,8/2
3350/0,2 860,8/0,2
3350/0,2 860,8/0,2
0
15.00
 
 
 
0
 
860,8
319,2
860,8
Front
100
on
S:100 R:100
0
0
0
0
 
0
 
 
 
0
 
 
0
0
0
0
0
 
 
 
 
0
0


0
0
#HDR
-1
-1
#GR
nm
%R
1.0
0.0
2500,000000
-1,000000
2251
8
19,465100
1,404700
#DATA

250.000000	nan
251.000000	nan
252.000000	nan
253.000000	nan
254.000000	nan
255.000000	nan
256.000000	nan
257.000000	nan
258.000000	nan
259.000000	4.220609
260.000000	4.218953
261.000000	4.217691
262.000000	4.216196
263.000000	4.214223
264.000000	4.211943
265.000000	4.210280
266.000000	4.209474
267.000000	4.208232
268.000000	4.205449
269.000000	4.203406
270.000000	4.201513
271.000000	4.200849
272.000000	4.198492
273.000000	4.196052
274.000000	4.194635
275.000000	4.192515
276.000000	4.191230
277.000000	4.188706
278.000000	4.188400
279.000000	4.188508
280.000000	4.187934
281.000000	4.187194
282.000000	4.187340
283.000000	4.187355
284.000000	4.222964
285.000000	4.222774
286.000000	4.260115
287.000000	4.260293
288.000000	4.297866
289.000000	4.297614
290.000000	4.335429
291.000000	4.373038
292.000000	4.409192
293.000000	4.447485
294.000000	4.448037
295.000000	4.486141
296.000000	4.487044
297.000000	4.525204
298.000000	4.525959
299.000000	4.562262
300.000000	4.560761
301.000000	4.558842
302.000000	4.558361
303.000000	4.556643
304.000000	4.556167
305.000000	4.555540
306.000000	4.553698
307.000000	4.553046
308.000000	4.552459
309.000000	4.553034
310.000000	4.552520
311.000000	4.551489
312.000000	4.553544
313.000000	4.554769
314.000000	4.556023
315.000000	4.555444
316.000000	4.555794
317.000000	4.568885
318.000000	4.572233
319.000000	4.580847
320.000000	4.594115
321.000000	4.606831
322.000000	4.615971
323.000000	4.624632
324.000000	4.631619
325.000000	4.638255
326.000000	4.643720
327.000000	4.636223
328.000000	4.636860
329.000000	4.633599
330.000000	4.623559
331.000000	4.619990
332.000000	4.617276
333.000000	4.613744
334.000000	4.612780
335.000000	4.611378
336.000000	4.612044
337.000000	4.651852
338.000000	4.655648
339.000000	4.655016
340.000000	4.660129
341.000000	4.697446
342.000000	4.734243
343.000000	4.771345
344.000000	4.810205
345.000000	4.849311
346.000000	4.888178
347.000000	4.886390
348.000000	4.922027
349.000000	4.960668
350.000000	4.998138
351.000000	4.996176
352.000000	4.993608
353.000000	4.994269
354.000000	4.991366
355.000000	4.990713
356.000000	4.989113
357.000000	4.988578
358.000000	4.987216
359.000000	4.985741
360.000000	4.982515
361.000000	4.982829
362.000000	4.982952
363.000000	4.981488
364.000000	4.981462
365.000000	4.980519
366.000000	4.979638
367.000000	4.978960
368.000000	4.978250
369.000000	4.976964
370.000000	4.977278
371.000000	4.975471
372.000000	4.973057
373.000000	4.969805
374.000000	4.965060
375.000000	4.960260
376.000000	4.952834
377.000000	4.978145
378.000000	5.004026
379.000000	5.030946
380.000000	5.057164
381.000000	5.084411
382.000000	5.112858
383.000000	5.141922
384.000000	5.172105
385.000000	5.202788
386.000000	5.235988
387.000000	5.236187
388.000000	5.236512
389.000000	5.237078
390.000000	5.237272
391.000000	5.237054
392.000000	5.237183
393.000000	5.237811
394.000000	5.238482
395.000000	5.238647
396.000000	5.239032
397.000000	5.239919
398.000000	5.240884
399.000000	5.241572
400.000000	5.242098
401.000000	5.242778
402.000000	5.243896
403.000000	5.244507
404.000000	5.244733
405.000000	5.245307
406.000000	5.245877
407.000000	5.246527
408.000000	5.247005
409.000000	5.247621
410.000000	5.248412
411.000000	5.249133
412.000000	5.249373
413.000000	5.249492
414.000000	5.250097
415.000000	5.250984
416.000000	5.251349
417.000000	5.251471
418.000000	5.251688
419.000000	5.251942
420.000000	5.252344
421.000000	5.252483
422.000000	5.290694
423.000000	5.329205
424.000000	5.367467
425.000000	5.405495
426.000000	5.443886
427.000000	5.482478
428.000000	5.521031
429.000000	5.559114
430.000000	5.596967
431.000000	5.635031
432.000000	5.635145
433.000000	5.635159
434.000000	5.635052
435.000000	5.635003
436.000000	5.635156
437.000000	5.635084
438.000000	5.634585
439.000000	5.634472
440.000000	5.634783
441.000000	5.635073
442.000000	5.635108
443.000000	5.635075
444.000000	5.635102
445.000000	5.635142
446.000000	5.634995
447.000000	5.634929
448.000000	5.635619
449.000000	5.636623
450.000000	5.637228
451.000000	5.637836
452.000000	5.638746
453.000000	5.639932
454.000000	5.641107
455.000000	5.641983
456.000000	5.642864
457.000000	5.643846
458.000000	5.644723
459.000000	5.645308
460.000000	5.646020
461.000000	5.647032
462.000000	5.648032
463.000000	5.648794
464.000000	5.649601
465.000000	5.650653
466.000000	5.652015
467.000000	5.653265
468.000000	5.654067
469.000000	5.655074
470.000000	5.656131
471.000000	5.656778
472.000000	5.657268
473.000000	5.657722
474.000000	5.658150
475.000000	5.658349
476.000000	5.658202
477.000000	5.657895
478.000000	5.657617
479.000000	5.657137
480.000000	5.655894
481.000000	5.654071
482.000000	5.651746
483.000000	5.649419
484.000000	5.647388
485.000000	5.645818
486.000000	5.644618
487.000000	5.643930
488.000000	5.643814
489.000000	5.644228
490.000000	5.645881
491.000000	5.686659
492.000000	5.728456
493.000000	5.770630
494.000000	5.813004
495.000000	5.855684
496.000000	5.898653
497.000000	5.941568
498.000000	5.984425
499.000000	6.027491
500.000000	6.070667
501.000000	6.075959
502.000000	6.081409
503.000000	6.087093
504.000000	6.092757
505.000000	6.098106
506.000000	6.103179
507.000000	6.108144
508.000000	6.113331
509.000000	6.118281
510.000000	6.122622
511.000000	6.126475
512.000000	6.130088
513.000000	6.133513
514.000000	6.136676
515.000000	6.139519
516.000000	6.142283
517.000000	6.144926
518.000000	6.147192
519.000000	6.149142
520.000000	6.151093
521.000000	6.153258
522.000000	6.155441
523.000000	6.157607
524.000000	6.159863
525.000000	6.162646
526.000000	6.165843
527.000000	6.169245
528.000000	6.172770
529.000000	6.176906
530.000000	6.181654
531.000000	6.186791
532.000000	6.192240
533.000000	6.198216
534.000000	6.204739
535.000000	6.211610
536.000000	6.218547
537.000000	6.225972
538.000000	6.234062
539.000000	6.242621
540.000000	6.251378
541.000000	6.260395
542.000000	6.269857
543.000000	6.279730
544.000000	6.289670
545.000000	6.299786
546.000000	6.310200
547.000000	6.321041
548.000000	6.332150
549.000000	6.342994
550.000000	6.354219
551.000000	6.365601
552.000000	6.377311
553.000000	6.388854
554.000000	6.400715
555.000000	6.412757
556.000000	6.425326
557.000000	6.437872
558.000000	6.450247
559.000000	6.463055
560.000000	6.472716
561.000000	6.481827
562.000000	6.490826
563.000000	6.537844
564.000000	6.585078
565.000000	6.632418
566.000000	6.679733
567.000000	6.726726
568.000000	6.774261
569.000000	6.821819
570.000000	6.872641
571.000000	6.924313
572.000000	6.976269
573.000000	6.990706
574.000000	7.005355
575.000000	7.019997
576.000000	7.034696
577.000000	7.049954
578.000000	7.065261
579.000000	7.080877
580.000000	7.096831
581.000000	7.112902
582.000000	7.129280
583.000000	7.145747
584.000000	7.161968
585.000000	7.178547
586.000000	7.195684
587.000000	7.213064
588.000000	7.230441
589.000000	7.247906
590.000000	7.265656
591.000000	7.283825
592.000000	7.301900
593.000000	7.320465
594.000000	7.339064
595.000000	7.358434
596.000000	7.377453
597.000000	7.396634
598.000000	7.416058
599.000000	7.436049
600.000000	7.455726
601.000000	7.475718
602.000000	7.495974
603.000000	7.516230
604.000000	7.537451
605.000000	7.558561
606.000000	7.579752
607.000000	7.601616
608.000000	7.623992
609.000000	7.646660
610.000000	7.670102
611.000000	7.693983
612.000000	7.718797
613.000000	7.744143
614.000000	7.769877
615.000000	7.796537
616.000000	7.824299
617.000000	7.852759
618.000000	7.882209
619.000000	7.911908
620.000000	7.942970
621.000000	7.975461
622.000000	8.008239
623.000000	8.080140
624.000000	8.153547
625.000000	8.227917
626.000000	8.303536
627.000000	8.380030
628.000000	8.457763
629.000000	8.537969
630.000000	8.619288
631.000000	8.701357
632.000000	8.785688
633.000000	8.833936
634.000000	8.883363
635.000000	8.934126
636.000000	8.987046
637.000000	9.042191
638.000000	9.099025
639.000000	9.157412
640.000000	9.218038
641.000000	9.281270
642.000000	9.346930
643.000000	9.414358
644.000000	9.484357
645.000000	9.556721
646.000000	9.630941
647.000000	9.707383
648.000000	9.786148
649.000000	9.867159
650.000000	9.950823
651.000000	10.036287
652.000000	10.123719
653.000000	10.214130
654.000000	10.306832
655.000000	10.402340
656.000000	10.499581
657.000000	10.598606
658.000000	10.699335
659.000000	10.801643
660.000000	10.905090
661.000000	11.010201
662.000000	11.116800
663.000000	11.224279
664.000000	11.332684
665.000000	11.441499
666.000000	11.551532
667.000000	11.662352
668.000000	11.773293
669.000000	11.884112
670.000000	11.994461
671.000000	12.104641
672.000000	12.214121
673.000000	12.322709
674.000000	12.430619
675.000000	12.537754
676.000000	12.643526
677.000000	12.748049
678.000000	12.851813
679.000000	12.953860
680.000000	13.054822
681.000000	13.192128
682.000000	13.327281
683.000000	13.459235
684.000000	13.588817
685.000000	13.715903
686.000000	13.840383
687.000000	13.962049
688.000000	14.080652
689.000000	14.196730
690.000000	14.310663
691.000000	14.383760
692.000000	14.453734
693.000000	14.521733
694.000000	14.586691
695.000000	14.649368
696.000000	14.710195
697.000000	14.768437
698.000000	14.824237
699.000000	14.877692
700.000000	14.927543
701.000000	14.974412
702.000000	15.019980
703.000000	15.063639
704.000000	15.105247
705.000000	15.144166
706.000000	15.180749
707.000000	15.215264
708.000000	15.248192
709.000000	15.280021
710.000000	15.311083
711.000000	15.342304
712.000000	15.371622
713.000000	15.399039
714.000000	15.425044
715.000000	15.450131
716.000000	15.474583
717.000000	15.498691
718.000000	15.521762
719.000000	15.543781
720.000000	15.564824
721.000000	15.584165
722.000000	15.602192
723.000000	15.621272
724.000000	15.641288
725.000000	15.661388
726.000000	15.680373
727.000000	15.699874
728.000000	15.757343
729.000000	15.814289
730.000000	15.870801
731.000000	15.926752
732.000000	15.983403
733.000000	16.038724
734.000000	16.091814
735.000000	16.143962
736.000000	16.196823
737.000000	16.248783
738.000000	16.262372
739.000000	16.275710
740.000000	16.289192
741.000000	16.302423
742.000000	16.315214
743.000000	16.328627
744.000000	16.342719
745.000000	16.356361
746.000000	16.369011
747.000000	16.380456
748.000000	16.392459
749.000000	16.405532
750.000000	16.418004
751.000000	16.431255
752.000000	16.445343
753.000000	16.458346
754.000000	16.471305
755.000000	16.484988
756.000000	16.498861
757.000000	16.513440
758.000000	16.527857
759.000000	16.540529
760.000000	16.553607
761.000000	16.605219
762.000000	16.655130
763.000000	16.705304
764.000000	16.755000
765.000000	16.803196
766.000000	16.852152
767.000000	16.901234
768.000000	16.950452
769.000000	17.000564
770.000000	17.049117
771.000000	17.058779
772.000000	17.071133
773.000000	17.084029
774.000000	17.097494
775.000000	17.112718
776.000000	17.127413
777.000000	17.141806
778.000000	17.154490
779.000000	17.167921
780.000000	17.184380
781.000000	17.198989
782.000000	17.212359
783.000000	17.227135
784.000000	17.243419
785.000000	17.259627
786.000000	17.276177
787.000000	17.294052
788.000000	17.314634
789.000000	17.335225
790.000000	17.355091
791.000000	17.378125
792.000000	17.403214
793.000000	17.427863
794.000000	17.451812
795.000000	17.476995
796.000000	17.502111
797.000000	17.564939
798.000000	17.628078
799.000000	17.693146
800.000000	17.758735
801.000000	17.824279
802.000000	17.887487
803.000000	17.949485
804.000000	18.013268
805.000000	18.076431
806.000000	18.139378
807.000000	18.163850
808.000000	18.190841
809.000000	18.216332
810.000000	18.239180
811.000000	18.263077
812.000000	18.285946
813.000000	18.309700
814.000000	18.331359
815.000000	18.349268
816.000000	18.366920
817.000000	18.385221
818.000000	18.400565
819.000000	18.413511
820.000000	18.423975
821.000000	18.430334
822.000000	18.437730
823.000000	18.445703
824.000000	18.452391
825.000000	18.461513
826.000000	18.469095
827.000000	18.475052
828.000000	18.480383
829.000000	18.479800
830.000000	18.484124
831.000000	18.488681
832.000000	18.491898
833.000000	18.492958
834.000000	18.493791
835.000000	18.494503
836.000000	18.493722
837.000000	18.496175
838.000000	18.495239
839.000000	18.499531
840.000000	18.504302
841.000000	18.505134
842.000000	18.506826
843.000000	18.509312
844.000000	18.512977
845.000000	18.514294
846.000000	18.515333
847.000000	18.514384
848.000000	18.520419
849.000000	18.525098
850.000000	18.526478
851.000000	18.530669
852.000000	18.534646
853.000000	18.540082
854.000000	18.546499
855.000000	18.546626
856.000000	18.545573
857.000000	18.586972
858.000000	19.125136
859.000000	19.202332
860.000000	19.283773
861.000000	19.372842
862.000000	19.466550
863.000000	19.537445
864.000000	19.609728
865.000000	19.694542
866.000000	19.785382
867.000000	19.809605
868.000000	19.333115
869.000000	19.322040
870.000000	19.309335
871.000000	19.291253
872.000000	19.269758
873.000000	19.244925
874.000000	19.242107
875.000000	19.212085
876.000000	19.181142
877.000000	19.172950
878.000000	19.164825
879.000000	19.153798
880.000000	19.117795
881.000000	19.081925
882.000000	19.045170
883.000000	19.031913
884.000000	18.968877
885.000000	18.953602
886.000000	18.911760
887.000000	18.896187
888.000000	18.880187
889.000000	18.839995
890.000000	18.821963
891.000000	18.802962
892.000000	18.784805
893.000000	18.767235
894.000000	18.774017
895.000000	18.755615
896.000000	18.762930
897.000000	18.744835
898.000000	18.700668
899.000000	18.681610
900.000000	18.665040
901.000000	18.650020
902.000000	18.633947
903.000000	18.617420
904.000000	18.601530
905.000000	18.586717
906.000000	18.572410
907.000000	18.559015
908.000000	18.571885
909.000000	18.585793
910.000000	18.572378
911.000000	18.583895
912.000000	18.596047
913.000000	18.584902
914.000000	18.574115
915.000000	18.563472
916.000000	18.552000
917.000000	18.540905
918.000000	18.530797
919.000000	18.517670
920.000000	18.531085
921.000000	18.519960
922.000000	18.509368
923.000000	18.523200
924.000000	18.536985
925.000000	18.548805
926.000000	18.535700
927.000000	18.519835
928.000000	18.502380
929.000000	18.511393
930.000000	18.495043
931.000000	18.478860
932.000000	18.460712
933.000000	18.443863
934.000000	18.428538
935.000000	18.416297
936.000000	18.428600
937.000000	18.441353
938.000000	18.453827
939.000000	18.442620
940.000000	18.455655
941.000000	18.465742
942.000000	18.476342
943.000000	18.485455
944.000000	18.491825
945.000000	18.496750
946.000000	18.501812
947.000000	18.506620
948.000000	18.512977
949.000000	18.518082
950.000000	18.523023
951.000000	18.529965
952.000000	18.537280
953.000000	18.543780
954.000000	18.550665
955.000000	18.555920
956.000000	18.561163
957.000000	18.567175
958.000000	18.570255
959.000000	18.550105
960.000000	18.531038
961.000000	18.511350
962.000000	18.490282
963.000000	18.469145
964.000000	18.448005
965.000000	18.428513
966.000000	18.408535
967.000000	18.387695
968.000000	18.367265
969.000000	18.370928
970.000000	18.374862
971.000000	18.377190
972.000000	18.380082
973.000000	18.382402
974.000000	18.384490
975.000000	18.385045
976.000000	18.385433
977.000000	18.386508
978.000000	18.388300
979.000000	18.388562
980.000000	18.387415
981.000000	18.387082
982.000000	18.386367
983.000000	18.385663
984.000000	18.383937
985.000000	18.382153
986.000000	18.380997
987.000000	18.379735
988.000000	18.377795
989.000000	18.376605
990.000000	18.376105
991.000000	18.375030
992.000000	18.373795
993.000000	18.372187
994.000000	18.370963
995.000000	18.369972
996.000000	18.367695
997.000000	18.364720
998.000000	18.362147
999.000000	18.358845
1000.000000	18.354872
1001.000000	18.351105
1002.000000	18.346715
1003.000000	18.343473
1004.000000	18.341507
1005.000000	18.339530
1006.000000	18.336880
1007.000000	18.333715
1008.000000	18.330175
1009.000000	18.326637
1010.000000	18.322913
1011.000000	18.319308
1012.000000	18.316617
1013.000000	18.313010
1014.000000	18.307785
1015.000000	18.301660
1016.000000	18.297313
1017.000000	18.294208
1018.000000	18.290540
1019.000000	18.286630
1020.000000	18.282920
1021.000000	18.279367
1022.000000	18.275997
1023.000000	18.272555
1024.000000	18.269115
1025.000000	18.266787
1026.000000	18.264077
1027.000000	18.259808
1028.000000	18.255470
1029.000000	18.252305
1030.000000	18.248867
1031.000000	18.245145
1032.000000	18.241890
1033.000000	18.238835
1034.000000	18.236067
1035.000000	18.232933
1036.000000	18.229715
1037.000000	18.227235
1038.000000	18.225050
1039.000000	18.222615
1040.000000	18.219893
1041.000000	18.216260
1042.000000	18.186835
1043.000000	18.182662
1044.000000	18.178242
1045.000000	18.173220
1046.000000	18.168012
1047.000000	18.163533
1048.000000	18.159340
1049.000000	18.154023
1050.000000	18.148357
1051.000000	18.144000
1052.000000	18.164765
1053.000000	18.134730
1054.000000	18.104995
1055.000000	18.101390
1056.000000	18.098823
1057.000000	18.095243
1058.000000	18.065783
1059.000000	18.036368
1060.000000	18.007472
1061.000000	17.977967
1062.000000	17.948203
1063.000000	17.944263
1064.000000	17.939260
1065.000000	17.908183
1066.000000	17.876170
1067.000000	17.844575
1068.000000	17.838690
1069.000000	17.833897
1070.000000	17.829315
1071.000000	17.825198
1072.000000	17.820760
1073.000000	17.816662
1074.000000	17.813853
1075.000000	17.811113
1076.000000	17.808300
1077.000000	17.805422
1078.000000	17.801908
1079.000000	17.798358
1080.000000	17.794475
1081.000000	17.790118
1082.000000	17.786583
1083.000000	17.781617
1084.000000	17.777458
1085.000000	17.774092
1086.000000	17.769545
1087.000000	17.764308
1088.000000	17.760090
1089.000000	17.755625
1090.000000	17.751358
1091.000000	17.746905
1092.000000	17.740935
1093.000000	17.735225
1094.000000	17.729172
1095.000000	17.723148
1096.000000	17.717408
1097.000000	17.712038
1098.000000	17.706250
1099.000000	17.699680
1100.000000	17.692573
1101.000000	17.686218
1102.000000	17.681622
1103.000000	17.676628
1104.000000	17.671388
1105.000000	17.665617
1106.000000	17.660307
1107.000000	17.655242
1108.000000	17.649462
1109.000000	17.644195
1110.000000	17.639220
1111.000000	17.633775
1112.000000	17.626403
1113.000000	17.619445
1114.000000	17.612110
1115.000000	17.604625
1116.000000	17.598485
1117.000000	17.591405
1118.000000	17.585208
1119.000000	17.577615
1120.000000	17.569738
1121.000000	17.562335
1122.000000	17.555660
1123.000000	17.549498
1124.000000	17.541155
1125.000000	17.533202
1126.000000	17.523190
1127.000000	17.512802
1128.000000	17.501717
1129.000000	17.490902
1130.000000	17.478388
1131.000000	17.461993
1132.000000	17.442037
1133.000000	17.422580
1134.000000	17.407460
1135.000000	17.393538
1136.000000	17.378283
1137.000000	17.361405
1138.000000	17.343212
1139.000000	17.324360
1140.000000	17.306930
1141.000000	17.291978
1142.000000	17.278455
1143.000000	17.263185
1144.000000	17.245362
1145.000000	17.226355
1146.000000	17.210168
1147.000000	17.193875
1148.000000	17.178248
1149.000000	17.163887
1150.000000	17.150182
1151.000000	17.136430
1152.000000	17.124837
1153.000000	17.113238
1154.000000	17.099633
1155.000000	17.084567
1156.000000	17.066562
1157.000000	17.050883
1158.000000	17.034165
1159.000000	17.015283
1160.000000	16.994865
1161.000000	16.972457
1162.000000	16.948507
1163.000000	16.924050
1164.000000	16.898727
1165.000000	16.872438
1166.000000	16.847198
1167.000000	16.819437
1168.000000	16.793675
1169.000000	16.768655
1170.000000	16.743885
1171.000000	16.720308
