PE UV       SUBTECH     SPECTRUM    ASCII       PEDS        4.00        
   -1
INBUCR0415-4.Sample.ASC
24/02/09
12:13:28.00
24/02/09
12:13:28.00
Vinicio Soto Monge
Verde rojo iridiscente. Sin élitro izquierdo. 
250,000000
1
Lambda 1050
1050L1511233
PerkinElmer UV WinLab 6.3.2.0749 / 2.02.05 Lambda 900 UV/VIS/NIR, Aug  7 2015 09:38:08

0
0
3350/servo 860,8/2
0
0
UV/VIS
1
1
1
DoubleDePol,CommonBeamDepol,RBeamAtt,SBeamAtt,60mm sphere, WB InGaAs Detector
0
0
0
0
Program
Program
3350/servo 860,8/2
3350/0,2 860,8/0,2
3350/0,2 860,8/0,2
0
15.00
 
 
 
0
 
860,8
319,2
860,8
Front
100
on
S:100 R:100
0
0
0
0
 
0
 
 
 
0
 
 
0
0
0
0
0
 
 
 
 
0
0


0
0
#HDR
-1
-1
#GR
nm
%R
1.0
0.0
2500,000000
-1,000000
2251
8
19,341800
1,598600
#DATA

250.000000	nan
251.000000	nan
252.000000	nan
253.000000	nan
254.000000	nan
255.000000	nan
256.000000	nan
257.000000	nan
258.000000	nan
259.000000	4.923522
260.000000	4.920805
261.000000	4.918279
262.000000	4.954488
263.000000	4.952456
264.000000	4.949301
265.000000	4.947624
266.000000	4.942378
267.000000	4.938127
268.000000	4.933233
269.000000	4.890809
270.000000	4.886493
271.000000	4.881863
272.000000	4.840569
273.000000	4.837263
274.000000	4.833273
275.000000	4.829709
276.000000	4.827259
277.000000	4.824924
278.000000	4.823352
279.000000	4.821152
280.000000	4.818330
281.000000	4.816327
282.000000	4.813208
283.000000	4.811039
284.000000	4.808282
285.000000	4.805071
286.000000	4.803769
287.000000	4.802087
288.000000	4.800255
289.000000	4.797313
290.000000	4.794617
291.000000	4.792488
292.000000	4.790544
293.000000	4.788196
294.000000	4.786090
295.000000	4.783769
296.000000	4.779338
297.000000	4.774628
298.000000	4.769609
299.000000	4.766169
300.000000	4.763482
301.000000	4.760668
302.000000	4.757689
303.000000	4.754714
304.000000	4.752766
305.000000	4.750716
306.000000	4.785882
307.000000	4.784098
308.000000	4.821376
309.000000	4.856717
310.000000	4.892371
311.000000	4.928756
312.000000	4.964120
313.000000	4.998496
314.000000	5.033572
315.000000	5.068533
316.000000	5.067607
317.000000	5.136388
318.000000	5.152095
319.000000	5.167136
320.000000	5.179474
321.000000	5.187675
322.000000	5.198903
323.000000	5.210588
324.000000	5.224952
325.000000	5.232191
326.000000	5.237877
327.000000	5.214388
328.000000	5.199604
329.000000	5.184372
330.000000	5.174413
331.000000	5.166322
332.000000	5.160142
333.000000	5.145949
334.000000	5.131768
335.000000	5.125172
336.000000	5.122493
337.000000	5.109192
338.000000	5.102141
339.000000	5.103472
340.000000	5.096617
341.000000	5.091860
342.000000	5.085673
343.000000	5.086578
344.000000	5.082539
345.000000	5.079846
346.000000	5.073420
347.000000	5.074582
348.000000	5.076210
349.000000	5.069035
350.000000	5.066991
351.000000	5.064583
352.000000	5.060992
353.000000	5.056322
354.000000	5.052432
355.000000	5.048407
356.000000	5.044109
357.000000	5.039937
358.000000	5.035911
359.000000	5.030784
360.000000	5.027708
361.000000	5.021896
362.000000	5.015000
363.000000	5.011122
364.000000	5.008121
365.000000	5.003916
366.000000	4.999963
367.000000	4.994590
368.000000	4.988832
369.000000	4.983643
370.000000	4.976311
371.000000	4.971006
372.000000	4.965300
373.000000	4.959428
374.000000	4.951843
375.000000	4.944405
376.000000	4.936061
377.000000	4.920794
378.000000	4.904368
379.000000	4.891786
380.000000	4.879931
381.000000	4.867844
382.000000	4.856117
383.000000	4.844301
384.000000	4.834006
385.000000	4.823377
386.000000	4.813859
387.000000	4.811952
388.000000	4.810225
389.000000	4.808421
390.000000	4.806539
391.000000	4.805429
392.000000	4.804369
393.000000	4.803159
394.000000	4.801005
395.000000	4.799125
396.000000	4.797887
397.000000	4.796778
398.000000	4.796021
399.000000	4.795191
400.000000	4.793959
401.000000	4.792529
402.000000	4.791466
403.000000	4.790248
404.000000	4.789492
405.000000	4.789031
406.000000	4.788236
407.000000	4.787333
408.000000	4.786191
409.000000	4.784947
410.000000	4.784107
411.000000	4.783426
412.000000	4.782418
413.000000	4.781519
414.000000	4.780674
415.000000	4.779953
416.000000	4.779195
417.000000	4.778542
418.000000	4.777956
419.000000	4.777321
420.000000	4.776525
421.000000	4.775931
422.000000	4.775445
423.000000	4.774694
424.000000	4.774033
425.000000	4.773157
426.000000	4.772361
427.000000	4.771380
428.000000	4.770384
429.000000	4.769654
430.000000	4.769123
431.000000	4.768410
432.000000	4.767691
433.000000	4.767232
434.000000	4.766782
435.000000	4.766243
436.000000	4.765817
437.000000	4.765567
438.000000	4.765416
439.000000	4.765196
440.000000	4.764926
441.000000	4.764560
442.000000	4.764238
443.000000	4.763780
444.000000	4.763198
445.000000	4.762760
446.000000	4.762310
447.000000	4.762092
448.000000	4.761975
449.000000	4.761873
450.000000	4.761790
451.000000	4.761987
452.000000	4.762176
453.000000	4.762291
454.000000	4.762652
455.000000	4.763045
456.000000	4.763349
457.000000	4.763533
458.000000	4.763729
459.000000	4.763920
460.000000	4.764047
461.000000	4.764102
462.000000	4.764260
463.000000	4.764547
464.000000	4.764848
465.000000	4.765223
466.000000	4.765696
467.000000	4.766156
468.000000	4.766570
469.000000	4.767133
470.000000	4.767849
471.000000	4.768269
472.000000	4.768545
473.000000	4.768720
474.000000	4.768863
475.000000	4.768888
476.000000	4.768689
477.000000	4.768458
478.000000	4.768258
479.000000	4.767749
480.000000	4.766772
481.000000	4.765497
482.000000	4.763876
483.000000	4.762437
484.000000	4.761017
485.000000	4.759884
486.000000	4.759262
487.000000	4.759094
488.000000	4.759311
489.000000	4.759969
490.000000	4.761411
491.000000	4.763668
492.000000	4.766429
493.000000	4.769475
494.000000	4.772849
495.000000	4.776443
496.000000	4.780226
497.000000	4.783841
498.000000	4.787253
499.000000	4.790833
500.000000	4.794308
501.000000	4.797812
502.000000	4.801667
503.000000	4.842982
504.000000	4.884006
505.000000	4.925006
506.000000	4.965699
507.000000	5.006330
508.000000	5.047068
509.000000	5.087587
510.000000	5.127752
511.000000	5.167828
512.000000	5.207451
513.000000	5.209434
514.000000	5.211315
515.000000	5.212660
516.000000	5.213758
517.000000	5.177446
518.000000	5.140814
519.000000	5.103958
520.000000	5.067170
521.000000	5.030401
522.000000	4.993551
523.000000	4.956627
524.000000	4.919984
525.000000	4.883622
526.000000	4.847570
527.000000	4.848898
528.000000	4.850628
529.000000	4.852663
530.000000	4.855063
531.000000	4.857297
532.000000	4.860099
533.000000	4.863086
534.000000	4.866097
535.000000	4.869364
536.000000	4.872699
537.000000	4.876578
538.000000	4.918020
539.000000	4.959567
540.000000	5.001256
541.000000	5.043372
542.000000	5.085217
543.000000	5.127683
544.000000	5.170198
545.000000	5.212738
546.000000	5.255621
547.000000	5.298545
548.000000	5.303981
549.000000	5.309613
550.000000	5.315117
551.000000	5.320930
552.000000	5.327241
553.000000	5.333500
554.000000	5.340227
555.000000	5.347204
556.000000	5.354497
557.000000	5.361904
558.000000	5.369845
559.000000	5.378358
560.000000	5.385368
561.000000	5.392305
562.000000	5.400097
563.000000	5.408931
564.000000	5.419144
565.000000	5.430776
566.000000	5.444140
567.000000	5.459468
568.000000	5.476568
569.000000	5.495989
570.000000	5.520412
571.000000	5.547980
572.000000	5.578215
573.000000	5.611613
574.000000	5.685760
575.000000	5.763707
576.000000	5.846030
577.000000	5.933523
578.000000	6.026628
579.000000	6.125901
580.000000	6.232468
581.000000	6.346813
582.000000	6.470740
583.000000	6.604649
584.000000	6.712232
585.000000	6.868939
586.000000	7.037302
587.000000	7.217453
588.000000	7.408928
589.000000	7.611716
590.000000	7.823579
591.000000	8.042923
592.000000	8.303689
593.000000	8.565977
594.000000	8.826051
595.000000	9.043295
596.000000	9.250184
597.000000	9.443265
598.000000	9.656969
599.000000	9.849865
600.000000	10.019860
601.000000	10.164583
602.000000	10.245016
603.000000	10.297690
604.000000	10.323232
605.000000	10.358869
606.000000	10.370880
607.000000	10.359115
608.000000	10.290406
609.000000	10.203387
610.000000	10.101015
611.000000	9.986745
612.000000	9.901635
613.000000	9.811022
614.000000	9.716980
615.000000	9.586106
616.000000	9.457120
617.000000	9.371362
618.000000	9.291643
619.000000	9.220592
620.000000	9.159727
621.000000	9.147350
622.000000	9.109360
623.000000	9.082970
624.000000	9.068038
625.000000	9.101183
626.000000	9.143970
627.000000	9.157569
628.000000	9.177840
629.000000	9.203693
630.000000	9.233548
631.000000	9.229907
632.000000	9.228445
633.000000	9.229645
634.000000	9.233556
635.000000	9.201663
636.000000	9.134514
637.000000	9.069876
638.000000	9.008114
639.000000	8.911645
640.000000	8.817679
641.000000	8.725551
642.000000	8.598406
643.000000	8.472584
644.000000	8.309959
645.000000	8.148286
646.000000	8.025022
647.000000	7.864788
648.000000	7.704975
649.000000	7.583098
650.000000	7.424418
651.000000	7.266377
652.000000	7.146102
653.000000	6.988955
654.000000	6.870031
655.000000	6.752245
656.000000	6.634510
657.000000	6.554406
658.000000	6.474169
659.000000	6.357022
660.000000	6.277469
661.000000	6.198316
662.000000	6.119041
663.000000	6.077392
664.000000	6.036232
665.000000	5.995067
666.000000	5.954199
667.000000	5.913926
668.000000	5.874553
669.000000	5.872381
670.000000	5.870824
671.000000	5.869146
672.000000	5.868637
673.000000	5.867941
674.000000	5.867400
675.000000	5.866978
676.000000	5.866798
677.000000	5.829209
678.000000	5.791585
679.000000	5.754440
680.000000	5.717476
681.000000	5.680783
682.000000	5.643548
683.000000	5.607278
684.000000	5.571033
685.000000	5.535181
686.000000	5.499411
687.000000	5.500992
688.000000	5.502889
689.000000	5.505152
690.000000	5.507233
691.000000	5.509395
692.000000	5.511807
693.000000	5.514292
694.000000	5.517101
695.000000	5.519960
696.000000	5.522791
697.000000	5.526103
698.000000	5.529583
699.000000	5.532890
700.000000	5.536363
701.000000	5.540297
702.000000	5.544250
703.000000	5.548318
704.000000	5.552397
705.000000	5.556100
706.000000	5.559964
707.000000	5.564029
708.000000	5.568196
709.000000	5.572567
710.000000	5.577098
711.000000	5.581827
712.000000	5.586841
713.000000	5.591639
714.000000	5.596444
715.000000	5.601767
716.000000	5.607298
717.000000	5.612942
718.000000	5.655783
719.000000	5.698701
720.000000	5.741983
721.000000	5.785228
722.000000	5.828427
723.000000	5.871613
724.000000	5.915179
725.000000	5.959109
726.000000	6.003219
727.000000	6.047292
728.000000	6.054270
729.000000	6.061113
730.000000	6.067864
731.000000	6.074555
732.000000	6.081379
733.000000	6.088758
734.000000	6.096085
735.000000	6.103126
736.000000	6.110205
737.000000	6.117742
738.000000	6.125339
739.000000	6.133058
740.000000	6.141237
741.000000	6.149918
742.000000	6.158547
743.000000	6.167020
744.000000	6.175261
745.000000	6.183576
746.000000	6.192221
747.000000	6.200768
748.000000	6.209336
749.000000	6.218570
750.000000	6.227821
751.000000	6.236491
752.000000	6.245823
753.000000	6.255886
754.000000	6.266656
755.000000	6.277742
756.000000	6.288318
757.000000	6.298717
758.000000	6.309641
759.000000	6.319877
760.000000	6.367380
761.000000	6.416038
762.000000	6.464759
763.000000	6.512267
764.000000	6.559552
765.000000	6.607587
766.000000	6.656690
767.000000	6.705425
768.000000	6.753173
769.000000	6.801571
770.000000	6.813028
771.000000	6.824287
772.000000	6.835157
773.000000	6.846592
774.000000	6.858713
775.000000	6.870792
776.000000	6.882011
777.000000	6.894350
778.000000	6.907598
779.000000	6.920990
780.000000	6.933970
781.000000	6.946734
782.000000	6.959883
783.000000	6.973998
784.000000	6.988296
785.000000	7.000942
786.000000	7.014826
787.000000	7.066256
788.000000	7.117550
789.000000	7.169110
790.000000	7.221371
791.000000	7.272760
792.000000	7.324399
793.000000	7.376331
794.000000	7.427961
795.000000	7.480641
796.000000	7.533011
797.000000	7.547494
798.000000	7.561795
799.000000	7.575323
800.000000	7.588589
801.000000	7.603665
802.000000	7.619090
803.000000	7.634653
804.000000	7.649948
805.000000	7.666372
806.000000	7.682201
807.000000	7.698505
808.000000	7.717057
809.000000	7.735693
810.000000	7.753928
811.000000	7.808375
812.000000	7.862390
813.000000	7.915154
814.000000	7.969463
815.000000	8.024147
816.000000	8.078860
817.000000	8.133498
818.000000	8.186572
819.000000	8.240978
820.000000	8.296254
821.000000	8.312954
822.000000	8.329551
823.000000	8.347158
824.000000	8.362917
825.000000	8.378466
826.000000	8.395228
827.000000	8.410067
828.000000	8.423923
829.000000	8.437662
830.000000	8.452152
831.000000	8.468102
832.000000	8.522403
833.000000	8.575294
834.000000	8.628830
835.000000	8.681799
836.000000	8.731806
837.000000	8.785904
838.000000	8.841614
839.000000	8.894695
840.000000	8.945290
841.000000	8.996370
842.000000	9.007992
843.000000	9.022208
844.000000	9.037043
845.000000	9.051194
846.000000	9.066685
847.000000	9.077885
848.000000	9.091656
849.000000	9.107993
850.000000	9.119883
851.000000	9.132934
852.000000	9.147393
853.000000	9.159315
854.000000	9.173003
855.000000	9.180637
856.000000	9.226523
857.000000	9.283520
858.000000	9.710735
859.000000	9.780601
860.000000	9.856798
861.000000	9.932783
862.000000	10.035162
863.000000	10.114274
864.000000	10.192438
865.000000	10.251468
866.000000	10.298808
867.000000	10.288070
868.000000	9.930285
869.000000	9.928887
870.000000	9.927510
871.000000	9.924898
872.000000	9.897333
873.000000	9.869000
874.000000	9.839150
875.000000	9.836685
876.000000	9.807418
877.000000	9.828503
878.000000	9.822767
879.000000	9.817550
880.000000	9.786895
881.000000	9.757090
882.000000	9.727290
883.000000	9.722840
884.000000	9.717622
885.000000	9.686320
886.000000	9.656650
887.000000	9.651143
888.000000	9.646812
889.000000	9.642210
890.000000	9.663375
891.000000	9.683765
892.000000	9.702408
893.000000	9.721900
894.000000	9.743250
895.000000	9.789067
896.000000	9.835205
897.000000	9.831200
898.000000	9.827743
899.000000	9.825318
900.000000	9.821713
901.000000	9.819498
902.000000	9.818560
903.000000	9.816892
904.000000	9.815228
905.000000	9.813627
906.000000	9.813220
907.000000	9.837453
908.000000	9.861415
909.000000	9.884225
910.000000	9.908400
911.000000	9.933027
912.000000	9.956408
913.000000	9.981580
914.000000	10.005855
915.000000	10.031195
916.000000	10.055165
917.000000	10.080147
918.000000	10.104347
919.000000	10.130130
920.000000	10.155438
921.000000	10.180718
922.000000	10.206817
923.000000	10.230168
924.000000	10.253897
925.000000	10.277972
926.000000	10.301980
927.000000	10.325582
928.000000	10.348733
929.000000	10.371280
930.000000	10.394127
931.000000	10.416197
932.000000	10.439262
933.000000	10.462428
934.000000	10.486437
935.000000	10.509488
936.000000	10.533363
937.000000	10.557303
938.000000	10.581355
939.000000	10.606428
940.000000	10.630393
941.000000	10.654140
942.000000	10.676047
943.000000	10.700257
944.000000	10.723065
945.000000	10.745955
946.000000	10.767820
947.000000	10.789710
948.000000	10.836902
949.000000	10.883642
950.000000	10.931772
951.000000	10.979162
952.000000	11.026808
953.000000	11.073680
954.000000	11.121350
955.000000	11.168400
956.000000	11.216585
957.000000	11.265047
958.000000	11.288398
959.000000	11.311080
960.000000	11.333048
961.000000	11.356542
962.000000	11.380043
963.000000	11.402120
964.000000	11.425160
965.000000	11.447612
966.000000	11.469243
967.000000	11.490647
968.000000	11.512692
969.000000	11.534672
970.000000	11.556592
971.000000	11.577390
972.000000	11.623997
973.000000	11.646480
974.000000	11.667620
975.000000	11.714175
976.000000	11.760952
977.000000	11.807987
978.000000	11.854832
979.000000	11.901768
980.000000	11.948740
981.000000	11.995210
982.000000	12.016060
983.000000	12.062397
984.000000	12.109108
985.000000	12.131755
986.000000	12.153627
987.000000	12.174077
988.000000	12.194945
989.000000	12.216205
990.000000	12.237512
991.000000	12.259385
992.000000	12.281927
993.000000	12.302855
994.000000	12.323800
995.000000	12.370370
996.000000	12.416818
997.000000	12.463962
998.000000	12.510638
999.000000	12.556887
1000.000000	12.603497
1001.000000	12.650010
1002.000000	12.695710
1003.000000	12.742510
1004.000000	12.788735
1005.000000	12.808382
1006.000000	12.828442
1007.000000	12.848800
1008.000000	12.869013
1009.000000	12.889333
1010.000000	12.909030
1011.000000	12.928473
1012.000000	12.948060
1013.000000	12.967830
1014.000000	12.988148
1015.000000	13.034377
1016.000000	13.080687
1017.000000	13.126797
1018.000000	13.173100
1019.000000	13.219252
1020.000000	13.265505
1021.000000	13.311677
1022.000000	13.358183
1023.000000	13.404177
1024.000000	13.449727
1025.000000	13.470313
1026.000000	13.490525
1027.000000	13.510422
1028.000000	13.530053
1029.000000	13.549620
1030.000000	13.570125
1031.000000	13.591025
1032.000000	13.611480
1033.000000	13.632520
1034.000000	13.653342
1035.000000	13.698182
1036.000000	13.743377
1037.000000	13.789920
1038.000000	13.836482
1039.000000	13.882095
1040.000000	13.927040
1041.000000	13.971565
1042.000000	14.016220
1043.000000	14.060588
1044.000000	14.105142
1045.000000	14.125430
1046.000000	14.145800
1047.000000	14.164300
1048.000000	14.182735
1049.000000	14.202475
1050.000000	14.221905
1051.000000	14.241565
1052.000000	14.261475
1053.000000	14.306190
1054.000000	14.350480
1055.000000	14.394393
1056.000000	14.438370
1057.000000	14.482608
1058.000000	14.526975
1059.000000	14.571617
1060.000000	14.616380
1061.000000	14.661562
1062.000000	14.706355
1063.000000	14.725655
1064.000000	14.744922
1065.000000	14.764442
1066.000000	14.783027
1067.000000	14.801912
1068.000000	14.821815
1069.000000	14.841505
1070.000000	14.861180
1071.000000	14.904580
1072.000000	14.948418
1073.000000	14.993173
1074.000000	15.038655
1075.000000	15.083558
1076.000000	15.128560
1077.000000	15.173785
1078.000000	15.217398
1079.000000	15.260605
1080.000000	15.303712
1081.000000	15.322310
1082.000000	15.341435
1083.000000	15.359325
1084.000000	15.376790
1085.000000	15.394567
1086.000000	15.412938
1087.000000	15.431332
1088.000000	15.449642
1089.000000	15.468175
1090.000000	15.511323
1091.000000	15.554583
1092.000000	15.597722
1093.000000	15.640985
1094.000000	15.684155
1095.000000	15.727998
1096.000000	15.771907
1097.000000	15.814220
1098.000000	15.857625
1099.000000	15.900108
1100.000000	15.917645
1101.000000	15.935673
1102.000000	15.952243
1103.000000	15.969518
1104.000000	15.987172
1105.000000	16.003860
1106.000000	16.019525
1107.000000	16.036918
1108.000000	16.053795
1109.000000	16.070790
1110.000000	16.087470
1111.000000	16.129393
1112.000000	16.171298
1113.000000	16.212422
1114.000000	16.252643
1115.000000	16.292837
1116.000000	16.334245
1117.000000	16.374830
1118.000000	16.414960
1119.000000	16.455163
1120.000000	16.495405
1121.000000	16.510235
1122.000000	16.526623
1123.000000	16.542875
1124.000000	16.559000
1125.000000	16.574283
1126.000000	16.589347
1127.000000	16.604710
1128.000000	16.619735
1129.000000	16.634625
1130.000000	16.648920
1131.000000	16.659982
1132.000000	16.667935
1133.000000	16.677040
1134.000000	16.688995
1135.000000	16.701660
1136.000000	16.713015
1137.000000	16.722725
1138.000000	16.732067
1139.000000	16.741402
1140.000000	16.751632
1141.000000	16.762665
1142.000000	16.775490
1143.000000	16.786538
1144.000000	16.796035
1145.000000	16.806090
1146.000000	16.841507
1147.000000	16.853082
1148.000000	16.864840
1149.000000	16.901240
1150.000000	16.936438
1151.000000	16.972900
1152.000000	17.010850
1153.000000	17.048645
1154.000000	17.085505
1155.000000	17.120332
1156.000000	17.129342
1157.000000	17.161818
1158.000000	17.194358
1159.000000	17.200567
1160.000000	17.207210
1161.000000	17.212670
1162.000000	17.214950
1163.000000	17.217813
1164.000000	17.218045
1165.000000	17.218653
1166.000000	17.218310
1167.000000	17.218995
1168.000000	17.220100
1169.000000	17.222117
1170.000000	17.222933
1171.000000	17.224515
1172.000000	17.227228
1173.000000	17.229717
1174.000000	17.234560
1175.000000	17.239548
1176.000000	17.246770
1177.000000	17.253567
1178.000000	17.260043
1179.000000	17.266787
1180.000000	17.273470
1181.000000	17.281415
1182.000000	17.290508
1183.000000	17.300082
1184.000000	17.309508
1185.000000	17.319762
1186.000000	17.329817
1187.000000	17.341028
1188.000000	17.351980
1189.000000	17.363830
1190.000000	17.377185
