PE UV       SUBTECH     SPECTRUM    ASCII       PEDS        4.00        
   -1
INBUCR0134-4.Sample.ASC
24/02/07
13:42:53.00
24/02/07
13:42:53.00
Vinicio Soto Monge
Pelidnota fromeri. Color café con ambos élitros (Det: A. Solís) COSTA RICA Prov. Guanacaste. Cañas. P.N. Volcán Tenorio. Río Martirio. La Rejolla. 1000-1100m 14-15 JUN 2007.  Tp. Luz Mercurio. L_N_292650_422850 #91628 INB0004090474 
250,000000
1
Lambda 1050
1050L1511233
PerkinElmer UV WinLab 6.3.2.0749 / 2.02.05 Lambda 900 UV/VIS/NIR, Aug  7 2015 09:38:08

0
0
3350/servo 860,8/2
0
0
UV/VIS
1
1
1
DoubleDePol,CommonBeamDepol,RBeamAtt,SBeamAtt,60mm sphere, WB InGaAs Detector
0
0
0
0
Program
Program
3350/servo 860,8/2
3350/0,2 860,8/0,2
3350/0,2 860,8/0,2
0
15.00
 
 
 
0
 
860,8
319,2
860,8
Front
100
on
S:100 R:100
0
0
0
0
 
0
 
 
 
0
 
 
0
0
0
0
0
 
 
 
 
0
0


0
0
#HDR
-1
-1
#GR
nm
%R
1.0
0.0
2500,000000
-1,000000
2251
8
15,650000
1,122000
#DATA

250.000000	nan
251.000000	nan
252.000000	nan
253.000000	nan
254.000000	nan
255.000000	nan
256.000000	nan
257.000000	nan
258.000000	nan
259.000000	3.050915
260.000000	3.042986
261.000000	3.035260
262.000000	3.025424
263.000000	3.015927
264.000000	3.004033
265.000000	2.992651
266.000000	2.979544
267.000000	2.967529
268.000000	2.953814
269.000000	2.941616
270.000000	2.927938
271.000000	2.915524
272.000000	2.902456
273.000000	2.889660
274.000000	2.879398
275.000000	2.871102
276.000000	2.863237
277.000000	2.855334
278.000000	2.849750
279.000000	2.843710
280.000000	2.837540
281.000000	2.831621
282.000000	2.825711
283.000000	2.822237
284.000000	2.817065
285.000000	2.810342
286.000000	2.803280
287.000000	2.798710
288.000000	2.795763
289.000000	2.792516
290.000000	2.788622
291.000000	2.784494
292.000000	2.783045
293.000000	2.778186
294.000000	2.776110
295.000000	2.772758
296.000000	2.774071
297.000000	2.774022
298.000000	2.769150
299.000000	2.768174
300.000000	2.768214
301.000000	2.768089
302.000000	2.765617
303.000000	2.763536
304.000000	2.761001
305.000000	2.760163
306.000000	2.755567
307.000000	2.750290
308.000000	2.746809
309.000000	2.741649
310.000000	2.736894
311.000000	2.731187
312.000000	2.729902
313.000000	2.728273
314.000000	2.725714
315.000000	2.721895
316.000000	2.721178
317.000000	2.740663
318.000000	2.761064
319.000000	2.783867
320.000000	2.802634
321.000000	2.822415
322.000000	2.842013
323.000000	2.858973
324.000000	2.877140
325.000000	2.893530
326.000000	2.911057
327.000000	2.903701
328.000000	2.888740
329.000000	2.875224
330.000000	2.869745
331.000000	2.861119
332.000000	2.845835
333.000000	2.837008
334.000000	2.828587
335.000000	2.820217
336.000000	2.809872
337.000000	2.806793
338.000000	2.814459
339.000000	2.812974
340.000000	2.805014
341.000000	2.801688
342.000000	2.803680
343.000000	2.803034
344.000000	2.801560
345.000000	2.800359
346.000000	2.794837
347.000000	2.791586
348.000000	2.781016
349.000000	2.774044
350.000000	2.770430
351.000000	2.765963
352.000000	2.761616
353.000000	2.756289
354.000000	2.753832
355.000000	2.750939
356.000000	2.750592
357.000000	2.746250
358.000000	2.746696
359.000000	2.746738
360.000000	2.743997
361.000000	2.745442
362.000000	2.740811
363.000000	2.738027
364.000000	2.733972
365.000000	2.733635
366.000000	2.732020
367.000000	2.729786
368.000000	2.728481
369.000000	2.727983
370.000000	2.727783
371.000000	2.721405
372.000000	2.719306
373.000000	2.715028
374.000000	2.707651
375.000000	2.700158
376.000000	2.698866
377.000000	2.690713
378.000000	2.679392
379.000000	2.669771
380.000000	2.661576
381.000000	2.654776
382.000000	2.648264
383.000000	2.644109
384.000000	2.640244
385.000000	2.635534
386.000000	2.626537
387.000000	2.625437
388.000000	2.624922
389.000000	2.623790
390.000000	2.623195
391.000000	2.623289
392.000000	2.622345
393.000000	2.621148
394.000000	2.620838
395.000000	2.620963
396.000000	2.620913
397.000000	2.620726
398.000000	2.620560
399.000000	2.620509
400.000000	2.620353
401.000000	2.620119
402.000000	2.620685
403.000000	2.621307
404.000000	2.621816
405.000000	2.622132
406.000000	2.623068
407.000000	2.624313
408.000000	2.625375
409.000000	2.626908
410.000000	2.628488
411.000000	2.630033
412.000000	2.631458
413.000000	2.633281
414.000000	2.635456
415.000000	2.637746
416.000000	2.640084
417.000000	2.642922
418.000000	2.646138
419.000000	2.649625
420.000000	2.653690
421.000000	2.658059
422.000000	2.662975
423.000000	2.668309
424.000000	2.673899
425.000000	2.679661
426.000000	2.685901
427.000000	2.692363
428.000000	2.699061
429.000000	2.706020
430.000000	2.712927
431.000000	2.720196
432.000000	2.727655
433.000000	2.735019
434.000000	2.742626
435.000000	2.750684
436.000000	2.758817
437.000000	2.767049
438.000000	2.775731
439.000000	2.784573
440.000000	2.793553
441.000000	2.802848
442.000000	2.812592
443.000000	2.822740
444.000000	2.833160
445.000000	2.843521
446.000000	2.853786
447.000000	2.864030
448.000000	2.874432
449.000000	2.885018
450.000000	2.895978
451.000000	2.906949
452.000000	2.917599
453.000000	2.928534
454.000000	2.939676
455.000000	2.951283
456.000000	2.963242
457.000000	2.975414
458.000000	2.987759
459.000000	2.999897
460.000000	3.012012
461.000000	3.024397
462.000000	3.037285
463.000000	3.050282
464.000000	3.063266
465.000000	3.076362
466.000000	3.089402
467.000000	3.103061
468.000000	3.116917
469.000000	3.131024
470.000000	3.145298
471.000000	3.159915
472.000000	3.174719
473.000000	3.189555
474.000000	3.204971
475.000000	3.220829
476.000000	3.237237
477.000000	3.253582
478.000000	3.270100
479.000000	3.287036
480.000000	3.304413
481.000000	3.321987
482.000000	3.340259
483.000000	3.359293
484.000000	3.378317
485.000000	3.397784
486.000000	3.417429
487.000000	3.437412
488.000000	3.457913
489.000000	3.478697
490.000000	3.500029
491.000000	3.522122
492.000000	3.544237
493.000000	3.566552
494.000000	3.588913
495.000000	3.611472
496.000000	3.634778
497.000000	3.658422
498.000000	3.682664
499.000000	3.707330
500.000000	3.732352
501.000000	3.757509
502.000000	3.783274
503.000000	3.809093
504.000000	3.836355
505.000000	3.863853
506.000000	3.891716
507.000000	3.920449
508.000000	3.949597
509.000000	3.979349
510.000000	4.009019
511.000000	4.039156
512.000000	4.070121
513.000000	4.101578
514.000000	4.133078
515.000000	4.165213
516.000000	4.197552
517.000000	4.230128
518.000000	4.263124
519.000000	4.296792
520.000000	4.331302
521.000000	4.366252
522.000000	4.401442
523.000000	4.437412
524.000000	4.473692
525.000000	4.510877
526.000000	4.548821
527.000000	4.587469
528.000000	4.626467
529.000000	4.666112
530.000000	4.706639
531.000000	4.747653
532.000000	4.789167
533.000000	4.831224
534.000000	4.874154
535.000000	4.917823
536.000000	4.962023
537.000000	5.006429
538.000000	5.051496
539.000000	5.097136
540.000000	5.143037
541.000000	5.189309
542.000000	5.236191
543.000000	5.283527
544.000000	5.331322
545.000000	5.379237
546.000000	5.427850
547.000000	5.477092
548.000000	5.526854
549.000000	5.576421
550.000000	5.626693
551.000000	5.677448
552.000000	5.728430
553.000000	5.780113
554.000000	5.832123
555.000000	5.884790
556.000000	5.937309
557.000000	5.990704
558.000000	6.044244
559.000000	6.097801
560.000000	6.147221
561.000000	6.196800
562.000000	6.246765
563.000000	6.296783
564.000000	6.347392
565.000000	6.397988
566.000000	6.449443
567.000000	6.501028
568.000000	6.553188
569.000000	6.607022
570.000000	6.665694
571.000000	6.725342
572.000000	6.785394
573.000000	6.846234
574.000000	6.907517
575.000000	6.969128
576.000000	7.031460
577.000000	7.094026
578.000000	7.156693
579.000000	7.219854
580.000000	7.283835
581.000000	7.348147
582.000000	7.413384
583.000000	7.478493
584.000000	7.543816
585.000000	7.610653
586.000000	7.678042
587.000000	7.745874
588.000000	7.814531
589.000000	7.883988
590.000000	7.953485
591.000000	8.023373
592.000000	8.093144
593.000000	8.164143
594.000000	8.236075
595.000000	8.307811
596.000000	8.379989
597.000000	8.452207
598.000000	8.525536
599.000000	8.598852
600.000000	8.673134
601.000000	8.748201
602.000000	8.824049
603.000000	8.900060
604.000000	8.976072
605.000000	9.052965
606.000000	9.130063
607.000000	9.208254
608.000000	9.286654
609.000000	9.365030
610.000000	9.443410
611.000000	9.522117
612.000000	9.601427
613.000000	9.681121
614.000000	9.761823
615.000000	9.842154
616.000000	9.923134
617.000000	10.004441
618.000000	10.085904
619.000000	10.169015
620.000000	10.251786
621.000000	10.335200
622.000000	10.419966
623.000000	10.503907
624.000000	10.588421
625.000000	10.672957
626.000000	10.757596
627.000000	10.842779
628.000000	10.929102
629.000000	11.014522
630.000000	11.101366
631.000000	11.188361
632.000000	11.274813
633.000000	11.363581
634.000000	11.452309
635.000000	11.542600
636.000000	11.633531
637.000000	11.725052
638.000000	11.817008
639.000000	11.909744
640.000000	12.003155
641.000000	12.097238
642.000000	12.191704
643.000000	12.285864
644.000000	12.380831
645.000000	12.476256
646.000000	12.572868
647.000000	12.669788
648.000000	12.766628
649.000000	12.864549
650.000000	12.962697
651.000000	13.060700
652.000000	13.159989
653.000000	13.260531
654.000000	13.361577
655.000000	13.462597
656.000000	13.563611
657.000000	13.664814
658.000000	13.767120
659.000000	13.869517
660.000000	13.971642
661.000000	14.075658
662.000000	14.179133
663.000000	14.282657
664.000000	14.386416
665.000000	14.490366
666.000000	14.594824
667.000000	14.699031
668.000000	14.802317
669.000000	14.905785
670.000000	15.010286
671.000000	15.113704
672.000000	15.217050
673.000000	15.319614
674.000000	15.421159
675.000000	15.524063
676.000000	15.626195
677.000000	15.729412
678.000000	15.833624
679.000000	15.937360
680.000000	16.040144
681.000000	16.143059
682.000000	16.246686
683.000000	16.350559
684.000000	16.454502
685.000000	16.557482
686.000000	16.660927
687.000000	16.765124
688.000000	16.868786
689.000000	16.972647
690.000000	17.078418
691.000000	17.184916
692.000000	17.291090
693.000000	17.398078
694.000000	17.505328
695.000000	17.611925
696.000000	17.717195
697.000000	17.821510
698.000000	17.925013
699.000000	18.028901
700.000000	18.131493
701.000000	18.233089
702.000000	18.335516
703.000000	18.437303
704.000000	18.538702
705.000000	18.642146
706.000000	18.748893
707.000000	18.854202
708.000000	18.958341
709.000000	19.062640
710.000000	19.168221
711.000000	19.275799
712.000000	19.382807
713.000000	19.489721
714.000000	19.597183
715.000000	19.703487
716.000000	19.808159
717.000000	19.913208
718.000000	20.019456
719.000000	20.127283
720.000000	20.235655
721.000000	20.341049
722.000000	20.446778
723.000000	20.554348
724.000000	20.663673
725.000000	20.773063
726.000000	20.881983
727.000000	20.992495
728.000000	21.103986
729.000000	21.213749
730.000000	21.322230
731.000000	21.432691
732.000000	21.542964
733.000000	21.652692
734.000000	21.762168
735.000000	21.871529
736.000000	21.981876
737.000000	22.091832
738.000000	22.201523
739.000000	22.311999
740.000000	22.421845
741.000000	22.533475
742.000000	22.645972
743.000000	22.757709
744.000000	22.868373
745.000000	22.978982
746.000000	23.089804
747.000000	23.200741
748.000000	23.312453
749.000000	23.424523
750.000000	23.537074
751.000000	23.648196
752.000000	23.760167
753.000000	23.872705
754.000000	23.985003
755.000000	24.097859
756.000000	24.209483
757.000000	24.320962
758.000000	24.434052
759.000000	24.545068
760.000000	24.655183
761.000000	24.764266
762.000000	24.872761
763.000000	24.981684
764.000000	25.090762
765.000000	25.199790
766.000000	25.309740
767.000000	25.419331
768.000000	25.526053
769.000000	25.634083
770.000000	25.743084
771.000000	25.852312
772.000000	25.958036
773.000000	26.064892
774.000000	26.171610
775.000000	26.278667
776.000000	26.384701
777.000000	26.489774
778.000000	26.595389
779.000000	26.698105
780.000000	26.801008
781.000000	26.903926
782.000000	27.006248
783.000000	27.104082
784.000000	27.201869
785.000000	27.297957
786.000000	27.395193
787.000000	27.493793
788.000000	27.592537
789.000000	27.689779
790.000000	27.786315
791.000000	27.884668
792.000000	27.983006
793.000000	28.080110
794.000000	28.173915
795.000000	28.268644
796.000000	28.364449
797.000000	28.455711
798.000000	28.546602
799.000000	28.640317
800.000000	28.732423
801.000000	28.820281
802.000000	28.909895
803.000000	29.002124
804.000000	29.093303
805.000000	29.181157
806.000000	29.265340
807.000000	29.356146
808.000000	29.449334
809.000000	29.541733
810.000000	29.629854
811.000000	29.718169
812.000000	29.804412
813.000000	29.890880
814.000000	29.977847
815.000000	30.064041
816.000000	30.151916
817.000000	30.235908
818.000000	30.315201
819.000000	30.391169
820.000000	30.469826
821.000000	30.548865
822.000000	30.626011
823.000000	30.702954
824.000000	30.783449
825.000000	30.865628
826.000000	30.943166
827.000000	31.018115
828.000000	31.089919
829.000000	31.164851
830.000000	31.238084
831.000000	31.316027
832.000000	31.396287
833.000000	31.475425
834.000000	31.543242
835.000000	31.604606
836.000000	31.672832
837.000000	31.743352
838.000000	31.811303
839.000000	31.877007
840.000000	31.947042
841.000000	32.005108
842.000000	32.067603
843.000000	32.130571
844.000000	32.200686
845.000000	32.263755
846.000000	32.314897
847.000000	32.369631
848.000000	32.438352
849.000000	32.495309
850.000000	32.555958
851.000000	32.625814
852.000000	32.688869
853.000000	32.742655
854.000000	32.777614
855.000000	32.840761
856.000000	32.902675
857.000000	32.976840
858.000000	33.140632
859.000000	33.269976
860.000000	33.391000
861.000000	33.491523
862.000000	33.612974
863.000000	33.726631
864.000000	33.875706
865.000000	34.014459
866.000000	34.146440
867.000000	34.265867
868.000000	34.283127
869.000000	34.330633
870.000000	34.387815
871.000000	34.455438
872.000000	34.502652
873.000000	34.554590
874.000000	34.594417
875.000000	34.634203
876.000000	34.677670
877.000000	34.702942
878.000000	34.750410
879.000000	34.789530
880.000000	34.829680
881.000000	34.856605
882.000000	34.894447
883.000000	34.930025
884.000000	34.965052
885.000000	34.989333
886.000000	35.011482
887.000000	35.045788
888.000000	35.069047
889.000000	35.101085
890.000000	35.113122
891.000000	35.148855
892.000000	35.163548
893.000000	35.185385
894.000000	35.210538
895.000000	35.220760
896.000000	35.237872
897.000000	35.261938
898.000000	35.268242
899.000000	35.284797
900.000000	35.314810
901.000000	35.332168
902.000000	35.355567
903.000000	35.381650
904.000000	35.398038
905.000000	35.431612
906.000000	35.461845
907.000000	35.482390
908.000000	35.509618
909.000000	35.544495
910.000000	35.568008
911.000000	35.596322
912.000000	35.624310
913.000000	35.654138
914.000000	35.680862
915.000000	35.706962
916.000000	35.740955
917.000000	35.769578
918.000000	35.796080
919.000000	35.818108
920.000000	35.848833
921.000000	35.885153
922.000000	35.920330
923.000000	35.951352
924.000000	35.983097
925.000000	36.011795
926.000000	36.038297
927.000000	36.070828
928.000000	36.105452
929.000000	36.135330
930.000000	36.164532
931.000000	36.188442
932.000000	36.212580
933.000000	36.237808
934.000000	36.263842
935.000000	36.290610
936.000000	36.318243
937.000000	36.344580
938.000000	36.365378
939.000000	36.391145
940.000000	36.413262
941.000000	36.433020
942.000000	36.452645
943.000000	36.473303
944.000000	36.494575
945.000000	36.518012
946.000000	36.537807
947.000000	36.556090
948.000000	36.580432
949.000000	36.602002
950.000000	36.621813
951.000000	36.643070
952.000000	36.667113
953.000000	36.688125
954.000000	36.710658
955.000000	36.731243
956.000000	36.751075
957.000000	36.772135
958.000000	36.791618
959.000000	36.810768
960.000000	36.831902
961.000000	36.852955
962.000000	36.871088
963.000000	36.891518
964.000000	36.908998
965.000000	36.926092
966.000000	36.943687
967.000000	36.961045
968.000000	36.976545
969.000000	36.992195
970.000000	37.006970
971.000000	37.022137
972.000000	37.038832
973.000000	37.055112
974.000000	37.070770
975.000000	37.086585
976.000000	37.102080
977.000000	37.118932
978.000000	37.137532
979.000000	37.154677
980.000000	37.171887
981.000000	37.187762
982.000000	37.202962
983.000000	37.215860
984.000000	37.229872
985.000000	37.245305
986.000000	37.260585
987.000000	37.273215
988.000000	37.284575
989.000000	37.297537
990.000000	37.310412
991.000000	37.323690
992.000000	37.336665
993.000000	37.350723
994.000000	37.364590
995.000000	37.377648
996.000000	37.393068
997.000000	37.408433
998.000000	37.422713
999.000000	37.437382
1000.000000	37.451900
1001.000000	37.465657
1002.000000	37.479658
1003.000000	37.493623
1004.000000	37.507327
1005.000000	37.520555
1006.000000	37.532583
1007.000000	37.546093
1008.000000	37.561355
1009.000000	37.575823
1010.000000	37.590645
1011.000000	37.606147
1012.000000	37.621427
1013.000000	37.636095
1014.000000	37.651605
1015.000000	37.668465
1016.000000	37.686045
1017.000000	37.702685
1018.000000	37.718857
1019.000000	37.736283
1020.000000	37.754593
1021.000000	37.773743
1022.000000	37.793700
1023.000000	37.814705
1024.000000	37.836382
1025.000000	37.856778
1026.000000	37.876838
1027.000000	37.898730
1028.000000	37.921590
1029.000000	37.943470
1030.000000	37.965542
1031.000000	37.988172
1032.000000	38.011562
1033.000000	38.033990
1034.000000	38.056010
1035.000000	38.079032
1036.000000	38.103430
1037.000000	38.127510
1038.000000	38.151280
1039.000000	38.175513
1040.000000	38.199420
1041.000000	38.221357
1042.000000	38.242733
1043.000000	38.265905
1044.000000	38.288215
1045.000000	38.310395
1046.000000	38.331743
1047.000000	38.352510
1048.000000	38.372775
1049.000000	38.393597
1050.000000	38.414812
1051.000000	38.436327
1052.000000	38.457605
1053.000000	38.478572
1054.000000	38.501523
1055.000000	38.524877
1056.000000	38.548232
1057.000000	38.571620
1058.000000	38.595060
1059.000000	38.618655
1060.000000	38.641307
1061.000000	38.665432
1062.000000	38.689473
1063.000000	38.713138
1064.000000	38.735898
1065.000000	38.758907
1066.000000	38.782235
1067.000000	38.805600
1068.000000	38.829165
1069.000000	38.852230
1070.000000	38.876115
1071.000000	38.898265
1072.000000	38.921837
1073.000000	38.945500
1074.000000	38.969395
1075.000000	38.991855
1076.000000	39.013793
1077.000000	39.035505
1078.000000	39.058915
1079.000000	39.081837
1080.000000	39.103307
1081.000000	39.126263
1082.000000	39.147660
1083.000000	39.167795
1084.000000	39.187558
1085.000000	39.206862
1086.000000	39.226008
1087.000000	39.245310
1088.000000	39.263027
1089.000000	39.280530
1090.000000	39.297725
1091.000000	39.314610
1092.000000	39.331527
1093.000000	39.349070
1094.000000	39.364820
1095.000000	39.381007
1096.000000	39.396820
1097.000000	39.412185
1098.000000	39.428058
1099.000000	39.444333
1100.000000	39.459918
1101.000000	39.473422
1102.000000	39.485127
1103.000000	39.496575
1104.000000	39.510080
1105.000000	39.522458
1106.000000	39.534775
1107.000000	39.545970
1108.000000	39.556630
1109.000000	39.564055
1110.000000	39.572405
1111.000000	39.580523
1112.000000	39.588723
1113.000000	39.596205
1114.000000	39.601332
1115.000000	39.606210
1116.000000	39.609855
1117.000000	39.614002
1118.000000	39.616488
1119.000000	39.620745
1120.000000	39.621673
1121.000000	39.622505
1122.000000	39.622625
1123.000000	39.619495
1124.000000	39.613360
1125.000000	39.605795
1126.000000	39.595285
1127.000000	39.580877
1128.000000	39.564230
1129.000000	39.545003
1130.000000	39.523545
1131.000000	39.497600
1132.000000	39.467835
1133.000000	39.437140
1134.000000	39.405650
1135.000000	39.371130
1136.000000	39.335572
1137.000000	39.297803
1138.000000	39.258480
1139.000000	39.218512
1140.000000	39.177270
1141.000000	39.136840
1142.000000	39.095240
1143.000000	39.054418
1144.000000	39.014795
1145.000000	38.975557
1146.000000	38.936385
1147.000000	38.897287
1148.000000	38.858150
1149.000000	38.816920
1150.000000	38.777777
1151.000000	38.737300
1152.000000	38.698008
1153.000000	38.657702
1154.000000	38.612782
1155.000000	38.565480
1156.000000	38.515068
1157.000000	38.462608
1158.000000	38.406292
1159.000000	38.348737
1160.000000	38.287397
1161.000000	38.223290
1162.000000	38.157010
1163.000000	38.086182
1164.000000	38.015653
1165.000000	37.945330
1166.000000	37.873582
1167.000000	37.802320
1168.000000	37.731365
1169.000000	37.660810
