PE UV       SUBTECH     SPECTRUM    ASCII       PEDS        4.00        
   -1
INBUCR0311-4.Sample.ASC
24/02/08
15:44:45.00
24/02/08
15:44:45.00
Vinicio Soto Monge
COSTA RICA. Prov. Limón. Veragua Rainforest, carretera. 429 m. 26-28 JUL 2010. R. Villalobos. Colecta Libre. L_N_212301_624710 #101098 INB0004275186 INBIOCRI COSTA RICA
250,000000
1
Lambda 1050
1050L1511233
PerkinElmer UV WinLab 6.3.2.0749 / 2.02.05 Lambda 900 UV/VIS/NIR, Aug  7 2015 09:38:08

0
0
3350/servo 860,8/2
0
0
UV/VIS
1
1
1
DoubleDePol,CommonBeamDepol,RBeamAtt,SBeamAtt,60mm sphere, WB InGaAs Detector
0
0
0
0
Program
Program
3350/servo 860,8/2
3350/0,2 860,8/0,2
3350/0,2 860,8/0,2
0
15.00
 
 
 
0
 
860,8
319,2
860,8
Front
100
on
S:100 R:100
0
0
0
0
 
0
 
 
 
0
 
 
0
0
0
0
0
 
 
 
 
0
0


0
0
#HDR
-1
-1
#GR
nm
%R
1.0
0.0
2500,000000
-1,000000
2251
8
7,048300
0,490200
#DATA

250.000000	nan
251.000000	nan
252.000000	nan
253.000000	nan
254.000000	nan
255.000000	nan
256.000000	nan
257.000000	nan
258.000000	nan
259.000000	4.322409
260.000000	4.322177
261.000000	4.319328
262.000000	4.320602
263.000000	4.317231
264.000000	4.315301
265.000000	4.307820
266.000000	4.304704
267.000000	4.300719
268.000000	4.298062
269.000000	4.289829
270.000000	4.280233
271.000000	4.269515
272.000000	4.260200
273.000000	4.253482
274.000000	4.245831
275.000000	4.241881
276.000000	4.233827
277.000000	4.224838
278.000000	4.216736
279.000000	4.209103
280.000000	4.204183
281.000000	4.201041
282.000000	4.194878
283.000000	4.187595
284.000000	4.185768
285.000000	4.179519
286.000000	4.173714
287.000000	4.175795
288.000000	4.171920
289.000000	4.168913
290.000000	4.167328
291.000000	4.164031
292.000000	4.161137
293.000000	4.162859
294.000000	4.162113
295.000000	4.165172
296.000000	4.170075
297.000000	4.168865
298.000000	4.170018
299.000000	4.174048
300.000000	4.173613
301.000000	4.176463
302.000000	4.180792
303.000000	4.185881
304.000000	4.189949
305.000000	4.193443
306.000000	4.197091
307.000000	4.209631
308.000000	4.224268
309.000000	4.241219
310.000000	4.262122
311.000000	4.285622
312.000000	4.312897
313.000000	4.338625
314.000000	4.367486
315.000000	4.404470
316.000000	4.448169
317.000000	4.539763
318.000000	4.608019
319.000000	4.683055
320.000000	4.756144
321.000000	4.822529
322.000000	4.890010
323.000000	4.937538
324.000000	4.986943
325.000000	5.040283
326.000000	5.074752
327.000000	5.053276
328.000000	5.048787
329.000000	5.039279
330.000000	5.029237
331.000000	5.026435
332.000000	5.003871
333.000000	5.006749
334.000000	5.003299
335.000000	4.987706
336.000000	4.985581
337.000000	4.981149
338.000000	4.974255
339.000000	4.967951
340.000000	4.961986
341.000000	4.952023
342.000000	4.960357
343.000000	4.964561
344.000000	4.963295
345.000000	4.967011
346.000000	4.962446
347.000000	4.966194
348.000000	4.978270
349.000000	4.977214
350.000000	4.974831
351.000000	4.973493
352.000000	4.969400
353.000000	4.957801
354.000000	4.955997
355.000000	4.951475
356.000000	4.948229
357.000000	4.940665
358.000000	4.930558
359.000000	4.925605
360.000000	4.919818
361.000000	4.912473
362.000000	4.904241
363.000000	4.897830
364.000000	4.890042
365.000000	4.883098
366.000000	4.876024
367.000000	4.867888
368.000000	4.858471
369.000000	4.854790
370.000000	4.849830
371.000000	4.840513
372.000000	4.829664
373.000000	4.818146
374.000000	4.799372
375.000000	4.773434
376.000000	4.775274
377.000000	4.778046
378.000000	4.785413
379.000000	4.787913
380.000000	4.794206
381.000000	4.803994
382.000000	4.814748
383.000000	4.828120
384.000000	4.845182
385.000000	4.866234
386.000000	4.864042
387.000000	4.860768
388.000000	4.857191
389.000000	4.854440
390.000000	4.849829
391.000000	4.844952
392.000000	4.840315
393.000000	4.835112
394.000000	4.830205
395.000000	4.825265
396.000000	4.820464
397.000000	4.816199
398.000000	4.811878
399.000000	4.807014
400.000000	4.801617
401.000000	4.796649
402.000000	4.791712
403.000000	4.787128
404.000000	4.782971
405.000000	4.778271
406.000000	4.773658
407.000000	4.768584
408.000000	4.763876
409.000000	4.759291
410.000000	4.755477
411.000000	4.751509
412.000000	4.747890
413.000000	4.744976
414.000000	4.741800
415.000000	4.739262
416.000000	4.737081
417.000000	4.735116
418.000000	4.732713
419.000000	4.730518
420.000000	4.728738
421.000000	4.727389
422.000000	4.725998
423.000000	4.723830
424.000000	4.722036
425.000000	4.720005
426.000000	4.718011
427.000000	4.716405
428.000000	4.715002
429.000000	4.713379
430.000000	4.711561
431.000000	4.709769
432.000000	4.708263
433.000000	4.707263
434.000000	4.706161
435.000000	4.704892
436.000000	4.703785
437.000000	4.702276
438.000000	4.700888
439.000000	4.699713
440.000000	4.698923
441.000000	4.697916
442.000000	4.696531
443.000000	4.695195
444.000000	4.693810
445.000000	4.692010
446.000000	4.690069
447.000000	4.688720
448.000000	4.687450
449.000000	4.686006
450.000000	4.683979
451.000000	4.682102
452.000000	4.680322
453.000000	4.678663
454.000000	4.677267
455.000000	4.676799
456.000000	4.676299
457.000000	4.675218
458.000000	4.674139
459.000000	4.673125
460.000000	4.672402
461.000000	4.671932
462.000000	4.671417
463.000000	4.671030
464.000000	4.670962
465.000000	4.670725
466.000000	4.670398
467.000000	4.670241
468.000000	4.670508
469.000000	4.671365
470.000000	4.672079
471.000000	4.672739
472.000000	4.674346
473.000000	4.675473
474.000000	4.676362
475.000000	4.677637
476.000000	4.679602
477.000000	4.682030
478.000000	4.684023
479.000000	4.685704
480.000000	4.687886
481.000000	4.690520
482.000000	4.692710
483.000000	4.695285
484.000000	4.697510
485.000000	4.699879
486.000000	4.701966
487.000000	4.703578
488.000000	4.705262
489.000000	4.707209
490.000000	4.709002
491.000000	4.710176
492.000000	4.711186
493.000000	4.712202
494.000000	4.713591
495.000000	4.714958
496.000000	4.716715
497.000000	4.719201
498.000000	4.722534
499.000000	4.725639
500.000000	4.729698
501.000000	4.734570
502.000000	4.740181
503.000000	4.746807
504.000000	4.754537
505.000000	4.762895
506.000000	4.771853
507.000000	4.781505
508.000000	4.791892
509.000000	4.803679
510.000000	4.816469
511.000000	4.830156
512.000000	4.844735
513.000000	4.859739
514.000000	4.875596
515.000000	4.892653
516.000000	4.910624
517.000000	4.929776
518.000000	4.950182
519.000000	4.972229
520.000000	4.995224
521.000000	5.019850
522.000000	5.046245
523.000000	5.074779
524.000000	5.105346
525.000000	5.137695
526.000000	5.172265
527.000000	5.208687
528.000000	5.247033
529.000000	5.286638
530.000000	5.328519
531.000000	5.372520
532.000000	5.419144
533.000000	5.468204
534.000000	5.519995
535.000000	5.575702
536.000000	5.636020
537.000000	5.700947
538.000000	5.770684
539.000000	5.846659
540.000000	5.928757
541.000000	6.017880
542.000000	6.113385
543.000000	6.216572
544.000000	6.327271
545.000000	6.445274
546.000000	6.569503
547.000000	6.700064
548.000000	6.835876
549.000000	6.977256
550.000000	7.123281
551.000000	7.273483
552.000000	7.428888
553.000000	7.590021
554.000000	7.758469
555.000000	7.935663
556.000000	8.123953
557.000000	8.323880
558.000000	8.538140
559.000000	8.765371
560.000000	9.003849
561.000000	9.255144
562.000000	9.518779
563.000000	9.794111
564.000000	10.079046
565.000000	10.372314
566.000000	10.672226
567.000000	10.979329
568.000000	11.290255
569.000000	11.604960
570.000000	11.924116
571.000000	12.243164
572.000000	12.559298
573.000000	12.868856
574.000000	13.169767
575.000000	13.459278
576.000000	13.733626
577.000000	13.990355
578.000000	14.227012
579.000000	14.443776
580.000000	14.641270
581.000000	14.819952
582.000000	14.982614
583.000000	15.129851
584.000000	15.264415
585.000000	15.387656
586.000000	15.503231
587.000000	15.611721
588.000000	15.714670
589.000000	15.811438
590.000000	15.901903
591.000000	15.983255
592.000000	16.054764
593.000000	16.114137
594.000000	16.157610
595.000000	16.183044
596.000000	16.185849
597.000000	16.166784
598.000000	16.122565
599.000000	16.053147
600.000000	15.956286
601.000000	15.834792
602.000000	15.686940
603.000000	15.514895
604.000000	15.321276
605.000000	15.107829
606.000000	14.876536
607.000000	14.627709
608.000000	14.365733
609.000000	14.089786
610.000000	13.802452
611.000000	13.504613
612.000000	13.198126
613.000000	12.883892
614.000000	12.563328
615.000000	12.236027
616.000000	11.904803
617.000000	11.569977
618.000000	11.233534
619.000000	10.896980
620.000000	10.561770
621.000000	10.229826
622.000000	9.902412
623.000000	9.583455
624.000000	9.272317
625.000000	8.972434
626.000000	8.685935
627.000000	8.412569
628.000000	8.152934
629.000000	7.908589
630.000000	7.678671
631.000000	7.464005
632.000000	7.264697
633.000000	7.078761
634.000000	6.906853
635.000000	6.747458
636.000000	6.599342
637.000000	6.462168
638.000000	6.336229
639.000000	6.219842
640.000000	6.113021
641.000000	6.015613
642.000000	5.926381
643.000000	5.844563
644.000000	5.769474
645.000000	5.701166
646.000000	5.638298
647.000000	5.580565
648.000000	5.526871
649.000000	5.477367
650.000000	5.431364
651.000000	5.387950
652.000000	5.347310
653.000000	5.309121
654.000000	5.274028
655.000000	5.241273
656.000000	5.210528
657.000000	5.182186
658.000000	5.155300
659.000000	5.130277
660.000000	5.107755
661.000000	5.086844
662.000000	5.067102
663.000000	5.049215
664.000000	5.031686
665.000000	5.015353
666.000000	5.000848
667.000000	4.987055
668.000000	4.974045
669.000000	4.962353
670.000000	4.951789
671.000000	4.941598
672.000000	4.932016
673.000000	4.922847
674.000000	4.915788
675.000000	4.909396
676.000000	4.903268
677.000000	4.898240
678.000000	4.894425
679.000000	4.890716
680.000000	4.887264
681.000000	4.884622
682.000000	4.883348
683.000000	4.883313
684.000000	4.882581
685.000000	4.882329
686.000000	4.882587
687.000000	4.883610
688.000000	4.885066
689.000000	4.886922
690.000000	4.888074
691.000000	4.890452
692.000000	4.892372
693.000000	4.895154
694.000000	4.898848
695.000000	4.902134
696.000000	4.906095
697.000000	4.910101
698.000000	4.914040
699.000000	4.917958
700.000000	4.923795
701.000000	4.929732
702.000000	4.935731
703.000000	4.941088
704.000000	4.946905
705.000000	4.953691
706.000000	4.960296
707.000000	4.966735
708.000000	4.974041
709.000000	4.981921
710.000000	4.989538
711.000000	4.997255
712.000000	5.005554
713.000000	5.013974
714.000000	5.022264
715.000000	5.031101
716.000000	5.039723
717.000000	5.048647
718.000000	5.057936
719.000000	5.067689
720.000000	5.076984
721.000000	5.086159
722.000000	5.097234
723.000000	5.109144
724.000000	5.121174
725.000000	5.132475
726.000000	5.144445
727.000000	5.156876
728.000000	5.169283
729.000000	5.181867
730.000000	5.195273
731.000000	5.208529
732.000000	5.221037
733.000000	5.233138
734.000000	5.245842
735.000000	5.260900
736.000000	5.275310
737.000000	5.289250
738.000000	5.303652
739.000000	5.318371
740.000000	5.333182
741.000000	5.348959
742.000000	5.365366
743.000000	5.382057
744.000000	5.399055
745.000000	5.414929
746.000000	5.431748
747.000000	5.450549
748.000000	5.468937
749.000000	5.487374
750.000000	5.507002
751.000000	5.527907
752.000000	5.548001
753.000000	5.567425
754.000000	5.587548
755.000000	5.608645
756.000000	5.631307
757.000000	5.652476
758.000000	5.673466
759.000000	5.696555
760.000000	5.719995
761.000000	5.741816
762.000000	5.764071
763.000000	5.788416
764.000000	5.813714
765.000000	5.837683
766.000000	5.860474
767.000000	5.884351
768.000000	5.909940
769.000000	5.935060
770.000000	5.960231
771.000000	5.987267
772.000000	6.014872
773.000000	6.043153
774.000000	6.071401
775.000000	6.099068
776.000000	6.128068
777.000000	6.158905
778.000000	6.189729
779.000000	6.220160
780.000000	6.250313
781.000000	6.280082
782.000000	6.309766
783.000000	6.339678
784.000000	6.370597
785.000000	6.404439
786.000000	6.438124
787.000000	6.471748
788.000000	6.506604
789.000000	6.541660
790.000000	6.575628
791.000000	6.611573
792.000000	6.650131
793.000000	6.686731
794.000000	6.722923
795.000000	6.759193
796.000000	6.797233
797.000000	6.834739
798.000000	6.873098
799.000000	6.912326
800.000000	6.952595
801.000000	6.991009
802.000000	7.029970
803.000000	7.071373
804.000000	7.112259
805.000000	7.153120
806.000000	7.196570
807.000000	7.239423
808.000000	7.283115
809.000000	7.326124
810.000000	7.369781
811.000000	7.415446
812.000000	7.462316
813.000000	7.511614
814.000000	7.559033
815.000000	7.606138
816.000000	7.650447
817.000000	7.696128
818.000000	7.739346
819.000000	7.784970
820.000000	7.834766
821.000000	7.882571
822.000000	7.928618
823.000000	7.974532
824.000000	8.020924
825.000000	8.071973
826.000000	8.120028
827.000000	8.169290
828.000000	8.222465
829.000000	8.268457
830.000000	8.318502
831.000000	8.369336
832.000000	8.415361
833.000000	8.457105
834.000000	8.509264
835.000000	8.558931
836.000000	8.608816
837.000000	8.661709
838.000000	8.709843
839.000000	8.761843
840.000000	8.800191
841.000000	8.845556
842.000000	8.897881
843.000000	8.948352
844.000000	8.992530
845.000000	9.033296
846.000000	9.081765
847.000000	9.123367
848.000000	9.165229
849.000000	9.209772
850.000000	9.263278
851.000000	9.307504
852.000000	9.356142
853.000000	9.400226
854.000000	9.439949
855.000000	9.476347
856.000000	9.507024
857.000000	9.572701
858.000000	10.105025
859.000000	10.167915
860.000000	10.250643
861.000000	10.300193
862.000000	10.345894
863.000000	10.384736
864.000000	10.423658
865.000000	10.475248
866.000000	10.515252
867.000000	10.527089
868.000000	10.071100
869.000000	10.059567
870.000000	10.014923
871.000000	9.996035
872.000000	9.978175
873.000000	9.981583
874.000000	9.975623
875.000000	9.954103
876.000000	9.938218
877.000000	9.895560
878.000000	9.857735
879.000000	9.843198
880.000000	9.825473
881.000000	9.838860
882.000000	9.831680
883.000000	9.836578
884.000000	9.837008
885.000000	9.841062
886.000000	9.846478
887.000000	9.887525
888.000000	9.925065
889.000000	9.948045
890.000000	9.983277
891.000000	9.992773
892.000000	10.011543
893.000000	10.007085
894.000000	10.017205
895.000000	10.028380
896.000000	10.046285
897.000000	10.048138
898.000000	10.049913
899.000000	10.064200
900.000000	10.082863
901.000000	10.101345
902.000000	10.122180
903.000000	10.150653
904.000000	10.185175
905.000000	10.211225
906.000000	10.244492
907.000000	10.273730
908.000000	10.307245
909.000000	10.344962
910.000000	10.380405
911.000000	10.409688
912.000000	10.444890
913.000000	10.477392
914.000000	10.499575
915.000000	10.537345
916.000000	10.565115
917.000000	10.599530
918.000000	10.633463
919.000000	10.660380
920.000000	10.693158
921.000000	10.735875
922.000000	10.775662
923.000000	10.812260
924.000000	10.853967
925.000000	10.890642
926.000000	10.926317
927.000000	10.964948
928.000000	11.000390
929.000000	11.037935
930.000000	11.071212
931.000000	11.107732
932.000000	11.149545
933.000000	11.191425
934.000000	11.233425
935.000000	11.274922
936.000000	11.321660
937.000000	11.360105
938.000000	11.404545
939.000000	11.450448
940.000000	11.492927
941.000000	11.534813
942.000000	11.569833
943.000000	11.607975
944.000000	11.648143
945.000000	11.694845
946.000000	11.740953
947.000000	11.789803
948.000000	11.834768
949.000000	11.876803
950.000000	11.923455
951.000000	11.972415
952.000000	12.023098
953.000000	12.074960
954.000000	12.124263
955.000000	12.171542
956.000000	12.216778
957.000000	12.263135
958.000000	12.309990
959.000000	12.361887
960.000000	12.412927
961.000000	12.461040
962.000000	12.508730
963.000000	12.556342
964.000000	12.607765
965.000000	12.657913
966.000000	12.709223
967.000000	12.759627
968.000000	12.809717
969.000000	12.861883
970.000000	12.914515
971.000000	12.968905
972.000000	13.023263
973.000000	13.076292
974.000000	13.126745
975.000000	13.177273
976.000000	13.226387
977.000000	13.279218
978.000000	13.332183
979.000000	13.384252
980.000000	13.436210
981.000000	13.487040
982.000000	13.540128
983.000000	13.593267
984.000000	13.646342
985.000000	13.699187
986.000000	13.753428
987.000000	13.808625
988.000000	13.864408
989.000000	13.919075
990.000000	13.971292
991.000000	14.024687
992.000000	14.078383
993.000000	14.131963
994.000000	14.186735
995.000000	14.240343
996.000000	14.291633
997.000000	14.342082
998.000000	14.391992
999.000000	14.443723
1000.000000	14.496533
1001.000000	14.547178
1002.000000	14.597548
1003.000000	14.649170
1004.000000	14.702110
1005.000000	14.757005
1006.000000	14.813468
1007.000000	14.870255
1008.000000	14.927175
1009.000000	14.983565
1010.000000	15.039433
1011.000000	15.094872
1012.000000	15.150105
1013.000000	15.206780
1014.000000	15.263673
1015.000000	15.320303
1016.000000	15.377605
1017.000000	15.433888
1018.000000	15.490172
1019.000000	15.545515
1020.000000	15.601335
1021.000000	15.658638
1022.000000	15.716945
1023.000000	15.774667
1024.000000	15.830435
1025.000000	15.887492
1026.000000	15.944660
1027.000000	16.001803
1028.000000	16.058240
1029.000000	16.115695
1030.000000	16.173237
1031.000000	16.231035
1032.000000	16.289427
1033.000000	16.348423
1034.000000	16.407863
1035.000000	16.465302
1036.000000	16.522315
1037.000000	16.580530
1038.000000	16.638680
1039.000000	16.697197
1040.000000	16.755715
1041.000000	16.814237
1042.000000	16.872300
1043.000000	16.928082
1044.000000	16.984210
1045.000000	17.041265
1046.000000	17.098847
1047.000000	17.156337
1048.000000	17.215093
1049.000000	17.273640
1050.000000	17.331518
1051.000000	17.388445
1052.000000	17.444848
1053.000000	17.503095
1054.000000	17.560848
1055.000000	17.619545
1056.000000	17.677210
1057.000000	17.736363
1058.000000	17.793730
1059.000000	17.850720
1060.000000	17.909500
1061.000000	17.967655
1062.000000	18.026463
1063.000000	18.086092
1064.000000	18.145577
1065.000000	18.202415
1066.000000	18.260230
1067.000000	18.316490
1068.000000	18.373967
1069.000000	18.431665
1070.000000	18.487677
1071.000000	18.545578
1072.000000	18.604243
1073.000000	18.661932
1074.000000	18.720248
1075.000000	18.780530
1076.000000	18.838710
1077.000000	18.897895
1078.000000	18.958245
1079.000000	19.017965
1080.000000	19.077495
1081.000000	19.136845
1082.000000	19.194778
1083.000000	19.252397
1084.000000	19.309660
1085.000000	19.366627
1086.000000	19.426525
1087.000000	19.484575
1088.000000	19.540952
1089.000000	19.597435
1090.000000	19.653870
1091.000000	19.711143
1092.000000	19.769295
1093.000000	19.827163
1094.000000	19.884967
1095.000000	19.941540
1096.000000	19.996372
1097.000000	20.052712
1098.000000	20.108050
1099.000000	20.163375
1100.000000	20.220692
1101.000000	20.275537
1102.000000	20.330290
1103.000000	20.385308
1104.000000	20.439343
1105.000000	20.493092
1106.000000	20.546880
1107.000000	20.600080
1108.000000	20.653485
1109.000000	20.707320
1110.000000	20.759730
1111.000000	20.810885
1112.000000	20.860993
1113.000000	20.910995
1114.000000	20.961700
1115.000000	21.012535
1116.000000	21.063155
1117.000000	21.113402
1118.000000	21.163197
1119.000000	21.211892
1120.000000	21.259055
1121.000000	21.310015
1122.000000	21.361555
1123.000000	21.411202
1124.000000	21.459418
1125.000000	21.507367
1126.000000	21.554895
1127.000000	21.600997
1128.000000	21.647380
1129.000000	21.691102
1130.000000	21.734810
1131.000000	21.772535
1132.000000	21.808915
1133.000000	21.846160
1134.000000	21.885497
1135.000000	21.924107
1136.000000	21.960203
1137.000000	21.994625
1138.000000	22.026722
1139.000000	22.059600
1140.000000	22.092402
1141.000000	22.128352
1142.000000	22.161560
1143.000000	22.196050
1144.000000	22.228490
1145.000000	22.260683
1146.000000	22.295225
1147.000000	22.330757
1148.000000	22.366217
1149.000000	22.402470
1150.000000	22.438780
1151.000000	22.472225
1152.000000	22.507660
1153.000000	22.541717
1154.000000	22.573208
1155.000000	22.603585
1156.000000	22.633085
1157.000000	22.659220
1158.000000	22.684860
1159.000000	22.708265
1160.000000	22.728827
1161.000000	22.749398
1162.000000	22.767820
1163.000000	22.782132
1164.000000	22.796770
1165.000000	22.810958
1166.000000	22.822050
1167.000000	22.834810
1168.000000	22.846330
1169.000000	22.858450
1170.000000	22.870990
1171.000000	22.884665
1172.000000	22.899673
1173.000000	22.917318
1174.000000	22.936817
1175.000000	22.956740
1176.000000	22.979378
1177.000000	23.002525
1178.000000	23.029238
1179.000000	23.056738
1180.000000	23.085187
1181.000000	23.115005
