PE UV       SUBTECH     SPECTRUM    ASCII       PEDS        4.00        
   -1
INBUCR0412-4.Sample.ASC
24/02/09
11:02:18.00
24/02/09
11:02:18.00
Vinicio Soto Monge
R. B Hitoy Cerere, Valle La Estrella. Prov. Limón. COSTA RICA. 100m. 19 a 29 Abr 1992. E. López. L_N 643400_184600 #1443. INBIOCRI001716561. (Aparentemente Phanaeus pyrois). Sin cabeza
250,000000
1
Lambda 1050
1050L1511233
PerkinElmer UV WinLab 6.3.2.0749 / 2.02.05 Lambda 900 UV/VIS/NIR, Aug  7 2015 09:38:08

0
0
3350/servo 860,8/2
0
0
UV/VIS
1
1
1
DoubleDePol,CommonBeamDepol,RBeamAtt,SBeamAtt,60mm sphere, WB InGaAs Detector
0
0
0
0
Program
Program
3350/servo 860,8/2
3350/0,2 860,8/0,2
3350/0,2 860,8/0,2
0
15.00
 
 
 
0
 
860,8
319,2
860,8
Front
100
on
S:100 R:100
0
0
0
0
 
0
 
 
 
0
 
 
0
0
0
0
0
 
 
 
 
0
0


0
0
#HDR
-1
-1
#GR
nm
%R
1.0
0.0
2500,000000
-1,000000
2251
8
16,828800
1,141000
#DATA

250.000000	nan
251.000000	nan
252.000000	nan
253.000000	nan
254.000000	nan
255.000000	nan
256.000000	nan
257.000000	nan
258.000000	nan
259.000000	4.587564
260.000000	4.586747
261.000000	4.585482
262.000000	4.586011
263.000000	4.586234
264.000000	4.555055
265.000000	4.554019
266.000000	4.521521
267.000000	4.487570
268.000000	4.452733
269.000000	4.416380
270.000000	4.381085
271.000000	4.347452
272.000000	4.312831
273.000000	4.276447
274.000000	4.271713
275.000000	4.237011
276.000000	4.233727
277.000000	4.233160
278.000000	4.230110
279.000000	4.226213
280.000000	4.224448
281.000000	4.219017
282.000000	4.216472
283.000000	4.214539
284.000000	4.215146
285.000000	4.212754
286.000000	4.210254
287.000000	4.207703
288.000000	4.207255
289.000000	4.208051
290.000000	4.205170
291.000000	4.205201
292.000000	4.204169
293.000000	4.203164
294.000000	4.201551
295.000000	4.199672
296.000000	4.199695
297.000000	4.196878
298.000000	4.196487
299.000000	4.196439
300.000000	4.197594
301.000000	4.198116
302.000000	4.193894
303.000000	4.192028
304.000000	4.190708
305.000000	4.191812
306.000000	4.190515
307.000000	4.220058
308.000000	4.249148
309.000000	4.277082
310.000000	4.306618
311.000000	4.334876
312.000000	4.397261
313.000000	4.457896
314.000000	4.521309
315.000000	4.583951
316.000000	4.649840
317.000000	4.749712
318.000000	4.883642
319.000000	5.020611
320.000000	5.142557
321.000000	5.249380
322.000000	5.325033
323.000000	5.381869
324.000000	5.435173
325.000000	5.493069
326.000000	5.548425
327.000000	5.534876
328.000000	5.483084
329.000000	5.419581
330.000000	5.379997
331.000000	5.354676
332.000000	5.336653
333.000000	5.348689
334.000000	5.342509
335.000000	5.322822
336.000000	5.312629
337.000000	5.292759
338.000000	5.279967
339.000000	5.286779
340.000000	5.280740
341.000000	5.279729
342.000000	5.295568
343.000000	5.295620
344.000000	5.316259
345.000000	5.349770
346.000000	5.372708
347.000000	5.412379
348.000000	5.454593
349.000000	5.477249
350.000000	5.505410
351.000000	5.523892
352.000000	5.518319
353.000000	5.553108
354.000000	5.583156
355.000000	5.613797
356.000000	5.643856
357.000000	5.672300
358.000000	5.692903
359.000000	5.750454
360.000000	5.805424
361.000000	5.861507
362.000000	5.920468
363.000000	5.947093
364.000000	5.976522
365.000000	6.034724
366.000000	6.093026
367.000000	6.147179
368.000000	6.199079
369.000000	6.220257
370.000000	6.237163
371.000000	6.295692
372.000000	6.347768
373.000000	6.392417
374.000000	6.439508
375.000000	6.455403
376.000000	6.479134
377.000000	6.505119
378.000000	6.533599
379.000000	6.566505
380.000000	6.602280
381.000000	6.601785
382.000000	6.605400
383.000000	6.613693
384.000000	6.618937
385.000000	6.622423
386.000000	6.619876
387.000000	6.651221
388.000000	6.682356
389.000000	6.713628
390.000000	6.745350
391.000000	6.777187
392.000000	6.808363
393.000000	6.839465
394.000000	6.870742
395.000000	6.902175
396.000000	6.934042
397.000000	6.933080
398.000000	6.932218
399.000000	6.931826
400.000000	6.931562
401.000000	6.931079
402.000000	6.962996
403.000000	6.995073
404.000000	7.027283
405.000000	7.059255
406.000000	7.090704
407.000000	7.122443
408.000000	7.154313
409.000000	7.186046
410.000000	7.217416
411.000000	7.281507
412.000000	7.313641
413.000000	7.345616
414.000000	7.377230
415.000000	7.409069
416.000000	7.441056
417.000000	7.472748
418.000000	7.504318
419.000000	7.536012
420.000000	7.600223
421.000000	7.632068
422.000000	7.663680
423.000000	7.695264
424.000000	7.727414
425.000000	7.759465
426.000000	7.791274
427.000000	7.823174
428.000000	7.855385
429.000000	7.887711
430.000000	7.887651
431.000000	7.887497
432.000000	7.887153
433.000000	7.886885
434.000000	7.886383
435.000000	7.885743
436.000000	7.885286
437.000000	7.885088
438.000000	7.884657
439.000000	7.884256
440.000000	7.916347
441.000000	7.948384
442.000000	7.980758
443.000000	8.012953
444.000000	8.045001
445.000000	8.077266
446.000000	8.109714
447.000000	8.141982
448.000000	8.174449
449.000000	8.206758
450.000000	8.206751
451.000000	8.207030
452.000000	8.206953
453.000000	8.206961
454.000000	8.207151
455.000000	8.207338
456.000000	8.207442
457.000000	8.207478
458.000000	8.207450
459.000000	8.207545
460.000000	8.207591
461.000000	8.207610
462.000000	8.207994
463.000000	8.208485
464.000000	8.208976
465.000000	8.209379
466.000000	8.209758
467.000000	8.210441
468.000000	8.211233
469.000000	8.211978
470.000000	8.212604
471.000000	8.213008
472.000000	8.213306
473.000000	8.213527
474.000000	8.213636
475.000000	8.213710
476.000000	8.213914
477.000000	8.213976
478.000000	8.213783
479.000000	8.213416
480.000000	8.212846
481.000000	8.212023
482.000000	8.210929
483.000000	8.209770
484.000000	8.208868
485.000000	8.208154
486.000000	8.207434
487.000000	8.206890
488.000000	8.206863
489.000000	8.207260
490.000000	8.208254
491.000000	8.209930
492.000000	8.212053
493.000000	8.214432
494.000000	8.216965
495.000000	8.219661
496.000000	8.222469
497.000000	8.225429
498.000000	8.228277
499.000000	8.231002
500.000000	8.233521
501.000000	8.236005
502.000000	8.238561
503.000000	8.241270
504.000000	8.243572
505.000000	8.245485
506.000000	8.247397
507.000000	8.249084
508.000000	8.250504
509.000000	8.251789
510.000000	8.253033
511.000000	8.253904
512.000000	8.254351
513.000000	8.254282
514.000000	8.286695
515.000000	8.319094
516.000000	8.351117
517.000000	8.382642
518.000000	8.414041
519.000000	8.445280
520.000000	8.476168
521.000000	8.506724
522.000000	8.537392
523.000000	8.568260
524.000000	8.566764
525.000000	8.565047
526.000000	8.563321
527.000000	8.561906
528.000000	8.560578
529.000000	8.559259
530.000000	8.558167
531.000000	8.557451
532.000000	8.556847
533.000000	8.556130
534.000000	8.555126
535.000000	8.554391
536.000000	8.553839
537.000000	8.553358
538.000000	8.552854
539.000000	8.552418
540.000000	8.551900
541.000000	8.551326
542.000000	8.550632
543.000000	8.550082
544.000000	8.549718
545.000000	8.549469
546.000000	8.549112
547.000000	8.548663
548.000000	8.548243
549.000000	8.547887
550.000000	8.547729
551.000000	8.579673
552.000000	8.611529
553.000000	8.643208
554.000000	8.674987
555.000000	8.706658
556.000000	8.738316
557.000000	8.769858
558.000000	8.801359
559.000000	8.832712
560.000000	8.862314
561.000000	8.859571
562.000000	8.856933
563.000000	8.854441
564.000000	8.851696
565.000000	8.848780
566.000000	8.845778
567.000000	8.843023
568.000000	8.840213
569.000000	8.837395
570.000000	8.836457
571.000000	8.835700
572.000000	8.834890
573.000000	8.833900
574.000000	8.832793
575.000000	8.832080
576.000000	8.831337
577.000000	8.830386
578.000000	8.829493
579.000000	8.828696
580.000000	8.827807
581.000000	8.827059
582.000000	8.826161
583.000000	8.825494
584.000000	8.825048
585.000000	8.824069
586.000000	8.823165
587.000000	8.822518
588.000000	8.822017
589.000000	8.821512
590.000000	8.820768
591.000000	8.819953
592.000000	8.819215
593.000000	8.818553
594.000000	8.817828
595.000000	8.817241
596.000000	8.817011
597.000000	8.816669
598.000000	8.816046
599.000000	8.815568
600.000000	8.815059
601.000000	8.814571
602.000000	8.814157
603.000000	8.813753
604.000000	8.813577
605.000000	8.813447
606.000000	8.813121
607.000000	8.812408
608.000000	8.812024
609.000000	8.811593
610.000000	8.811575
611.000000	8.811529
612.000000	8.811120
613.000000	8.810641
614.000000	8.810141
615.000000	8.809740
616.000000	8.809471
617.000000	8.809546
618.000000	8.809610
619.000000	8.809386
620.000000	8.808948
621.000000	8.808350
622.000000	8.808413
623.000000	8.808257
624.000000	8.808166
625.000000	8.807866
626.000000	8.807508
627.000000	8.807523
628.000000	8.807333
629.000000	8.807330
630.000000	8.807518
631.000000	8.807925
632.000000	8.807943
633.000000	8.808154
634.000000	8.807983
635.000000	8.808191
636.000000	8.808551
637.000000	8.808465
638.000000	8.808461
639.000000	8.808495
640.000000	8.808651
641.000000	8.808671
642.000000	8.808745
643.000000	8.808816
644.000000	8.809289
645.000000	8.809636
646.000000	8.809863
647.000000	8.810318
648.000000	8.811165
649.000000	8.811837
650.000000	8.812273
651.000000	8.812805
652.000000	8.813652
653.000000	8.814590
654.000000	8.815407
655.000000	8.816315
656.000000	8.817216
657.000000	8.818231
658.000000	8.818940
659.000000	8.819711
660.000000	8.820639
661.000000	8.821615
662.000000	8.822495
663.000000	8.823244
664.000000	8.824176
665.000000	8.825152
666.000000	8.826508
667.000000	8.827423
668.000000	8.828356
669.000000	8.829653
670.000000	8.831003
671.000000	8.832616
672.000000	8.834019
673.000000	8.835363
674.000000	8.836941
675.000000	8.838327
676.000000	8.839541
677.000000	8.841123
678.000000	8.842698
679.000000	8.876694
680.000000	8.910644
681.000000	8.944453
682.000000	8.978489
683.000000	9.013375
684.000000	9.047763
685.000000	9.082425
686.000000	9.116810
687.000000	9.151326
688.000000	9.186422
689.000000	9.188852
690.000000	9.191050
691.000000	9.193609
692.000000	9.196523
693.000000	9.198746
694.000000	9.200925
695.000000	9.203549
696.000000	9.206771
697.000000	9.209953
698.000000	9.212419
699.000000	9.215445
700.000000	9.219062
701.000000	9.221889
702.000000	9.224237
703.000000	9.227269
704.000000	9.231120
705.000000	9.234795
706.000000	9.237707
707.000000	9.240631
708.000000	9.244425
709.000000	9.248243
710.000000	9.251791
711.000000	9.255809
712.000000	9.260375
713.000000	9.264613
714.000000	9.268416
715.000000	9.272400
716.000000	9.277170
717.000000	9.282052
718.000000	9.286559
719.000000	9.291145
720.000000	9.295868
721.000000	9.300781
722.000000	9.305906
723.000000	9.311445
724.000000	9.317189
725.000000	9.322537
726.000000	9.327963
727.000000	9.333658
728.000000	9.339142
729.000000	9.344601
730.000000	9.350799
731.000000	9.357132
732.000000	9.362977
733.000000	9.368737
734.000000	9.374635
735.000000	9.381205
736.000000	9.387531
737.000000	9.393811
738.000000	9.400809
739.000000	9.407837
740.000000	9.414030
741.000000	9.420277
742.000000	9.427846
743.000000	9.435963
744.000000	9.443462
745.000000	9.450878
746.000000	9.491235
747.000000	9.531215
748.000000	9.571498
749.000000	9.612437
750.000000	9.653491
751.000000	9.694536
752.000000	9.734843
753.000000	9.774897
754.000000	9.815921
755.000000	9.857178
756.000000	9.865810
757.000000	9.874805
758.000000	9.883256
759.000000	9.891986
760.000000	9.901556
761.000000	9.910973
762.000000	9.920172
763.000000	9.929817
764.000000	9.939286
765.000000	9.948745
766.000000	9.959015
767.000000	9.969547
768.000000	9.979159
769.000000	9.988582
770.000000	9.998816
771.000000	10.009303
772.000000	10.020485
773.000000	10.032035
774.000000	10.043650
775.000000	10.055178
776.000000	10.065857
777.000000	10.076724
778.000000	10.089263
779.000000	10.101570
780.000000	10.112529
781.000000	10.123943
782.000000	10.135477
783.000000	10.148200
784.000000	10.160659
785.000000	10.172753
786.000000	10.185997
787.000000	10.198453
788.000000	10.211539
789.000000	10.225822
790.000000	10.239746
791.000000	10.286399
792.000000	10.332310
793.000000	10.377223
794.000000	10.423026
795.000000	10.468086
796.000000	10.513877
797.000000	10.561705
798.000000	10.608147
799.000000	10.654485
800.000000	10.701942
801.000000	10.716737
802.000000	10.732828
803.000000	10.748631
804.000000	10.763039
805.000000	10.778763
806.000000	10.795311
807.000000	10.811291
808.000000	10.828019
809.000000	10.843477
810.000000	10.860023
811.000000	10.876268
812.000000	10.891966
813.000000	10.908504
814.000000	10.925797
815.000000	10.941608
816.000000	10.957134
817.000000	10.970721
818.000000	10.982991
819.000000	10.999833
820.000000	11.014406
821.000000	11.031308
822.000000	11.048290
823.000000	11.062637
824.000000	11.079158
825.000000	11.097261
826.000000	11.111017
827.000000	11.126496
828.000000	11.145238
829.000000	11.156134
830.000000	11.171404
831.000000	11.184186
832.000000	11.197257
833.000000	11.213670
834.000000	11.226767
835.000000	11.236036
836.000000	11.248674
837.000000	11.258985
838.000000	11.262881
839.000000	11.278483
840.000000	11.288437
841.000000	11.297608
842.000000	11.311577
843.000000	11.315752
844.000000	11.317612
845.000000	11.328158
846.000000	11.340935
847.000000	11.349896
848.000000	11.356899
849.000000	11.358555
850.000000	11.369033
851.000000	11.369422
852.000000	11.359186
853.000000	11.353990
854.000000	11.344557
855.000000	11.342534
856.000000	11.333001
857.000000	11.372427
858.000000	11.728947
859.000000	11.791789
860.000000	11.849737
861.000000	11.944128
862.000000	12.019960
863.000000	12.099995
864.000000	12.189750
865.000000	12.268030
866.000000	12.351726
867.000000	12.369060
868.000000	12.076325
869.000000	12.074983
870.000000	12.048800
871.000000	11.997845
872.000000	11.971345
873.000000	11.944450
874.000000	11.916123
875.000000	11.889003
876.000000	11.861890
877.000000	11.858840
878.000000	11.855590
879.000000	11.852170
880.000000	11.849307
881.000000	11.821777
882.000000	11.794825
883.000000	11.767570
884.000000	11.765977
885.000000	11.764053
886.000000	11.736282
887.000000	11.733450
888.000000	11.731835
889.000000	11.706568
890.000000	11.703755
891.000000	11.726862
892.000000	11.724997
893.000000	11.722843
894.000000	11.696588
895.000000	11.669158
896.000000	11.668032
897.000000	11.642038
898.000000	11.615078
899.000000	11.613545
900.000000	11.613278
901.000000	11.611548
902.000000	11.635265
903.000000	11.659047
904.000000	11.657872
905.000000	11.657077
906.000000	11.657065
907.000000	11.657095
908.000000	11.657177
909.000000	11.657108
910.000000	11.656500
911.000000	11.657262
912.000000	11.656900
913.000000	11.658202
914.000000	11.683852
915.000000	11.710522
916.000000	11.735297
917.000000	11.736470
918.000000	11.762818
919.000000	11.788273
920.000000	11.814085
921.000000	11.839202
922.000000	11.865280
923.000000	11.865425
924.000000	11.891225
925.000000	11.891495
926.000000	11.891445
927.000000	11.915605
928.000000	11.915185
929.000000	11.912828
930.000000	11.911388
931.000000	11.910363
932.000000	11.908590
933.000000	11.931850
934.000000	11.930722
935.000000	11.953275
936.000000	11.978222
937.000000	12.002785
938.000000	12.026550
939.000000	12.051752
940.000000	12.075587
941.000000	12.099095
942.000000	12.123610
943.000000	12.148325
944.000000	12.171658
945.000000	12.196160
946.000000	12.219173
947.000000	12.242585
948.000000	12.266195
949.000000	12.289568
950.000000	12.312912
951.000000	12.312183
952.000000	12.336085
953.000000	12.334145
954.000000	12.357733
955.000000	12.380420
956.000000	12.378922
957.000000	12.376822
958.000000	12.374648
959.000000	12.372947
960.000000	12.371317
961.000000	12.394130
962.000000	12.390860
963.000000	12.413260
964.000000	12.410977
965.000000	12.409758
966.000000	12.432417
967.000000	12.454997
968.000000	12.477692
969.000000	12.500758
970.000000	12.523670
971.000000	12.546130
972.000000	12.569095
973.000000	12.592398
974.000000	12.614140
975.000000	12.635053
976.000000	12.656855
977.000000	12.679153
978.000000	12.700920
979.000000	12.722812
980.000000	12.744530
981.000000	12.767012
982.000000	12.789578
983.000000	12.811802
984.000000	12.834117
985.000000	12.856070
986.000000	12.877788
987.000000	12.899798
988.000000	12.922197
989.000000	12.944292
990.000000	12.966630
991.000000	12.988317
992.000000	13.010302
993.000000	13.032370
994.000000	13.055017
995.000000	13.077740
996.000000	13.099255
997.000000	13.120107
998.000000	13.141342
999.000000	13.162347
1000.000000	13.183362
1001.000000	13.204327
1002.000000	13.225658
1003.000000	13.246675
1004.000000	13.267040
1005.000000	13.287598
1006.000000	13.309070
1007.000000	13.330883
1008.000000	13.352263
1009.000000	13.373965
1010.000000	13.396175
1011.000000	13.418482
1012.000000	13.439562
1013.000000	13.460297
1014.000000	13.481100
1015.000000	13.502508
1016.000000	13.523155
1017.000000	13.543285
1018.000000	13.563830
1019.000000	13.583835
1020.000000	13.604280
1021.000000	13.625540
1022.000000	13.646627
1023.000000	13.667440
1024.000000	13.688585
1025.000000	13.709848
1026.000000	13.731670
1027.000000	13.753110
1028.000000	13.774023
1029.000000	13.795517
1030.000000	13.816622
1031.000000	13.836962
1032.000000	13.857942
1033.000000	13.878942
1034.000000	13.899865
1035.000000	13.920385
1036.000000	13.941108
1037.000000	13.962463
1038.000000	13.983335
1039.000000	14.003960
1040.000000	14.024645
1041.000000	14.045180
1042.000000	14.065498
1043.000000	14.085650
1044.000000	14.106182
1045.000000	14.127148
1046.000000	14.147905
1047.000000	14.167687
1048.000000	14.187832
1049.000000	14.208192
1050.000000	14.228407
1051.000000	14.249107
1052.000000	14.269297
1053.000000	14.289392
1054.000000	14.309637
1055.000000	14.329672
1056.000000	14.349345
1057.000000	14.369655
1058.000000	14.390630
1059.000000	14.411050
1060.000000	14.431020
1061.000000	14.449885
1062.000000	14.469238
1063.000000	14.489752
1064.000000	14.509848
1065.000000	14.529185
1066.000000	14.548723
1067.000000	14.568185
1068.000000	14.587293
1069.000000	14.606808
1070.000000	14.626245
1071.000000	14.646357
1072.000000	14.666673
1073.000000	14.686357
1074.000000	14.705795
1075.000000	14.725942
1076.000000	14.746182
1077.000000	14.766325
1078.000000	14.786427
1079.000000	14.806575
1080.000000	14.826798
1081.000000	14.846467
1082.000000	14.866505
1083.000000	14.886458
1084.000000	14.905573
1085.000000	14.923700
1086.000000	14.941895
1087.000000	14.960182
1088.000000	14.978390
1089.000000	14.996525
1090.000000	15.014077
1091.000000	15.031905
1092.000000	15.049240
1093.000000	15.066250
1094.000000	15.084195
1095.000000	15.102887
1096.000000	15.120110
1097.000000	15.137755
1098.000000	15.155950
1099.000000	15.173805
1100.000000	15.191703
1101.000000	15.208980
1102.000000	15.225575
1103.000000	15.242555
1104.000000	15.259127
1105.000000	15.276270
1106.000000	15.294510
1107.000000	15.312285
1108.000000	15.328977
1109.000000	15.344985
1110.000000	15.361180
1111.000000	15.377015
1112.000000	15.392853
1113.000000	15.408225
1114.000000	15.423780
1115.000000	15.437935
1116.000000	15.452018
1117.000000	15.466302
1118.000000	15.479688
1119.000000	15.493030
1120.000000	15.505937
1121.000000	15.520247
1122.000000	15.534838
1123.000000	15.549835
1124.000000	15.563952
1125.000000	15.578027
1126.000000	15.590863
1127.000000	15.602880
1128.000000	15.615920
1129.000000	15.628737
1130.000000	15.641190
1131.000000	15.651035
1132.000000	15.659210
1133.000000	15.666970
1134.000000	15.676433
1135.000000	15.687448
1136.000000	15.698718
1137.000000	15.708210
1138.000000	15.716560
1139.000000	15.724958
1140.000000	15.732260
1141.000000	15.741152
1142.000000	15.750620
1143.000000	15.759935
1144.000000	15.766510
1145.000000	15.772465
1146.000000	15.778685
1147.000000	15.786900
1148.000000	15.795135
1149.000000	15.803685
1150.000000	15.813198
1151.000000	15.821815
1152.000000	15.832810
1153.000000	15.841960
1154.000000	15.851977
1155.000000	15.860617
1156.000000	15.868695
1157.000000	15.874750
1158.000000	15.880833
1159.000000	15.886717
1160.000000	15.890905
1161.000000	15.895500
1162.000000	15.896725
1163.000000	15.898203
1164.000000	15.898852
1165.000000	15.897920
1166.000000	15.896995
1167.000000	15.896630
1168.000000	15.895143
1169.000000	15.893187
1170.000000	15.892948
1171.000000	15.891585
1172.000000	15.891410
1173.000000	15.892237
1174.000000	15.893038
1175.000000	15.895177
1176.000000	15.897628
1177.000000	15.900993
1178.000000	15.905568
