PE UV       SUBTECH     SPECTRUM    ASCII       PEDS        4.00        
   -1
INBUCR0216-4.Sample.ASC
24/02/08
09:52:45.00
24/02/08
09:52:45.00
Vinicio Soto Monge
Coopelares, Sector Las Pailas, Prov Guanacaste. COSTA RICA. 1600 m. 24 JUN-10 JUL 1995. K. Taylor L_N_311400_389400 #6199. INBIOCRI002426713.
250,000000
1
Lambda 1050
1050L1511233
PerkinElmer UV WinLab 6.3.2.0749 / 2.02.05 Lambda 900 UV/VIS/NIR, Aug  7 2015 09:38:08

0
0
3350/servo 860,8/2
0
0
UV/VIS
1
1
1
DoubleDePol,CommonBeamDepol,RBeamAtt,SBeamAtt,60mm sphere, WB InGaAs Detector
0
0
0
0
Program
Program
3350/servo 860,8/2
3350/0,2 860,8/0,2
3350/0,2 860,8/0,2
0
15.00
 
 
 
0
 
860,8
319,2
860,8
Front
100
on
S:100 R:100
0
0
0
0
 
0
 
 
 
0
 
 
0
0
0
0
0
 
 
 
 
0
0


0
0
#HDR
-1
-1
#GR
nm
%R
1.0
0.0
2500,000000
-1,000000
2251
8
14,336900
1,328200
#DATA

250.000000	nan
251.000000	nan
252.000000	nan
253.000000	nan
254.000000	nan
255.000000	nan
256.000000	nan
257.000000	nan
258.000000	nan
259.000000	4.195480
260.000000	4.182828
261.000000	4.169935
262.000000	4.154610
263.000000	4.140702
264.000000	4.124070
265.000000	4.107818
266.000000	4.091773
267.000000	4.076599
268.000000	4.059761
269.000000	4.046364
270.000000	4.031282
271.000000	4.015274
272.000000	4.000231
273.000000	3.986804
274.000000	3.974610
275.000000	3.963742
276.000000	3.951960
277.000000	3.942975
278.000000	3.933412
279.000000	3.922790
280.000000	3.914680
281.000000	3.909080
282.000000	3.903196
283.000000	3.897495
284.000000	3.894297
285.000000	3.890328
286.000000	3.887025
287.000000	3.882774
288.000000	3.881211
289.000000	3.881230
290.000000	3.879739
291.000000	3.876933
292.000000	3.876308
293.000000	3.875008
294.000000	3.871855
295.000000	3.871234
296.000000	3.872970
297.000000	3.872000
298.000000	3.869118
299.000000	3.865666
300.000000	3.863840
301.000000	3.862763
302.000000	3.860857
303.000000	3.858748
304.000000	3.857488
305.000000	3.854883
306.000000	3.849247
307.000000	3.846123
308.000000	3.843289
309.000000	3.841572
310.000000	3.835911
311.000000	3.830809
312.000000	3.827881
313.000000	3.826615
314.000000	3.823742
315.000000	3.821872
316.000000	3.820690
317.000000	3.836345
318.000000	3.847962
319.000000	3.867788
320.000000	3.894771
321.000000	3.912618
322.000000	3.932007
323.000000	3.944383
324.000000	3.962499
325.000000	3.969640
326.000000	3.984410
327.000000	3.980106
328.000000	3.984622
329.000000	3.973680
330.000000	3.962219
331.000000	3.960173
332.000000	3.952062
333.000000	3.949566
334.000000	3.941958
335.000000	3.947184
336.000000	3.943666
337.000000	3.941540
338.000000	3.934557
339.000000	3.934910
340.000000	3.933511
341.000000	3.933195
342.000000	3.933795
343.000000	3.931256
344.000000	3.930420
345.000000	3.928783
346.000000	3.930691
347.000000	3.935239
348.000000	3.938686
349.000000	3.938240
350.000000	3.940188
351.000000	3.942509
352.000000	3.948832
353.000000	3.955456
354.000000	3.960759
355.000000	3.965390
356.000000	3.969953
357.000000	3.973135
358.000000	3.975727
359.000000	3.979072
360.000000	3.981019
361.000000	3.980396
362.000000	3.977763
363.000000	3.979898
364.000000	3.979593
365.000000	3.974807
366.000000	3.970986
367.000000	3.966051
368.000000	3.963286
369.000000	3.963554
370.000000	3.961849
371.000000	3.959697
372.000000	3.955600
373.000000	3.949786
374.000000	3.948233
375.000000	3.947361
376.000000	3.948320
377.000000	3.943142
378.000000	3.938285
379.000000	3.932027
380.000000	3.926194
381.000000	3.921466
382.000000	3.918837
383.000000	3.916043
384.000000	3.912176
385.000000	3.910552
386.000000	3.905248
387.000000	3.907450
388.000000	3.910227
389.000000	3.912921
390.000000	3.915499
391.000000	3.917738
392.000000	3.920617
393.000000	3.923030
394.000000	3.925521
395.000000	3.928264
396.000000	3.931213
397.000000	3.933698
398.000000	3.935465
399.000000	3.937774
400.000000	3.940524
401.000000	3.943156
402.000000	3.945420
403.000000	3.949047
404.000000	3.952378
405.000000	3.956116
406.000000	3.959127
407.000000	3.962277
408.000000	3.966103
409.000000	3.969731
410.000000	3.973228
411.000000	3.977276
412.000000	3.981784
413.000000	3.985646
414.000000	3.989461
415.000000	3.993573
416.000000	3.998547
417.000000	4.003542
418.000000	4.008171
419.000000	4.013245
420.000000	4.018290
421.000000	4.023081
422.000000	4.027589
423.000000	4.032426
424.000000	4.037954
425.000000	4.043364
426.000000	4.048270
427.000000	4.053290
428.000000	4.058704
429.000000	4.064202
430.000000	4.069878
431.000000	4.075603
432.000000	4.081664
433.000000	4.088043
434.000000	4.094497
435.000000	4.101278
436.000000	4.108020
437.000000	4.114759
438.000000	4.121888
439.000000	4.128944
440.000000	4.136076
441.000000	4.143594
442.000000	4.150972
443.000000	4.158440
444.000000	4.165616
445.000000	4.172683
446.000000	4.180553
447.000000	4.188333
448.000000	4.195512
449.000000	4.202840
450.000000	4.210495
451.000000	4.218327
452.000000	4.226052
453.000000	4.233653
454.000000	4.241548
455.000000	4.249814
456.000000	4.258084
457.000000	4.267080
458.000000	4.276360
459.000000	4.285711
460.000000	4.295407
461.000000	4.305280
462.000000	4.315510
463.000000	4.326372
464.000000	4.338009
465.000000	4.349437
466.000000	4.361502
467.000000	4.374388
468.000000	4.388275
469.000000	4.402891
470.000000	4.418030
471.000000	4.434277
472.000000	4.451834
473.000000	4.470190
474.000000	4.489250
475.000000	4.509944
476.000000	4.531819
477.000000	4.554469
478.000000	4.578151
479.000000	4.603429
480.000000	4.630478
481.000000	4.658666
482.000000	4.688284
483.000000	4.720473
484.000000	4.755546
485.000000	4.793746
486.000000	4.834928
487.000000	4.879503
488.000000	4.928359
489.000000	4.981818
490.000000	5.040665
491.000000	5.105273
492.000000	5.176190
493.000000	5.254064
494.000000	5.339175
495.000000	5.432302
496.000000	5.535099
497.000000	5.649155
498.000000	5.775187
499.000000	5.914311
500.000000	6.069158
501.000000	6.242862
502.000000	6.437425
503.000000	6.655447
504.000000	6.900901
505.000000	7.177587
506.000000	7.490069
507.000000	7.842491
508.000000	8.240014
509.000000	8.688470
510.000000	9.192129
511.000000	9.755125
512.000000	10.380381
513.000000	11.069790
514.000000	11.823832
515.000000	12.642278
516.000000	13.521391
517.000000	14.455477
518.000000	15.436966
519.000000	16.455437
520.000000	17.497244
521.000000	18.546186
522.000000	19.586025
523.000000	20.597974
524.000000	21.562258
525.000000	22.461989
526.000000	23.284364
527.000000	24.020080
528.000000	24.663591
529.000000	25.213178
530.000000	25.671965
531.000000	26.045847
532.000000	26.344326
533.000000	26.577292
534.000000	26.759465
535.000000	26.901742
536.000000	27.013915
537.000000	27.105492
538.000000	27.181834
539.000000	27.247294
540.000000	27.304630
541.000000	27.356637
542.000000	27.402962
543.000000	27.447546
544.000000	27.489552
545.000000	27.531336
546.000000	27.572126
547.000000	27.611306
548.000000	27.649985
549.000000	27.687450
550.000000	27.724609
551.000000	27.760567
552.000000	27.796990
553.000000	27.831503
554.000000	27.865287
555.000000	27.894928
556.000000	27.923213
557.000000	27.949535
558.000000	27.973158
559.000000	27.993971
560.000000	27.993865
561.000000	27.989039
562.000000	27.980020
563.000000	27.969186
564.000000	27.954846
565.000000	27.937615
566.000000	27.917229
567.000000	27.894042
568.000000	27.867970
569.000000	27.839818
570.000000	27.825573
571.000000	27.809562
572.000000	27.790560
573.000000	27.766093
574.000000	27.736279
575.000000	27.702088
576.000000	27.659675
577.000000	27.608833
578.000000	27.551422
579.000000	27.486312
580.000000	27.412307
581.000000	27.327748
582.000000	27.233181
583.000000	27.128652
584.000000	27.015530
585.000000	26.892782
586.000000	26.764399
587.000000	26.635268
588.000000	26.504910
589.000000	26.381195
590.000000	26.271417
591.000000	26.180032
592.000000	26.108229
593.000000	26.053772
594.000000	26.009589
595.000000	25.968791
596.000000	25.921729
597.000000	25.858486
598.000000	25.774295
599.000000	25.659112
600.000000	25.507589
601.000000	25.318956
602.000000	25.093665
603.000000	24.844379
604.000000	24.587817
605.000000	24.345993
606.000000	24.141373
607.000000	23.991505
608.000000	23.901934
609.000000	23.869410
610.000000	23.880741
611.000000	23.920917
612.000000	23.974522
613.000000	24.023895
614.000000	24.051115
615.000000	24.040654
616.000000	23.977594
617.000000	23.852570
618.000000	23.670184
619.000000	23.446051
620.000000	23.205397
621.000000	22.976995
622.000000	22.791025
623.000000	22.668103
624.000000	22.621253
625.000000	22.647938
626.000000	22.737597
627.000000	22.873420
628.000000	23.036624
629.000000	23.203014
630.000000	23.351654
631.000000	23.461321
632.000000	23.511412
633.000000	23.488298
634.000000	23.390220
635.000000	23.228589
636.000000	23.023156
637.000000	22.802442
638.000000	22.593829
639.000000	22.428548
640.000000	22.328935
641.000000	22.308766
642.000000	22.368190
643.000000	22.502348
644.000000	22.693758
645.000000	22.919719
646.000000	23.158714
647.000000	23.383926
648.000000	23.573443
649.000000	23.705256
650.000000	23.764035
651.000000	23.742450
652.000000	23.647630
653.000000	23.493090
654.000000	23.303820
655.000000	23.107761
656.000000	22.930258
657.000000	22.797739
658.000000	22.727319
659.000000	22.730987
660.000000	22.812351
661.000000	22.965125
662.000000	23.176857
663.000000	23.429369
664.000000	23.700370
665.000000	23.967440
666.000000	24.210153
667.000000	24.408424
668.000000	24.549154
669.000000	24.624272
670.000000	24.632407
671.000000	24.583411
672.000000	24.491824
673.000000	24.377022
674.000000	24.260876
675.000000	24.160871
676.000000	24.094982
677.000000	24.074008
678.000000	24.107883
679.000000	24.201524
680.000000	24.354069
681.000000	24.557970
682.000000	24.800973
683.000000	25.068459
684.000000	25.342155
685.000000	25.605133
686.000000	25.843966
687.000000	26.048099
688.000000	26.208745
689.000000	26.322964
690.000000	26.391350
691.000000	26.418586
692.000000	26.416053
693.000000	26.393730
694.000000	26.365632
695.000000	26.346348
696.000000	26.345310
697.000000	26.373455
698.000000	26.436288
699.000000	26.536136
700.000000	26.673503
701.000000	26.845880
702.000000	27.045282
703.000000	27.264562
704.000000	27.493409
705.000000	27.720995
706.000000	27.936758
707.000000	28.132606
708.000000	28.303159
709.000000	28.443835
710.000000	28.553056
711.000000	28.635247
712.000000	28.694788
713.000000	28.737232
714.000000	28.767784
715.000000	28.794527
716.000000	28.826268
717.000000	28.867435
718.000000	28.921287
719.000000	28.991369
720.000000	29.079605
721.000000	29.184068
722.000000	29.301780
723.000000	29.430514
724.000000	29.568228
725.000000	29.710476
726.000000	29.852176
727.000000	29.991223
728.000000	30.123879
729.000000	30.247670
730.000000	30.360267
731.000000	30.460740
732.000000	30.550020
733.000000	30.629382
734.000000	30.699921
735.000000	30.763297
736.000000	30.823298
737.000000	30.877295
738.000000	30.929931
739.000000	30.983704
740.000000	31.039381
741.000000	31.100126
742.000000	31.167133
743.000000	31.240983
744.000000	31.321352
745.000000	31.408558
746.000000	31.499587
747.000000	31.596755
748.000000	31.697057
749.000000	31.797602
750.000000	31.897989
751.000000	31.993759
752.000000	32.082953
753.000000	32.165834
754.000000	32.241036
755.000000	32.309027
756.000000	32.368108
757.000000	32.420318
758.000000	32.467500
759.000000	32.510956
760.000000	32.555044
761.000000	32.602182
762.000000	32.657428
763.000000	32.716838
764.000000	32.782021
765.000000	32.857298
766.000000	32.942334
767.000000	33.036350
768.000000	33.135100
769.000000	33.236167
770.000000	33.336697
771.000000	33.434346
772.000000	33.523142
773.000000	33.606695
774.000000	33.683902
775.000000	33.751041
776.000000	33.808530
777.000000	33.857405
778.000000	33.902739
779.000000	33.946502
780.000000	33.991211
781.000000	34.038226
782.000000	34.088088
783.000000	34.140936
784.000000	34.201550
785.000000	34.266391
786.000000	34.337684
787.000000	34.411836
788.000000	34.488993
789.000000	34.566305
790.000000	34.644302
791.000000	34.715346
792.000000	34.783321
793.000000	34.846018
794.000000	34.902254
795.000000	34.952642
796.000000	34.998815
797.000000	35.042092
798.000000	35.082517
799.000000	35.121631
800.000000	35.160819
801.000000	35.208162
802.000000	35.262054
803.000000	35.320588
804.000000	35.383517
805.000000	35.453557
806.000000	35.527586
807.000000	35.609429
808.000000	35.695031
809.000000	35.786417
810.000000	35.873175
811.000000	35.956818
812.000000	36.038596
813.000000	36.121158
814.000000	36.198533
815.000000	36.275668
816.000000	36.351344
817.000000	36.424529
818.000000	36.498737
819.000000	36.571283
820.000000	36.649744
821.000000	36.727652
822.000000	36.806384
823.000000	36.885168
824.000000	36.965357
825.000000	37.040018
826.000000	37.118181
827.000000	37.199467
828.000000	37.273259
829.000000	37.345437
830.000000	37.414149
831.000000	37.485923
832.000000	37.551087
833.000000	37.611679
834.000000	37.680277
835.000000	37.750829
836.000000	37.820924
837.000000	37.874935
838.000000	37.933563
839.000000	37.988399
840.000000	38.042906
841.000000	38.100804
842.000000	38.159076
843.000000	38.217672
844.000000	38.269312
845.000000	38.321910
846.000000	38.361944
847.000000	38.400259
848.000000	38.440303
849.000000	38.485225
850.000000	38.526685
851.000000	38.556599
852.000000	38.587376
853.000000	38.628930
854.000000	38.667880
855.000000	38.696081
856.000000	38.722919
857.000000	38.771871
858.000000	38.724656
859.000000	38.836453
860.000000	38.943505
861.000000	39.064497
862.000000	39.213459
863.000000	39.329880
864.000000	39.451625
865.000000	39.589101
866.000000	39.738479
867.000000	39.855385
868.000000	40.056247
869.000000	40.089113
870.000000	40.110990
871.000000	40.136138
872.000000	40.126902
873.000000	40.134585
874.000000	40.120530
875.000000	40.105643
876.000000	40.080262
877.000000	40.059052
878.000000	40.038905
879.000000	40.026155
880.000000	40.023585
881.000000	40.010095
882.000000	39.991175
883.000000	39.958723
884.000000	39.933172
885.000000	39.899940
886.000000	39.864548
887.000000	39.833685
888.000000	39.811237
889.000000	39.778935
890.000000	39.744090
891.000000	39.706788
892.000000	39.677845
893.000000	39.651870
894.000000	39.622595
895.000000	39.584545
896.000000	39.546252
897.000000	39.510082
898.000000	39.463853
899.000000	39.424080
900.000000	39.392325
901.000000	39.347310
902.000000	39.294675
903.000000	39.241657
904.000000	39.193880
905.000000	39.152138
906.000000	39.111473
907.000000	39.065395
908.000000	39.017212
909.000000	38.956625
910.000000	38.889063
911.000000	38.825530
912.000000	38.766205
913.000000	38.716700
914.000000	38.674788
915.000000	38.616875
916.000000	38.553790
917.000000	38.490092
918.000000	38.432655
919.000000	38.381405
920.000000	38.327263
921.000000	38.267643
922.000000	38.207060
923.000000	38.140977
924.000000	38.065825
925.000000	38.000845
926.000000	37.936825
927.000000	37.877192
928.000000	37.809115
929.000000	37.741957
930.000000	37.675810
931.000000	37.615558
932.000000	37.552833
933.000000	37.490918
934.000000	37.426992
935.000000	37.361978
936.000000	37.296435
937.000000	37.229892
938.000000	37.164932
939.000000	37.099068
940.000000	37.029625
941.000000	36.954825
942.000000	36.881125
943.000000	36.806238
944.000000	36.734555
945.000000	36.664085
946.000000	36.597020
947.000000	36.536613
948.000000	36.476630
949.000000	36.415798
950.000000	36.359317
951.000000	36.306583
952.000000	36.258163
953.000000	36.215855
954.000000	36.174095
955.000000	36.132105
956.000000	36.088965
957.000000	36.043070
958.000000	35.995447
959.000000	35.948712
960.000000	35.903753
961.000000	35.861393
962.000000	35.819088
963.000000	35.775482
964.000000	35.732408
965.000000	35.691547
966.000000	35.655498
967.000000	35.621940
968.000000	35.592348
969.000000	35.564702
970.000000	35.540098
971.000000	35.517453
972.000000	35.494087
973.000000	35.472068
974.000000	35.450023
975.000000	35.428768
976.000000	35.405552
977.000000	35.383770
978.000000	35.365327
979.000000	35.346480
980.000000	35.327832
981.000000	35.309447
982.000000	35.291850
983.000000	35.274365
984.000000	35.258772
985.000000	35.246615
986.000000	35.237220
987.000000	35.228257
988.000000	35.218782
989.000000	35.210930
990.000000	35.203517
991.000000	35.197515
992.000000	35.193490
993.000000	35.192280
994.000000	35.193258
995.000000	35.192842
996.000000	35.193500
997.000000	35.193980
998.000000	35.194658
999.000000	35.195795
1000.000000	35.197760
1001.000000	35.200975
1002.000000	35.205678
1003.000000	35.211523
1004.000000	35.216307
1005.000000	35.220980
1006.000000	35.226070
1007.000000	35.231288
1008.000000	35.238213
1009.000000	35.247355
1010.000000	35.256905
1011.000000	35.265720
1012.000000	35.274465
1013.000000	35.282767
1014.000000	35.291755
1015.000000	35.303377
1016.000000	35.315973
1017.000000	35.330665
1018.000000	35.345852
1019.000000	35.359943
1020.000000	35.374932
1021.000000	35.391115
1022.000000	35.407298
1023.000000	35.424428
1024.000000	35.444043
1025.000000	35.463518
1026.000000	35.483050
1027.000000	35.502720
1028.000000	35.523230
1029.000000	35.545432
1030.000000	35.567705
1031.000000	35.589748
1032.000000	35.613492
1033.000000	35.637608
1034.000000	35.661547
1035.000000	35.684795
1036.000000	35.707693
1037.000000	35.730115
1038.000000	35.752050
1039.000000	35.773250
1040.000000	35.795383
1041.000000	35.818088
1042.000000	35.840313
1043.000000	35.861477
1044.000000	35.881122
1045.000000	35.901780
1046.000000	35.923485
1047.000000	35.945855
1048.000000	35.967635
1049.000000	35.989765
1050.000000	36.012338
1051.000000	36.036008
1052.000000	36.059155
1053.000000	36.081962
1054.000000	36.105098
1055.000000	36.127823
1056.000000	36.149938
1057.000000	36.172913
1058.000000	36.197707
1059.000000	36.222215
1060.000000	36.245660
1061.000000	36.268180
1062.000000	36.291365
1063.000000	36.316317
1064.000000	36.341707
1065.000000	36.366515
1066.000000	36.392313
1067.000000	36.417450
1068.000000	36.441795
1069.000000	36.466147
1070.000000	36.490535
1071.000000	36.515500
1072.000000	36.540078
1073.000000	36.563548
1074.000000	36.587130
1075.000000	36.612018
1076.000000	36.635673
1077.000000	36.657835
1078.000000	36.678872
1079.000000	36.700758
1080.000000	36.723840
1081.000000	36.745893
1082.000000	36.767625
1083.000000	36.790140
1084.000000	36.811610
1085.000000	36.831713
1086.000000	36.853047
1087.000000	36.873920
1088.000000	36.894667
1089.000000	36.915465
1090.000000	36.936735
1091.000000	36.958040
1092.000000	36.978640
1093.000000	36.999560
1094.000000	37.020212
1095.000000	37.041385
1096.000000	37.061450
1097.000000	37.081945
1098.000000	37.103505
1099.000000	37.123955
1100.000000	37.143055
1101.000000	37.162590
1102.000000	37.182098
1103.000000	37.201170
1104.000000	37.220337
1105.000000	37.239762
1106.000000	37.259622
1107.000000	37.280125
1108.000000	37.298460
1109.000000	37.315893
1110.000000	37.333545
1111.000000	37.350453
1112.000000	37.367220
1113.000000	37.382962
1114.000000	37.398533
1115.000000	37.413223
1116.000000	37.426935
1117.000000	37.440157
1118.000000	37.454838
1119.000000	37.469375
1120.000000	37.483430
1121.000000	37.494903
1122.000000	37.505068
1123.000000	37.515315
1124.000000	37.523862
1125.000000	37.531105
1126.000000	37.535045
1127.000000	37.536995
1128.000000	37.537320
1129.000000	37.536140
1130.000000	37.531865
1131.000000	37.525002
1132.000000	37.514330
1133.000000	37.501835
1134.000000	37.490340
1135.000000	37.479110
1136.000000	37.468465
1137.000000	37.454340
1138.000000	37.438072
1139.000000	37.420740
1140.000000	37.402965
1141.000000	37.387480
1142.000000	37.374027
1143.000000	37.358137
1144.000000	37.342680
1145.000000	37.328320
1146.000000	37.313907
1147.000000	37.301563
1148.000000	37.290810
1149.000000	37.279268
1150.000000	37.267310
1151.000000	37.254248
1152.000000	37.242155
1153.000000	37.230095
1154.000000	37.213893
1155.000000	37.194065
1156.000000	37.171573
1157.000000	37.148340
1158.000000	37.122287
1159.000000	37.095267
1160.000000	37.065907
1161.000000	37.033060
1162.000000	36.998220
1163.000000	36.960990
1164.000000	36.923435
1165.000000	36.883670
1166.000000	36.845383
1167.000000	36.805015
1168.000000	36.765113
