PE UV       SUBTECH     SPECTRUM    ASCII       PEDS        4.00        
   -1
INBUCR0115-5.Sample.ASC
24/02/12
13:44:21.00
24/02/12
13:44:21.00
Vinicio Soto Monge
Strigidia pubes. Color café con ambos élitros (Det: A. Solís) COSTA RICA Prov. Limón. Estación R. B. Hitoy Cerere. 160m AGO 1998 E. Rojas. Tp. Luz L_N_184120_643471 #51622 INB0003055960 INBIOCRI COSTA RICA 
250,000000
1
Lambda 1050
1050L1511233
PerkinElmer UV WinLab 6.3.2.0749 / 2.02.05 Lambda 900 UV/VIS/NIR, Aug  7 2015 09:38:08

0
0
3350/servo 860,8/2
0
0
UV/VIS
1
1
1
DoubleDePol,CommonBeamDepol,RBeamAtt,SBeamAtt,60mm sphere, WB InGaAs Detector
0
0
0
0
Program
Program
3350/servo 860,8/2
3350/0,2 860,8/0,2
3350/0,2 860,8/0,2
0
15.00
 
 
 
0
 
860,8
150
860,8
Front
100
on
S:100 R:100
0
0
0
0
 
0
 
 
 
0
 
 
0
0
0
0
0
 
 
 
 
0
0


0
0
#HDR
-1
-1
#GR
nm
%R
1.0
0.0
2500,000000
-1,000000
2251
8
22,631900
1,381700
#DATA

250.000000	nan
251.000000	nan
252.000000	nan
253.000000	nan
254.000000	nan
255.000000	nan
256.000000	nan
257.000000	nan
258.000000	nan
259.000000	4.813009
260.000000	4.780990
261.000000	4.737681
262.000000	4.736952
263.000000	4.727354
264.000000	4.705383
265.000000	4.693754
266.000000	4.691010
267.000000	4.676826
268.000000	4.663222
269.000000	4.648091
270.000000	4.633720
271.000000	4.617998
272.000000	4.597049
273.000000	4.581106
274.000000	4.564905
275.000000	4.548220
276.000000	4.536613
277.000000	4.528419
278.000000	4.516448
279.000000	4.514614
280.000000	4.503131
281.000000	4.495349
282.000000	4.487739
283.000000	4.477426
284.000000	4.471566
285.000000	4.463672
286.000000	4.453775
287.000000	4.446684
288.000000	4.437731
289.000000	4.429902
290.000000	4.426016
291.000000	4.421360
292.000000	4.414070
293.000000	4.412657
294.000000	4.405228
295.000000	4.404595
296.000000	4.405152
297.000000	4.401082
298.000000	4.397354
299.000000	4.391354
300.000000	4.387761
301.000000	4.383120
302.000000	4.379512
303.000000	4.376449
304.000000	4.374057
305.000000	4.373207
306.000000	4.372692
307.000000	4.372084
308.000000	4.375608
309.000000	4.376916
310.000000	4.380208
311.000000	4.380867
312.000000	4.383995
313.000000	4.385644
314.000000	4.388381
315.000000	4.387872
316.000000	4.388063
317.000000	4.418011
318.000000	4.430375
319.000000	4.458953
320.000000	4.479942
321.000000	4.498573
322.000000	4.513438
323.000000	4.523531
324.000000	4.537191
325.000000	4.550076
326.000000	4.571443
327.000000	4.559480
328.000000	4.554966
329.000000	4.534924
330.000000	4.524315
331.000000	4.514906
332.000000	4.513955
333.000000	4.519010
334.000000	4.515721
335.000000	4.506460
336.000000	4.489256
337.000000	4.482528
338.000000	4.481801
339.000000	4.481668
340.000000	4.476444
341.000000	4.480059
342.000000	4.474570
343.000000	4.467346
344.000000	4.462682
345.000000	4.466331
346.000000	4.472765
347.000000	4.473968
348.000000	4.477025
349.000000	4.481064
350.000000	4.483951
351.000000	4.479719
352.000000	4.478488
353.000000	4.476491
354.000000	4.477573
355.000000	4.478400
356.000000	4.474589
357.000000	4.470029
358.000000	4.468349
359.000000	4.462915
360.000000	4.458866
361.000000	4.459092
362.000000	4.456168
363.000000	4.453776
364.000000	4.453341
365.000000	4.451577
366.000000	4.448939
367.000000	4.444975
368.000000	4.438559
369.000000	4.438194
370.000000	4.438338
371.000000	4.432870
372.000000	4.427391
373.000000	4.421320
374.000000	4.411667
375.000000	4.402791
376.000000	4.398957
377.000000	4.391943
378.000000	4.386644
379.000000	4.377999
380.000000	4.369480
381.000000	4.363356
382.000000	4.359578
383.000000	4.357451
384.000000	4.356678
385.000000	4.356900
386.000000	4.352565
387.000000	4.352328
388.000000	4.352118
389.000000	4.351503
390.000000	4.350898
391.000000	4.350839
392.000000	4.351445
393.000000	4.351673
394.000000	4.352157
395.000000	4.352233
396.000000	4.352404
397.000000	4.352450
398.000000	4.352058
399.000000	4.352312
400.000000	4.352754
401.000000	4.352556
402.000000	4.352327
403.000000	4.352395
404.000000	4.352566
405.000000	4.352793
406.000000	4.353077
407.000000	4.353406
408.000000	4.353652
409.000000	4.353793
410.000000	4.353592
411.000000	4.353777
412.000000	4.353761
413.000000	4.353695
414.000000	4.353590
415.000000	4.353613
416.000000	4.353997
417.000000	4.354554
418.000000	4.354969
419.000000	4.354679
420.000000	4.355321
421.000000	4.356379
422.000000	4.357592
423.000000	4.358081
424.000000	4.358677
425.000000	4.359230
426.000000	4.359796
427.000000	4.360619
428.000000	4.361614
429.000000	4.362963
430.000000	4.363729
431.000000	4.364365
432.000000	4.364891
433.000000	4.365638
434.000000	4.366466
435.000000	4.367526
436.000000	4.368540
437.000000	4.369509
438.000000	4.370612
439.000000	4.371758
440.000000	4.372800
441.000000	4.373632
442.000000	4.374713
443.000000	4.376060
444.000000	4.377397
445.000000	4.378626
446.000000	4.379922
447.000000	4.381402
448.000000	4.382793
449.000000	4.383929
450.000000	4.385338
451.000000	4.386801
452.000000	4.388285
453.000000	4.389872
454.000000	4.391430
455.000000	4.392986
456.000000	4.394335
457.000000	4.395440
458.000000	4.396641
459.000000	4.398063
460.000000	4.399974
461.000000	4.401775
462.000000	4.403424
463.000000	4.405407
464.000000	4.407208
465.000000	4.409167
466.000000	4.411367
467.000000	4.413556
468.000000	4.416019
469.000000	4.418531
470.000000	4.420239
471.000000	4.422010
472.000000	4.423795
473.000000	4.424861
474.000000	4.425786
475.000000	4.426329
476.000000	4.426576
477.000000	4.426762
478.000000	4.426116
479.000000	4.424734
480.000000	4.423910
481.000000	4.423038
482.000000	4.422093
483.000000	4.422141
484.000000	4.423105
485.000000	4.424850
486.000000	4.427602
487.000000	4.431184
488.000000	4.436433
489.000000	4.443087
490.000000	4.450223
491.000000	4.458341
492.000000	4.467558
493.000000	4.476854
494.000000	4.486376
495.000000	4.496274
496.000000	4.506128
497.000000	4.515841
498.000000	4.525314
499.000000	4.534911
500.000000	4.544860
501.000000	4.554689
502.000000	4.564555
503.000000	4.574600
504.000000	4.584811
505.000000	4.594895
506.000000	4.604814
507.000000	4.614754
508.000000	4.624803
509.000000	4.634466
510.000000	4.643789
511.000000	4.653125
512.000000	4.661971
513.000000	4.670315
514.000000	4.678308
515.000000	4.686254
516.000000	4.694155
517.000000	4.701616
518.000000	4.708618
519.000000	4.716270
520.000000	4.723532
521.000000	4.730678
522.000000	4.738358
523.000000	4.746959
524.000000	4.755619
525.000000	4.764693
526.000000	4.774521
527.000000	4.785491
528.000000	4.797353
529.000000	4.809559
530.000000	4.823169
531.000000	4.837921
532.000000	4.853647
533.000000	4.870019
534.000000	4.887553
535.000000	4.906033
536.000000	4.925451
537.000000	4.945548
538.000000	4.966155
539.000000	4.987877
540.000000	5.010619
541.000000	5.033883
542.000000	5.057722
543.000000	5.082460
544.000000	5.107891
545.000000	5.133992
546.000000	5.160705
547.000000	5.188164
548.000000	5.216650
549.000000	5.245714
550.000000	5.274929
551.000000	5.305222
552.000000	5.335748
553.000000	5.367245
554.000000	5.399082
555.000000	5.431674
556.000000	5.465011
557.000000	5.498830
558.000000	5.533304
559.000000	5.568328
560.000000	5.602269
561.000000	5.635956
562.000000	5.670881
563.000000	5.705974
564.000000	5.742187
565.000000	5.779192
566.000000	5.816720
567.000000	5.854783
568.000000	5.893425
569.000000	5.932568
570.000000	5.974722
571.000000	6.018184
572.000000	6.062259
573.000000	6.107116
574.000000	6.153038
575.000000	6.199426
576.000000	6.246674
577.000000	6.294854
578.000000	6.343913
579.000000	6.393767
580.000000	6.444554
581.000000	6.495778
582.000000	6.548083
583.000000	6.601064
584.000000	6.655005
585.000000	6.709482
586.000000	6.764544
587.000000	6.820876
588.000000	6.878102
589.000000	6.936706
590.000000	6.995477
591.000000	7.054917
592.000000	7.115263
593.000000	7.176413
594.000000	7.238210
595.000000	7.300765
596.000000	7.364015
597.000000	7.427277
598.000000	7.491757
599.000000	7.556301
600.000000	7.621918
601.000000	7.688806
602.000000	7.756081
603.000000	7.823881
604.000000	7.892513
605.000000	7.961981
606.000000	8.032268
607.000000	8.103711
608.000000	8.175247
609.000000	8.247569
610.000000	8.320568
611.000000	8.394846
612.000000	8.469128
613.000000	8.544268
614.000000	8.620161
615.000000	8.696634
616.000000	8.773978
617.000000	8.851686
618.000000	8.930154
619.000000	9.009435
620.000000	9.089752
621.000000	9.169873
622.000000	9.251612
623.000000	9.334078
624.000000	9.416318
625.000000	9.499370
626.000000	9.583305
627.000000	9.668187
628.000000	9.753574
629.000000	9.840194
630.000000	9.926660
631.000000	10.014350
632.000000	10.102982
633.000000	10.192493
634.000000	10.283270
635.000000	10.375046
636.000000	10.467328
637.000000	10.560342
638.000000	10.654233
639.000000	10.748866
640.000000	10.844849
641.000000	10.941598
642.000000	11.038662
643.000000	11.137657
644.000000	11.236939
645.000000	11.336878
646.000000	11.437044
647.000000	11.537893
648.000000	11.639682
649.000000	11.742802
650.000000	11.846360
651.000000	11.950308
652.000000	12.055672
653.000000	12.159978
654.000000	12.265501
655.000000	12.371361
656.000000	12.478046
657.000000	12.585733
658.000000	12.693572
659.000000	12.801390
660.000000	12.909368
661.000000	13.018381
662.000000	13.126782
663.000000	13.235993
664.000000	13.345318
665.000000	13.454900
666.000000	13.565456
667.000000	13.675884
668.000000	13.786713
669.000000	13.897759
670.000000	14.008653
671.000000	14.119916
672.000000	14.230814
673.000000	14.343041
674.000000	14.455475
675.000000	14.568395
676.000000	14.680369
677.000000	14.792423
678.000000	14.904871
679.000000	15.016925
680.000000	15.129095
681.000000	15.241404
682.000000	15.355430
683.000000	15.467996
684.000000	15.580961
685.000000	15.693504
686.000000	15.806787
687.000000	15.920694
688.000000	16.034338
689.000000	16.147993
690.000000	16.262972
691.000000	16.377047
692.000000	16.490361
693.000000	16.605156
694.000000	16.719244
695.000000	16.834938
696.000000	16.951166
697.000000	17.066897
698.000000	17.183183
699.000000	17.299943
700.000000	17.416694
701.000000	17.534662
702.000000	17.652643
703.000000	17.769393
704.000000	17.887156
705.000000	18.004081
706.000000	18.120706
707.000000	18.238833
708.000000	18.357713
709.000000	18.477281
710.000000	18.596399
711.000000	18.714841
712.000000	18.834010
713.000000	18.954017
714.000000	19.074198
715.000000	19.195339
716.000000	19.317801
717.000000	19.439179
718.000000	19.559727
719.000000	19.679831
720.000000	19.800356
721.000000	19.921883
722.000000	20.044916
723.000000	20.169224
724.000000	20.293459
725.000000	20.417759
726.000000	20.541117
727.000000	20.664950
728.000000	20.791179
729.000000	20.919034
730.000000	21.047139
731.000000	21.174232
732.000000	21.300642
733.000000	21.427512
734.000000	21.555010
735.000000	21.683253
736.000000	21.812994
737.000000	21.943824
738.000000	22.073425
739.000000	22.202514
740.000000	22.332007
741.000000	22.463523
742.000000	22.595875
743.000000	22.726283
744.000000	22.857448
745.000000	22.990573
746.000000	23.123724
747.000000	23.256302
748.000000	23.390910
749.000000	23.525185
750.000000	23.660184
751.000000	23.795003
752.000000	23.928690
753.000000	24.064509
754.000000	24.199733
755.000000	24.332503
756.000000	24.465902
757.000000	24.599621
758.000000	24.731266
759.000000	24.862665
760.000000	24.995583
761.000000	25.129411
762.000000	25.262846
763.000000	25.396391
764.000000	25.529632
765.000000	25.663598
766.000000	25.797915
767.000000	25.932208
768.000000	26.066483
769.000000	26.201313
770.000000	26.335637
771.000000	26.467959
772.000000	26.598776
773.000000	26.728680
774.000000	26.856551
775.000000	26.984306
776.000000	27.112864
777.000000	27.240874
778.000000	27.367265
779.000000	27.491865
780.000000	27.615146
781.000000	27.737129
782.000000	27.860861
783.000000	27.983845
784.000000	28.106082
785.000000	28.227087
786.000000	28.346648
787.000000	28.463309
788.000000	28.578655
789.000000	28.694078
790.000000	28.805421
791.000000	28.919141
792.000000	29.031202
793.000000	29.138541
794.000000	29.247202
795.000000	29.358221
796.000000	29.463508
797.000000	29.567403
798.000000	29.673367
799.000000	29.775746
800.000000	29.878603
801.000000	29.979179
802.000000	30.081433
803.000000	30.185093
804.000000	30.285249
805.000000	30.379490
806.000000	30.472493
807.000000	30.568916
808.000000	30.663359
809.000000	30.762198
810.000000	30.857703
811.000000	30.951242
812.000000	31.042357
813.000000	31.131923
814.000000	31.219403
815.000000	31.308655
816.000000	31.401177
817.000000	31.489193
818.000000	31.576028
819.000000	31.660180
820.000000	31.744217
821.000000	31.824983
822.000000	31.903701
823.000000	31.981634
824.000000	32.066054
825.000000	32.148886
826.000000	32.225242
827.000000	32.300762
828.000000	32.372778
829.000000	32.446334
830.000000	32.516757
831.000000	32.589300
832.000000	32.662882
833.000000	32.735570
834.000000	32.805980
835.000000	32.868798
836.000000	32.935010
837.000000	33.007640
838.000000	33.084461
839.000000	33.150595
840.000000	33.221311
841.000000	33.292185
842.000000	33.356883
843.000000	33.416796
844.000000	33.467010
845.000000	33.543822
846.000000	33.599255
847.000000	33.657975
848.000000	33.714370
849.000000	33.765109
850.000000	33.822979
851.000000	33.880910
852.000000	33.941255
853.000000	33.991371
854.000000	34.055912
855.000000	34.097855
856.000000	34.160385
857.000000	34.221552
858.000000	34.548305
859.000000	34.677448
860.000000	34.802181
861.000000	34.918124
862.000000	35.031382
863.000000	35.144949
864.000000	35.263035
865.000000	35.352288
866.000000	35.443333
867.000000	35.528757
868.000000	35.345684
869.000000	35.384216
870.000000	35.412278
871.000000	35.417748
872.000000	35.415416
873.000000	35.446180
874.000000	35.453788
875.000000	35.490988
876.000000	35.532944
877.000000	35.550650
878.000000	35.564696
879.000000	35.564846
880.000000	35.565548
881.000000	35.590956
882.000000	35.632258
883.000000	35.647002
884.000000	35.666920
885.000000	35.674888
886.000000	35.675580
887.000000	35.698468
888.000000	35.717790
889.000000	35.729880
890.000000	35.746398
891.000000	35.771462
892.000000	35.780272
893.000000	35.786728
894.000000	35.817130
895.000000	35.839800
896.000000	35.850456
897.000000	35.868438
898.000000	35.884968
899.000000	35.906578
900.000000	35.927280
901.000000	35.942034
902.000000	35.962000
903.000000	35.980192
904.000000	35.981712
905.000000	36.006062
906.000000	36.041790
907.000000	36.066022
908.000000	36.092034
909.000000	36.122260
910.000000	36.147446
911.000000	36.169662
912.000000	36.193670
913.000000	36.229096
914.000000	36.258302
915.000000	36.284472
916.000000	36.306624
917.000000	36.326224
918.000000	36.359018
919.000000	36.386320
920.000000	36.415812
921.000000	36.449224
922.000000	36.484696
923.000000	36.513738
924.000000	36.544546
925.000000	36.572936
926.000000	36.606250
927.000000	36.635736
928.000000	36.659108
929.000000	36.686048
930.000000	36.718776
931.000000	36.745980
932.000000	36.767608
933.000000	36.792106
934.000000	36.813184
935.000000	36.837056
936.000000	36.859558
937.000000	36.885250
938.000000	36.907360
939.000000	36.927938
940.000000	36.945334
941.000000	36.963768
942.000000	36.986410
943.000000	37.008460
944.000000	37.029862
945.000000	37.047874
946.000000	37.065786
947.000000	37.087762
948.000000	37.109676
949.000000	37.125766
950.000000	37.139536
951.000000	37.155412
952.000000	37.169390
953.000000	37.184152
954.000000	37.203186
955.000000	37.222216
956.000000	37.237060
957.000000	37.249596
958.000000	37.263522
959.000000	37.278696
960.000000	37.293476
961.000000	37.308024
962.000000	37.325246
963.000000	37.339024
964.000000	37.350022
965.000000	37.358834
966.000000	37.369126
967.000000	37.381122
968.000000	37.391272
969.000000	37.404064
970.000000	37.418118
971.000000	37.430160
972.000000	37.440472
973.000000	37.453010
974.000000	37.463144
975.000000	37.473308
976.000000	37.484850
977.000000	37.494968
978.000000	37.504674
979.000000	37.513486
980.000000	37.518752
981.000000	37.523234
982.000000	37.527316
983.000000	37.532474
984.000000	37.538798
985.000000	37.545052
986.000000	37.549768
987.000000	37.551730
988.000000	37.554294
989.000000	37.558330
990.000000	37.566016
991.000000	37.574128
992.000000	37.581818
993.000000	37.587784
994.000000	37.594146
995.000000	37.598950
996.000000	37.602628
997.000000	37.609396
998.000000	37.615938
999.000000	37.622304
1000.000000	37.628694
1001.000000	37.635156
1002.000000	37.640948
1003.000000	37.648278
1004.000000	37.654834
1005.000000	37.662326
1006.000000	37.672382
1007.000000	37.679714
1008.000000	37.685452
1009.000000	37.690748
1010.000000	37.693988
1011.000000	37.697284
1012.000000	37.702844
1013.000000	37.709348
1014.000000	37.716578
1015.000000	37.723826
1016.000000	37.728486
1017.000000	37.734300
1018.000000	37.743536
1019.000000	37.754210
1020.000000	37.766124
1021.000000	37.779458
1022.000000	37.792018
1023.000000	37.803190
1024.000000	37.814252
1025.000000	37.826652
1026.000000	37.840268
1027.000000	37.855526
1028.000000	37.871156
1029.000000	37.885474
1030.000000	37.900794
1031.000000	37.915530
1032.000000	37.929444
1033.000000	37.945208
1034.000000	37.962388
1035.000000	37.979680
1036.000000	37.996812
1037.000000	38.012806
1038.000000	38.026828
1039.000000	38.040202
1040.000000	38.052482
1041.000000	38.065982
1042.000000	38.080992
1043.000000	38.094752
1044.000000	38.107342
1045.000000	38.119286
1046.000000	38.130948
1047.000000	38.143546
1048.000000	38.157050
1049.000000	38.170416
1050.000000	38.184620
1051.000000	38.198760
1052.000000	38.212362
1053.000000	38.225972
1054.000000	38.240166
1055.000000	38.255108
1056.000000	38.270460
1057.000000	38.286278
1058.000000	38.301544
1059.000000	38.317178
1060.000000	38.333120
1061.000000	38.347988
1062.000000	38.361346
1063.000000	38.375058
1064.000000	38.389620
1065.000000	38.405224
1066.000000	38.421234
1067.000000	38.436200
1068.000000	38.452664
1069.000000	38.470018
1070.000000	38.486424
1071.000000	38.502816
1072.000000	38.521226
1073.000000	38.539214
1074.000000	38.555794
1075.000000	38.570848
1076.000000	38.584664
1077.000000	38.598660
1078.000000	38.611682
1079.000000	38.623952
1080.000000	38.634724
1081.000000	38.645646
1082.000000	38.655352
1083.000000	38.664428
1084.000000	38.673368
1085.000000	38.681254
1086.000000	38.689416
1087.000000	38.697080
1088.000000	38.705196
1089.000000	38.712840
1090.000000	38.720718
1091.000000	38.727744
1092.000000	38.734854
1093.000000	38.741856
1094.000000	38.748302
1095.000000	38.755408
1096.000000	38.761658
1097.000000	38.766758
1098.000000	38.770824
1099.000000	38.774604
1100.000000	38.778404
1101.000000	38.782176
1102.000000	38.784842
1103.000000	38.787076
1104.000000	38.788762
1105.000000	38.788506
1106.000000	38.789198
1107.000000	38.791016
1108.000000	38.791090
1109.000000	38.790150
1110.000000	38.788618
1111.000000	38.786110
1112.000000	38.782186
1113.000000	38.777082
1114.000000	38.771802
1115.000000	38.766280
1116.000000	38.759332
1117.000000	38.749984
1118.000000	38.739604
1119.000000	38.727262
1120.000000	38.713350
1121.000000	38.697970
1122.000000	38.683346
1123.000000	38.667514
1124.000000	38.649090
1125.000000	38.627382
1126.000000	38.602296
1127.000000	38.574324
1128.000000	38.543482
1129.000000	38.510334
1130.000000	38.473968
1131.000000	38.432570
1132.000000	38.383702
1133.000000	38.331308
1134.000000	38.279052
1135.000000	38.227618
1136.000000	38.174136
1137.000000	38.116492
1138.000000	38.057998
1139.000000	37.998254
1140.000000	37.936630
1141.000000	37.876488
1142.000000	37.819202
1143.000000	37.762608
1144.000000	37.703854
1145.000000	37.643446
1146.000000	37.584278
1147.000000	37.526548
1148.000000	37.469150
1149.000000	37.412368
1150.000000	37.356068
1151.000000	37.299288
1152.000000	37.242630
1153.000000	37.182834
1154.000000	37.121474
1155.000000	37.057420
1156.000000	36.989402
1157.000000	36.920770
1158.000000	36.849080
1159.000000	36.774860
1160.000000	36.696362
1161.000000	36.614078
1162.000000	36.527298
1163.000000	36.440920
1164.000000	36.351540
1165.000000	36.261848
1166.000000	36.172172
1167.000000	36.081590
1168.000000	35.993340
1169.000000	35.904598
1170.000000	35.820850
1171.000000	35.739168
