PE UV       SUBTECH     SPECTRUM    ASCII       PEDS        4.00        
   -1
CICIMAUCR0247-3.ASC
24/06/27
15:14:25.00
24/06/27
15:14:25.00
Vinicio Soto Monge
C. resplendens. Sex M. Ventral
250,000000
1
Lambda 1050
1050L1511233
PerkinElmer UV WinLab 6.3.2.0749 / 2.02.05 Lambda 900 UV/VIS/NIR, Aug  7 2015 09:38:08

0
0
3350/servo 860,8/2
0
0
UV/VIS
1
1
1
DoubleDePol,CommonBeamDepol,RBeamAtt,SBeamAtt,60mm sphere, WB InGaAs Detector
0
0
0
0
Program
Program
3350/servo 860,8/2
3350/0,2 860,8/0,2
3350/0,2 860,8/0,2
0
15.00
 
 
 
0
 
860,8
319,2
860,8
Front
100
on
S:100 R:100
0
0
0
0
 
0
 
 
 
0
 
 
0
0
0
0
0
 
 
 
 
0
0


0
0
#HDR
-1
-1
#GR
nm
%R
1.0
0.0
2500,000000
-1,000000
2251
8
66,326800
4,305400
#DATA
2482.000000	8.115895
2481.000000	8.103451
2480.000000	8.153450
2479.000000	8.092548
2478.000000	8.140895
2477.000000	8.180211
2476.000000	8.160498
2475.000000	8.139463
2474.000000	8.177458
2473.000000	8.140124
2472.000000	8.103341
2471.000000	8.151137
2470.000000	8.171401
2469.000000	8.112702
2468.000000	8.178669
2467.000000	8.193206
2466.000000	8.208735
2465.000000	8.223382
2464.000000	8.207633
2463.000000	8.275363
2462.000000	8.254328
2461.000000	8.262038
2460.000000	8.254439
2459.000000	8.295187
2458.000000	8.384392
2457.000000	8.357630
2456.000000	8.385052
2455.000000	8.442650
2454.000000	8.447936
2453.000000	8.476240
2452.000000	8.511041
2451.000000	8.561480
2450.000000	8.606303
2449.000000	8.656081
2448.000000	8.690993
2447.000000	8.783942
2446.000000	8.796827
2445.000000	8.838676
2444.000000	8.911472
2443.000000	8.924908
2442.000000	8.955304
2441.000000	9.010479
2440.000000	9.068737
2439.000000	9.120168
2438.000000	9.162898
2437.000000	9.205408
2436.000000	9.231179
2435.000000	9.291530
2434.000000	9.349788
2433.000000	9.371263
2432.000000	9.409038
2431.000000	9.443949
2430.000000	9.483596
2429.000000	9.549674
2428.000000	9.602646
2427.000000	9.610465
2426.000000	9.649892
2425.000000	9.670376
2424.000000	9.697578
2423.000000	9.743061
2422.000000	9.786452
2421.000000	9.803082
2420.000000	9.844381
2419.000000	9.884798
2418.000000	9.902969
2417.000000	9.936008
2416.000000	9.969928
2415.000000	10.011998
2414.000000	10.058693
2413.000000	10.085344
2412.000000	10.094044
2411.000000	10.130167
2410.000000	10.156268
2409.000000	10.184131
2408.000000	10.197566
2407.000000	10.214857
2406.000000	10.242279
2405.000000	10.253953
2404.000000	10.278732
2403.000000	10.291397
2402.000000	10.297564
2401.000000	10.295692
2400.000000	10.325427
2399.000000	10.345140
2398.000000	10.355382
2397.000000	10.380712
2396.000000	10.389192
2395.000000	10.415513
2394.000000	10.431041
2393.000000	10.452406
2392.000000	10.460115
2391.000000	10.466173
2390.000000	10.475974
2389.000000	10.493595
2388.000000	10.505379
2387.000000	10.501634
2386.000000	10.521237
2385.000000	10.537537
2384.000000	10.525643
2383.000000	10.527845
2382.000000	10.539849
2381.000000	10.542713
2380.000000	10.541832
2379.000000	10.545025
2378.000000	10.535885
2377.000000	10.529717
2376.000000	10.538638
2375.000000	10.542713
2374.000000	10.527184
2373.000000	10.510224
2372.000000	10.507031
2371.000000	10.498771
2370.000000	10.508022
2369.000000	10.497890
2368.000000	10.477736
2367.000000	10.462428
2366.000000	10.454499
2365.000000	10.453287
2364.000000	10.435777
2363.000000	10.400205
2362.000000	10.386769
2361.000000	10.377738
2360.000000	10.347012
2359.000000	10.326418
2358.000000	10.294260
2357.000000	10.275648
2356.000000	10.283247
2355.000000	10.273225
2354.000000	10.255054
2353.000000	10.229834
2352.000000	10.225980
2351.000000	10.243821
2350.000000	10.243711
2349.000000	10.244922
2348.000000	10.246464
2347.000000	10.256045
2346.000000	10.272565
2345.000000	10.277520
2344.000000	10.301198
2343.000000	10.332695
2342.000000	10.344259
2341.000000	10.346792
2340.000000	10.371131
2339.000000	10.396571
2338.000000	10.412209
2337.000000	10.418156
2336.000000	10.436548
2335.000000	10.439631
2334.000000	10.441614
2333.000000	10.456812
2332.000000	10.456591
2331.000000	10.463529
2330.000000	10.460446
2329.000000	10.438090
2328.000000	10.429610
2327.000000	10.415623
2326.000000	10.400866
2325.000000	10.392276
2324.000000	10.366395
2323.000000	10.343158
2322.000000	10.314854
2321.000000	10.272785
2320.000000	10.236112
2319.000000	10.190298
2318.000000	10.152413
2317.000000	10.113207
2316.000000	10.064089
2315.000000	9.998892
2314.000000	9.959136
2313.000000	9.914423
2312.000000	9.853411
2311.000000	9.799668
2310.000000	9.751211
2309.000000	9.701102
2308.000000	9.667292
2307.000000	9.644165
2306.000000	9.636015
2305.000000	9.613549
2304.000000	9.601985
2303.000000	9.594386
2302.000000	9.608042
2301.000000	9.627315
2300.000000	9.646147
2299.000000	9.684472
2298.000000	9.698789
2297.000000	9.744052
2296.000000	9.786562
2295.000000	9.819601
2294.000000	9.879622
2293.000000	9.915524
2292.000000	9.963541
2291.000000	10.000214
2290.000000	10.034795
2289.000000	10.063208
2288.000000	10.097899
2287.000000	10.117502
2286.000000	10.151312
2285.000000	10.135673
2284.000000	10.136665
2283.000000	10.137436
2282.000000	10.125762
2281.000000	10.122017
2280.000000	10.136775
2279.000000	10.109573
2278.000000	10.081600
2277.000000	10.058583
2276.000000	10.042394
2275.000000	10.013760
2274.000000	9.992064
2273.000000	9.994487
2272.000000	9.975545
2271.000000	9.950766
2270.000000	9.949444
2269.000000	9.964091
2268.000000	9.975655
2267.000000	9.999443
2266.000000	10.025434
2265.000000	10.060455
2264.000000	10.135233
2263.000000	10.222456
2262.000000	10.300868
2261.000000	10.396791
2260.000000	10.518154
2259.000000	10.647006
2258.000000	10.775307
2257.000000	10.904489
2256.000000	11.044133
2255.000000	11.197323
2254.000000	11.341814
2253.000000	11.494563
2252.000000	11.661630
2251.000000	11.783544
2250.000000	11.944333
2249.000000	12.084638
2248.000000	12.220208
2247.000000	12.335844
2246.000000	12.470312
2245.000000	12.592005
2244.000000	12.680990
2243.000000	12.789358
2242.000000	12.880105
2241.000000	12.971072
2240.000000	13.043427
2239.000000	13.113139
2238.000000	13.158953
2237.000000	13.224590
2236.000000	13.269854
2235.000000	13.314016
2234.000000	13.347495
2233.000000	13.384168
2232.000000	13.416987
2231.000000	13.413573
2230.000000	13.431414
2229.000000	13.446832
2228.000000	13.446061
2227.000000	13.433506
2226.000000	13.444189
2225.000000	13.436810
2224.000000	13.412031
2223.000000	13.377450
2222.000000	13.343530
2221.000000	13.323377
2220.000000	13.327892
2219.000000	13.284831
2218.000000	13.247607
2217.000000	13.215229
2216.000000	13.184833
2215.000000	13.117985
2214.000000	13.097941
2213.000000	13.038912
2212.000000	13.045850
2211.000000	12.964134
2210.000000	12.969530
2209.000000	12.948275
2208.000000	12.907197
2207.000000	12.862264
2206.000000	12.872506
2205.000000	12.823278
2204.000000	12.833079
2203.000000	12.804886
2202.000000	12.780547
2201.000000	12.761936
2200.000000	12.760394
2199.000000	12.719976
2198.000000	12.709514
2197.000000	12.709954
2196.000000	12.681211
2195.000000	12.675484
2194.000000	12.675043
2193.000000	12.637599
2192.000000	12.626366
2191.000000	12.627577
2190.000000	12.601146
2189.000000	12.599604
2188.000000	12.575376
2187.000000	12.563812
2186.000000	12.545751
2185.000000	12.541236
2184.000000	12.523395
2183.000000	12.523064
2182.000000	12.511941
2181.000000	12.491677
2180.000000	12.470753
2179.000000	12.467669
2178.000000	12.463264
2177.000000	12.447626
2176.000000	12.422736
2175.000000	12.433199
2174.000000	12.432097
2173.000000	12.418882
2172.000000	12.425820
2171.000000	12.423507
2170.000000	12.425379
2169.000000	12.433749
2168.000000	12.440027
2167.000000	12.441348
2166.000000	12.458859
2165.000000	12.476810
2164.000000	12.489365
2163.000000	12.494981
2162.000000	12.522734
2161.000000	12.534298
2160.000000	12.566896
2159.000000	12.581543
2158.000000	12.620529
2157.000000	12.638150
2156.000000	12.666343
2155.000000	12.718104
2154.000000	12.758081
2153.000000	12.799049
2152.000000	12.845414
2151.000000	12.870854
2150.000000	12.916007
2149.000000	12.964134
2148.000000	12.993428
2147.000000	13.030542
2146.000000	13.081312
2145.000000	13.121619
2144.000000	13.160715
2143.000000	13.208291
2142.000000	13.240119
2141.000000	13.280756
2140.000000	13.301130
2139.000000	13.344852
2138.000000	13.376239
2137.000000	13.422714
2136.000000	13.453880
2135.000000	13.465774
2134.000000	13.496060
2133.000000	13.515002
2132.000000	13.546940
2131.000000	13.573922
2130.000000	13.596608
2129.000000	13.609493
2128.000000	13.612247
2127.000000	13.629537
2126.000000	13.644955
2125.000000	13.632511
2124.000000	13.636475
2123.000000	13.639339
2122.000000	13.622929
2121.000000	13.620617
2120.000000	13.612467
2119.000000	13.632731
2118.000000	13.615110
2117.000000	13.605309
2116.000000	13.593745
2115.000000	13.571058
2114.000000	13.564781
2113.000000	13.554208
2112.000000	13.520839
2111.000000	13.493747
2110.000000	13.484606
2109.000000	13.472382
2108.000000	13.453990
2107.000000	13.425247
2106.000000	13.402670
2105.000000	13.379212
2104.000000	13.343310
2103.000000	13.323156
2102.000000	13.315007
2101.000000	13.293752
2100.000000	13.263136
2099.000000	13.233731
2098.000000	13.210714
2097.000000	13.182411
2096.000000	13.159724
2095.000000	13.131421
2094.000000	13.107412
2093.000000	13.085276
2092.000000	13.061819
2091.000000	13.036709
2090.000000	13.012591
2089.000000	13.002238
2088.000000	12.985829
2087.000000	12.959728
2086.000000	12.937152
2085.000000	12.912483
2084.000000	12.894311
2083.000000	12.862814
2082.000000	12.814798
2081.000000	12.771407
2080.000000	12.726254
2079.000000	12.697730
2078.000000	12.650594
2077.000000	12.593327
2076.000000	12.552028
2075.000000	12.502360
2074.000000	12.454343
2073.000000	12.411613
2072.000000	12.349500
2071.000000	12.286286
2070.000000	12.219106
2069.000000	12.158866
2068.000000	12.109417
2067.000000	12.059308
2066.000000	11.995213
2065.000000	11.926602
2064.000000	11.870326
2063.000000	11.813279
2062.000000	11.752047
2061.000000	11.708655
2060.000000	11.667247
2059.000000	11.608548
2058.000000	11.573636
2057.000000	11.543901
2056.000000	11.504365
2055.000000	11.479696
2054.000000	11.481128
2053.000000	11.475181
2052.000000	11.473749
2051.000000	11.485753
2050.000000	11.498858
2049.000000	11.512404
2048.000000	11.542910
2047.000000	11.588834
2046.000000	11.616367
2045.000000	11.650507
2044.000000	11.705792
2043.000000	11.755130
2042.000000	11.777266
2041.000000	11.830789
2040.000000	11.875612
2039.000000	11.915149
2038.000000	11.951051
2037.000000	11.976381
2036.000000	12.014596
2035.000000	12.057987
2034.000000	12.088603
2033.000000	12.106224
2032.000000	12.119439
2031.000000	12.150716
2030.000000	12.146861
2029.000000	12.171310
2028.000000	12.169108
2027.000000	12.184416
2026.000000	12.204129
2025.000000	12.203578
2024.000000	12.193777
2023.000000	12.187940
2022.000000	12.187279
2021.000000	12.190583
2020.000000	12.165583
2019.000000	12.156773
2018.000000	12.148073
2017.000000	12.138051
2016.000000	12.138822
2015.000000	12.116245
2014.000000	12.070431
2013.000000	12.071973
2012.000000	12.051819
2011.000000	12.024617
2010.000000	12.005785
2009.000000	11.960412
2008.000000	11.927593
2007.000000	11.903255
2006.000000	11.878586
2005.000000	11.840150
2004.000000	11.786737
2003.000000	11.764601
2002.000000	11.729690
2001.000000	11.696101
2000.000000	11.655793
1999.000000	11.608548
1998.000000	11.536633
1997.000000	11.470886
1996.000000	11.440049
1995.000000	11.381130
1994.000000	11.325735
1993.000000	11.280802
1992.000000	11.212852
1991.000000	11.175518
1990.000000	11.119572
1989.000000	11.050631
1988.000000	11.004266
1987.000000	10.967813
1986.000000	10.874093
1985.000000	10.823984
1984.000000	10.756144
1983.000000	10.696344
1982.000000	10.650420
1981.000000	10.593813
1980.000000	10.527405
1979.000000	10.459234
1978.000000	10.413310
1977.000000	10.346021
1976.000000	10.301088
1975.000000	10.246354
1974.000000	10.191289
1973.000000	10.142612
1972.000000	10.090520
1971.000000	10.017504
1970.000000	9.984465
1969.000000	9.936229
1968.000000	9.878190
1967.000000	9.830945
1966.000000	9.786673
1965.000000	9.751321
1964.000000	9.697908
1963.000000	9.658151
1962.000000	9.599342
1961.000000	9.540313
1960.000000	9.517406
1959.000000	9.456834
1958.000000	9.438443
1957.000000	9.394941
1956.000000	9.354524
1955.000000	9.282169
1954.000000	9.255848
1953.000000	9.214659
1952.000000	9.186356
1951.000000	9.150343
1950.000000	9.113670
1949.000000	9.063011
1948.000000	9.033496
1947.000000	9.017968
1946.000000	8.970392
1945.000000	8.917860
1944.000000	8.907728
1943.000000	8.912684
1942.000000	8.865218
1941.000000	8.873147
1940.000000	8.840328
1939.000000	8.824580
1938.000000	8.859381
1937.000000	8.839007
1936.000000	8.824249
1935.000000	8.844293
1934.000000	8.842090
1933.000000	8.833390
1932.000000	8.852993
1931.000000	8.865658
1930.000000	8.873698
1929.000000	8.926009
1928.000000	8.958167
1927.000000	8.991536
1926.000000	9.064552
1925.000000	9.075786
1924.000000	9.110476
1923.000000	9.150013
1922.000000	9.217743
1921.000000	9.286354
1920.000000	9.397034
1919.000000	9.469169
1918.000000	9.543066
1917.000000	9.623791
1916.000000	9.699890
1915.000000	9.760572
1914.000000	9.866847
1913.000000	9.974884
1912.000000	10.129726
1911.000000	10.272675
1910.000000	10.383025
1909.000000	10.487758
1908.000000	10.612865
1907.000000	10.734559
1906.000000	10.872221
1905.000000	11.065388
1904.000000	11.277718
1903.000000	11.491260
1902.000000	11.673965
1901.000000	11.862176
1900.000000	12.100387
1899.000000	12.324611
1898.000000	12.621410
1897.000000	12.909179
1896.000000	13.178005
1895.000000	13.425357
1894.000000	13.704095
1893.000000	14.005299
1892.000000	14.328200
1891.000000	14.730063
1890.000000	15.185669
1889.000000	15.604382
1888.000000	16.014725
1887.000000	16.461742
1886.000000	16.888494
1885.000000	17.368880
1884.000000	17.850367
1883.000000	18.399914
1882.000000	18.943183
1881.000000	19.478744
1880.000000	20.001750
1879.000000	20.480263
1878.000000	20.940605
1877.000000	21.459646
1876.000000	21.970758
1875.000000	22.449822
1874.000000	22.937806
1873.000000	23.434271
1872.000000	23.933048
1871.000000	24.415857
1870.000000	24.849327
1869.000000	25.296123
1868.000000	25.734329
1867.000000	26.064828
1866.000000	26.360746
1865.000000	26.601490
1864.000000	26.837608
1863.000000	27.049277
1862.000000	27.250374
1861.000000	27.464136
1860.000000	27.708403
1859.000000	27.959939
1858.000000	28.170838
1857.000000	28.368410
1856.000000	28.523253
1855.000000	28.631620
1854.000000	28.764326
1853.000000	28.913222
1852.000000	29.004739
1851.000000	29.072029
1850.000000	29.132270
1849.000000	29.173678
1848.000000	29.237003
1847.000000	29.357815
1846.000000	29.448342
1845.000000	29.475434
1844.000000	29.426316
1843.000000	29.379731
1842.000000	29.364423
1841.000000	29.398453
1840.000000	29.460786
1839.000000	29.489420
1838.000000	29.485676
1837.000000	29.478077
1836.000000	29.469266
1835.000000	29.457593
1834.000000	29.422571
1833.000000	29.372683
1832.000000	29.304402
1831.000000	29.249227
1830.000000	29.232377
1829.000000	29.216629
1828.000000	29.164868
1827.000000	29.099010
1826.000000	29.056390
1825.000000	29.035135
1824.000000	28.987009
1823.000000	28.910909
1822.000000	28.859699
1821.000000	28.858487
1820.000000	28.879302
1819.000000	28.879632
1818.000000	28.840977
1817.000000	28.785692
1816.000000	28.733820
1815.000000	28.699240
1814.000000	28.685804
1813.000000	28.656950
1812.000000	28.637677
1811.000000	28.621158
1810.000000	28.583053
1809.000000	28.545609
1808.000000	28.496711
1807.000000	28.450787
1806.000000	28.411361
1805.000000	28.363895
1804.000000	28.325129
1803.000000	28.279095
1802.000000	28.222819
1801.000000	28.194515
1800.000000	28.159825
1799.000000	28.112799
1798.000000	28.057184
1797.000000	28.003551
1796.000000	27.956195
1795.000000	27.909170
1794.000000	27.882188
1793.000000	27.844523
1792.000000	27.803555
1791.000000	27.763027
1790.000000	27.704328
1789.000000	27.663691
1788.000000	27.626136
1787.000000	27.581093
1786.000000	27.552239
1785.000000	27.529112
1784.000000	27.499818
1783.000000	27.462924
1782.000000	27.412705
1781.000000	27.371957
1780.000000	27.323830
1779.000000	27.279118
1778.000000	27.242555
1777.000000	27.199274
1776.000000	27.142006
1775.000000	27.067999
1774.000000	27.011723
1773.000000	26.950271
1772.000000	26.903025
1771.000000	26.853246
1770.000000	26.774283
1769.000000	26.700276
1768.000000	26.629022
1767.000000	26.573187
1766.000000	26.516250
1765.000000	26.453255
1764.000000	26.398741
1763.000000	26.358324
1762.000000	26.343786
1761.000000	26.345769
1760.000000	26.348742
1759.000000	26.382442
1758.000000	26.415701
1757.000000	26.459973
1756.000000	26.507770
1755.000000	26.560852
1754.000000	26.615366
1753.000000	26.653141
1752.000000	26.671532
1751.000000	26.712501
1750.000000	26.733976
1749.000000	26.749504
1748.000000	26.742456
1747.000000	26.707214
1746.000000	26.681995
1745.000000	26.657436
1744.000000	26.612393
1743.000000	26.535632
1742.000000	26.453916
1741.000000	26.365042
1740.000000	26.267026
1739.000000	26.155134
1738.000000	26.035423
1737.000000	25.899744
1736.000000	25.796442
1735.000000	25.697876
1734.000000	25.605808
1733.000000	25.543805
1732.000000	25.510986
1731.000000	25.485436
1730.000000	25.478828
1729.000000	25.512418
1728.000000	25.560324
1727.000000	25.606468
1726.000000	25.675189
1725.000000	25.734329
1724.000000	25.784328
1723.000000	25.839833
1722.000000	25.913730
1721.000000	25.981129
1720.000000	26.045115
1719.000000	26.118681
1718.000000	26.210750
1717.000000	26.320659
1716.000000	26.424622
1715.000000	26.538716
1714.000000	26.650167
1713.000000	26.763491
1712.000000	26.871858
1711.000000	26.973838
1710.000000	27.053572
1709.000000	27.120751
1708.000000	27.193106
1707.000000	27.225044
1706.000000	27.209956
1705.000000	27.230440
1704.000000	27.227247
1703.000000	27.198172
1702.000000	27.153019
1701.000000	27.084298
1700.000000	27.019212
1699.000000	26.938046
1698.000000	26.851484
1697.000000	26.740694
1696.000000	26.638604
1695.000000	26.569883
1694.000000	26.544773
1693.000000	26.516139
1692.000000	26.528033
1691.000000	26.587283
1690.000000	26.651929
1689.000000	26.753799
1688.000000	26.855779
1687.000000	26.970534
1686.000000	27.090576
1685.000000	27.175045
1684.000000	27.328125
1683.000000	27.465898
1682.000000	27.629771
1681.000000	27.830867
1680.000000	28.120949
1679.000000	28.449025
1678.000000	28.758710
1677.000000	29.131278
1676.000000	29.489310
1675.000000	29.825756
1674.000000	30.175197
1673.000000	30.469244
1672.000000	30.755250
1671.000000	31.007668
1670.000000	31.240922
1669.000000	31.418672
1668.000000	31.614042
1667.000000	31.798178
1666.000000	31.938814
1665.000000	32.052908
1664.000000	32.180328
1663.000000	32.261714
1662.000000	32.359950
1661.000000	32.445741
1660.000000	32.497171
1659.000000	32.563469
1658.000000	32.613909
1657.000000	32.661044
1656.000000	32.687035
1655.000000	32.725580
1654.000000	32.728554
1653.000000	32.734611
1652.000000	32.729655
1651.000000	32.712255
1650.000000	32.697938
1649.000000	32.646507
1648.000000	32.626353
1647.000000	32.584504
1646.000000	32.567104
1645.000000	32.518316
1644.000000	32.461379
1643.000000	32.414574
1642.000000	32.348717
1641.000000	32.298497
1640.000000	32.246186
1639.000000	32.206429
1638.000000	32.160175
1637.000000	32.099053
1636.000000	32.024385
1635.000000	31.968769
1634.000000	31.904564
1633.000000	31.828464
1632.000000	31.761285
1631.000000	31.695758
1630.000000	31.640583
1629.000000	31.562831
1628.000000	31.461622
1627.000000	31.387285
1626.000000	31.287177
1625.000000	31.214381
1624.000000	31.136960
1623.000000	31.043680
1622.000000	30.974078
1621.000000	30.885974
1620.000000	30.793796
1619.000000	30.706904
1618.000000	30.646112
1617.000000	30.565387
1616.000000	30.487525
1615.000000	30.405919
1614.000000	30.326846
1613.000000	30.253059
1612.000000	30.181365
1611.000000	30.086763
1610.000000	30.009122
1609.000000	29.913529
1608.000000	29.840293
1607.000000	29.761000
1606.000000	29.664196
1605.000000	29.565960
1604.000000	29.471359
1603.000000	29.397462
1602.000000	29.304292
1601.000000	29.224778
1600.000000	29.116962
