PE UV       SUBTECH     SPECTRUM    ASCII       PEDS        4.00        
   -1
CICIMAUCR0004-3.Sample.ASC
24/05/03
16:17:29.00
24/05/03
16:17:29.00
Vinicio Soto Monge
C. kalinini
250,000000
1
Lambda 1050
1050L1511233
PerkinElmer UV WinLab 6.3.2.0749 / 2.02.05 Lambda 900 UV/VIS/NIR, Aug  7 2015 09:38:08

0
0
3350/servo 860,8/2
0
0
UV/VIS
1
1
1
DoubleDePol,CommonBeamDepol,RBeamAtt,SBeamAtt,60mm sphere, WB InGaAs Detector
0
0
0
0
Program
Program
3350/servo 860,8/2
3350/0,2 860,8/0,2
3350/0,2 860,8/0,2
0
15.00
 
 
 
0
 
860,8
319,2
860,8
Front
100
on
S:100 R:100
0
0
0
0
 
0
 
 
 
0
 
 
0
0
0
0
0
 
 
 
 
0
0


0
0
#HDR
-1
-1
#GR
nm
%R
1.0
0.0
2500,000000
-1,000000
2251
8
98,738200
4,896700
#DATA
2482.000000	9.619009
2481.000000	9.675958
2480.000000	9.645005
2479.000000	9.593564
2478.000000	9.583540
2477.000000	9.593343
2476.000000	9.624186
2475.000000	9.600283
2474.000000	9.598521
2473.000000	9.687084
2472.000000	9.655139
2471.000000	9.640159
2470.000000	9.665824
2469.000000	9.725197
2468.000000	9.671662
2467.000000	9.711648
2466.000000	9.748329
2465.000000	9.739957
2464.000000	9.780383
2463.000000	9.813540
2462.000000	9.885690
2461.000000	9.907831
2460.000000	9.958060
2459.000000	10.044420
2458.000000	10.110622
2457.000000	10.202050
2456.000000	10.246221
2455.000000	10.326412
2454.000000	10.415086
2453.000000	10.487126
2452.000000	10.606311
2451.000000	10.693663
2450.000000	10.802825
2449.000000	10.879381
2448.000000	10.983696
2447.000000	11.091536
2446.000000	11.200367
2445.000000	11.292896
2444.000000	11.370994
2443.000000	11.474208
2442.000000	11.569600
2441.000000	11.688676
2440.000000	11.761267
2439.000000	11.877698
2438.000000	11.984216
2437.000000	12.040835
2436.000000	12.121688
2435.000000	12.195160
2434.000000	12.285595
2433.000000	12.379776
2432.000000	12.433311
2431.000000	12.504249
2430.000000	12.548200
2429.000000	12.617487
2428.000000	12.689417
2427.000000	12.742731
2426.000000	12.817525
2425.000000	12.875245
2424.000000	12.907630
2423.000000	12.950810
2422.000000	12.996303
2421.000000	13.036399
2420.000000	13.082443
2419.000000	13.119785
2418.000000	13.141705
2417.000000	13.186978
2416.000000	13.210881
2415.000000	13.249655
2414.000000	13.283693
2413.000000	13.320814
2412.000000	13.356614
2411.000000	13.408276
2410.000000	13.439780
2409.000000	13.448592
2408.000000	13.480536
2407.000000	13.515895
2406.000000	13.545416
2405.000000	13.570201
2404.000000	13.613161
2403.000000	13.650723
2402.000000	13.669118
2401.000000	13.711637
2400.000000	13.746776
2399.000000	13.790397
2398.000000	13.838974
2397.000000	13.901321
2396.000000	13.971048
2395.000000	14.005856
2394.000000	14.031852
2393.000000	14.067212
2392.000000	14.090013
2391.000000	14.138701
2390.000000	14.150157
2389.000000	14.148835
2388.000000	14.174611
2387.000000	14.192786
2386.000000	14.201488
2385.000000	14.201048
2384.000000	14.209529
2383.000000	14.200607
2382.000000	14.203581
2381.000000	14.210521
2380.000000	14.194218
2379.000000	14.172187
2378.000000	14.148725
2377.000000	14.134515
2376.000000	14.114027
2375.000000	14.061043
2374.000000	14.024362
2373.000000	14.006958
2372.000000	13.963447
2371.000000	13.920488
2370.000000	13.887111
2369.000000	13.831484
2368.000000	13.757461
2367.000000	13.694343
2366.000000	13.638055
2365.000000	13.576149
2364.000000	13.503007
2363.000000	13.399574
2362.000000	13.308587
2361.000000	13.240623
2360.000000	13.168583
2359.000000	13.089383
2358.000000	13.001921
2357.000000	12.938913
2356.000000	12.895513
2355.000000	12.866323
2354.000000	12.836471
2353.000000	12.816203
2352.000000	12.825015
2351.000000	12.840437
2350.000000	12.851011
2349.000000	12.881524
2348.000000	12.926025
2347.000000	12.962927
2346.000000	13.006107
2345.000000	13.064929
2344.000000	13.121107
2343.000000	13.162304
2342.000000	13.222007
2341.000000	13.278515
2340.000000	13.319162
2339.000000	13.334804
2338.000000	13.342514
2337.000000	13.336346
2336.000000	13.329737
2335.000000	13.295809
2334.000000	13.273889
2333.000000	13.245029
2332.000000	13.209670
2331.000000	13.158449
2330.000000	13.092136
2329.000000	13.006437
2328.000000	12.916883
2327.000000	12.843851
2326.000000	12.755178
2325.000000	12.648440
2324.000000	12.529805
2323.000000	12.405552
2322.000000	12.280088
2321.000000	12.138431
2320.000000	11.985428
2319.000000	11.849720
2318.000000	11.704317
2317.000000	11.553628
2316.000000	11.388729
2315.000000	11.257316
2314.000000	11.119515
2313.000000	10.982484
2312.000000	10.849089
2311.000000	10.756009
2310.000000	10.644204
2309.000000	10.590670
2308.000000	10.552667
2307.000000	10.512351
2306.000000	10.504089
2305.000000	10.509597
2304.000000	10.557844
2303.000000	10.626469
2302.000000	10.720540
2301.000000	10.809984
2300.000000	10.915181
2299.000000	11.039654
2298.000000	11.157187
2297.000000	11.261722
2296.000000	11.368571
2295.000000	11.466497
2294.000000	11.567728
2293.000000	11.652986
2292.000000	11.707402
2291.000000	11.766003
2290.000000	11.783518
2289.000000	11.817885
2288.000000	11.809514
2287.000000	11.790678
2286.000000	11.772612
2285.000000	11.723264
2284.000000	11.645496
2283.000000	11.621372
2282.000000	11.574337
2281.000000	11.514524
2280.000000	11.465285
2279.000000	11.392254
2278.000000	11.334423
2277.000000	11.279677
2276.000000	11.229227
2275.000000	11.184175
2274.000000	11.135597
2273.000000	11.140774
2272.000000	11.150247
2271.000000	11.162364
2270.000000	11.203672
2269.000000	11.291794
2268.000000	11.374299
2267.000000	11.508575
2266.000000	11.637344
2265.000000	11.847957
2264.000000	12.032684
2263.000000	12.255744
2262.000000	12.542913
2261.000000	12.825896
2260.000000	13.133444
2259.000000	13.435484
2258.000000	13.754156
2257.000000	14.105104
2256.000000	14.446359
2255.000000	14.775937
2254.000000	15.110582
2253.000000	15.439719
2252.000000	15.797717
2251.000000	16.093698
2250.000000	16.358837
2249.000000	16.643032
2248.000000	16.891096
2247.000000	17.155904
2246.000000	17.365085
2245.000000	17.583959
2244.000000	17.764280
2243.000000	17.967843
2242.000000	18.112144
2241.000000	18.261731
2240.000000	18.407354
2239.000000	18.534691
2238.000000	18.657071
2237.000000	18.770418
2236.000000	18.867133
2235.000000	18.945782
2234.000000	19.012315
2233.000000	19.094599
2232.000000	19.130289
2231.000000	19.173469
2230.000000	19.189881
2229.000000	19.231960
2228.000000	19.231189
2227.000000	19.245619
2226.000000	19.252779
2225.000000	19.227994
2224.000000	19.231409
2223.000000	19.211582
2222.000000	19.171155
2221.000000	19.138550
2220.000000	19.092726
2219.000000	19.045471
2218.000000	19.029609
2217.000000	18.975413
2216.000000	18.897866
2215.000000	18.870217
2214.000000	18.818776
2213.000000	18.807870
2212.000000	18.763038
2211.000000	18.732636
2210.000000	18.681084
2209.000000	18.659274
2208.000000	18.638785
2207.000000	18.593072
2206.000000	18.560026
2205.000000	18.545926
2204.000000	18.512330
2203.000000	18.497129
2202.000000	18.471573
2201.000000	18.465955
2200.000000	18.440951
2199.000000	18.458465
2198.000000	18.441061
2197.000000	18.418149
2196.000000	18.416166
2195.000000	18.383891
2194.000000	18.380366
2193.000000	18.363843
2192.000000	18.365165
2191.000000	18.352167
2190.000000	18.366157
2189.000000	18.325510
2188.000000	18.312622
2187.000000	18.302929
2186.000000	18.278475
2185.000000	18.273848
2184.000000	18.261842
2183.000000	18.230558
2182.000000	18.220534
2181.000000	18.184294
2180.000000	18.172507
2179.000000	18.176032
2178.000000	18.157857
2177.000000	18.165678
2176.000000	18.163144
2175.000000	18.155654
2174.000000	18.141334
2173.000000	18.148604
2172.000000	18.146842
2171.000000	18.180769
2170.000000	18.198614
2169.000000	18.195640
2168.000000	18.225161
2167.000000	18.262502
2166.000000	18.273848
2165.000000	18.292134
2164.000000	18.333331
2163.000000	18.367589
2162.000000	18.399753
2161.000000	18.446348
2160.000000	18.480606
2159.000000	18.542842
2158.000000	18.581396
2157.000000	18.616314
2156.000000	18.688575
2155.000000	18.752794
2154.000000	18.820869
2153.000000	18.889163
2152.000000	18.952281
2151.000000	19.021347
2150.000000	19.094819
2149.000000	19.159259
2148.000000	19.218081
2147.000000	19.278665
2146.000000	19.333852
2145.000000	19.411289
2144.000000	19.469340
2143.000000	19.516596
2142.000000	19.573214
2141.000000	19.620250
2140.000000	19.676207
2139.000000	19.734699
2138.000000	19.791868
2137.000000	19.842759
2136.000000	19.865120
2135.000000	19.909181
2134.000000	19.942447
2133.000000	19.974171
2132.000000	20.009971
2131.000000	20.039382
2130.000000	20.059871
2129.000000	20.093577
2128.000000	20.098975
2127.000000	20.086748
2126.000000	20.106906
2125.000000	20.132241
2124.000000	20.132792
2123.000000	20.133783
2122.000000	20.108779
2121.000000	20.090053
2120.000000	20.080249
2119.000000	20.081130
2118.000000	20.067912
2117.000000	20.036959
2116.000000	19.999066
2115.000000	19.975824
2114.000000	19.944650
2113.000000	19.909401
2112.000000	19.887701
2111.000000	19.852342
2110.000000	19.826897
2109.000000	19.802333
2108.000000	19.758161
2107.000000	19.721370
2106.000000	19.691408
2105.000000	19.663430
2104.000000	19.629723
2103.000000	19.600863
2102.000000	19.565503
2101.000000	19.534881
2100.000000	19.502165
2099.000000	19.457333
2098.000000	19.430676
2097.000000	19.408315
2096.000000	19.375600
2095.000000	19.360729
2094.000000	19.348612
2093.000000	19.322065
2092.000000	19.301907
2091.000000	19.286926
2090.000000	19.269963
2089.000000	19.252889
2088.000000	19.233282
2087.000000	19.221606
2086.000000	19.197592
2085.000000	19.169834
2084.000000	19.147472
2083.000000	19.134144
2082.000000	19.112664
2081.000000	19.071797
2080.000000	19.027295
2079.000000	18.978608
2078.000000	18.962856
2077.000000	18.923311
2076.000000	18.879911
2075.000000	18.836070
2074.000000	18.791127
2073.000000	18.749820
2072.000000	18.709944
2071.000000	18.648589
2070.000000	18.588776
2069.000000	18.532488
2068.000000	18.481156
2067.000000	18.444916
2066.000000	18.393254
2065.000000	18.341703
2064.000000	18.305242
2063.000000	18.255673
2062.000000	18.251047
2061.000000	18.220314
2060.000000	18.201478
2059.000000	18.205003
2058.000000	18.198504
2057.000000	18.218992
2056.000000	18.246310
2055.000000	18.297641
2054.000000	18.358997
2053.000000	18.431918
2052.000000	18.531827
2051.000000	18.649801
2050.000000	18.789144
2049.000000	18.935428
2048.000000	19.097133
2047.000000	19.255423
2046.000000	19.431998
2045.000000	19.609895
2044.000000	19.811696
2043.000000	19.987059
2042.000000	20.180929
2041.000000	20.393524
2040.000000	20.605349
2039.000000	20.768485
2038.000000	20.932614
2037.000000	21.107427
2036.000000	21.283892
2035.000000	21.459696
2034.000000	21.602234
2033.000000	21.756889
2032.000000	21.891166
2031.000000	22.016961
2030.000000	22.149255
2029.000000	22.268000
2028.000000	22.414283
2027.000000	22.548670
2026.000000	22.640317
2025.000000	22.721280
2024.000000	22.821739
2023.000000	22.926825
2022.000000	23.019684
2021.000000	23.120915
2020.000000	23.193175
2019.000000	23.280637
2018.000000	23.356533
2017.000000	23.423946
2016.000000	23.498189
2015.000000	23.558443
2014.000000	23.599861
2013.000000	23.638524
2012.000000	23.689636
2011.000000	23.719928
2010.000000	23.776106
2009.000000	23.774453
2008.000000	23.797916
2007.000000	23.813227
2006.000000	23.802763
2005.000000	23.815540
2004.000000	23.791637
2003.000000	23.765421
2002.000000	23.754956
2001.000000	23.740416
2000.000000	23.704176
1999.000000	23.666393
1998.000000	23.626738
1997.000000	23.578821
1996.000000	23.515263
1995.000000	23.459416
1994.000000	23.402136
1993.000000	23.350584
1992.000000	23.269291
1991.000000	23.201988
1990.000000	23.133362
1989.000000	23.043918
1988.000000	22.948966
1987.000000	22.846414
1986.000000	22.756418
1985.000000	22.685149
1984.000000	22.580173
1983.000000	22.513200
1982.000000	22.389939
1981.000000	22.290801
1980.000000	22.199815
1979.000000	22.078977
1978.000000	21.974662
1977.000000	21.875855
1976.000000	21.774404
1975.000000	21.671080
1974.000000	21.599811
1973.000000	21.479193
1972.000000	21.386444
1971.000000	21.314625
1970.000000	21.180458
1969.000000	21.118882
1968.000000	21.037479
1967.000000	20.913998
1966.000000	20.827417
1965.000000	20.738744
1964.000000	20.614491
1963.000000	20.537164
1962.000000	20.442322
1961.000000	20.355852
1960.000000	20.260129
1959.000000	20.150306
1958.000000	20.086748
1957.000000	19.976264
1956.000000	19.886049
1955.000000	19.812246
1954.000000	19.691519
1953.000000	19.597228
1952.000000	19.534000
1951.000000	19.421203
1950.000000	19.378023
1949.000000	19.284944
1948.000000	19.218191
1947.000000	19.153861
1946.000000	19.093497
1945.000000	19.025533
1944.000000	18.967042
1943.000000	18.915600
1942.000000	18.889384
1941.000000	18.873301
1940.000000	18.881343
1939.000000	18.850169
1938.000000	18.867353
1937.000000	18.871539
1936.000000	18.887511
1935.000000	18.912185
1934.000000	18.973761
1933.000000	19.045250
1932.000000	19.107377
1931.000000	19.184594
1930.000000	19.277013
1929.000000	19.401596
1928.000000	19.523315
1927.000000	19.662218
1926.000000	19.806959
1925.000000	19.959301
1924.000000	20.149866
1923.000000	20.322365
1922.000000	20.516676
1921.000000	20.744142
1920.000000	20.979208
1919.000000	21.207666
1918.000000	21.429845
1917.000000	21.686612
1916.000000	21.913968
1915.000000	22.182631
1914.000000	22.490399
1913.000000	22.809402
1912.000000	23.131380
1911.000000	23.419540
1910.000000	23.719377
1909.000000	24.017892
1908.000000	24.335133
1907.000000	24.712958
1906.000000	25.097062
1905.000000	25.502756
1904.000000	25.857448
1903.000000	26.234723
1902.000000	26.600101
1901.000000	27.017250
1900.000000	27.433739
1899.000000	27.879970
1898.000000	28.260438
1897.000000	28.679240
1896.000000	29.038780
1895.000000	29.373205
1894.000000	29.759402
1893.000000	30.158486
1892.000000	30.603835
1891.000000	31.026052
1890.000000	31.414342
1889.000000	31.809791
1888.000000	32.237516
1887.000000	32.663037
1886.000000	33.149694
1885.000000	33.678429
1884.000000	34.241862
1883.000000	34.792958
1882.000000	35.370490
1881.000000	35.938660
1880.000000	36.456710
1879.000000	36.968481
1878.000000	37.462738
1877.000000	37.915357
1876.000000	38.346056
1875.000000	38.762875
1874.000000	39.150063
1873.000000	39.494402
1872.000000	39.811753
1871.000000	40.107955
1870.000000	40.346216
1869.000000	40.585248
1868.000000	40.735387
1867.000000	40.851378
1866.000000	40.927384
1865.000000	41.019251
1864.000000	41.077963
1863.000000	41.128413
1862.000000	41.210477
1861.000000	41.260266
1860.000000	41.303777
1859.000000	41.322833
1858.000000	41.336382
1857.000000	41.328011
1856.000000	41.281746
1855.000000	41.270621
1854.000000	41.246718
1853.000000	41.157934
1852.000000	41.111119
1851.000000	41.067168
1850.000000	41.007906
1849.000000	40.959218
1848.000000	40.910200
1847.000000	40.846201
1846.000000	40.749927
1845.000000	40.655416
1844.000000	40.581062
1843.000000	40.561675
1842.000000	40.555617
1841.000000	40.519156
1840.000000	40.462317
1839.000000	40.399971
1838.000000	40.324846
1837.000000	40.261508
1836.000000	40.219430
1835.000000	40.118970
1834.000000	40.000776
1833.000000	39.903951
1832.000000	39.829928
1831.000000	39.759320
1830.000000	39.663707
1829.000000	39.555427
1828.000000	39.443732
1827.000000	39.368938
1826.000000	39.307582
1825.000000	39.237415
1824.000000	39.183109
1823.000000	39.143454
1822.000000	39.135633
1821.000000	39.134422
1820.000000	39.093114
1819.000000	39.031098
1818.000000	39.000255
1817.000000	39.000145
1816.000000	39.002018
1815.000000	38.985605
1814.000000	38.961481
1813.000000	38.937688
1812.000000	38.908277
1811.000000	38.869283
1810.000000	38.812224
1809.000000	38.747674
1808.000000	38.692488
1807.000000	38.647104
1806.000000	38.567794
1805.000000	38.504126
1804.000000	38.460064
1803.000000	38.396176
1802.000000	38.337684
1801.000000	38.270821
1800.000000	38.196578
1799.000000	38.123987
1798.000000	38.056243
1797.000000	37.995329
1796.000000	37.926373
1795.000000	37.866780
1794.000000	37.797383
1793.000000	37.736799
1792.000000	37.663437
1791.000000	37.579831
1790.000000	37.514841
1789.000000	37.439055
1788.000000	37.339367
1787.000000	37.261378
1786.000000	37.186144
1785.000000	37.097581
1784.000000	36.987648
1783.000000	36.877275
1782.000000	36.769765
1781.000000	36.672390
1780.000000	36.570939
1779.000000	36.454397
1778.000000	36.318027
1777.000000	36.172735
1776.000000	36.045288
1775.000000	35.880940
1774.000000	35.712406
1773.000000	35.541778
1772.000000	35.376439
1771.000000	35.204490
1770.000000	35.037608
1769.000000	34.890223
1768.000000	34.725434
1767.000000	34.594352
1766.000000	34.478030
1765.000000	34.405990
1764.000000	34.353337
1763.000000	34.345956
1762.000000	34.374376
1761.000000	34.417336
1760.000000	34.492680
1759.000000	34.572982
1758.000000	34.665621
1757.000000	34.729950
1756.000000	34.785688
1755.000000	34.817962
1754.000000	34.829198
1753.000000	34.824902
1752.000000	34.797584
1751.000000	34.741847
1750.000000	34.662977
1749.000000	34.579922
1748.000000	34.462058
1747.000000	34.336593
1746.000000	34.156163
1745.000000	33.976723
1744.000000	33.747164
1743.000000	33.486652
1742.000000	33.243875
1741.000000	32.929498
1740.000000	32.632084
1739.000000	32.326630
1738.000000	32.070634
1737.000000	31.844049
1736.000000	31.710213
1735.000000	31.616913
1734.000000	31.568116
1733.000000	31.581444
1732.000000	31.646765
1731.000000	31.745572
1730.000000	31.878086
1729.000000	32.017540
1728.000000	32.171424
1727.000000	32.298320
1726.000000	32.391180
1725.000000	32.457382
1724.000000	32.525676
1723.000000	32.589455
1722.000000	32.635940
1721.000000	32.668545
1720.000000	32.733645
1719.000000	32.752922
1718.000000	32.868253
1717.000000	32.966950
1716.000000	33.079306
1715.000000	33.164234
1714.000000	33.239138
1713.000000	33.356341
1712.000000	33.429593
1711.000000	33.489406
1710.000000	33.514521
1709.000000	33.526968
1708.000000	33.512097
1707.000000	33.477950
1706.000000	33.460876
1705.000000	33.389056
1704.000000	33.298841
1703.000000	33.200805
1702.000000	33.060249
1701.000000	32.875413
1700.000000	32.658080
1699.000000	32.463220
1698.000000	32.303828
1697.000000	32.165366
1696.000000	32.110399
1695.000000	32.115907
1694.000000	32.200174
1693.000000	32.332137
1692.000000	32.517635
1691.000000	32.718444
1690.000000	32.874862
1689.000000	32.975321
1688.000000	33.041854
1687.000000	33.088008
1686.000000	33.117199
1685.000000	33.172716
1684.000000	33.367577
1683.000000	33.705526
1682.000000	34.182820
1681.000000	34.788662
1680.000000	35.494743
1679.000000	36.152908
1678.000000	36.808870
1677.000000	37.407882
1676.000000	37.934414
1675.000000	38.438474
1674.000000	38.837779
1673.000000	39.177161
1672.000000	39.494072
1671.000000	39.801619
1670.000000	40.015316
1669.000000	40.241020
1668.000000	40.427179
1667.000000	40.566412
1666.000000	40.707959
1665.000000	40.833423
1664.000000	40.937408
1663.000000	41.040291
1662.000000	41.137556
1661.000000	41.214553
1660.000000	41.257292
1659.000000	41.309615
1658.000000	41.343542
1657.000000	41.362048
1656.000000	41.399169
1655.000000	41.394763
1654.000000	41.380554
1653.000000	41.372182
1652.000000	41.369759
1651.000000	41.346516
1650.000000	41.307963
1649.000000	41.259716
1648.000000	41.204859
1647.000000	41.156392
1646.000000	41.088428
1645.000000	41.025310
1644.000000	40.958337
1643.000000	40.912293
1642.000000	40.855564
1641.000000	40.781321
1640.000000	40.717432
1639.000000	40.638672
1638.000000	40.567954
1637.000000	40.481154
1636.000000	40.390718
1635.000000	40.319339
1634.000000	40.239478
1633.000000	40.146288
1632.000000	40.045718
1631.000000	39.952969
1630.000000	39.868262
1629.000000	39.769014
1628.000000	39.664038
1627.000000	39.580432
1626.000000	39.474464
1625.000000	39.369929
1624.000000	39.271122
1623.000000	39.195667
1622.000000	39.098402
1621.000000	38.994527
1620.000000	38.914887
1619.000000	38.827976
1618.000000	38.735888
1617.000000	38.632013
1616.000000	38.543340
1615.000000	38.472842
1614.000000	38.393422
1613.000000	38.310477
1612.000000	38.222134
1611.000000	38.132249
1610.000000	38.071004
1609.000000	37.985635
1608.000000	37.904232
1607.000000	37.829989
1606.000000	37.752551
1605.000000	37.659802
