PE UV       SUBTECH     SPECTRUM    ASCII       PEDS        4.00        
   -1
CICIMAUCR0212-2.Sample.ASC
24/06/12
13:07:04.00
24/06/12
13:07:04.00
Vinicio Soto Monge
C. resplendens. Sex F. Ventral
250,000000
1
Lambda 1050
1050L1511233
PerkinElmer UV WinLab 6.3.2.0749 / 2.02.05 Lambda 900 UV/VIS/NIR, Aug  7 2015 09:38:08

0
0
3350/servo 860,8/2
0
0
UV/VIS
1
1
1
DoubleDePol,CommonBeamDepol,RBeamAtt,SBeamAtt,60mm sphere, WB InGaAs Detector
0
0
0
0
Program
Program
3350/servo 860,8/2
3350/0,2 860,8/0,2
3350/0,2 860,8/0,2
0
15.00
 
 
 
0
 
860,8
319,2
860,8
Front
100
on
S:100 R:100
0
0
0
0
 
0
 
 
 
0
 
 
0
0
0
0
0
 
 
 
 
0
0


0
0
#HDR
-1
-1
#GR
nm
%R
1.0
0.0
2500,000000
-1,000000
2251
8
63,363600
3,800600
#DATA
2482.000000	5.642334
2481.000000	5.743115
2480.000000	5.749038
2479.000000	5.726653
2478.000000	5.829743
2477.000000	5.672247
2476.000000	5.744420
2475.000000	5.767206
2474.000000	5.799629
2473.000000	5.735486
2472.000000	5.734784
2471.000000	5.740004
2470.000000	5.721132
2469.000000	5.774032
2468.000000	5.762087
2467.000000	5.774534
2466.000000	5.713102
2465.000000	5.701558
2464.000000	5.733780
2463.000000	5.760682
2462.000000	5.702462
2461.000000	5.776341
2460.000000	5.818500
2459.000000	5.788688
2458.000000	5.778148
2457.000000	5.813381
2456.000000	5.826430
2455.000000	5.840785
2454.000000	5.865880
2453.000000	5.895090
2452.000000	5.938655
2451.000000	5.987138
2450.000000	5.962244
2449.000000	5.999685
2448.000000	6.023375
2447.000000	6.066639
2446.000000	6.133692
2445.000000	6.153768
2444.000000	6.188901
2443.000000	6.199441
2442.000000	6.204962
2441.000000	6.233168
2440.000000	6.303936
2439.000000	6.296006
2438.000000	6.340976
2437.000000	6.367777
2436.000000	6.406524
2435.000000	6.420175
2434.000000	6.470164
2433.000000	6.504595
2432.000000	6.510015
2431.000000	6.542438
2430.000000	6.602264
2429.000000	6.600758
2428.000000	6.623143
2427.000000	6.623745
2426.000000	6.656569
2425.000000	6.694212
2424.000000	6.725731
2423.000000	6.718905
2422.000000	6.741791
2421.000000	6.745004
2420.000000	6.796298
2419.000000	6.831230
2418.000000	6.830125
2417.000000	6.843275
2416.000000	6.870779
2415.000000	6.881821
2414.000000	6.887844
2413.000000	6.909726
2412.000000	6.950079
2411.000000	6.980594
2410.000000	7.012515
2409.000000	6.993543
2408.000000	7.027070
2407.000000	7.026468
2406.000000	7.040722
2405.000000	7.057686
2404.000000	7.088703
2403.000000	7.091413
2402.000000	7.120022
2401.000000	7.141704
2400.000000	7.158868
2399.000000	7.157262
2398.000000	7.165092
2397.000000	7.190187
2396.000000	7.212672
2395.000000	7.218494
2394.000000	7.215282
2393.000000	7.219899
2392.000000	7.248608
2391.000000	7.263564
2390.000000	7.288960
2389.000000	7.295284
2388.000000	7.303415
2387.000000	7.316364
2386.000000	7.321283
2385.000000	7.320781
2384.000000	7.349389
2383.000000	7.354609
2382.000000	7.339752
2381.000000	7.365048
2380.000000	7.380205
2379.000000	7.364647
2378.000000	7.353504
2377.000000	7.374885
2376.000000	7.374785
2375.000000	7.349690
2374.000000	7.341258
2373.000000	7.358724
2372.000000	7.366353
2371.000000	7.359427
2370.000000	7.343266
2369.000000	7.341760
2368.000000	7.353304
2367.000000	7.348887
2366.000000	7.334332
2365.000000	7.314055
2364.000000	7.307330
2363.000000	7.299299
2362.000000	7.280528
2361.000000	7.267780
2360.000000	7.246701
2359.000000	7.222710
2358.000000	7.217089
2357.000000	7.218695
2356.000000	7.196611
2355.000000	7.173524
2354.000000	7.159270
2353.000000	7.166497
2352.000000	7.155255
2351.000000	7.131164
2350.000000	7.139395
2349.000000	7.145719
2348.000000	7.159571
2347.000000	7.166096
2346.000000	7.184465
2345.000000	7.206950
2344.000000	7.220200
2343.000000	7.237365
2342.000000	7.243087
2341.000000	7.252422
2340.000000	7.280428
2339.000000	7.314256
2338.000000	7.341459
2337.000000	7.339652
2336.000000	7.347682
2335.000000	7.362940
2334.000000	7.357118
2333.000000	7.347180
2332.000000	7.342563
2331.000000	7.348887
2330.000000	7.361334
2329.000000	7.341860
2328.000000	7.322487
2327.000000	7.312148
2326.000000	7.294582
2325.000000	7.276212
2324.000000	7.235257
2323.000000	7.221204
2322.000000	7.208657
2321.000000	7.159170
2320.000000	7.133874
2319.000000	7.107775
2318.000000	7.081074
2317.000000	7.036506
2316.000000	7.002076
2315.000000	6.961322
2314.000000	6.907618
2313.000000	6.854718
2312.000000	6.828017
2311.000000	6.809447
2310.000000	6.773009
2309.000000	6.727638
2308.000000	6.723422
2307.000000	6.701238
2306.000000	6.674738
2305.000000	6.661488
2304.000000	6.648037
2303.000000	6.661287
2302.000000	6.667812
2301.000000	6.679757
2300.000000	6.700034
2299.000000	6.738379
2298.000000	6.762871
2297.000000	6.789271
2296.000000	6.834241
2295.000000	6.888346
2294.000000	6.907317
2293.000000	6.926691
2292.000000	6.976378
2291.000000	6.989930
2290.000000	7.027070
2289.000000	7.041525
2288.000000	7.059192
2287.000000	7.074550
2286.000000	7.073445
2285.000000	7.078364
2284.000000	7.087197
2283.000000	7.093823
2282.000000	7.082178
2281.000000	7.061300
2280.000000	7.052265
2279.000000	7.027974
2278.000000	7.017936
2277.000000	7.006091
2276.000000	6.991335
2275.000000	6.975575
2274.000000	6.961823
2273.000000	6.946465
2272.000000	6.922977
2271.000000	6.919865
2270.000000	6.935524
2269.000000	6.939037
2268.000000	6.971861
2267.000000	6.977483
2266.000000	7.000470
2265.000000	7.040521
2264.000000	7.096031
2263.000000	7.152243
2262.000000	7.217791
2261.000000	7.290165
2260.000000	7.385927
2259.000000	7.488916
2258.000000	7.599234
2257.000000	7.681746
2256.000000	7.817961
2255.000000	7.910109
2254.000000	8.055960
2253.000000	8.146202
2252.000000	8.258828
2251.000000	8.380889
2250.000000	8.477555
2249.000000	8.587470
2248.000000	8.690961
2247.000000	8.788932
2246.000000	8.901156
2245.000000	8.990394
2244.000000	9.090372
2243.000000	9.145681
2242.000000	9.225282
2241.000000	9.268043
2240.000000	9.327870
2239.000000	9.397533
2238.000000	9.452641
2237.000000	9.489481
2236.000000	9.527123
2235.000000	9.581127
2234.000000	9.608330
2233.000000	9.650490
2232.000000	9.647478
2231.000000	9.686124
2230.000000	9.700077
2229.000000	9.715435
2228.000000	9.718346
2227.000000	9.738322
2226.000000	9.727180
2225.000000	9.736816
2224.000000	9.750066
2223.000000	9.724770
2222.000000	9.695560
2221.000000	9.711320
2220.000000	9.681808
2219.000000	9.671870
2218.000000	9.660226
2217.000000	9.645972
2216.000000	9.625796
2215.000000	9.592571
2214.000000	9.576711
2213.000000	9.552017
2212.000000	9.527223
2211.000000	9.524513
2210.000000	9.478539
2209.000000	9.486871
2208.000000	9.467196
2207.000000	9.442905
2206.000000	9.445615
2205.000000	9.428651
2204.000000	9.411586
2203.000000	9.403255
2202.000000	9.396931
2201.000000	9.378160
2200.000000	9.368423
2199.000000	9.377758
2198.000000	9.348749
2197.000000	9.343127
2196.000000	9.352162
2195.000000	9.337105
2194.000000	9.333190
2193.000000	9.330981
2192.000000	9.291131
2191.000000	9.315523
2190.000000	9.301871
2189.000000	9.304682
2188.000000	9.282297
2187.000000	9.274669
2186.000000	9.271356
2185.000000	9.263024
2184.000000	9.254593
2183.000000	9.233513
2182.000000	9.237729
2181.000000	9.225181
2180.000000	9.210928
2179.000000	9.200789
2178.000000	9.180312
2177.000000	9.166158
2176.000000	9.159634
2175.000000	9.167965
2174.000000	9.156522
2173.000000	9.143372
2172.000000	9.131929
2171.000000	9.155217
2170.000000	9.157124
2169.000000	9.153812
2168.000000	9.152406
2167.000000	9.162043
2166.000000	9.152406
2165.000000	9.152205
2164.000000	9.175393
2163.000000	9.190550
2162.000000	9.194264
2161.000000	9.188543
2160.000000	9.213638
2159.000000	9.220464
2158.000000	9.221166
2157.000000	9.259612
2156.000000	9.262623
2155.000000	9.290127
2154.000000	9.325159
2153.000000	9.322951
2152.000000	9.346540
2151.000000	9.366415
2150.000000	9.396830
2149.000000	9.401548
2148.000000	9.439090
2147.000000	9.457861
2146.000000	9.469606
2145.000000	9.492994
2144.000000	9.519394
2143.000000	9.541578
2142.000000	9.563059
2141.000000	9.575004
2140.000000	9.580927
2139.000000	9.601906
2138.000000	9.616260
2137.000000	9.645471
2136.000000	9.656512
2135.000000	9.667052
2134.000000	9.680704
2133.000000	9.693853
2132.000000	9.716138
2131.000000	9.727481
2130.000000	9.732901
2129.000000	9.735511
2128.000000	9.736816
2127.000000	9.739325
2126.000000	9.739727
2125.000000	9.747757
2124.000000	9.760305
2123.000000	9.753680
2122.000000	9.747155
2121.000000	9.741835
2120.000000	9.725172
2119.000000	9.722361
2118.000000	9.716037
2117.000000	9.705297
2116.000000	9.706702
2115.000000	9.701783
2114.000000	9.695761
2113.000000	9.684117
2112.000000	9.660527
2111.000000	9.659724
2110.000000	9.650289
2109.000000	9.633726
2108.000000	9.600902
2107.000000	9.588154
2106.000000	9.582332
2105.000000	9.571190
2104.000000	9.551315
2103.000000	9.530335
2102.000000	9.513170
2101.000000	9.499117
2100.000000	9.484361
2099.000000	9.481049
2098.000000	9.461575
2097.000000	9.439692
2096.000000	9.439692
2095.000000	9.412389
2094.000000	9.398938
2093.000000	9.397031
2092.000000	9.378862
2091.000000	9.369126
2090.000000	9.361196
2089.000000	9.341822
2088.000000	9.316025
2087.000000	9.307091
2086.000000	9.309400
2085.000000	9.290528
2084.000000	9.272761
2083.000000	9.253790
2082.000000	9.230903
2081.000000	9.216047
2080.000000	9.190049
2079.000000	9.164753
2078.000000	9.139758
2077.000000	9.115467
2076.000000	9.087160
2075.000000	9.051424
2074.000000	9.025125
2073.000000	8.998524
2072.000000	8.975939
2071.000000	8.946729
2070.000000	8.921734
2069.000000	8.893427
2068.000000	8.853175
2067.000000	8.819046
2066.000000	8.786623
2065.000000	8.739244
2064.000000	8.709030
2063.000000	8.693371
2062.000000	8.663457
2061.000000	8.631135
2060.000000	8.604635
2059.000000	8.580644
2058.000000	8.559765
2057.000000	8.543504
2056.000000	8.531759
2055.000000	8.518309
2054.000000	8.501846
2053.000000	8.515699
2052.000000	8.522525
2051.000000	8.528246
2050.000000	8.549226
2049.000000	8.561873
2048.000000	8.567997
2047.000000	8.599315
2046.000000	8.629228
2045.000000	8.657435
2044.000000	8.681927
2043.000000	8.713045
2042.000000	8.752996
2041.000000	8.785921
2040.000000	8.800476
2039.000000	8.835809
2038.000000	8.855885
2037.000000	8.874455
2036.000000	8.894029
2035.000000	8.924244
2034.000000	8.957469
2033.000000	8.964496
2032.000000	8.985977
2031.000000	8.993807
2030.000000	9.021210
2029.000000	9.029542
2028.000000	9.022615
2027.000000	9.038977
2026.000000	9.045703
2025.000000	9.041888
2024.000000	9.038375
2023.000000	9.053934
2022.000000	9.062567
2021.000000	9.042691
2020.000000	9.043494
2019.000000	9.034962
2018.000000	9.040985
2017.000000	9.031850
2016.000000	9.009265
2015.000000	9.002138
2014.000000	8.999026
2013.000000	8.992301
2012.000000	8.961183
2011.000000	8.944119
2010.000000	8.935285
2009.000000	8.926753
2008.000000	8.915611
2007.000000	8.873351
2006.000000	8.847855
2005.000000	8.820150
2004.000000	8.788229
2003.000000	8.771064
2002.000000	8.734225
2001.000000	8.721376
2000.000000	8.690058
1999.000000	8.655026
1998.000000	8.619692
1997.000000	8.581146
1996.000000	8.536176
1995.000000	8.501746
1994.000000	8.476450
1993.000000	8.427967
1992.000000	8.385005
1991.000000	8.353084
1990.000000	8.318453
1989.000000	8.276795
1988.000000	8.243369
1987.000000	8.201511
1986.000000	8.159351
1985.000000	8.113879
1984.000000	8.061281
1983.000000	8.029360
1982.000000	7.990312
1981.000000	7.952971
1980.000000	7.897562
1979.000000	7.855302
1978.000000	7.811837
1977.000000	7.781222
1976.000000	7.709751
1975.000000	7.699814
1974.000000	7.668897
1973.000000	7.638482
1972.000000	7.598631
1971.000000	7.541415
1970.000000	7.517826
1969.000000	7.475466
1968.000000	7.429291
1967.000000	7.423670
1966.000000	7.382313
1965.000000	7.361434
1964.000000	7.326101
1963.000000	7.275911
1962.000000	7.252021
1961.000000	7.217992
1960.000000	7.175632
1959.000000	7.167802
1958.000000	7.116408
1957.000000	7.099444
1956.000000	7.070133
1955.000000	7.011311
1954.000000	7.010608
1953.000000	6.976077
1952.000000	6.942952
1951.000000	6.917556
1950.000000	6.907518
1949.000000	6.868270
1948.000000	6.886238
1947.000000	6.831932
1946.000000	6.812157
1945.000000	6.799008
1944.000000	6.774716
1943.000000	6.773511
1942.000000	6.753536
1941.000000	6.729947
1940.000000	6.751227
1939.000000	6.737977
1938.000000	6.746409
1937.000000	6.722217
1936.000000	6.711878
1935.000000	6.733259
1934.000000	6.736271
1933.000000	6.730750
1932.000000	6.758153
1931.000000	6.788769
1930.000000	6.784955
1929.000000	6.812961
1928.000000	6.802621
1927.000000	6.862046
1926.000000	6.883527
1925.000000	6.899086
1924.000000	6.957708
1923.000000	7.000771
1922.000000	7.036506
1921.000000	7.087599
1920.000000	7.139294
1919.000000	7.174427
1918.000000	7.226324
1917.000000	7.284042
1916.000000	7.374082
1915.000000	7.430395
1914.000000	7.517223
1913.000000	7.605457
1912.000000	7.665685
1911.000000	7.751810
1910.000000	7.836430
1909.000000	7.929884
1908.000000	8.049235
1907.000000	8.174910
1906.000000	8.294763
1905.000000	8.404779
1904.000000	8.527142
1903.000000	8.659242
1902.000000	8.798769
1901.000000	8.939802
1900.000000	9.133033
1899.000000	9.306188
1898.000000	9.486068
1897.000000	9.693552
1896.000000	9.872529
1895.000000	10.077303
1894.000000	10.288703
1893.000000	10.521483
1892.000000	10.771227
1891.000000	11.066745
1890.000000	11.352224
1889.000000	11.622345
1888.000000	11.921075
1887.000000	12.258049
1886.000000	12.608675
1885.000000	12.972952
1884.000000	13.358711
1883.000000	13.785324
1882.000000	14.169175
1881.000000	14.565172
1880.000000	15.008649
1879.000000	15.377143
1878.000000	15.790907
1877.000000	16.200054
1876.000000	16.627069
1875.000000	17.013931
1874.000000	17.416554
1873.000000	17.791070
1872.000000	18.176427
1871.000000	18.533276
1870.000000	18.905785
1869.000000	19.243562
1868.000000	19.590875
1867.000000	19.867923
1866.000000	20.113451
1865.000000	20.354262
1864.000000	20.574896
1863.000000	20.794225
1862.000000	20.972098
1861.000000	21.165429
1860.000000	21.366489
1859.000000	21.533320
1858.000000	21.678770
1857.000000	21.807456
1856.000000	21.937749
1855.000000	22.031002
1854.000000	22.138910
1853.000000	22.234270
1852.000000	22.282151
1851.000000	22.325214
1850.000000	22.363860
1849.000000	22.403410
1848.000000	22.464842
1847.000000	22.506801
1846.000000	22.520854
1845.000000	22.503388
1844.000000	22.501581
1843.000000	22.504090
1842.000000	22.541733
1841.000000	22.586301
1840.000000	22.576665
1839.000000	22.554079
1838.000000	22.541130
1837.000000	22.526073
1836.000000	22.502384
1835.000000	22.503890
1834.000000	22.476486
1833.000000	22.429207
1832.000000	22.390059
1831.000000	22.348602
1830.000000	22.329530
1829.000000	22.296104
1828.000000	22.238586
1827.000000	22.191810
1826.000000	22.153465
1825.000000	22.112811
1824.000000	22.059007
1823.000000	22.012331
1822.000000	22.008015
1821.000000	22.008215
1820.000000	21.979507
1819.000000	21.949995
1818.000000	21.904523
1817.000000	21.875012
1816.000000	21.867383
1815.000000	21.853932
1814.000000	21.833455
1813.000000	21.813780
1812.000000	21.792299
1811.000000	21.772725
1810.000000	21.750240
1809.000000	21.708281
1808.000000	21.668330
1807.000000	21.631089
1806.000000	21.590135
1805.000000	21.547473
1804.000000	21.506017
1803.000000	21.460344
1802.000000	21.425713
1801.000000	21.398008
1800.000000	21.353440
1799.000000	21.300941
1798.000000	21.246736
1797.000000	21.201465
1796.000000	21.161815
1795.000000	21.123069
1794.000000	21.092352
1793.000000	21.033229
1792.000000	20.978020
1791.000000	20.938571
1790.000000	20.897315
1789.000000	20.861580
1788.000000	20.831566
1787.000000	20.789507
1786.000000	20.744939
1785.000000	20.698563
1784.000000	20.647470
1783.000000	20.595875
1782.000000	20.555824
1781.000000	20.498607
1780.000000	20.447012
1779.000000	20.406359
1778.000000	20.351250
1777.000000	20.304373
1776.000000	20.248160
1775.000000	20.176088
1774.000000	20.103714
1773.000000	20.041880
1772.000000	19.989784
1771.000000	19.931965
1770.000000	19.858487
1769.000000	19.782901
1768.000000	19.696976
1767.000000	19.636749
1766.000000	19.585856
1765.000000	19.520810
1764.000000	19.484774
1763.000000	19.458374
1762.000000	19.444120
1761.000000	19.457672
1760.000000	19.494812
1759.000000	19.529041
1758.000000	19.562167
1757.000000	19.625004
1756.000000	19.678005
1755.000000	19.737028
1754.000000	19.798460
1753.000000	19.843229
1752.000000	19.876053
1751.000000	19.891713
1750.000000	19.904361
1749.000000	19.906569
1748.000000	19.901851
1747.000000	19.884084
1746.000000	19.864108
1745.000000	19.815725
1744.000000	19.757405
1743.000000	19.658431
1742.000000	19.560962
1741.000000	19.460984
1740.000000	19.347254
1739.000000	19.222583
1738.000000	19.078337
1737.000000	18.932285
1736.000000	18.805606
1735.000000	18.711450
1734.000000	18.636567
1733.000000	18.565197
1732.000000	18.540303
1731.000000	18.544318
1730.000000	18.569915
1729.000000	18.611773
1728.000000	18.674410
1727.000000	18.746282
1726.000000	18.827589
1725.000000	18.894342
1724.000000	18.967217
1723.000000	19.043606
1722.000000	19.085364
1721.000000	19.148703
1720.000000	19.220174
1719.000000	19.268958
1718.000000	19.332398
1717.000000	19.387406
1716.000000	19.460482
1715.000000	19.547812
1714.000000	19.615067
1713.000000	19.714744
1712.000000	19.795449
1711.000000	19.866618
1710.000000	19.904461
1709.000000	19.941902
1708.000000	19.957160
1707.000000	19.977236
1706.000000	19.947724
1705.000000	19.938690
1704.000000	19.909681
1703.000000	19.827369
1702.000000	19.774871
1701.000000	19.709624
1700.000000	19.596095
1699.000000	19.496518
1698.000000	19.370040
1697.000000	19.273074
1696.000000	19.188654
1695.000000	19.122002
1694.000000	19.073519
1693.000000	19.074121
1692.000000	19.130735
1691.000000	19.191867
1690.000000	19.272471
1689.000000	19.390518
1688.000000	19.495515
1687.000000	19.583949
1686.000000	19.673488
1685.000000	19.726689
1684.000000	19.807193
1683.000000	19.905364
1682.000000	20.052420
1681.000000	20.237018
1680.000000	20.529123
1679.000000	20.865796
1678.000000	21.212206
1677.000000	21.601176
1676.000000	21.970673
1675.000000	22.313470
1674.000000	22.642413
1673.000000	22.910527
1672.000000	23.174325
1671.000000	23.417444
1670.000000	23.593008
1669.000000	23.761545
1668.000000	23.930283
1667.000000	24.046422
1666.000000	24.177417
1665.000000	24.270268
1664.000000	24.350974
1663.000000	24.426559
1662.000000	24.493713
1661.000000	24.544104
1660.000000	24.614570
1659.000000	24.629226
1658.000000	24.667872
1657.000000	24.681925
1656.000000	24.712942
1655.000000	24.703607
1654.000000	24.723482
1653.000000	24.693067
1652.000000	24.684234
1651.000000	24.654321
1650.000000	24.633843
1649.000000	24.631334
1648.000000	24.575523
1647.000000	24.544706
1646.000000	24.486486
1645.000000	24.437400
1644.000000	24.387813
1643.000000	24.337021
1642.000000	24.302791
1641.000000	24.238950
1640.000000	24.203416
1639.000000	24.153527
1638.000000	24.099623
1637.000000	24.037689
1636.000000	23.975554
1635.000000	23.919040
1634.000000	23.861322
1633.000000	23.801797
1632.000000	23.718482
1631.000000	23.635569
1630.000000	23.574939
1629.000000	23.496041
1628.000000	23.437921
1627.000000	23.357015
1626.000000	23.278117
1625.000000	23.196408
1624.000000	23.101248
1623.000000	23.037708
1622.000000	22.969952
1621.000000	22.910025
1620.000000	22.830324
1619.000000	22.763772
1618.000000	22.708865
1617.000000	22.637294
1616.000000	22.572850
1615.000000	22.512723
1614.000000	22.425594
1613.000000	22.366972
1612.000000	22.280445
1611.000000	22.221221
1610.000000	22.161897
1609.000000	22.081994
1608.000000	22.012431
1607.000000	21.943973
1606.000000	21.893883
1605.000000	21.803140
1604.000000	21.743715
1603.000000	21.672145
1602.000000	21.595254
1601.000000	21.513846
1600.000000	21.448901
1599.000000	21.367292
1598.000000	21.290502
1597.000000	21.221340
1596.000000	21.156395
1595.000000	21.083118
1594.000000	21.015562
1593.000000	20.955736
1592.000000	20.896211
1591.000000	20.834879
1590.000000	20.780172
1589.000000	20.721249
1588.000000	20.651285
1587.000000	20.581220
1586.000000	20.525810
1585.000000	20.472308
1584.000000	20.412381
1583.000000	20.355968
1582.000000	20.312604
1581.000000	20.255689
1580.000000	20.205499
