PE UV       SUBTECH     SPECTRUM    ASCII       PEDS        4.00        
   -1
INBUCR0143-4.Sample.ASC
24/04/29
16:11:28.00
24/04/29
16:11:28.00
Vinicio Soto Monge
C. kalinini
250,000000
1
Lambda 1050
1050L1511233
PerkinElmer UV WinLab 6.3.2.0749 / 2.02.05 Lambda 900 UV/VIS/NIR, Aug  7 2015 09:38:08

0
0
3350/servo 860,8/2
0
0
UV/VIS
1
1
1
DoubleDePol,CommonBeamDepol,RBeamAtt,SBeamAtt,60mm sphere, WB InGaAs Detector
0
0
0
0
Program
Program
3350/servo 860,8/2
3350/0,2 860,8/0,2
3350/0,2 860,8/0,2
0
15.00
 
 
 
0
 
860,8
319,2
860,8
Front
100
on
S:100 R:100
0
0
0
0
 
0
 
 
 
0
 
 
0
0
0
0
0
 
 
 
 
0
0


0
0
#HDR
-1
-1
#GR
nm
%R
1.0
0.0
2500,000000
-1,000000
2251
8
91,524600
5,274700
#DATA
2482.000000	13.013625
2481.000000	13.093604
2480.000000	13.018164
2479.000000	13.151858
2478.000000	13.098467
2477.000000	13.206979
2476.000000	13.229135
2475.000000	13.189902
2474.000000	13.228703
2473.000000	13.299495
2472.000000	13.322840
2471.000000	13.303818
2470.000000	13.359695
2469.000000	13.410601
2468.000000	13.414383
2467.000000	13.417193
2466.000000	13.478474
2465.000000	13.532082
2464.000000	13.547969
2463.000000	13.601469
2462.000000	13.693336
2461.000000	13.747052
2460.000000	13.818168
2459.000000	13.851024
2458.000000	13.916736
2457.000000	14.042109
2456.000000	14.080044
2455.000000	14.136354
2454.000000	14.204120
2453.000000	14.304201
2452.000000	14.385801
2451.000000	14.473994
2450.000000	14.552459
2449.000000	14.658918
2448.000000	14.764187
2447.000000	14.854217
2446.000000	14.907608
2445.000000	15.012878
2444.000000	15.102584
2443.000000	15.205908
2442.000000	15.325660
2441.000000	15.397208
2440.000000	15.498370
2439.000000	15.605693
2438.000000	15.720041
2437.000000	15.803046
2436.000000	15.897832
2435.000000	15.995536
2434.000000	16.084917
2433.000000	16.165437
2432.000000	16.251576
2431.000000	16.352630
2430.000000	16.424611
2429.000000	16.521018
2428.000000	16.616020
2427.000000	16.711129
2426.000000	16.785056
2425.000000	16.845796
2424.000000	16.915724
2423.000000	16.983057
2422.000000	17.057416
2421.000000	17.114698
2420.000000	17.155660
2419.000000	17.232288
2418.000000	17.310538
2417.000000	17.348690
2416.000000	17.391597
2415.000000	17.459363
2414.000000	17.519563
2413.000000	17.554905
2412.000000	17.600191
2411.000000	17.637802
2410.000000	17.674117
2409.000000	17.709135
2408.000000	17.745557
2407.000000	17.754420
2406.000000	17.788573
2405.000000	17.832777
2404.000000	17.850503
2403.000000	17.878819
2402.000000	17.904110
2401.000000	17.924861
2400.000000	17.941830
2399.000000	17.973065
2398.000000	17.999004
2397.000000	18.018674
2396.000000	18.042668
2395.000000	18.048936
2394.000000	18.063095
2393.000000	18.085791
2392.000000	18.074551
2391.000000	18.086116
2390.000000	18.099409
2389.000000	18.102544
2388.000000	18.107407
2387.000000	18.111514
2386.000000	18.104165
2385.000000	18.097896
2384.000000	18.088169
2383.000000	18.096599
2382.000000	18.083197
2381.000000	18.051314
2380.000000	18.034237
2379.000000	18.018026
2378.000000	18.013486
2377.000000	17.993059
2376.000000	17.975983
2375.000000	17.964094
2374.000000	17.941289
2373.000000	17.929725
2372.000000	17.929617
2371.000000	17.918376
2370.000000	17.905407
2369.000000	17.889843
2368.000000	17.871902
2367.000000	17.857095
2366.000000	17.858717
2365.000000	17.861310
2364.000000	17.838073
2363.000000	17.822510
2362.000000	17.815917
2361.000000	17.805541
2360.000000	17.799489
2359.000000	17.785223
2358.000000	17.780467
2357.000000	17.773226
2356.000000	17.764471
2355.000000	17.738856
2354.000000	17.708810
2353.000000	17.674657
2352.000000	17.646665
2351.000000	17.633047
2350.000000	17.610674
2349.000000	17.597056
2348.000000	17.569604
2347.000000	17.537180
2346.000000	17.515456
2345.000000	17.496110
2344.000000	17.484329
2343.000000	17.456553
2342.000000	17.434181
2341.000000	17.415159
2340.000000	17.397109
2339.000000	17.400352
2338.000000	17.398623
2337.000000	17.387598
2336.000000	17.386410
2335.000000	17.365442
2334.000000	17.361443
2333.000000	17.381978
2332.000000	17.400028
2331.000000	17.414078
2330.000000	17.417320
2329.000000	17.426723
2328.000000	17.442070
2327.000000	17.458931
2326.000000	17.487680
2325.000000	17.500866
2324.000000	17.512971
2323.000000	17.520860
2322.000000	17.539882
2321.000000	17.553933
2320.000000	17.550690
2319.000000	17.544205
2318.000000	17.533722
2317.000000	17.525400
2316.000000	17.518483
2315.000000	17.495137
2314.000000	17.454608
2313.000000	17.446286
2312.000000	17.415807
2311.000000	17.402405
2310.000000	17.358525
2309.000000	17.319616
2308.000000	17.297028
2307.000000	17.246555
2306.000000	17.230235
2305.000000	17.199216
2304.000000	17.166252
2303.000000	17.173817
2302.000000	17.161064
2301.000000	17.138151
2300.000000	17.139016
2299.000000	17.127559
2298.000000	17.140205
2297.000000	17.148419
2296.000000	17.171332
2295.000000	17.160307
2294.000000	17.179762
2293.000000	17.183220
2292.000000	17.222993
2291.000000	17.245906
2290.000000	17.254877
2289.000000	17.280600
2288.000000	17.334856
2287.000000	17.355715
2286.000000	17.358849
2285.000000	17.404891
2284.000000	17.455364
2283.000000	17.471792
2282.000000	17.506918
2281.000000	17.535775
2280.000000	17.558472
2279.000000	17.597489
2278.000000	17.649799
2277.000000	17.676711
2276.000000	17.674225
2275.000000	17.702218
2274.000000	17.727184
2273.000000	17.732047
2272.000000	17.769875
2271.000000	17.797003
2270.000000	17.852016
2269.000000	17.893302
2268.000000	17.921835
2267.000000	17.976091
2266.000000	18.047964
2265.000000	18.103624
2264.000000	18.184144
2263.000000	18.276335
2262.000000	18.378470
2261.000000	18.497466
2260.000000	18.612462
2259.000000	18.743671
2258.000000	18.871961
2257.000000	19.031486
2256.000000	19.167990
2255.000000	19.310763
2254.000000	19.501740
2253.000000	19.628301
2252.000000	19.809226
2251.000000	19.966589
2250.000000	20.109578
2249.000000	20.259052
2248.000000	20.424738
2247.000000	20.557243
2246.000000	20.695693
2245.000000	20.817931
2244.000000	20.918553
2243.000000	21.056462
2242.000000	21.146708
2241.000000	21.229173
2240.000000	21.320608
2239.000000	21.357139
2238.000000	21.437658
2237.000000	21.485213
2236.000000	21.516664
2235.000000	21.540117
2234.000000	21.544116
2233.000000	21.576432
2232.000000	21.561733
2231.000000	21.572325
2230.000000	21.532876
2229.000000	21.514286
2228.000000	21.488779
2227.000000	21.455275
2226.000000	21.425985
2225.000000	21.360922
2224.000000	21.294345
2223.000000	21.243980
2222.000000	21.183671
2221.000000	21.112123
2220.000000	21.049869
2219.000000	20.948923
2218.000000	20.891965
2217.000000	20.807555
2216.000000	20.716336
2215.000000	20.657541
2214.000000	20.613877
2213.000000	20.525144
2212.000000	20.464943
2211.000000	20.408202
2210.000000	20.336329
2209.000000	20.268023
2208.000000	20.208903
2207.000000	20.174534
2206.000000	20.107525
2205.000000	20.070886
2204.000000	20.005822
2203.000000	19.988745
2202.000000	19.948648
2201.000000	19.901417
2200.000000	19.884557
2199.000000	19.848783
2198.000000	19.816791
2197.000000	19.797121
2196.000000	19.751403
2195.000000	19.722005
2194.000000	19.689798
2193.000000	19.655969
2192.000000	19.647755
2191.000000	19.621492
2190.000000	19.594904
2189.000000	19.596201
2188.000000	19.567884
2187.000000	19.542377
2186.000000	19.534163
2185.000000	19.506279
2184.000000	19.475152
2183.000000	19.457643
2182.000000	19.438513
2181.000000	19.432028
2180.000000	19.411277
2179.000000	19.386095
2178.000000	19.370964
2177.000000	19.368586
2176.000000	19.366532
2175.000000	19.344052
2174.000000	19.360480
2173.000000	19.354535
2172.000000	19.361128
2171.000000	19.382096
2170.000000	19.407278
2169.000000	19.437865
2168.000000	19.443485
2167.000000	19.456238
2166.000000	19.486500
2165.000000	19.545188
2164.000000	19.593931
2163.000000	19.625707
2162.000000	19.674991
2161.000000	19.737137
2160.000000	19.819601
2159.000000	19.877748
2158.000000	19.944541
2157.000000	20.027222
2156.000000	20.116820
2155.000000	20.212902
2154.000000	20.312443
2153.000000	20.405716
2152.000000	20.528062
2151.000000	20.627279
2150.000000	20.736439
2149.000000	20.850787
2148.000000	20.956813
2147.000000	21.068459
2146.000000	21.173944
2145.000000	21.282672
2144.000000	21.399290
2143.000000	21.517853
2142.000000	21.625392
2141.000000	21.719421
2140.000000	21.828581
2139.000000	21.947901
2138.000000	22.044091
2137.000000	22.157467
2136.000000	22.244471
2135.000000	22.327043
2134.000000	22.423774
2133.000000	22.525045
2132.000000	22.611725
2131.000000	22.694946
2130.000000	22.754497
2129.000000	22.829829
2128.000000	22.900729
2127.000000	22.957579
2126.000000	23.007619
2125.000000	23.072791
2124.000000	23.149420
2123.000000	23.193948
2122.000000	23.229506
2121.000000	23.270252
2120.000000	23.322887
2119.000000	23.360282
2118.000000	23.392166
2117.000000	23.414538
2116.000000	23.434317
2115.000000	23.474739
2114.000000	23.490518
2113.000000	23.507703
2112.000000	23.539046
2111.000000	23.547908
2110.000000	23.534182
2109.000000	23.544342
2108.000000	23.568660
2107.000000	23.582494
2106.000000	23.578062
2105.000000	23.584763
2104.000000	23.584007
2103.000000	23.579143
2102.000000	23.595787
2101.000000	23.606055
2100.000000	23.615026
2099.000000	23.621186
2098.000000	23.630805
2097.000000	23.647449
2096.000000	23.669173
2095.000000	23.699760
2094.000000	23.726239
2093.000000	23.758231
2092.000000	23.787412
2091.000000	23.796599
2090.000000	23.825456
2089.000000	23.860798
2088.000000	23.886953
2087.000000	23.904895
2086.000000	23.907380
2085.000000	23.910623
2084.000000	23.916891
2083.000000	23.904895
2082.000000	23.899815
2081.000000	23.877226
2080.000000	23.845127
2079.000000	23.817242
2078.000000	23.779955
2077.000000	23.726023
2076.000000	23.653070
2075.000000	23.581737
2074.000000	23.500786
2073.000000	23.414106
2072.000000	23.316078
2071.000000	23.220536
2070.000000	23.121103
2069.000000	23.004593
2068.000000	22.897162
2067.000000	22.785300
2066.000000	22.661765
2065.000000	22.553470
2064.000000	22.441499
2063.000000	22.317965
2062.000000	22.204049
2061.000000	22.095213
2060.000000	22.007885
2059.000000	21.938498
2058.000000	21.855817
2057.000000	21.803074
2056.000000	21.765679
2055.000000	21.755519
2054.000000	21.764490
2053.000000	21.787511
2052.000000	21.821232
2051.000000	21.894185
2050.000000	21.964869
2049.000000	22.071111
2048.000000	22.219288
2047.000000	22.346498
2046.000000	22.491648
2045.000000	22.653119
2044.000000	22.833071
2043.000000	22.991083
2042.000000	23.168766
2041.000000	23.345476
2040.000000	23.502731
2039.000000	23.672416
2038.000000	23.838966
2037.000000	24.009840
2036.000000	24.164934
2035.000000	24.300573
2034.000000	24.426378
2033.000000	24.565260
2032.000000	24.687714
2031.000000	24.811897
2030.000000	24.915221
2029.000000	25.037242
2028.000000	25.128462
2027.000000	25.222923
2026.000000	25.320951
2025.000000	25.403524
2024.000000	25.480800
2023.000000	25.574073
2022.000000	25.629518
2021.000000	25.701390
2020.000000	25.773371
2019.000000	25.812928
2018.000000	25.867508
2017.000000	25.915388
2016.000000	25.968455
2015.000000	25.996015
2014.000000	25.989638
2013.000000	26.028439
2012.000000	26.045407
2011.000000	26.037409
2010.000000	26.052216
2009.000000	26.044434
2008.000000	26.035032
2007.000000	26.022170
2006.000000	25.983478
2005.000000	25.968779
2004.000000	25.908687
2003.000000	25.865887
2002.000000	25.812280
2001.000000	25.757592
2000.000000	25.702255
1999.000000	25.638812
1998.000000	25.589420
1997.000000	25.498201
1996.000000	25.416601
1995.000000	25.349052
1994.000000	25.250375
1993.000000	25.161426
1992.000000	25.077988
1991.000000	24.965370
1990.000000	24.886580
1989.000000	24.783256
1988.000000	24.687065
1987.000000	24.595198
1986.000000	24.478580
1985.000000	24.383146
1984.000000	24.257342
1983.000000	24.163637
1982.000000	24.046479
1981.000000	23.940669
1980.000000	23.837561
1979.000000	23.735858
1978.000000	23.618700
1977.000000	23.496138
1976.000000	23.398975
1975.000000	23.318023
1974.000000	23.203783
1973.000000	23.124886
1972.000000	23.027398
1971.000000	22.938124
1970.000000	22.817832
1969.000000	22.731152
1968.000000	22.648796
1967.000000	22.537798
1966.000000	22.424207
1965.000000	22.368762
1964.000000	22.259169
1963.000000	22.171841
1962.000000	22.066356
1961.000000	21.952116
1960.000000	21.883269
1959.000000	21.777892
1958.000000	21.667327
1957.000000	21.556870
1956.000000	21.476999
1955.000000	21.395507
1954.000000	21.288725
1953.000000	21.191453
1952.000000	21.095803
1951.000000	21.030199
1950.000000	20.923740
1949.000000	20.838250
1948.000000	20.759352
1947.000000	20.677968
1946.000000	20.619281
1945.000000	20.550758
1944.000000	20.500826
1943.000000	20.454460
1942.000000	20.393179
1941.000000	20.354054
1940.000000	20.323575
1939.000000	20.315902
1938.000000	20.339355
1937.000000	20.306067
1936.000000	20.298285
1935.000000	20.312119
1934.000000	20.321414
1933.000000	20.347893
1932.000000	20.405824
1931.000000	20.435654
1930.000000	20.523522
1929.000000	20.601123
1928.000000	20.688776
1927.000000	20.816634
1926.000000	20.926550
1925.000000	21.044141
1924.000000	21.190913
1923.000000	21.320500
1922.000000	21.495697
1921.000000	21.729797
1920.000000	21.957736
1919.000000	22.128934
1918.000000	22.350929
1917.000000	22.587190
1916.000000	22.812644
1915.000000	23.056904
1914.000000	23.386222
1913.000000	23.774551
1912.000000	24.139427
1911.000000	24.470258
1910.000000	24.785309
1909.000000	25.113655
1908.000000	25.476261
1907.000000	25.946190
1906.000000	26.475996
1905.000000	27.030011
1904.000000	27.548467
1903.000000	28.059035
1902.000000	28.625371
1901.000000	29.191491
1900.000000	29.864825
1899.000000	30.539133
1898.000000	31.147079
1897.000000	31.745515
1896.000000	32.308717
1895.000000	32.841224
1894.000000	33.417287
1893.000000	34.028260
1892.000000	34.721589
1891.000000	35.408758
1890.000000	35.989685
1889.000000	36.525975
1888.000000	37.087988
1887.000000	37.593908
1886.000000	38.114418
1885.000000	38.613205
1884.000000	39.082377
1883.000000	39.504968
1882.000000	39.908428
1881.000000	40.299676
1880.000000	40.634938
1879.000000	40.960581
1878.000000	41.297248
1877.000000	41.582794
1876.000000	41.852777
1875.000000	42.127514
1874.000000	42.396200
1873.000000	42.665426
1872.000000	42.899309
1871.000000	43.110172
1870.000000	43.310444
1869.000000	43.499583
1868.000000	43.607986
1867.000000	43.701367
1866.000000	43.779832
1865.000000	43.856569
1864.000000	43.930495
1863.000000	44.003341
1862.000000	44.098667
1861.000000	44.202963
1860.000000	44.311691
1859.000000	44.389833
1858.000000	44.453707
1857.000000	44.503856
1856.000000	44.519852
1855.000000	44.557572
1854.000000	44.596048
1853.000000	44.589996
1852.000000	44.594967
1851.000000	44.618745
1850.000000	44.645440
1849.000000	44.675162
1848.000000	44.705857
1847.000000	44.681755
1846.000000	44.621879
1845.000000	44.566975
1844.000000	44.523743
1843.000000	44.522770
1842.000000	44.527526
1841.000000	44.505369
1840.000000	44.473486
1839.000000	44.435550
1838.000000	44.375890
1837.000000	44.335577
1836.000000	44.300775
1835.000000	44.233658
1834.000000	44.165027
1833.000000	44.101152
1832.000000	44.067324
1831.000000	44.042573
1830.000000	44.011338
1829.000000	43.989182
1828.000000	43.944005
1827.000000	43.900557
1826.000000	43.876131
1825.000000	43.851273
1824.000000	43.837763
1823.000000	43.860676
1822.000000	43.889425
1821.000000	43.910500
1820.000000	43.912662
1819.000000	43.871592
1818.000000	43.846950
1817.000000	43.845220
1816.000000	43.840249
1815.000000	43.828252
1814.000000	43.793342
1813.000000	43.790100
1812.000000	43.787830
1811.000000	43.749894
1810.000000	43.713580
1809.000000	43.685047
1808.000000	43.651974
1807.000000	43.635006
1806.000000	43.605716
1805.000000	43.582479
1804.000000	43.572104
1803.000000	43.555351
1802.000000	43.558270
1801.000000	43.544868
1800.000000	43.493962
1799.000000	43.469969
1798.000000	43.466186
1797.000000	43.442841
1796.000000	43.427926
1795.000000	43.412687
1794.000000	43.400149
1793.000000	43.375399
1792.000000	43.374427
1791.000000	43.378425
1790.000000	43.365888
1789.000000	43.386099
1788.000000	43.380587
1787.000000	43.381127
1786.000000	43.414956
1785.000000	43.431492
1784.000000	43.418631
1783.000000	43.422414
1782.000000	43.426089
1781.000000	43.421549
1780.000000	43.409660
1779.000000	43.377129
1778.000000	43.353891
1777.000000	43.318333
1776.000000	43.280289
1775.000000	43.233815
1774.000000	43.191232
1773.000000	43.152972
1772.000000	43.110929
1771.000000	43.072128
1770.000000	43.041218
1769.000000	43.003498
1768.000000	42.966643
1767.000000	42.941569
1766.000000	42.909793
1765.000000	42.881584
1764.000000	42.875100
1763.000000	42.856510
1762.000000	42.838137
1761.000000	42.847215
1760.000000	42.836515
1759.000000	42.855537
1758.000000	42.852403
1757.000000	42.843973
1756.000000	42.868723
1755.000000	42.866561
1754.000000	42.867426
1753.000000	42.854348
1752.000000	42.844297
1751.000000	42.835651
1750.000000	42.822357
1749.000000	42.771127
1748.000000	42.731246
1747.000000	42.663696
1746.000000	42.581016
1745.000000	42.505576
1744.000000	42.422247
1743.000000	42.324867
1742.000000	42.233324
1741.000000	42.140592
1740.000000	42.029162
1739.000000	41.941510
1738.000000	41.861315
1737.000000	41.785767
1736.000000	41.698223
1735.000000	41.629160
1734.000000	41.566150
1733.000000	41.513948
1732.000000	41.450613
1731.000000	41.381118
1730.000000	41.307408
1729.000000	41.244938
1728.000000	41.171552
1727.000000	41.103462
1726.000000	41.052557
1725.000000	41.023267
1724.000000	41.007163
1723.000000	41.054178
1722.000000	41.153071
1721.000000	41.293898
1720.000000	41.479254
1719.000000	41.699844
1718.000000	41.961288
1717.000000	42.212033
1716.000000	42.464614
1715.000000	42.724437
1714.000000	42.933787
1713.000000	43.137192
1712.000000	43.341570
1711.000000	43.521739
1710.000000	43.649056
1709.000000	43.767403
1708.000000	43.883372
1707.000000	43.981400
1706.000000	44.068621
1705.000000	44.134117
1704.000000	44.167729
1703.000000	44.218851
1702.000000	44.228254
1701.000000	44.251923
1700.000000	44.252680
1699.000000	44.267595
1698.000000	44.227713
1697.000000	44.233766
1696.000000	44.163190
1695.000000	44.111960
1694.000000	44.031117
1693.000000	43.908231
1692.000000	43.785236
1691.000000	43.700178
1690.000000	43.606797
1689.000000	43.599124
1688.000000	43.616632
1687.000000	43.668078
1686.000000	43.815823
1685.000000	43.983670
1684.000000	44.207178
1683.000000	44.438684
1682.000000	44.685322
1681.000000	44.943631
1680.000000	45.188431
1679.000000	45.436041
1678.000000	45.649390
1677.000000	45.852147
1676.000000	46.037935
1675.000000	46.238207
1674.000000	46.423238
1673.000000	46.604380
1672.000000	46.799355
1671.000000	46.994762
1670.000000	47.199681
1669.000000	47.405680
1668.000000	47.608113
1667.000000	47.840916
1666.000000	48.013735
1665.000000	48.200496
1664.000000	48.366074
1663.000000	48.532300
1662.000000	48.691933
1661.000000	48.837516
1660.000000	48.974237
1659.000000	49.091611
1658.000000	49.214389
1657.000000	49.323225
1656.000000	49.403312
1655.000000	49.463944
1654.000000	49.533872
1653.000000	49.603799
1652.000000	49.645734
1651.000000	49.692640
1650.000000	49.725929
1649.000000	49.739223
1648.000000	49.736629
1647.000000	49.771430
1646.000000	49.769917
1645.000000	49.779212
1644.000000	49.788183
1643.000000	49.795208
1642.000000	49.794667
1641.000000	49.790452
1640.000000	49.822444
1639.000000	49.828388
1638.000000	49.823200
1637.000000	49.821471
1636.000000	49.799207
1635.000000	49.784832
1634.000000	49.769917
1633.000000	49.770241
1632.000000	49.728847
1631.000000	49.701503
1630.000000	49.670484
1629.000000	49.648868
1628.000000	49.609095
1627.000000	49.578509
1626.000000	49.532791
1625.000000	49.503501
1624.000000	49.475617
1623.000000	49.437357
1622.000000	49.407959
1621.000000	49.361161
1620.000000	49.331439
1619.000000	49.297286
1618.000000	49.257729
1617.000000	49.234168
1616.000000	49.197637
1615.000000	49.150190
1614.000000	49.115280
1613.000000	49.075291
1612.000000	49.023089
1611.000000	48.985477
1610.000000	48.922142
1609.000000	48.859348
1608.000000	48.796230
1607.000000	48.726519
1606.000000	48.649782
