PE UV       SUBTECH     SPECTRUM    ASCII       PEDS        4.00        
   -1
CICIMAUCR0104-3.Sample.ASC
24/04/04
11:30:21.00
24/04/04
11:30:21.00
Vinicio Soto Monge
C. resplendens
250,000000
1
Lambda 1050
1050L1511233
PerkinElmer UV WinLab 6.3.2.0749 / 2.02.05 Lambda 900 UV/VIS/NIR, Aug  7 2015 09:38:08

0
0
3350/servo 860,8/2
0
0
UV/VIS
1
1
1
DoubleDePol,CommonBeamDepol,RBeamAtt,SBeamAtt,60mm sphere, WB InGaAs Detector
0
0
0
0
Program
Program
3350/servo 860,8/2
3350/0,2 860,8/0,2
3350/0,2 860,8/0,2
0
15.00
 
 
 
0
 
860,8
319,2
860,8
Front
100
on
S:100 R:100
0
0
0
0
 
0
 
 
 
0
 
 
0
0
0
0
0
 
 
 
 
0
0


0
0
#HDR
-1
-1
#GR
nm
%R
1.0
0.0
2500,000000
-1,000000
2251
8
72,628200
5,074300
#DATA
2500.000000	6.182508
2499.000000	6.104908
2498.000000	6.148030
2497.000000	6.216489
2496.000000	6.087024
2495.000000	6.128158
2494.000000	6.063973
2493.000000	6.051652
2492.000000	6.087024
2491.000000	6.041219
2490.000000	6.071027
2489.000000	6.072120
2488.000000	6.016380
2487.000000	6.031979
2486.000000	6.033867
2485.000000	5.979021
2484.000000	6.071822
2483.000000	6.075001
2482.000000	6.188171
2481.000000	6.087620
2480.000000	6.067450
2479.000000	6.044300
2478.000000	6.054136
2477.000000	6.117924
2476.000000	6.112360
2475.000000	6.091495
2474.000000	6.160649
2473.000000	6.160549
2472.000000	6.162636
2471.000000	6.189562
2470.000000	6.161742
2469.000000	6.172572
2468.000000	6.200293
2467.000000	6.277495
2466.000000	6.236758
2465.000000	6.263485
2464.000000	6.299950
2463.000000	6.331049
2462.000000	6.364036
2461.000000	6.392056
2460.000000	6.421367
2459.000000	6.453559
2458.000000	6.522216
2457.000000	6.563152
2456.000000	6.605975
2455.000000	6.677017
2454.000000	6.736732
2453.000000	6.771905
2452.000000	6.814828
2451.000000	6.875139
2450.000000	6.948167
2449.000000	7.014837
2448.000000	7.062927
2447.000000	7.133670
2446.000000	7.210972
2445.000000	7.270488
2444.000000	7.321558
2443.000000	7.387930
2442.000000	7.450129
2441.000000	7.522064
2440.000000	7.604035
2439.000000	7.670208
2438.000000	7.723465
2437.000000	7.790433
2436.000000	7.844683
2435.000000	7.912545
2434.000000	7.965801
2433.000000	8.017865
2432.000000	8.066054
2431.000000	8.116131
2430.000000	8.174057
2429.000000	8.210224
2428.000000	8.277093
2427.000000	8.323195
2426.000000	8.364032
2425.000000	8.403179
2424.000000	8.446102
2423.000000	8.488032
2422.000000	8.524496
2421.000000	8.571692
2420.000000	8.636573
2419.000000	8.681285
2418.000000	8.732057
2417.000000	8.766634
2416.000000	8.807073
2415.000000	8.835688
2414.000000	8.861323
2413.000000	8.902060
2412.000000	8.941903
2411.000000	8.974195
2410.000000	9.006188
2409.000000	9.046230
2408.000000	9.067592
2407.000000	9.110614
2406.000000	9.142807
2405.000000	9.182948
2404.000000	9.200037
2403.000000	9.232925
2402.000000	9.274755
2401.000000	9.314002
2400.000000	9.338842
2399.000000	9.352653
2398.000000	9.395377
2397.000000	9.435419
2396.000000	9.460954
2395.000000	9.483210
2394.000000	9.519377
2393.000000	9.544316
2392.000000	9.565877
2391.000000	9.593499
2390.000000	9.621220
2389.000000	9.638111
2388.000000	9.650729
2387.000000	9.659771
2386.000000	9.667124
2385.000000	9.671197
2384.000000	9.682624
2383.000000	9.685604
2382.000000	9.689877
2381.000000	9.684511
2380.000000	9.663944
2379.000000	9.658976
2378.000000	9.654406
2377.000000	9.637912
2376.000000	9.619034
2375.000000	9.610290
2374.000000	9.590120
2373.000000	9.556239
2372.000000	9.529213
2371.000000	9.504374
2370.000000	9.488377
2369.000000	9.465524
2368.000000	9.433233
2367.000000	9.397861
2366.000000	9.345101
2365.000000	9.295024
2364.000000	9.251704
2363.000000	9.198746
2362.000000	9.155326
2361.000000	9.105845
2360.000000	9.050005
2359.000000	8.998239
2358.000000	8.941506
2357.000000	8.893913
2356.000000	8.865099
2355.000000	8.834099
2354.000000	8.813929
2353.000000	8.793361
2352.000000	8.772297
2351.000000	8.787996
2350.000000	8.791573
2349.000000	8.792467
2348.000000	8.808464
2347.000000	8.837775
2346.000000	8.871656
2345.000000	8.892025
2344.000000	8.916467
2343.000000	8.933656
2342.000000	8.968829
2341.000000	8.999034
2340.000000	9.009070
2339.000000	9.010361
2338.000000	9.017813
2337.000000	9.023874
2336.000000	8.997246
2335.000000	8.993272
2334.000000	8.981348
2333.000000	8.946573
2332.000000	8.918752
2331.000000	8.879804
2330.000000	8.829528
2329.000000	8.772993
2328.000000	8.731858
2327.000000	8.684563
2326.000000	8.628426
2325.000000	8.548442
2324.000000	8.479089
2323.000000	8.410830
2322.000000	8.346843
2321.000000	8.262387
2320.000000	8.180714
2319.000000	8.081356
2318.000000	7.995509
2317.000000	7.904298
2316.000000	7.799176
2315.000000	7.712933
2314.000000	7.636327
2313.000000	7.548593
2312.000000	7.467814
2311.000000	7.396475
2310.000000	7.325234
2309.000000	7.266215
2308.000000	7.236606
2307.000000	7.201831
2306.000000	7.200837
2305.000000	7.196962
2304.000000	7.189610
2303.000000	7.197856
2302.000000	7.223988
2301.000000	7.255882
2300.000000	7.304270
2299.000000	7.358917
2298.000000	7.397965
2297.000000	7.436417
2296.000000	7.498119
2295.000000	7.535378
2294.000000	7.583667
2293.000000	7.602644
2292.000000	7.607612
2291.000000	7.605923
2290.000000	7.597180
2289.000000	7.601949
2288.000000	7.582773
2287.000000	7.544420
2286.000000	7.499808
2285.000000	7.469603
2284.000000	7.432542
2283.000000	7.391805
2282.000000	7.334673
2281.000000	7.271382
2280.000000	7.219218
2279.000000	7.165267
2278.000000	7.112110
2277.000000	7.068193
2276.000000	7.026860
2275.000000	6.984135
2274.000000	6.938132
2273.000000	6.915478
2272.000000	6.884478
2271.000000	6.869873
2270.000000	6.866395
2269.000000	6.879113
2268.000000	6.874344
2267.000000	6.908126
2266.000000	6.940715
2265.000000	6.999238
2264.000000	7.076738
2263.000000	7.143110
2262.000000	7.234917
2261.000000	7.355241
2260.000000	7.481129
2259.000000	7.566776
2258.000000	7.718795
2257.000000	7.863958
2256.000000	8.015679
2255.000000	8.121397
2254.000000	8.293884
2253.000000	8.411525
2252.000000	8.569804
2251.000000	8.698374
2250.000000	8.803496
2249.000000	8.930874
2248.000000	9.039374
2247.000000	9.125518
2246.000000	9.228951
2245.000000	9.319566
2244.000000	9.405810
2243.000000	9.495332
2242.000000	9.556736
2241.000000	9.633441
2240.000000	9.711040
2239.000000	9.744922
2238.000000	9.797880
2237.000000	9.823514
2236.000000	9.907870
2235.000000	9.924165
2234.000000	9.942745
2233.000000	9.943242
2232.000000	9.955662
2231.000000	9.968380
2230.000000	9.961425
2229.000000	9.954867
2228.000000	9.933008
2227.000000	9.903995
2226.000000	9.853421
2225.000000	9.802351
2224.000000	9.757242
2223.000000	9.715015
2222.000000	9.649736
2221.000000	9.579092
2220.000000	9.519874
2219.000000	9.428066
2218.000000	9.389117
2217.000000	9.326323
2216.000000	9.276742
2215.000000	9.214246
2214.000000	9.166951
2213.000000	9.158307
2212.000000	9.112602
2211.000000	9.094419
2210.000000	9.103063
2209.000000	9.140422
2208.000000	9.152146
2207.000000	9.206694
2206.000000	9.291944
2205.000000	9.376797
2204.000000	9.450422
2203.000000	9.570547
2202.000000	9.707165
2201.000000	9.848553
2200.000000	9.979607
2199.000000	10.126261
2198.000000	10.276790
2197.000000	10.441825
2196.000000	10.579139
2195.000000	10.719533
2194.000000	10.852873
2193.000000	11.004296
2192.000000	11.115180
2191.000000	11.245141
2190.000000	11.341520
2189.000000	11.451709
2188.000000	11.515199
2187.000000	11.605019
2186.000000	11.691462
2185.000000	11.732099
2184.000000	11.777705
2183.000000	11.843282
2182.000000	11.893955
2181.000000	11.917205
2180.000000	11.949199
2179.000000	11.991625
2178.000000	12.011695
2177.000000	12.050942
2176.000000	12.084823
2175.000000	12.100224
2174.000000	12.138577
2173.000000	12.160634
2172.000000	12.180904
2171.000000	12.207929
2170.000000	12.231278
2169.000000	12.267346
2168.000000	12.308778
2167.000000	12.341766
2166.000000	12.380019
2165.000000	12.408932
2164.000000	12.444304
2163.000000	12.477092
2162.000000	12.514153
2161.000000	12.546842
2160.000000	12.605166
2159.000000	12.641730
2158.000000	12.666073
2157.000000	12.713368
2156.000000	12.798022
2155.000000	12.847999
2154.000000	12.892313
2153.000000	12.935733
2152.000000	12.987300
2151.000000	13.058640
2150.000000	13.112493
2149.000000	13.175387
2148.000000	13.213242
2147.000000	13.269678
2146.000000	13.324624
2145.000000	13.379470
2144.000000	13.418915
2143.000000	13.467899
2142.000000	13.525627
2141.000000	13.574114
2140.000000	13.613659
2139.000000	13.664332
2138.000000	13.718383
2137.000000	13.747098
2136.000000	13.776011
2135.000000	13.813171
2134.000000	13.842582
2133.000000	13.862155
2132.000000	13.891466
2131.000000	13.910543
2130.000000	13.925844
2129.000000	13.953665
2128.000000	13.985957
2127.000000	13.996290
2126.000000	13.989136
2125.000000	13.990626
2124.000000	13.996190
2123.000000	13.998178
2122.000000	14.004636
2121.000000	13.989931
2120.000000	13.986255
2119.000000	13.982876
2118.000000	13.958533
2117.000000	13.949194
2116.000000	13.935880
2115.000000	13.918293
2114.000000	13.903687
2113.000000	13.877755
2112.000000	13.859175
2111.000000	13.843675
2110.000000	13.830261
2109.000000	13.805223
2108.000000	13.777899
2107.000000	13.758027
2106.000000	13.735970
2105.000000	13.708050
2104.000000	13.694139
2103.000000	13.685793
2102.000000	13.669200
2101.000000	13.655191
2100.000000	13.633133
2099.000000	13.606704
2098.000000	13.577790
2097.000000	13.553149
2096.000000	13.534172
2095.000000	13.521950
2094.000000	13.514300
2093.000000	13.494329
2092.000000	13.486082
2091.000000	13.487970
2090.000000	13.467005
2089.000000	13.447034
2088.000000	13.446438
2087.000000	13.433819
2086.000000	13.407886
2085.000000	13.400335
2084.000000	13.392387
2083.000000	13.371024
2082.000000	13.356220
2081.000000	13.323829
2080.000000	13.302963
2079.000000	13.292133
2078.000000	13.275143
2077.000000	13.248217
2076.000000	13.215627
2075.000000	13.189098
2074.000000	13.159489
2073.000000	13.123124
2072.000000	13.087851
2071.000000	13.057348
2070.000000	13.024560
2069.000000	13.001409
2068.000000	12.969316
2067.000000	12.923512
2066.000000	12.893108
2065.000000	12.866679
2064.000000	12.838262
2063.000000	12.818589
2062.000000	12.785800
2061.000000	12.784310
2060.000000	12.778050
2059.000000	12.783217
2058.000000	12.774573
2057.000000	12.774474
2056.000000	12.806268
2055.000000	12.830313
2054.000000	12.863002
2053.000000	12.920730
2052.000000	12.979153
2051.000000	13.053275
2050.000000	13.152335
2049.000000	13.248316
2048.000000	13.360194
2047.000000	13.464223
2046.000000	13.564277
2045.000000	13.688079
2044.000000	13.821816
2043.000000	13.967575
2042.000000	14.111546
2041.000000	14.233460
2040.000000	14.378623
2039.000000	14.516334
2038.000000	14.619071
2037.000000	14.732738
2036.000000	14.848789
2035.000000	14.970703
2034.000000	15.091026
2033.000000	15.190882
2032.000000	15.289247
2031.000000	15.397548
2030.000000	15.487866
2029.000000	15.572619
2028.000000	15.663631
2027.000000	15.725929
2026.000000	15.812968
2025.000000	15.884407
2024.000000	15.958827
2023.000000	16.031160
2022.000000	16.095545
2021.000000	16.163009
2020.000000	16.214775
2019.000000	16.268429
2018.000000	16.320592
2017.000000	16.382493
2016.000000	16.444195
2015.000000	16.481156
2014.000000	16.524477
2013.000000	16.574852
2012.000000	16.599592
2011.000000	16.621849
2010.000000	16.662288
2009.000000	16.683054
2008.000000	16.688022
2007.000000	16.714550
2006.000000	16.720512
2005.000000	16.717134
2004.000000	16.739092
2003.000000	16.713358
2002.000000	16.699349
2001.000000	16.687624
2000.000000	16.694182
1999.000000	16.641820
1998.000000	16.638541
1997.000000	16.584390
1996.000000	16.585881
1995.000000	16.543653
1994.000000	16.525172
1993.000000	16.470525
1992.000000	16.431775
1991.000000	16.350798
1990.000000	16.316717
1989.000000	16.283631
1988.000000	16.225208
1987.000000	16.171852
1986.000000	16.107666
1985.000000	16.043779
1984.000000	16.005128
1983.000000	15.934285
1982.000000	15.860163
1981.000000	15.812769
1980.000000	15.752458
1979.000000	15.692346
1978.000000	15.634122
1977.000000	15.560696
1976.000000	15.485779
1975.000000	15.428052
1974.000000	15.371417
1973.000000	15.317068
1972.000000	15.278020
1971.000000	15.202805
1970.000000	15.148058
1969.000000	15.084568
1968.000000	15.022369
1967.000000	14.972094
1966.000000	14.900456
1965.000000	14.859023
1964.000000	14.816696
1963.000000	14.753802
1962.000000	14.684748
1961.000000	14.623244
1960.000000	14.553097
1959.000000	14.499642
1958.000000	14.462382
1957.000000	14.386572
1956.000000	14.332520
1955.000000	14.277575
1954.000000	14.213091
1953.000000	14.151787
1952.000000	14.101213
1951.000000	14.060873
1950.000000	14.002053
1949.000000	13.946610
1948.000000	13.901800
1947.000000	13.842284
1946.000000	13.843575
1945.000000	13.806614
1944.000000	13.731300
1943.000000	13.738056
1942.000000	13.722954
1941.000000	13.701492
1940.000000	13.696822
1939.000000	13.677646
1938.000000	13.686290
1937.000000	13.694636
1936.000000	13.692450
1935.000000	13.719774
1934.000000	13.764386
1933.000000	13.787636
1932.000000	13.821418
1931.000000	13.897428
1930.000000	13.965588
1929.000000	14.015168
1928.000000	14.102902
1927.000000	14.173844
1926.000000	14.264261
1925.000000	14.365806
1924.000000	14.470430
1923.000000	14.591251
1922.000000	14.723696
1921.000000	14.864587
1920.000000	14.982924
1919.000000	15.123517
1918.000000	15.281000
1917.000000	15.437888
1916.000000	15.634420
1915.000000	15.796574
1914.000000	16.005625
1913.000000	16.207919
1912.000000	16.363615
1911.000000	16.560445
1910.000000	16.791256
1909.000000	16.983614
1908.000000	17.205483
1907.000000	17.462524
1906.000000	17.712611
1905.000000	17.966969
1904.000000	18.208312
1903.000000	18.442402
1902.000000	18.707292
1901.000000	18.975561
1900.000000	19.231907
1899.000000	19.496898
1898.000000	19.764372
1897.000000	20.068509
1896.000000	20.337573
1895.000000	20.617666
1894.000000	20.883749
1893.000000	21.167220
1892.000000	21.475829
1891.000000	21.770527
1890.000000	22.058072
1889.000000	22.319386
1888.000000	22.628392
1887.000000	22.962635
1886.000000	23.324103
1885.000000	23.702660
1884.000000	24.139342
1883.000000	24.577118
1882.000000	24.997605
1881.000000	25.477011
1880.000000	25.930982
1879.000000	26.353257
1878.000000	26.765398
1877.000000	27.166609
1876.000000	27.512577
1875.000000	27.860134
1874.000000	28.168743
1873.000000	28.447345
1872.000000	28.694153
1871.000000	28.906781
1870.000000	29.075393
1869.000000	29.245098
1868.000000	29.364825
1867.000000	29.469053
1866.000000	29.569703
1865.000000	29.663200
1864.000000	29.760472
1863.000000	29.856056
1862.000000	29.930078
1861.000000	29.993867
1860.000000	30.034405
1859.000000	30.025562
1858.000000	30.010062
1857.000000	30.022383
1856.000000	30.033411
1855.000000	30.013142
1854.000000	29.958892
1853.000000	29.888745
1852.000000	29.862812
1851.000000	29.874835
1850.000000	29.884870
1849.000000	29.846418
1848.000000	29.751530
1847.000000	29.609944
1846.000000	29.500252
1845.000000	29.470742
1844.000000	29.476704
1843.000000	29.497966
1842.000000	29.472431
1841.000000	29.407848
1840.000000	29.341873
1839.000000	29.294678
1838.000000	29.250761
1837.000000	29.173261
1836.000000	29.092681
1835.000000	29.005345
1834.000000	28.924765
1833.000000	28.871707
1832.000000	28.812787
1831.000000	28.744727
1830.000000	28.668320
1829.000000	28.584957
1828.000000	28.485201
1827.000000	28.405714
1826.000000	28.340336
1825.000000	28.285192
1824.000000	28.255781
1823.000000	28.268003
1822.000000	28.277740
1821.000000	28.236108
1820.000000	28.158211
1819.000000	28.111612
1818.000000	28.097900
1817.000000	28.097602
1816.000000	28.101576
1815.000000	28.088660
1814.000000	28.093429
1813.000000	28.093528
1812.000000	28.051698
1811.000000	27.995461
1810.000000	27.961480
1809.000000	27.947173
1808.000000	27.928096
1807.000000	27.872654
1806.000000	27.816913
1805.000000	27.762166
1804.000000	27.710003
1803.000000	27.687250
1802.000000	27.653865
1801.000000	27.589977
1800.000000	27.532548
1799.000000	27.476212
1798.000000	27.431003
1797.000000	27.402984
1796.000000	27.349032
1795.000000	27.297962
1794.000000	27.255535
1793.000000	27.178036
1792.000000	27.119811
1791.000000	27.070827
1790.000000	27.021347
1789.000000	26.970673
1788.000000	26.908177
1787.000000	26.843097
1786.000000	26.764007
1785.000000	26.670411
1784.000000	26.599469
1783.000000	26.516802
1782.000000	26.438209
1781.000000	26.363094
1780.000000	26.275956
1779.000000	26.178485
1778.000000	26.070681
1777.000000	25.978078
1776.000000	25.860040
1775.000000	25.727495
1774.000000	25.574383
1773.000000	25.443627
1772.000000	25.307008
1771.000000	25.159063
1770.000000	25.025425
1769.000000	24.898246
1768.000000	24.768185
1767.000000	24.654618
1766.000000	24.576124
1765.000000	24.508659
1764.000000	24.444176
1763.000000	24.415560
1762.000000	24.442288
1761.000000	24.469611
1760.000000	24.526643
1759.000000	24.593611
1758.000000	24.629877
1757.000000	24.688300
1756.000000	24.737781
1755.000000	24.768781
1754.000000	24.763118
1753.000000	24.731521
1752.000000	24.699130
1751.000000	24.668627
1750.000000	24.604044
1749.000000	24.521179
1748.000000	24.461166
1747.000000	24.352368
1746.000000	24.193791
1745.000000	24.058067
1744.000000	23.898993
1743.000000	23.699381
1742.000000	23.492417
1741.000000	23.254154
1740.000000	23.009433
1739.000000	22.780510
1738.000000	22.579905
1737.000000	22.414174
1736.000000	22.269706
1735.000000	22.183661
1734.000000	22.144415
1733.000000	22.145408
1732.000000	22.190120
1731.000000	22.265533
1730.000000	22.383870
1729.000000	22.471305
1728.000000	22.575235
1727.000000	22.683834
1726.000000	22.749013
1725.000000	22.819260
1724.000000	22.870728
1723.000000	22.903020
1722.000000	22.924879
1721.000000	22.952500
1720.000000	22.975254
1719.000000	23.020263
1718.000000	23.074712
1717.000000	23.141282
1716.000000	23.213715
1715.000000	23.286843
1714.000000	23.386202
1713.000000	23.458039
1712.000000	23.505135
1711.000000	23.551535
1710.000000	23.575282
1709.000000	23.577070
1708.000000	23.561968
1707.000000	23.551337
1706.000000	23.523615
1705.000000	23.477016
1704.000000	23.398423
1703.000000	23.312676
1702.000000	23.215901
1701.000000	23.077395
1700.000000	22.881360
1699.000000	22.749610
1698.000000	22.607725
1697.000000	22.499523
1696.000000	22.468027
1695.000000	22.448652
1694.000000	22.500219
1693.000000	22.636539
1692.000000	22.774946
1691.000000	22.937299
1690.000000	23.086238
1689.000000	23.156484
1688.000000	23.208350
1687.000000	23.240443
1686.000000	23.269555
1685.000000	23.316353
1684.000000	23.433000
1683.000000	23.684378
1682.000000	24.035512
1681.000000	24.539958
1680.000000	25.061393
1679.000000	25.635886
1678.000000	26.172921
1677.000000	26.667530
1676.000000	27.130145
1675.000000	27.531356
1674.000000	27.881894
1673.000000	28.191794
1672.000000	28.437906
1671.000000	28.688489
1670.000000	28.893268
1669.000000	29.072313
1668.000000	29.248178
1667.000000	29.385194
1666.000000	29.492601
1665.000000	29.624351
1664.000000	29.709303
1663.000000	29.801806
1662.000000	29.897687
1661.000000	29.948658
1660.000000	29.991780
1659.000000	30.039472
1658.000000	30.096504
1657.000000	30.132870
1656.000000	30.109719
1655.000000	30.137440
1654.000000	30.135155
1653.000000	30.134956
1652.000000	30.100081
1651.000000	30.078024
1650.000000	30.056661
1649.000000	30.025761
1648.000000	29.987905
1647.000000	29.957601
1646.000000	29.895799
1645.000000	29.835091
1644.000000	29.778456
1643.000000	29.732155
1642.000000	29.682674
1641.000000	29.622463
1640.000000	29.561258
1639.000000	29.504127
1638.000000	29.442425
1637.000000	29.382114
1636.000000	29.305806
1635.000000	29.229300
1634.000000	29.156669
1633.000000	29.080560
1632.000000	29.008624
1631.000000	28.930528
1630.000000	28.866044
1629.000000	28.786060
1628.000000	28.691371
1627.000000	28.610095
1626.000000	28.544320
1625.000000	28.462448
1624.000000	28.373919
1623.000000	28.294134
1622.000000	28.211070
1621.000000	28.128900
1620.000000	28.050208
1619.000000	27.978173
1618.000000	27.907727
1617.000000	27.834500
1616.000000	27.758987
1615.000000	27.685064
1614.000000	27.608756
1613.000000	27.534436
1612.000000	27.473032
1611.000000	27.402090
