PE UV       SUBTECH     SPECTRUM    ASCII       PEDS        4.00        
   -1
CICIMAUCR0021-1.Sample.ASC
24/03/08
13:20:54.00
24/03/08
13:20:54.00
Vinicio Soto Monge
C. resplendens. 
250,000000
1
Lambda 1050
1050L1511233
PerkinElmer UV WinLab 6.3.2.0749 / 2.02.05 Lambda 900 UV/VIS/NIR, Aug  7 2015 09:38:08

0
0
3350/servo 860,8/2
0
0
UV/VIS
1
1
1
DoubleDePol,CommonBeamDepol,RBeamAtt,SBeamAtt,60mm sphere, WB InGaAs Detector
0
0
0
0
Program
Program
3350/servo 860,8/2
3350/0,2 860,8/0,2
3350/0,2 860,8/0,2
0
15.00
 
 
 
0
 
860,8
319,2
860,8
Front
100
on
S:100 R:100
0
0
0
0
 
0
 
 
 
0
 
 
0
0
0
0
0
 
 
 
 
0
0


0
0
#HDR
-1
-1
#GR
nm
%R
1.0
0.0
2500,000000
-1,000000
2251
8
31,927300
2,181000
#DATA
2500.000000	2.532267
2499.000000	2.445440
2498.000000	2.367210
2497.000000	2.564934
2496.000000	2.527431
2495.000000	2.546989
2494.000000	2.534846
2493.000000	2.455541
2492.000000	2.355927
2491.000000	2.396546
2490.000000	2.358398
2489.000000	2.407400
2488.000000	2.422659
2487.000000	2.415781
2486.000000	2.429751
2485.000000	2.357216
2484.000000	2.364524
2483.000000	2.361945
2482.000000	2.356572
2481.000000	2.389347
2480.000000	2.343677
2479.000000	2.391066
2478.000000	2.358076
2477.000000	2.405465
2476.000000	2.344214
2475.000000	2.357969
2474.000000	2.352703
2473.000000	2.425130
2472.000000	2.354208
2471.000000	2.360655
2470.000000	2.395687
2469.000000	2.378816
2468.000000	2.403316
2467.000000	2.425345
2466.000000	2.351414
2465.000000	2.381072
2464.000000	2.399878
2463.000000	2.429644
2462.000000	2.459947
2461.000000	2.439207
2460.000000	2.458765
2459.000000	2.471660
2458.000000	2.482621
2457.000000	2.501104
2456.000000	2.502608
2455.000000	2.515933
2454.000000	2.535061
2453.000000	2.534094
2452.000000	2.570844
2451.000000	2.587178
2450.000000	2.644131
2449.000000	2.665838
2448.000000	2.669169
2447.000000	2.696141
2446.000000	2.705920
2445.000000	2.723651
2444.000000	2.762658
2443.000000	2.780174
2442.000000	2.803493
2441.000000	2.796293
2440.000000	2.829283
2439.000000	2.852924
2438.000000	2.880863
2437.000000	2.908158
2436.000000	2.910522
2435.000000	2.943619
2434.000000	2.952431
2433.000000	2.970699
2432.000000	3.006053
2431.000000	3.016906
2430.000000	3.026040
2429.000000	3.033455
2428.000000	3.056236
2427.000000	3.068916
2426.000000	3.086862
2425.000000	3.105345
2424.000000	3.138549
2423.000000	3.179814
2422.000000	3.226773
2421.000000	3.230964
2420.000000	3.271906
2419.000000	3.283081
2418.000000	3.295439
2417.000000	3.301457
2416.000000	3.314352
2415.000000	3.332727
2414.000000	3.350673
2413.000000	3.386134
2412.000000	3.399137
2411.000000	3.426646
2410.000000	3.419017
2409.000000	3.415041
2408.000000	3.457595
2407.000000	3.483277
2406.000000	3.473713
2405.000000	3.488972
2404.000000	3.509282
2403.000000	3.512291
2402.000000	3.535932
2401.000000	3.568599
2400.000000	3.560325
2399.000000	3.578701
2398.000000	3.594605
2397.000000	3.605028
2396.000000	3.615022
2395.000000	3.652202
2394.000000	3.681969
2393.000000	3.689491
2392.000000	3.699807
2391.000000	3.695723
2390.000000	3.710875
2389.000000	3.724307
2388.000000	3.739137
2387.000000	3.755900
2386.000000	3.762670
2385.000000	3.752999
2384.000000	3.768365
2383.000000	3.772556
2382.000000	3.767506
2381.000000	3.766968
2380.000000	3.779434
2379.000000	3.799099
2378.000000	3.791039
2377.000000	3.760951
2376.000000	3.755470
2375.000000	3.770729
2374.000000	3.755578
2373.000000	3.746551
2372.000000	3.762885
2371.000000	3.764174
2370.000000	3.745477
2369.000000	3.726242
2368.000000	3.717537
2367.000000	3.703998
2366.000000	3.697335
2365.000000	3.695508
2364.000000	3.664453
2363.000000	3.632323
2362.000000	3.606210
2361.000000	3.600515
2360.000000	3.583106
2359.000000	3.548505
2358.000000	3.533998
2357.000000	3.524219
2356.000000	3.507026
2355.000000	3.491766
2354.000000	3.468878
2353.000000	3.473821
2352.000000	3.474788
2351.000000	3.466943
2350.000000	3.481021
2349.000000	3.497462
2348.000000	3.518954
2347.000000	3.518416
2346.000000	3.527658
2345.000000	3.555167
2344.000000	3.580742
2343.000000	3.604813
2342.000000	3.601912
2341.000000	3.624586
2340.000000	3.655534
2339.000000	3.673049
2338.000000	3.686697
2337.000000	3.675199
2336.000000	3.670793
2335.000000	3.666065
2334.000000	3.658972
2333.000000	3.648979
2332.000000	3.647367
2331.000000	3.634472
2330.000000	3.618138
2329.000000	3.586867
2328.000000	3.585578
2327.000000	3.574940
2326.000000	3.525186
2325.000000	3.497139
2324.000000	3.489080
2323.000000	3.445774
2322.000000	3.409560
2321.000000	3.375389
2320.000000	3.348201
2319.000000	3.304573
2318.000000	3.262019
2317.000000	3.254068
2316.000000	3.217102
2315.000000	3.163695
2314.000000	3.119851
2313.000000	3.092342
2312.000000	3.049573
2311.000000	3.019485
2310.000000	3.002721
2309.000000	2.995414
2308.000000	2.985528
2307.000000	2.958771
2306.000000	2.956514
2305.000000	2.945338
2304.000000	2.959201
2303.000000	2.980477
2302.000000	2.998745
2301.000000	3.012608
2300.000000	3.032058
2299.000000	3.056343
2298.000000	3.077298
2297.000000	3.115446
2296.000000	3.122753
2295.000000	3.141881
2294.000000	3.153486
2293.000000	3.185724
2292.000000	3.202272
2291.000000	3.205174
2290.000000	3.205711
2289.000000	3.193568
2288.000000	3.188303
2287.000000	3.180351
2286.000000	3.157784
2285.000000	3.130920
2284.000000	3.135218
2283.000000	3.105882
2282.000000	3.089870
2281.000000	3.061286
2280.000000	3.046457
2279.000000	3.020237
2278.000000	2.985206
2277.000000	2.974782
2276.000000	2.976179
2275.000000	2.932121
2274.000000	2.908695
2273.000000	2.912563
2272.000000	2.903967
2271.000000	2.903644
2270.000000	2.899561
2269.000000	2.905364
2268.000000	2.915142
2267.000000	2.901065
2266.000000	2.927823
2265.000000	2.955332
2264.000000	2.981445
2263.000000	3.021312
2262.000000	3.056988
2261.000000	3.116413
2260.000000	3.173796
2259.000000	3.248372
2258.000000	3.307152
2257.000000	3.368726
2256.000000	3.416008
2255.000000	3.498429
2254.000000	3.563871
2253.000000	3.628884
2252.000000	3.681861
2251.000000	3.758909
2250.000000	3.817582
2249.000000	3.871633
2248.000000	3.939870
2247.000000	3.957385
2246.000000	4.025622
2245.000000	4.075912
2244.000000	4.092676
2243.000000	4.116210
2242.000000	4.171551
2241.000000	4.232910
2240.000000	4.246127
2239.000000	4.288788
2238.000000	4.297815
2237.000000	4.326077
2236.000000	4.347139
2235.000000	4.384104
2234.000000	4.389155
2233.000000	4.400116
2232.000000	4.424939
2231.000000	4.421607
2230.000000	4.439016
2229.000000	4.431386
2228.000000	4.430956
2227.000000	4.425369
2226.000000	4.402910
2225.000000	4.409680
2224.000000	4.366803
2223.000000	4.337575
2222.000000	4.312752
2221.000000	4.285242
2220.000000	4.274926
2219.000000	4.271273
2218.000000	4.228934
2217.000000	4.214534
2216.000000	4.153068
2215.000000	4.157366
2214.000000	4.125881
2213.000000	4.119863
2212.000000	4.115027
2211.000000	4.109547
2210.000000	4.117929
2209.000000	4.123517
2208.000000	4.143934
2207.000000	4.158871
2206.000000	4.186917
2205.000000	4.223346
2204.000000	4.270735
2203.000000	4.318554
2202.000000	4.388940
2201.000000	4.426013
2200.000000	4.489414
2199.000000	4.548731
2198.000000	4.613636
2197.000000	4.704117
2196.000000	4.741405
2195.000000	4.801904
2194.000000	4.886367
2193.000000	4.952669
2192.000000	5.001025
2191.000000	5.049167
2190.000000	5.091828
2189.000000	5.144590
2188.000000	5.183168
2187.000000	5.201329
2186.000000	5.232921
2185.000000	5.254628
2184.000000	5.298901
2183.000000	5.323294
2182.000000	5.318244
2181.000000	5.341777
2180.000000	5.338339
2179.000000	5.341025
2178.000000	5.358863
2177.000000	5.380462
2176.000000	5.406253
2175.000000	5.399483
2174.000000	5.404426
2173.000000	5.415387
2172.000000	5.443111
2171.000000	5.445045
2170.000000	5.454179
2169.000000	5.459445
2168.000000	5.457403
2167.000000	5.491897
2166.000000	5.504577
2165.000000	5.507264
2164.000000	5.525317
2163.000000	5.538534
2162.000000	5.564217
2161.000000	5.554653
2160.000000	5.579261
2159.000000	5.593661
2158.000000	5.617839
2157.000000	5.616872
2156.000000	5.627510
2155.000000	5.648787
2154.000000	5.672106
2153.000000	5.689192
2152.000000	5.705525
2151.000000	5.745070
2150.000000	5.749368
2149.000000	5.764413
2148.000000	5.779564
2147.000000	5.807504
2146.000000	5.830070
2145.000000	5.844899
2144.000000	5.851777
2143.000000	5.873376
2142.000000	5.880361
2141.000000	5.907655
2140.000000	5.921517
2139.000000	5.931511
2138.000000	5.937206
2137.000000	5.954292
2136.000000	5.967187
2135.000000	5.975892
2134.000000	5.967510
2133.000000	5.974495
2132.000000	5.992763
2131.000000	5.997813
2130.000000	6.002434
2129.000000	6.010708
2128.000000	6.015329
2127.000000	6.013072
2126.000000	6.011998
2125.000000	6.015436
2124.000000	6.015651
2123.000000	6.018660
2122.000000	6.010601
2121.000000	5.999855
2120.000000	6.002112
2119.000000	6.008667
2118.000000	6.015866
2117.000000	6.000607
2116.000000	5.971271
2115.000000	5.966113
2114.000000	5.969229
2113.000000	5.966865
2112.000000	5.959128
2111.000000	5.949779
2110.000000	5.938496
2109.000000	5.930651
2108.000000	5.932371
2107.000000	5.917756
2106.000000	5.896372
2105.000000	5.901315
2104.000000	5.898521
2103.000000	5.890247
2102.000000	5.881865
2101.000000	5.864994
2100.000000	5.861448
2099.000000	5.855968
2098.000000	5.846081
2097.000000	5.846189
2096.000000	5.849950
2095.000000	5.847049
2094.000000	5.827061
2093.000000	5.801164
2092.000000	5.796221
2091.000000	5.809223
2090.000000	5.803528
2089.000000	5.798047
2088.000000	5.796865
2087.000000	5.788591
2086.000000	5.777630
2085.000000	5.779457
2084.000000	5.787946
2083.000000	5.776878
2082.000000	5.774836
2081.000000	5.780961
2080.000000	5.773332
2079.000000	5.757213
2078.000000	5.760329
2077.000000	5.745285
2076.000000	5.726910
2075.000000	5.729489
2074.000000	5.729059
2073.000000	5.731745
2072.000000	5.720677
2071.000000	5.710683
2070.000000	5.697788
2069.000000	5.702087
2068.000000	5.700475
2067.000000	5.691233
2066.000000	5.677586
2065.000000	5.686613
2064.000000	5.684463
2063.000000	5.681455
2062.000000	5.688869
2061.000000	5.676834
2060.000000	5.672428
2059.000000	5.686935
2058.000000	5.703269
2057.000000	5.717238
2056.000000	5.727984
2055.000000	5.746897
2054.000000	5.769678
2053.000000	5.797080
2052.000000	5.826954
2051.000000	5.874451
2050.000000	5.891322
2049.000000	5.932371
2048.000000	5.996846
2047.000000	6.035101
2046.000000	6.096890
2045.000000	6.165771
2044.000000	6.230784
2043.000000	6.277958
2042.000000	6.346732
2041.000000	6.412174
2040.000000	6.472136
2039.000000	6.537364
2038.000000	6.596789
2037.000000	6.651163
2036.000000	6.704032
2035.000000	6.769475
2034.000000	6.818046
2033.000000	6.869304
2032.000000	6.928084
2031.000000	6.984715
2030.000000	7.026946
2029.000000	7.078097
2028.000000	7.127743
2027.000000	7.168362
2026.000000	7.195334
2025.000000	7.233912
2024.000000	7.289790
2023.000000	7.317622
2022.000000	7.362433
2021.000000	7.406276
2020.000000	7.431421
2019.000000	7.466990
2018.000000	7.491061
2017.000000	7.532110
2016.000000	7.553602
2015.000000	7.580681
2014.000000	7.604215
2013.000000	7.653001
2012.000000	7.651819
2011.000000	7.684057
2010.000000	7.682015
2009.000000	7.687495
2008.000000	7.728222
2007.000000	7.727148
2006.000000	7.733918
2005.000000	7.749499
2004.000000	7.763684
2003.000000	7.733488
2002.000000	7.741655
2001.000000	7.724676
2000.000000	7.729727
1999.000000	7.711889
1998.000000	7.719626
1997.000000	7.710922
1996.000000	7.692546
1995.000000	7.659234
1994.000000	7.658911
1993.000000	7.643437
1992.000000	7.613134
1991.000000	7.587989
1990.000000	7.593469
1989.000000	7.548766
1988.000000	7.525448
1987.000000	7.505353
1986.000000	7.473545
1985.000000	7.443134
1984.000000	7.413583
1983.000000	7.368020
1982.000000	7.368343
1981.000000	7.345024
1980.000000	7.312357
1979.000000	7.303975
1978.000000	7.241112
1977.000000	7.193615
1976.000000	7.172660
1975.000000	7.142787
1974.000000	7.134835
1973.000000	7.098191
1972.000000	7.072724
1971.000000	7.051554
1970.000000	7.016200
1969.000000	7.000726
1968.000000	6.939475
1967.000000	6.946245
1966.000000	6.915082
1965.000000	6.869841
1964.000000	6.856194
1963.000000	6.835777
1962.000000	6.795695
1961.000000	6.768830
1960.000000	6.748520
1959.000000	6.706074
1958.000000	6.660942
1957.000000	6.679962
1956.000000	6.618818
1955.000000	6.613337
1954.000000	6.584861
1953.000000	6.543489
1952.000000	6.537149
1951.000000	6.524791
1950.000000	6.467838
1949.000000	6.448925
1948.000000	6.452364
1947.000000	6.428078
1946.000000	6.422920
1945.000000	6.401751
1944.000000	6.376498
1943.000000	6.377143
1942.000000	6.364893
1941.000000	6.392617
1940.000000	6.372952
1939.000000	6.345228
1938.000000	6.356403
1937.000000	6.366397
1936.000000	6.379077
1935.000000	6.373597
1934.000000	6.393369
1933.000000	6.435385
1932.000000	6.477294
1931.000000	6.492768
1930.000000	6.536827
1929.000000	6.551226
1928.000000	6.598078
1927.000000	6.634507
1926.000000	6.672440
1925.000000	6.718539
1924.000000	6.779361
1923.000000	6.862319
1922.000000	6.931953
1921.000000	7.005777
1920.000000	7.060258
1919.000000	7.112376
1918.000000	7.187060
1917.000000	7.280871
1916.000000	7.395208
1915.000000	7.489986
1914.000000	7.599379
1913.000000	7.655043
1912.000000	7.762932
1911.000000	7.830738
1910.000000	7.969252
1909.000000	8.073273
1908.000000	8.193412
1907.000000	8.319676
1906.000000	8.423911
1905.000000	8.507729
1904.000000	8.624644
1903.000000	8.767027
1902.000000	8.904574
1901.000000	9.009561
1900.000000	9.144744
1899.000000	9.282614
1898.000000	9.405332
1897.000000	9.547930
1896.000000	9.694289
1895.000000	9.835060
1894.000000	9.963795
1893.000000	10.110799
1892.000000	10.238782
1891.000000	10.351399
1890.000000	10.464231
1889.000000	10.597910
1888.000000	10.750071
1887.000000	10.922113
1886.000000	11.094584
1885.000000	11.251152
1884.000000	11.445008
1883.000000	11.645526
1882.000000	11.839596
1881.000000	12.061391
1880.000000	12.271473
1879.000000	12.482522
1878.000000	12.692067
1877.000000	12.856586
1876.000000	13.010145
1875.000000	13.160158
1874.000000	13.296953
1873.000000	13.391194
1872.000000	13.488659
1871.000000	13.558615
1870.000000	13.580214
1869.000000	13.618040
1868.000000	13.701965
1867.000000	13.744733
1866.000000	13.793197
1865.000000	13.856598
1864.000000	13.923545
1863.000000	13.976092
1862.000000	13.997477
1861.000000	14.002635
1860.000000	13.993715
1859.000000	13.965776
1858.000000	13.916023
1857.000000	13.914841
1856.000000	13.919354
1855.000000	13.892167
1854.000000	13.855094
1853.000000	13.807060
1852.000000	13.786320
1851.000000	13.790618
1850.000000	13.793412
1849.000000	13.787395
1848.000000	13.698096
1847.000000	13.586017
1846.000000	13.515309
1845.000000	13.518962
1844.000000	13.560871
1843.000000	13.573229
1842.000000	13.562376
1841.000000	13.511655
1840.000000	13.455992
1839.000000	13.427837
1838.000000	13.408172
1837.000000	13.360138
1836.000000	13.301681
1835.000000	13.253969
1834.000000	13.222591
1833.000000	13.215606
1832.000000	13.211523
1831.000000	13.170259
1830.000000	13.112983
1829.000000	13.080745
1828.000000	13.025189
1827.000000	12.970923
1826.000000	12.932237
1825.000000	12.892048
1824.000000	12.893230
1823.000000	12.912143
1822.000000	12.914077
1821.000000	12.885815
1820.000000	12.831871
1819.000000	12.787920
1818.000000	12.797699
1817.000000	12.824886
1816.000000	12.843906
1815.000000	12.825961
1814.000000	12.808337
1813.000000	12.826498
1812.000000	12.821447
1811.000000	12.793078
1810.000000	12.749665
1809.000000	12.739886
1808.000000	12.743970
1807.000000	12.730537
1806.000000	12.685619
1805.000000	12.640164
1804.000000	12.622111
1803.000000	12.617920
1802.000000	12.604166
1801.000000	12.565373
1800.000000	12.519596
1799.000000	12.510569
1798.000000	12.492946
1797.000000	12.467693
1796.000000	12.444697
1795.000000	12.432447
1794.000000	12.414608
1793.000000	12.387529
1792.000000	12.345405
1791.000000	12.312093
1790.000000	12.291031
1789.000000	12.269646
1788.000000	12.230961
1787.000000	12.203774
1786.000000	12.173793
1785.000000	12.133496
1784.000000	12.081164
1783.000000	12.029583
1782.000000	11.988534
1781.000000	11.930829
1780.000000	11.884192
1779.000000	11.865386
1778.000000	11.807788
1777.000000	11.738478
1776.000000	11.695064
1775.000000	11.624249
1774.000000	11.546019
1773.000000	11.497447
1772.000000	11.409654
1771.000000	11.343674
1770.000000	11.268453
1769.000000	11.186247
1768.000000	11.129723
1767.000000	11.078680
1766.000000	11.013346
1765.000000	10.967676
1764.000000	10.963485
1763.000000	10.952631
1762.000000	10.940166
1761.000000	10.966816
1760.000000	11.000665
1759.000000	11.066538
1758.000000	11.091468
1757.000000	11.111240
1756.000000	11.136063
1755.000000	11.131335
1754.000000	11.138750
1753.000000	11.135204
1752.000000	11.141007
1751.000000	11.131980
1750.000000	11.081797
1749.000000	11.047088
1748.000000	10.989167
1747.000000	10.931892
1746.000000	10.880634
1745.000000	10.797246
1744.000000	10.705691
1743.000000	10.599199
1742.000000	10.514092
1741.000000	10.364294
1740.000000	10.245660
1739.000000	10.115742
1738.000000	9.998719
1737.000000	9.887607
1736.000000	9.828290
1735.000000	9.751672
1734.000000	9.741678
1733.000000	9.748233
1732.000000	9.781868
1731.000000	9.820123
1730.000000	9.859883
1729.000000	9.948536
1728.000000	10.000439
1727.000000	10.043960
1726.000000	10.093606
1725.000000	10.136697
1724.000000	10.156254
1723.000000	10.162917
1722.000000	10.153460
1721.000000	10.174844
1720.000000	10.189566
1719.000000	10.217721
1718.000000	10.212777
1717.000000	10.224383
1716.000000	10.259092
1715.000000	10.288428
1714.000000	10.310135
1713.000000	10.340546
1712.000000	10.359029
1711.000000	10.375040
1710.000000	10.367518
1709.000000	10.386968
1708.000000	10.371709
1707.000000	10.346241
1706.000000	10.322385
1705.000000	10.322600
1704.000000	10.307341
1703.000000	10.238138
1702.000000	10.211918
1701.000000	10.130464
1700.000000	10.043637
1699.000000	9.965515
1698.000000	9.895022
1697.000000	9.836994
1696.000000	9.788745
1695.000000	9.788960
1694.000000	9.825926
1693.000000	9.893195
1692.000000	9.958530
1691.000000	10.030742
1690.000000	10.120040
1689.000000	10.164528
1688.000000	10.204718
1687.000000	10.211380
1686.000000	10.199560
1685.000000	10.209124
1684.000000	10.253397
1683.000000	10.374288
1682.000000	10.532038
1681.000000	10.747600
1680.000000	11.047625
1679.000000	11.333788
1678.000000	11.628870
1677.000000	11.883332
1676.000000	12.138547
1675.000000	12.355076
1674.000000	12.504014
1673.000000	12.643711
1672.000000	12.766321
1671.000000	12.903653
1670.000000	13.000904
1669.000000	13.098046
1668.000000	13.180575
1667.000000	13.257623
1666.000000	13.305012
1665.000000	13.384209
1664.000000	13.413116
1663.000000	13.427622
1662.000000	13.475549
1661.000000	13.490701
1660.000000	13.498868
1659.000000	13.524765
1658.000000	13.541851
1657.000000	13.546472
1656.000000	13.557648
1655.000000	13.545075
1654.000000	13.545612
1653.000000	13.528634
1652.000000	13.523798
1651.000000	13.542711
1650.000000	13.498115
1649.000000	13.493172
1648.000000	13.465341
1647.000000	13.444601
1646.000000	13.405164
1645.000000	13.382597
1644.000000	13.365726
1643.000000	13.334886
1642.000000	13.298350
1641.000000	13.279007
1640.000000	13.229361
1639.000000	13.204538
1638.000000	13.187774
1637.000000	13.155537
1636.000000	13.109115
1635.000000	13.066453
1634.000000	13.014336
1633.000000	12.984033
1632.000000	12.955878
1631.000000	12.919450
1630.000000	12.874102
1629.000000	12.834020
1628.000000	12.791251
1627.000000	12.733224
1626.000000	12.694861
1625.000000	12.641991
1624.000000	12.598793
1623.000000	12.568167
1622.000000	12.519058
1621.000000	12.485639
1620.000000	12.434703
1619.000000	12.411170
1618.000000	12.373989
1617.000000	12.344330
1616.000000	12.286303
1615.000000	12.244501
1614.000000	12.212801
1613.000000	12.162295
1612.000000	12.132529
1611.000000	12.088578
1610.000000	12.073534
1609.000000	12.040867
1608.000000	11.987889
1607.000000	11.938673
1606.000000	11.915892
1605.000000	11.887201
1604.000000	11.846796
1603.000000	11.811764
1602.000000	11.782536
1601.000000	11.745677
1600.000000	11.710861
1599.000000	11.673465
1598.000000	11.647567
1597.000000	11.621670
1596.000000	11.593301
