PE UV       SUBTECH     SPECTRUM    ASCII       PEDS        4.00        
   -1
CICIMAUCR0108-2.Sample.ASC
24/04/04
14:07:06.00
24/04/04
14:07:06.00
Vinicio Soto Monge
C. resplendens
250,000000
1
Lambda 1050
1050L1511233
PerkinElmer UV WinLab 6.3.2.0749 / 2.02.05 Lambda 900 UV/VIS/NIR, Aug  7 2015 09:38:08

0
0
3350/servo 860,8/2
0
0
UV/VIS
1
1
1
DoubleDePol,CommonBeamDepol,RBeamAtt,SBeamAtt,60mm sphere, WB InGaAs Detector
0
0
0
0
Program
Program
3350/servo 860,8/2
3350/0,2 860,8/0,2
3350/0,2 860,8/0,2
0
15.00
 
 
 
0
 
860,8
319,2
860,8
Front
100
on
S:100 R:100
0
0
0
0
 
0
 
 
 
0
 
 
0
0
0
0
0
 
 
 
 
0
0


0
0
#HDR
-1
-1
#GR
nm
%R
1.0
0.0
2500,000000
-1,000000
2251
8
68,305600
5,100600
#DATA
2500.000000	5.404117
2499.000000	5.420826
2498.000000	5.348786
2497.000000	5.260436
2496.000000	5.316668
2495.000000	5.356790
2494.000000	5.261137
2493.000000	5.320570
2492.000000	5.276145
2491.000000	5.311265
2490.000000	5.239325
2489.000000	5.218113
2488.000000	5.299458
2487.000000	5.287652
2486.000000	5.313066
2485.000000	5.259736
2484.000000	5.280548
2483.000000	5.218413
2482.000000	5.249830
2481.000000	5.275745
2480.000000	5.268141
2479.000000	5.215211
2478.000000	5.234722
2477.000000	5.225617
2476.000000	5.251431
2475.000000	5.253933
2474.000000	5.222115
2473.000000	5.237423
2472.000000	5.257435
2471.000000	5.249230
2470.000000	5.244227
2469.000000	5.248830
2468.000000	5.240825
2467.000000	5.259236
2466.000000	5.289453
2465.000000	5.271242
2464.000000	5.278346
2463.000000	5.313166
2462.000000	5.317668
2461.000000	5.363394
2460.000000	5.385606
2459.000000	5.390809
2458.000000	5.415723
2457.000000	5.428030
2456.000000	5.442638
2455.000000	5.463149
2454.000000	5.496268
2453.000000	5.515078
2452.000000	5.538692
2451.000000	5.583917
2450.000000	5.576113
2449.000000	5.598125
2448.000000	5.619137
2447.000000	5.677769
2446.000000	5.721894
2445.000000	5.761616
2444.000000	5.767619
2443.000000	5.800938
2442.000000	5.835958
2441.000000	5.845063
2440.000000	5.876680
2439.000000	5.912300
2438.000000	5.948721
2437.000000	5.956125
2436.000000	5.975135
2435.000000	5.998448
2434.000000	6.020260
2433.000000	6.043273
2432.000000	6.055780
2431.000000	6.078293
2430.000000	6.108810
2429.000000	6.115614
2428.000000	6.133724
2427.000000	6.159038
2426.000000	6.174246
2425.000000	6.173946
2424.000000	6.207065
2423.000000	6.231779
2422.000000	6.231178
2421.000000	6.255692
2420.000000	6.255292
2419.000000	6.269299
2418.000000	6.292412
2417.000000	6.311823
2416.000000	6.318027
2415.000000	6.333535
2414.000000	6.348644
2413.000000	6.348143
2412.000000	6.363552
2411.000000	6.384764
2410.000000	6.404275
2409.000000	6.413980
2408.000000	6.426287
2407.000000	6.433391
2406.000000	6.444797
2405.000000	6.444597
2404.000000	6.468110
2403.000000	6.495726
2402.000000	6.496526
2401.000000	6.522141
2400.000000	6.548255
2399.000000	6.555459
2398.000000	6.568967
2397.000000	6.581274
2396.000000	6.586276
2395.000000	6.582875
2394.000000	6.600784
2393.000000	6.615393
2392.000000	6.632902
2391.000000	6.634503
2390.000000	6.638105
2389.000000	6.643508
2388.000000	6.642008
2387.000000	6.665521
2386.000000	6.672124
2385.000000	6.665321
2384.000000	6.668522
2383.000000	6.679528
2382.000000	6.677227
2381.000000	6.661819
2380.000000	6.651913
2379.000000	6.657116
2378.000000	6.652513
2377.000000	6.653014
2376.000000	6.655315
2375.000000	6.637705
2374.000000	6.614692
2373.000000	6.600184
2372.000000	6.596382
2371.000000	6.585076
2370.000000	6.564364
2369.000000	6.542752
2368.000000	6.521140
2367.000000	6.503330
2366.000000	6.478416
2365.000000	6.446298
2364.000000	6.402774
2363.000000	6.359650
2362.000000	6.323130
2361.000000	6.294013
2360.000000	6.269299
2359.000000	6.227776
2358.000000	6.192557
2357.000000	6.178349
2356.000000	6.166142
2355.000000	6.144630
2354.000000	6.130722
2353.000000	6.119716
2352.000000	6.111812
2351.000000	6.128421
2350.000000	6.144830
2349.000000	6.159338
2348.000000	6.184652
2347.000000	6.202062
2346.000000	6.234480
2345.000000	6.257993
2344.000000	6.267799
2343.000000	6.299817
2342.000000	6.330434
2341.000000	6.346543
2340.000000	6.363352
2339.000000	6.358749
2338.000000	6.355648
2337.000000	6.354747
2336.000000	6.348844
2335.000000	6.342040
2334.000000	6.335837
2333.000000	6.314725
2332.000000	6.281606
2331.000000	6.264897
2330.000000	6.239783
2329.000000	6.198360
2328.000000	6.160339
2327.000000	6.116014
2326.000000	6.068387
2325.000000	6.033168
2324.000000	5.983140
2323.000000	5.925007
2322.000000	5.856869
2321.000000	5.790232
2320.000000	5.726697
2319.000000	5.663161
2318.000000	5.599526
2317.000000	5.519281
2316.000000	5.456046
2315.000000	5.401015
2314.000000	5.348786
2313.000000	5.286051
2312.000000	5.251932
2311.000000	5.210108
2310.000000	5.162982
2309.000000	5.130964
2308.000000	5.117356
2307.000000	5.103449
2306.000000	5.107651
2305.000000	5.125461
2304.000000	5.133165
2303.000000	5.147573
2302.000000	5.174989
2301.000000	5.190898
2300.000000	5.207207
2299.000000	5.240325
2298.000000	5.267540
2297.000000	5.282349
2296.000000	5.324172
2295.000000	5.331476
2294.000000	5.353989
2293.000000	5.348786
2292.000000	5.367396
2291.000000	5.371198
2290.000000	5.359592
2289.000000	5.355389
2288.000000	5.354789
2287.000000	5.343583
2286.000000	5.315067
2285.000000	5.312365
2284.000000	5.296857
2283.000000	5.264839
2282.000000	5.253633
2281.000000	5.238424
2280.000000	5.207807
2279.000000	5.184794
2278.000000	5.173388
2277.000000	5.166284
2276.000000	5.143071
2275.000000	5.123060
2274.000000	5.117557
2273.000000	5.120558
2272.000000	5.140770
2271.000000	5.128162
2270.000000	5.111153
2269.000000	5.148074
2268.000000	5.170286
2267.000000	5.186495
2266.000000	5.211409
2265.000000	5.233121
2264.000000	5.289553
2263.000000	5.335178
2262.000000	5.373800
2261.000000	5.431432
2260.000000	5.489264
2259.000000	5.551199
2258.000000	5.599926
2257.000000	5.680271
2256.000000	5.758915
2255.000000	5.828153
2254.000000	5.898092
2253.000000	5.944118
2252.000000	5.999449
2251.000000	6.061083
2250.000000	6.132423
2249.000000	6.166242
2248.000000	6.259494
2247.000000	6.274602
2246.000000	6.333435
2245.000000	6.383163
2244.000000	6.426387
2243.000000	6.468511
2242.000000	6.511435
2241.000000	6.519639
2240.000000	6.566565
2239.000000	6.604887
2238.000000	6.618895
2237.000000	6.653914
2236.000000	6.672124
2235.000000	6.684431
2234.000000	6.689534
2233.000000	6.679829
2232.000000	6.702841
2231.000000	6.699740
2230.000000	6.705943
2229.000000	6.699640
2228.000000	6.706844
2227.000000	6.638806
2226.000000	6.640807
2225.000000	6.601285
2224.000000	6.580073
2223.000000	6.549356
2222.000000	6.512235
2221.000000	6.477416
2220.000000	6.450601
2219.000000	6.409778
2218.000000	6.373558
2217.000000	6.324931
2216.000000	6.284608
2215.000000	6.278905
2214.000000	6.259294
2213.000000	6.249288
2212.000000	6.256392
2211.000000	6.239083
2210.000000	6.263096
2209.000000	6.292012
2208.000000	6.314525
2207.000000	6.375259
2206.000000	6.416782
2205.000000	6.498327
2204.000000	6.575470
2203.000000	6.652213
2202.000000	6.732058
2201.000000	6.843920
2200.000000	6.933170
2199.000000	7.042931
2198.000000	7.172904
2197.000000	7.261153
2196.000000	7.366512
2195.000000	7.486379
2194.000000	7.573027
2193.000000	7.660476
2192.000000	7.741421
2191.000000	7.834673
2190.000000	7.904012
2189.000000	7.968248
2188.000000	8.011372
2187.000000	8.071806
2186.000000	8.132039
2185.000000	8.174663
2184.000000	8.209783
2183.000000	8.257309
2182.000000	8.289527
2181.000000	8.316542
2180.000000	8.357265
2179.000000	8.380678
2178.000000	8.412896
2177.000000	8.430706
2176.000000	8.472629
2175.000000	8.487638
2174.000000	8.514353
2173.000000	8.533663
2172.000000	8.556076
2171.000000	8.591196
2170.000000	8.614108
2169.000000	8.649528
2168.000000	8.670940
2167.000000	8.688750
2166.000000	8.735776
2165.000000	8.774198
2164.000000	8.794909
2163.000000	8.836833
2162.000000	8.874254
2161.000000	8.903370
2160.000000	8.916677
2159.000000	8.954798
2158.000000	8.995721
2157.000000	9.025838
2156.000000	9.061358
2155.000000	9.102981
2154.000000	9.131197
2153.000000	9.166517
2152.000000	9.200836
2151.000000	9.221147
2150.000000	9.261470
2149.000000	9.292687
2148.000000	9.339913
2147.000000	9.367329
2146.000000	9.385639
2145.000000	9.418657
2144.000000	9.448774
2143.000000	9.470386
2142.000000	9.487296
2141.000000	9.507607
2140.000000	9.526718
2139.000000	9.571543
2138.000000	9.606963
2137.000000	9.607463
2136.000000	9.619970
2135.000000	9.630676
2134.000000	9.654889
2133.000000	9.673700
2132.000000	9.675901
2131.000000	9.683505
2130.000000	9.691009
2129.000000	9.694011
2128.000000	9.704917
2127.000000	9.714923
2126.000000	9.712221
2125.000000	9.717424
2124.000000	9.731132
2123.000000	9.714322
2122.000000	9.707218
2121.000000	9.705117
2120.000000	9.697813
2119.000000	9.693011
2118.000000	9.694511
2117.000000	9.681904
2116.000000	9.653488
2115.000000	9.642082
2114.000000	9.631376
2113.000000	9.619069
2112.000000	9.618469
2111.000000	9.604161
2110.000000	9.595856
2109.000000	9.593855
2108.000000	9.576445
2107.000000	9.564139
2106.000000	9.565439
2105.000000	9.560837
2104.000000	9.540125
2103.000000	9.513410
2102.000000	9.501604
2101.000000	9.501304
2100.000000	9.493199
2099.000000	9.488296
2098.000000	9.481693
2097.000000	9.484494
2096.000000	9.472588
2095.000000	9.461381
2094.000000	9.468685
2093.000000	9.463482
2092.000000	9.470987
2091.000000	9.458380
2090.000000	9.448174
2089.000000	9.455278
2088.000000	9.448574
2087.000000	9.430664
2086.000000	9.427863
2085.000000	9.428063
2084.000000	9.421459
2083.000000	9.415856
2082.000000	9.408952
2081.000000	9.406851
2080.000000	9.394344
2079.000000	9.384738
2078.000000	9.383138
2077.000000	9.370130
2076.000000	9.356923
2075.000000	9.348118
2074.000000	9.338313
2073.000000	9.326706
2072.000000	9.307295
2071.000000	9.287584
2070.000000	9.272776
2069.000000	9.261170
2068.000000	9.256167
2067.000000	9.228952
2066.000000	9.192931
2065.000000	9.170219
2064.000000	9.159913
2063.000000	9.136700
2062.000000	9.109185
2061.000000	9.103281
2060.000000	9.084871
2059.000000	9.056455
2058.000000	9.034543
2057.000000	9.030141
2056.000000	9.009729
2055.000000	9.023737
2054.000000	9.009129
2053.000000	9.027239
2052.000000	9.037545
2051.000000	9.054654
2050.000000	9.086672
2049.000000	9.132698
2048.000000	9.168918
2047.000000	9.221647
2046.000000	9.281681
2045.000000	9.345116
2044.000000	9.432365
2043.000000	9.519013
2042.000000	9.607163
2041.000000	9.692610
2040.000000	9.781260
2039.000000	9.865907
2038.000000	9.959059
2037.000000	10.053112
2036.000000	10.117147
2035.000000	10.219104
2034.000000	10.284141
2033.000000	10.354880
2032.000000	10.429822
2031.000000	10.497960
2030.000000	10.574302
2029.000000	10.629934
2028.000000	10.686765
2027.000000	10.753402
2026.000000	10.790223
2025.000000	10.837049
2024.000000	10.880874
2023.000000	10.935604
2022.000000	10.995738
2021.000000	11.049868
2020.000000	11.100796
2019.000000	11.135516
2018.000000	11.167834
2017.000000	11.226266
2016.000000	11.263787
2015.000000	11.294504
2014.000000	11.343632
2013.000000	11.372048
2012.000000	11.401564
2011.000000	11.450091
2010.000000	11.441186
2009.000000	11.488813
2008.000000	11.524533
2007.000000	11.572760
2006.000000	11.609680
2005.000000	11.610581
2004.000000	11.637596
2003.000000	11.660909
2002.000000	11.688124
2001.000000	11.690526
2000.000000	11.709336
1999.000000	11.726946
1998.000000	11.738052
1997.000000	11.737852
1996.000000	11.736551
1995.000000	11.744055
1994.000000	11.729847
1993.000000	11.728247
1992.000000	11.709436
1991.000000	11.700131
1990.000000	11.680720
1989.000000	11.677418
1988.000000	11.661709
1987.000000	11.636595
1986.000000	11.625990
1985.000000	11.598774
1984.000000	11.585267
1983.000000	11.558352
1982.000000	11.532737
1981.000000	11.494916
1980.000000	11.462098
1979.000000	11.439285
1978.000000	11.424577
1977.000000	11.384855
1976.000000	11.347234
1975.000000	11.317617
1974.000000	11.301608
1973.000000	11.242475
1972.000000	11.236972
1971.000000	11.188445
1970.000000	11.177539
1969.000000	11.149724
1968.000000	11.130313
1967.000000	11.090391
1966.000000	11.046766
1965.000000	11.030457
1964.000000	10.996638
1963.000000	10.974826
1962.000000	10.923597
1961.000000	10.876571
1960.000000	10.850757
1959.000000	10.851757
1958.000000	10.807833
1957.000000	10.787121
1956.000000	10.749900
1955.000000	10.704375
1954.000000	10.685565
1953.000000	10.656648
1952.000000	10.640539
1951.000000	10.612724
1950.000000	10.581006
1949.000000	10.542285
1948.000000	10.545687
1947.000000	10.505964
1946.000000	10.502162
1945.000000	10.488655
1944.000000	10.463841
1943.000000	10.459839
1942.000000	10.436626
1941.000000	10.447131
1940.000000	10.438727
1939.000000	10.469344
1938.000000	10.452134
1937.000000	10.475647
1936.000000	10.491456
1935.000000	10.500361
1934.000000	10.510167
1933.000000	10.559594
1932.000000	10.558694
1931.000000	10.584908
1930.000000	10.623730
1929.000000	10.665053
1928.000000	10.728589
1927.000000	10.774714
1926.000000	10.835949
1925.000000	10.891580
1924.000000	10.928700
1923.000000	10.961719
1922.000000	11.040163
1921.000000	11.157528
1920.000000	11.231569
1919.000000	11.316016
1918.000000	11.378251
1917.000000	11.463899
1916.000000	11.525734
1915.000000	11.571959
1914.000000	11.686023
1913.000000	11.827602
1912.000000	11.953772
1911.000000	12.045524
1910.000000	12.138175
1909.000000	12.172895
1908.000000	12.238031
1907.000000	12.354496
1906.000000	12.464758
1905.000000	12.598232
1904.000000	12.763324
1903.000000	12.859578
1902.000000	12.934620
1901.000000	13.028172
1900.000000	13.176255
1899.000000	13.323437
1898.000000	13.439702
1897.000000	13.550364
1896.000000	13.629508
1895.000000	13.703049
1894.000000	13.785295
1893.000000	13.889053
1892.000000	14.012822
1891.000000	14.136991
1890.000000	14.258759
1889.000000	14.368120
1888.000000	14.510300
1887.000000	14.597648
1886.000000	14.752135
1885.000000	14.936137
1884.000000	15.123242
1883.000000	15.333159
1882.000000	15.543176
1881.000000	15.776306
1880.000000	15.994028
1879.000000	16.181232
1878.000000	16.395752
1877.000000	16.610272
1876.000000	16.786070
1875.000000	16.961368
1874.000000	17.097344
1873.000000	17.265537
1872.000000	17.430930
1871.000000	17.562603
1870.000000	17.684171
1869.000000	17.780225
1868.000000	17.856267
1867.000000	17.889386
1866.000000	17.878780
1865.000000	17.869174
1864.000000	17.860369
1863.000000	17.844761
1862.000000	17.843360
1861.000000	17.852665
1860.000000	17.849063
1859.000000	17.851465
1858.000000	17.845761
1857.000000	17.815745
1856.000000	17.780225
1855.000000	17.730997
1854.000000	17.702782
1853.000000	17.647951
1852.000000	17.582514
1851.000000	17.511875
1850.000000	17.440435
1849.000000	17.393609
1848.000000	17.369295
1847.000000	17.358589
1846.000000	17.319868
1845.000000	17.229918
1844.000000	17.139867
1843.000000	17.104247
1842.000000	17.087538
1841.000000	17.082735
1840.000000	17.065626
1839.000000	17.030706
1838.000000	16.982880
1837.000000	16.949961
1836.000000	16.920745
1835.000000	16.878722
1834.000000	16.817087
1833.000000	16.732040
1832.000000	16.657798
1831.000000	16.613674
1830.000000	16.578854
1829.000000	16.527926
1828.000000	16.457887
1827.000000	16.399354
1826.000000	16.354529
1825.000000	16.298298
1824.000000	16.246369
1823.000000	16.209448
1822.000000	16.186835
1821.000000	16.188436
1820.000000	16.208748
1819.000000	16.188436
1818.000000	16.142711
1817.000000	16.099887
1816.000000	16.099987
1815.000000	16.099587
1814.000000	16.086779
1813.000000	16.075573
1812.000000	16.057863
1811.000000	16.057963
1810.000000	16.011638
1809.000000	15.963711
1808.000000	15.929892
1807.000000	15.913083
1806.000000	15.893872
1805.000000	15.848847
1804.000000	15.807524
1803.000000	15.763799
1802.000000	15.728379
1801.000000	15.703766
1800.000000	15.675350
1799.000000	15.640130
1798.000000	15.606011
1797.000000	15.570291
1796.000000	15.547879
1795.000000	15.504955
1794.000000	15.467434
1793.000000	15.444721
1792.000000	15.406900
1791.000000	15.363476
1790.000000	15.334960
1789.000000	15.283131
1788.000000	15.224998
1787.000000	15.182675
1786.000000	15.148256
1785.000000	15.097227
1784.000000	15.040095
1783.000000	14.969656
1782.000000	14.896315
1781.000000	14.824075
1780.000000	14.768143
1779.000000	14.713013
1778.000000	14.640972
1777.000000	14.563829
1776.000000	14.481784
1775.000000	14.395836
1774.000000	14.302283
1773.000000	14.204729
1772.000000	14.107575
1771.000000	14.014923
1770.000000	13.882849
1769.000000	13.768185
1768.000000	13.668730
1767.000000	13.575878
1766.000000	13.490830
1765.000000	13.421492
1764.000000	13.378368
1763.000000	13.341247
1762.000000	13.358857
1761.000000	13.391175
1760.000000	13.418490
1759.000000	13.461714
1758.000000	13.514744
1757.000000	13.556567
1756.000000	13.567473
1755.000000	13.591687
1754.000000	13.632710
1753.000000	13.639313
1752.000000	13.652120
1751.000000	13.636812
1750.000000	13.619202
1749.000000	13.577479
1748.000000	13.547562
1747.000000	13.512843
1746.000000	13.442403
1745.000000	13.355755
1744.000000	13.268006
1743.000000	13.145938
1742.000000	13.030774
1741.000000	12.867583
1740.000000	12.729005
1739.000000	12.602435
1738.000000	12.438843
1737.000000	12.296464
1736.000000	12.176397
1735.000000	12.086146
1734.000000	11.998397
1733.000000	11.968381
1732.000000	11.972083
1731.000000	12.001699
1730.000000	12.056030
1729.000000	12.125869
1728.000000	12.190305
1727.000000	12.291261
1726.000000	12.357598
1725.000000	12.422034
1724.000000	12.479866
1723.000000	12.526092
1722.000000	12.561912
1721.000000	12.580923
1720.000000	12.610239
1719.000000	12.649761
1718.000000	12.656965
1717.000000	12.715498
1716.000000	12.763524
1715.000000	12.808850
1714.000000	12.873186
1713.000000	12.927316
1712.000000	12.978645
1711.000000	13.021068
1710.000000	13.049484
1709.000000	13.101713
1708.000000	13.112619
1707.000000	13.117122
1706.000000	13.141335
1705.000000	13.183859
1704.000000	13.180257
1703.000000	13.183659
1702.000000	13.179857
1701.000000	13.142836
1700.000000	13.102414
1699.000000	13.075799
1698.000000	13.037978
1697.000000	13.023269
1696.000000	13.014465
1695.000000	13.033175
1694.000000	13.077200
1693.000000	13.178656
1692.000000	13.265205
1691.000000	13.353754
1690.000000	13.481625
1689.000000	13.526050
1688.000000	13.577579
1687.000000	13.607996
1686.000000	13.608696
1685.000000	13.661526
1684.000000	13.678435
1683.000000	13.770186
1682.000000	13.924973
1681.000000	14.156602
1680.000000	14.426253
1679.000000	14.735225
1678.000000	15.011579
1677.000000	15.309546
1676.000000	15.562487
1675.000000	15.798819
1674.000000	15.993828
1673.000000	16.172127
1672.000000	16.314006
1671.000000	16.458387
1670.000000	16.564846
1669.000000	16.652295
1668.000000	16.716431
1667.000000	16.783869
1666.000000	16.837499
1665.000000	16.869116
1664.000000	16.921646
1663.000000	16.964369
1662.000000	16.989483
1661.000000	17.020601
1660.000000	17.042213
1659.000000	17.043113
1658.000000	17.054320
1657.000000	17.059923
1656.000000	17.074231
1655.000000	17.059122
1654.000000	17.072330
1653.000000	17.053519
1652.000000	17.055920
1651.000000	17.014697
1650.000000	17.013897
1649.000000	16.996087
1648.000000	16.945259
1647.000000	16.908438
1646.000000	16.878922
1645.000000	16.847804
1644.000000	16.805981
1643.000000	16.757854
1642.000000	16.743046
1641.000000	16.706225
1640.000000	16.656397
1639.000000	16.630483
1638.000000	16.581155
1637.000000	16.530027
1636.000000	16.494407
1635.000000	16.432072
1634.000000	16.382845
1633.000000	16.341021
1632.000000	16.302600
1631.000000	16.263078
1630.000000	16.203745
1629.000000	16.152616
1628.000000	16.104089
1627.000000	16.071671
1626.000000	16.012838
1625.000000	15.963110
1624.000000	15.920787
1623.000000	15.876162
1622.000000	15.826734
1621.000000	15.780408
1620.000000	15.736984
1619.000000	15.698963
1618.000000	15.652437
1617.000000	15.605511
1616.000000	15.549580
1615.000000	15.512759
1614.000000	15.475338
1613.000000	15.437017
1612.000000	15.404399
1611.000000	15.369579
1610.000000	15.329357
1609.000000	15.295938
1608.000000	15.270324
1607.000000	15.236605
1606.000000	15.190979
1605.000000	15.162764
1604.000000	15.139751
1603.000000	15.101630
