PE UV       SUBTECH     SPECTRUM    ASCII       PEDS        4.00        
   -1
CICIMAUCR0112-2.Sample.ASC
24/04/04
15:29:38.00
24/04/04
15:29:38.00
Vinicio Soto Monge
C. resplendens
250,000000
1
Lambda 1050
1050L1511233
PerkinElmer UV WinLab 6.3.2.0749 / 2.02.05 Lambda 900 UV/VIS/NIR, Aug  7 2015 09:38:08

0
0
3350/servo 860,8/2
0
0
UV/VIS
1
1
1
DoubleDePol,CommonBeamDepol,RBeamAtt,SBeamAtt,60mm sphere, WB InGaAs Detector
0
0
0
0
Program
Program
3350/servo 860,8/2
3350/0,2 860,8/0,2
3350/0,2 860,8/0,2
0
15.00
 
 
 
0
 
860,8
319,2
860,8
Front
100
on
S:100 R:100
0
0
0
0
 
0
 
 
 
0
 
 
0
0
0
0
0
 
 
 
 
0
0


0
0
#HDR
-1
-1
#GR
nm
%R
1.0
0.0
2500,000000
-1,000000
2251
8
62,626100
4,604700
#DATA
2500.000000	4.449618
2499.000000	4.554052
2498.000000	4.502887
2497.000000	4.426474
2496.000000	4.520771
2495.000000	4.403713
2494.000000	4.507764
2493.000000	4.449236
2492.000000	4.525074
2491.000000	4.432786
2490.000000	4.428005
2489.000000	4.483282
2488.000000	4.469128
2487.000000	4.457651
2486.000000	4.457651
2485.000000	4.488637
2484.000000	4.472379
2483.000000	4.496001
2482.000000	4.524787
2481.000000	4.502791
2480.000000	4.485194
2479.000000	4.446462
2478.000000	4.458130
2477.000000	4.459851
2476.000000	4.457556
2475.000000	4.504800
2474.000000	4.479456
2473.000000	4.487777
2472.000000	4.502600
2471.000000	4.477544
2470.000000	4.477830
2469.000000	4.486246
2468.000000	4.504417
2467.000000	4.461381
2466.000000	4.477830
2465.000000	4.478022
2464.000000	4.501739
2463.000000	4.530047
2462.000000	4.509294
2461.000000	4.535785
2460.000000	4.534255
2459.000000	4.542384
2458.000000	4.550991
2457.000000	4.568206
2456.000000	4.571362
2455.000000	4.557399
2454.000000	4.587715
2453.000000	4.602826
2452.000000	4.612867
2451.000000	4.620709
2450.000000	4.636394
2449.000000	4.668623
2448.000000	4.686124
2447.000000	4.698939
2446.000000	4.699800
2445.000000	4.721031
2444.000000	4.723804
2443.000000	4.739488
2442.000000	4.768657
2441.000000	4.783672
2440.000000	4.799356
2439.000000	4.808059
2438.000000	4.825273
2437.000000	4.813510
2436.000000	4.835219
2435.000000	4.863623
2434.000000	4.858458
2433.000000	4.871369
2432.000000	4.901399
2431.000000	4.903120
2430.000000	4.912397
2429.000000	4.919761
2428.000000	4.945869
2427.000000	4.941661
2426.000000	4.941757
2425.000000	4.951798
2424.000000	4.987470
2423.000000	4.985271
2422.000000	4.990339
2421.000000	4.993400
2420.000000	5.019126
2419.000000	5.050685
2418.000000	5.083966
2417.000000	5.079663
2416.000000	5.087409
2415.000000	5.102519
2414.000000	5.097738
2413.000000	5.106249
2412.000000	5.122698
2411.000000	5.142782
2410.000000	5.160283
2409.000000	5.165160
2408.000000	5.165256
2407.000000	5.173959
2406.000000	5.179793
2405.000000	5.197772
2404.000000	5.212213
2403.000000	5.213361
2402.000000	5.228758
2401.000000	5.221011
2400.000000	5.240712
2399.000000	5.244825
2398.000000	5.255440
2397.000000	5.262995
2396.000000	5.268255
2395.000000	5.278393
2394.000000	5.280114
2393.000000	5.285948
2392.000000	5.299241
2391.000000	5.308900
2390.000000	5.309665
2389.000000	5.318942
2388.000000	5.330705
2387.000000	5.334435
2386.000000	5.321811
2385.000000	5.317125
2384.000000	5.329270
2383.000000	5.323628
2382.000000	5.324776
2381.000000	5.325349
2380.000000	5.331661
2379.000000	5.335391
2378.000000	5.332426
2377.000000	5.322289
2376.000000	5.314638
2375.000000	5.328792
2374.000000	5.328218
2373.000000	5.330514
2372.000000	5.330322
2371.000000	5.315021
2370.000000	5.308900
2369.000000	5.309952
2368.000000	5.309761
2367.000000	5.296276
2366.000000	5.293885
2365.000000	5.301249
2364.000000	5.303258
2363.000000	5.287382
2362.000000	5.272272
2361.000000	5.262613
2360.000000	5.259648
2359.000000	5.255918
2358.000000	5.253814
2357.000000	5.254962
2356.000000	5.250945
2355.000000	5.239469
2354.000000	5.245398
2353.000000	5.240999
2352.000000	5.226558
2351.000000	5.220246
2350.000000	5.223211
2349.000000	5.223211
2348.000000	5.212787
2347.000000	5.226558
2346.000000	5.232870
2345.000000	5.227228
2344.000000	5.229045
2343.000000	5.230288
2342.000000	5.226654
2341.000000	5.229810
2340.000000	5.225698
2339.000000	5.219864
2338.000000	5.210874
2337.000000	5.209440
2336.000000	5.220246
2335.000000	5.216421
2334.000000	5.199398
2333.000000	5.177880
2332.000000	5.170803
2331.000000	5.164491
2330.000000	5.149668
2329.000000	5.134844
2328.000000	5.133792
2327.000000	5.133505
2326.000000	5.114474
2325.000000	5.096303
2324.000000	5.076985
2323.000000	5.068569
2322.000000	5.052502
2321.000000	5.048868
2320.000000	5.031558
2319.000000	5.010518
2318.000000	4.979150
2317.000000	4.962796
2316.000000	4.952181
2315.000000	4.945869
2314.000000	4.938123
2313.000000	4.933532
2312.000000	4.910962
2311.000000	4.890783
2310.000000	4.904459
2309.000000	4.886862
2308.000000	4.875673
2307.000000	4.870508
2306.000000	4.870317
2305.000000	4.864770
2304.000000	4.856259
2303.000000	4.851668
2302.000000	4.849182
2301.000000	4.840957
2300.000000	4.839810
2299.000000	4.833115
2298.000000	4.821448
2297.000000	4.835219
2296.000000	4.818483
2295.000000	4.834263
2294.000000	4.819439
2293.000000	4.815614
2292.000000	4.812458
2291.000000	4.791801
2290.000000	4.788932
2289.000000	4.786350
2288.000000	4.763875
2287.000000	4.751730
2286.000000	4.745035
2285.000000	4.734993
2284.000000	4.720266
2283.000000	4.702191
2282.000000	4.702669
2281.000000	4.695783
2280.000000	4.672065
2279.000000	4.658103
2278.000000	4.648444
2277.000000	4.626256
2276.000000	4.610763
2275.000000	4.595270
2274.000000	4.585994
2273.000000	4.556825
2272.000000	4.551661
2271.000000	4.557399
2270.000000	4.537507
2269.000000	4.527848
2268.000000	4.530239
2267.000000	4.522779
2266.000000	4.503461
2265.000000	4.505660
2264.000000	4.510729
2263.000000	4.494088
2262.000000	4.518571
2261.000000	4.533299
2260.000000	4.519910
2259.000000	4.517041
2258.000000	4.518954
2257.000000	4.541237
2256.000000	4.525074
2255.000000	4.545445
2254.000000	4.557112
2253.000000	4.570597
2252.000000	4.583985
2251.000000	4.602539
2250.000000	4.609520
2249.000000	4.629603
2248.000000	4.655329
2247.000000	4.668527
2246.000000	4.688323
2245.000000	4.693870
2244.000000	4.701712
2243.000000	4.710320
2242.000000	4.723135
2241.000000	4.715293
2240.000000	4.737097
2239.000000	4.760432
2238.000000	4.759285
2237.000000	4.782237
2236.000000	4.787497
2235.000000	4.786541
2234.000000	4.802512
2233.000000	4.796296
2232.000000	4.795052
2231.000000	4.788358
2230.000000	4.800408
2229.000000	4.781090
2228.000000	4.769326
2227.000000	4.779081
2226.000000	4.756798
2225.000000	4.739297
2224.000000	4.725717
2223.000000	4.712997
2222.000000	4.660494
2221.000000	4.653130
2220.000000	4.633811
2219.000000	4.608851
2218.000000	4.576048
2217.000000	4.570118
2216.000000	4.557495
2215.000000	4.540854
2214.000000	4.525457
2213.000000	4.516850
2212.000000	4.515319
2211.000000	4.503748
2210.000000	4.521918
2209.000000	4.529665
2208.000000	4.573561
2207.000000	4.616884
2206.000000	4.634003
2205.000000	4.695400
2204.000000	4.733081
2203.000000	4.799260
2202.000000	4.867066
2201.000000	4.933341
2200.000000	5.030697
2199.000000	5.108927
2198.000000	5.178263
2197.000000	5.263665
2196.000000	5.335774
2195.000000	5.411708
2194.000000	5.480852
2193.000000	5.562333
2192.000000	5.615698
2191.000000	5.672218
2190.000000	5.743180
2189.000000	5.783155
2188.000000	5.844457
2187.000000	5.890171
2186.000000	5.911976
2185.000000	5.944683
2184.000000	5.976625
2183.000000	6.003498
2182.000000	6.027407
2181.000000	6.057437
2180.000000	6.082302
2179.000000	6.115392
2178.000000	6.113766
2177.000000	6.138440
2176.000000	6.146760
2175.000000	6.187692
2174.000000	6.172677
2173.000000	6.180232
2172.000000	6.195821
2171.000000	6.204428
2170.000000	6.211409
2169.000000	6.218678
2168.000000	6.216765
2167.000000	6.229006
2166.000000	6.255497
2165.000000	6.261235
2164.000000	6.270703
2163.000000	6.254828
2162.000000	6.277015
2161.000000	6.304367
2160.000000	6.312209
2159.000000	6.316130
2158.000000	6.333249
2157.000000	6.344534
2156.000000	6.372842
2155.000000	6.371407
2154.000000	6.391586
2153.000000	6.403062
2152.000000	6.439882
2151.000000	6.453558
2150.000000	6.457957
2149.000000	6.460635
2148.000000	6.464843
2147.000000	6.485882
2146.000000	6.503670
2145.000000	6.505009
2144.000000	6.507113
2143.000000	6.525380
2142.000000	6.532361
2141.000000	6.527866
2140.000000	6.541064
2139.000000	6.545654
2138.000000	6.539438
2137.000000	6.539056
2136.000000	6.563156
2135.000000	6.573580
2134.000000	6.568989
2133.000000	6.567650
2132.000000	6.579127
2131.000000	6.593185
2130.000000	6.596437
2129.000000	6.589264
2128.000000	6.599593
2127.000000	6.614033
2126.000000	6.613364
2125.000000	6.624649
2124.000000	6.615851
2123.000000	6.599975
2122.000000	6.597680
2121.000000	6.598062
2120.000000	6.601410
2119.000000	6.612503
2118.000000	6.606478
2117.000000	6.592802
2116.000000	6.585439
2115.000000	6.588403
2114.000000	6.605235
2113.000000	6.599975
2112.000000	6.581518
2111.000000	6.569850
2110.000000	6.562104
2109.000000	6.568607
2108.000000	6.563921
2107.000000	6.561147
2106.000000	6.572241
2105.000000	6.554644
2104.000000	6.550723
2103.000000	6.557609
2102.000000	6.554261
2101.000000	6.551871
2100.000000	6.551488
2099.000000	6.548810
2098.000000	6.534848
2097.000000	6.538386
2096.000000	6.542498
2095.000000	6.536473
2094.000000	6.526719
2093.000000	6.517633
2092.000000	6.528823
2091.000000	6.529970
2090.000000	6.539247
2089.000000	6.541255
2088.000000	6.530831
2087.000000	6.536378
2086.000000	6.535134
2085.000000	6.536665
2084.000000	6.534943
2083.000000	6.538769
2082.000000	6.539629
2081.000000	6.550054
2080.000000	6.555696
2079.000000	6.547854
2078.000000	6.550436
2077.000000	6.554357
2076.000000	6.556270
2075.000000	6.555983
2074.000000	6.558278
2073.000000	6.564877
2072.000000	6.556174
2071.000000	6.563251
2070.000000	6.575684
2069.000000	6.580179
2068.000000	6.562964
2067.000000	6.556748
2066.000000	6.566407
2065.000000	6.580561
2064.000000	6.594620
2063.000000	6.605522
2062.000000	6.598062
2061.000000	6.606000
2060.000000	6.606478
2059.000000	6.614894
2058.000000	6.635743
2057.000000	6.645115
2056.000000	6.651427
2055.000000	6.673519
2054.000000	6.677631
2053.000000	6.680787
2052.000000	6.702783
2051.000000	6.732812
2050.000000	6.753661
2049.000000	6.771927
2048.000000	6.796505
2047.000000	6.813528
2046.000000	6.847670
2045.000000	6.876265
2044.000000	6.898166
2043.000000	6.933359
2042.000000	6.975534
2041.000000	7.006425
2040.000000	7.037410
2039.000000	7.058546
2038.000000	7.093548
2037.000000	7.134193
2036.000000	7.175699
2035.000000	7.202955
2034.000000	7.224090
2033.000000	7.252398
2032.000000	7.278602
2031.000000	7.339522
2030.000000	7.359127
2029.000000	7.368595
2028.000000	7.402067
2027.000000	7.425020
2026.000000	7.440991
2025.000000	7.459257
2024.000000	7.485079
2023.000000	7.523811
2022.000000	7.535670
2021.000000	7.570290
2020.000000	7.586261
2019.000000	7.601754
2018.000000	7.632644
2017.000000	7.657987
2016.000000	7.673480
2015.000000	7.685721
2014.000000	7.706379
2013.000000	7.723975
2012.000000	7.744059
2011.000000	7.757352
2010.000000	7.771124
2009.000000	7.777818
2008.000000	7.808995
2007.000000	7.803448
2006.000000	7.802970
2005.000000	7.804978
2004.000000	7.821045
2003.000000	7.825253
2002.000000	7.819897
2001.000000	7.830417
2000.000000	7.796945
1999.000000	7.794554
1998.000000	7.794554
1997.000000	7.774375
1996.000000	7.796562
1995.000000	7.757256
1994.000000	7.766055
1993.000000	7.758404
1992.000000	7.764716
1991.000000	7.725123
1990.000000	7.712786
1989.000000	7.702457
1988.000000	7.690503
1987.000000	7.665160
1986.000000	7.630635
1985.000000	7.642494
1984.000000	7.624037
1983.000000	7.600989
1982.000000	7.590756
1981.000000	7.546285
1980.000000	7.538634
1979.000000	7.507553
1978.000000	7.500093
1977.000000	7.497033
1976.000000	7.463178
1975.000000	7.425020
1974.000000	7.393747
1973.000000	7.394512
1972.000000	7.340478
1971.000000	7.340574
1970.000000	7.322499
1969.000000	7.312935
1968.000000	7.287114
1967.000000	7.273056
1966.000000	7.259762
1965.000000	7.236905
1964.000000	7.223803
1963.000000	7.199225
1962.000000	7.181341
1961.000000	7.165275
1960.000000	7.161162
1959.000000	7.134480
1958.000000	7.114875
1957.000000	7.086280
1956.000000	7.080446
1955.000000	7.055581
1954.000000	7.062180
1953.000000	7.047452
1952.000000	7.025073
1951.000000	7.023639
1950.000000	7.010537
1949.000000	6.982611
1948.000000	6.976586
1947.000000	6.964823
1946.000000	6.960233
1945.000000	6.940723
1944.000000	6.944740
1943.000000	6.935368
1942.000000	6.924274
1941.000000	6.921692
1940.000000	6.939767
1939.000000	6.917675
1938.000000	6.916814
1937.000000	6.926952
1936.000000	6.938715
1935.000000	6.941584
1934.000000	6.945888
1933.000000	6.934794
1932.000000	6.951243
1931.000000	6.983185
1930.000000	7.001547
1929.000000	7.016371
1928.000000	7.069639
1927.000000	7.077195
1926.000000	7.094887
1925.000000	7.127881
1924.000000	7.159632
1923.000000	7.188131
1922.000000	7.221699
1921.000000	7.261101
1920.000000	7.314561
1919.000000	7.368595
1918.000000	7.427315
1917.000000	7.472264
1916.000000	7.493686
1915.000000	7.548485
1914.000000	7.612465
1913.000000	7.699875
1912.000000	7.735260
1911.000000	7.817889
1910.000000	7.865802
1909.000000	7.918689
1908.000000	7.975113
1907.000000	8.061472
1906.000000	8.144483
1905.000000	8.231033
1904.000000	8.330111
1903.000000	8.402794
1902.000000	8.480163
1901.000000	8.547490
1900.000000	8.640830
1899.000000	8.765634
1898.000000	8.832770
1897.000000	8.921137
1896.000000	9.010938
1895.000000	9.086681
1894.000000	9.180690
1893.000000	9.278238
1892.000000	9.368614
1891.000000	9.484906
1890.000000	9.585514
1889.000000	9.678567
1888.000000	9.788452
1887.000000	9.904171
1886.000000	10.041216
1885.000000	10.198918
1884.000000	10.388563
1883.000000	10.592170
1882.000000	10.791761
1881.000000	11.041082
1880.000000	11.281413
1879.000000	11.516388
1878.000000	11.743044
1877.000000	11.968360
1876.000000	12.190521
1875.000000	12.382843
1874.000000	12.583486
1873.000000	12.765384
1872.000000	12.898699
1871.000000	13.029146
1870.000000	13.145438
1869.000000	13.239543
1868.000000	13.320737
1867.000000	13.375441
1866.000000	13.408531
1865.000000	13.430622
1864.000000	13.449271
1863.000000	13.446402
1862.000000	13.463999
1861.000000	13.492211
1860.000000	13.475284
1859.000000	13.442672
1858.000000	13.408913
1857.000000	13.376301
1856.000000	13.341586
1855.000000	13.283918
1854.000000	13.231605
1853.000000	13.173937
1852.000000	13.098673
1851.000000	13.033258
1850.000000	12.978842
1849.000000	12.925573
1848.000000	12.870009
1847.000000	12.789484
1846.000000	12.705421
1845.000000	12.647944
1844.000000	12.596875
1843.000000	12.571723
1842.000000	12.551257
1841.000000	12.524383
1840.000000	12.487851
1839.000000	12.444719
1838.000000	12.402257
1837.000000	12.364099
1836.000000	12.317524
1835.000000	12.251058
1834.000000	12.180192
1833.000000	12.116021
1832.000000	12.060553
1831.000000	12.007380
1830.000000	11.933932
1829.000000	11.862301
1828.000000	11.790001
1827.000000	11.725064
1826.000000	11.675812
1825.000000	11.617666
1824.000000	11.562867
1823.000000	11.549861
1822.000000	11.555312
1821.000000	11.519831
1820.000000	11.496018
1819.000000	11.475265
1818.000000	11.441889
1817.000000	11.430221
1816.000000	11.434812
1815.000000	11.428787
1814.000000	11.404113
1813.000000	11.390820
1812.000000	11.367963
1811.000000	11.342906
1810.000000	11.329039
1809.000000	11.308860
1808.000000	11.271084
1807.000000	11.243350
1806.000000	11.219537
1805.000000	11.171815
1804.000000	11.132509
1803.000000	11.099228
1802.000000	11.075128
1801.000000	11.050071
1800.000000	11.005505
1799.000000	10.966008
1798.000000	10.936074
1797.000000	10.901263
1796.000000	10.873911
1795.000000	10.847516
1794.000000	10.815574
1793.000000	10.781050
1792.000000	10.731797
1791.000000	10.688666
1790.000000	10.655385
1789.000000	10.624686
1788.000000	10.571322
1787.000000	10.521400
1786.000000	10.483433
1785.000000	10.439154
1784.000000	10.387033
1783.000000	10.325730
1782.000000	10.276478
1781.000000	10.240041
1780.000000	10.187633
1779.000000	10.135608
1778.000000	10.082148
1777.000000	10.024575
1776.000000	9.959639
1775.000000	9.886669
1774.000000	9.818099
1773.000000	9.749529
1772.000000	9.651789
1771.000000	9.583506
1770.000000	9.520195
1769.000000	9.456311
1768.000000	9.400556
1767.000000	9.342696
1766.000000	9.297365
1765.000000	9.266380
1764.000000	9.247539
1763.000000	9.224013
1762.000000	9.237498
1761.000000	9.269153
1760.000000	9.312954
1759.000000	9.335428
1758.000000	9.386976
1757.000000	9.424465
1756.000000	9.457363
1755.000000	9.490835
1754.000000	9.490644
1753.000000	9.488444
1752.000000	9.483663
1751.000000	9.477542
1750.000000	9.436993
1749.000000	9.401990
1748.000000	9.365362
1747.000000	9.343366
1746.000000	9.287898
1745.000000	9.227743
1744.000000	9.137368
1743.000000	9.050531
1742.000000	8.970676
1741.000000	8.858304
1740.000000	8.752436
1739.000000	8.659574
1738.000000	8.567860
1737.000000	8.513539
1736.000000	8.450707
1735.000000	8.422208
1734.000000	8.419434
1733.000000	8.391509
1732.000000	8.425746
1731.000000	8.473851
1730.000000	8.528937
1729.000000	8.562218
1728.000000	8.620268
1727.000000	8.648385
1726.000000	8.714086
1725.000000	8.753201
1724.000000	8.794324
1723.000000	8.813834
1722.000000	8.772615
1721.000000	8.785430
1720.000000	8.781414
1719.000000	8.785430
1718.000000	8.777301
1717.000000	8.784856
1716.000000	8.802645
1715.000000	8.835065
1714.000000	8.837647
1713.000000	8.850367
1712.000000	8.887282
1711.000000	8.880109
1710.000000	8.897897
1709.000000	8.878292
1708.000000	8.850367
1707.000000	8.855626
1706.000000	8.829518
1705.000000	8.820241
1704.000000	8.769364
1703.000000	8.740386
1702.000000	8.716095
1701.000000	8.650202
1700.000000	8.592917
1699.000000	8.518321
1698.000000	8.463140
1697.000000	8.413218
1696.000000	8.403081
1695.000000	8.371999
1694.000000	8.411592
1693.000000	8.433684
1692.000000	8.477485
1691.000000	8.550359
1690.000000	8.598942
1689.000000	8.655749
1688.000000	8.682718
1687.000000	8.679658
1686.000000	8.675163
1685.000000	8.657566
1684.000000	8.690560
1683.000000	8.736943
1682.000000	8.877909
1681.000000	9.078456
1680.000000	9.293636
1679.000000	9.569352
1678.000000	9.846885
1677.000000	10.131974
1676.000000	10.402812
1675.000000	10.609193
1674.000000	10.822938
1673.000000	11.020138
1672.000000	11.175640
1671.000000	11.310008
1670.000000	11.397514
1669.000000	11.501661
1668.000000	11.585820
1667.000000	11.691975
1666.000000	11.743522
1665.000000	11.785506
1664.000000	11.825290
1663.000000	11.882002
1662.000000	11.905050
1661.000000	11.941200
1660.000000	11.960901
1659.000000	11.973429
1658.000000	11.986531
1657.000000	11.989974
1656.000000	11.983662
1655.000000	11.989496
1654.000000	11.960423
1653.000000	11.947225
1652.000000	11.930489
1651.000000	11.911936
1650.000000	11.888983
1649.000000	11.871578
1648.000000	11.842122
1647.000000	11.802625
1646.000000	11.782063
1645.000000	11.730994
1644.000000	11.721143
1643.000000	11.678777
1642.000000	11.651138
1641.000000	11.618431
1640.000000	11.588593
1639.000000	11.539915
1638.000000	11.500322
1637.000000	11.463024
1636.000000	11.424483
1635.000000	11.390437
1634.000000	11.334490
1633.000000	11.283899
1632.000000	11.242968
1631.000000	11.211982
1630.000000	11.167224
1629.000000	11.127249
1628.000000	11.077136
1627.000000	11.051123
1626.000000	11.002636
1625.000000	10.953958
1624.000000	10.901167
1623.000000	10.877641
1622.000000	10.847516
1621.000000	10.803333
1620.000000	10.737440
1619.000000	10.704733
1618.000000	10.681876
1617.000000	10.637788
1616.000000	10.598865
1615.000000	10.568070
1614.000000	10.546170
1613.000000	10.508298
1612.000000	10.463445
1611.000000	10.439536
1610.000000	10.405203
1609.000000	10.381008
1608.000000	10.355664
1607.000000	10.332521
1606.000000	10.296179
1605.000000	10.249509
1604.000000	10.242719
1603.000000	10.225983
1602.000000	10.181417
1601.000000	10.149379
1600.000000	10.129105
1599.000000	10.093720
1598.000000	10.078705
1597.000000	10.053266
1596.000000	10.024193
1595.000000	10.009752
1594.000000	9.999041
1593.000000	9.977236
1592.000000	9.950936
