PE UV       SUBTECH     SPECTRUM    ASCII       PEDS        4.00        
   -1
CICIMAUCR0104-1.Sample.ASC
24/04/04
12:08:58.00
24/04/04
12:08:58.00
Vinicio Soto Monge
C. resplendens
250,000000
1
Lambda 1050
1050L1511233
PerkinElmer UV WinLab 6.3.2.0749 / 2.02.05 Lambda 900 UV/VIS/NIR, Aug  7 2015 09:38:08

0
0
3350/servo 860,8/2
0
0
UV/VIS
1
1
1
DoubleDePol,CommonBeamDepol,RBeamAtt,SBeamAtt,60mm sphere, WB InGaAs Detector
0
0
0
0
Program
Program
3350/servo 860,8/2
3350/0,2 860,8/0,2
3350/0,2 860,8/0,2
0
15.00
 
 
 
0
 
860,8
319,2
860,8
Front
100
on
S:100 R:100
0
0
0
0
 
0
 
 
 
0
 
 
0
0
0
0
0
 
 
 
 
0
0


0
0
#HDR
-1
-1
#GR
nm
%R
1.0
0.0
2500,000000
-1,000000
2251
8
75,606600
5,487200
#DATA
2500.000000	6.882057
2499.000000	6.845182
2498.000000	6.708291
2497.000000	6.900444
2496.000000	6.745671
2495.000000	6.706574
2494.000000	6.695258
2493.000000	6.745469
2492.000000	6.720212
2491.000000	6.690005
2490.000000	6.753046
2489.000000	6.681216
2488.000000	6.765674
2487.000000	6.647372
2486.000000	6.714555
2485.000000	6.766078
2484.000000	6.730517
2483.000000	6.665961
2482.000000	6.705967
2481.000000	6.749409
2480.000000	6.714656
2479.000000	6.799215
2478.000000	6.754864
2477.000000	6.773958
2476.000000	6.729406
2475.000000	6.801236
2474.000000	6.760724
2473.000000	6.781839
2472.000000	6.796285
2471.000000	6.824573
2470.000000	6.842455
2469.000000	6.810732
2468.000000	6.884078
2467.000000	6.880037
2466.000000	6.911052
2465.000000	6.914487
2464.000000	6.996925
2463.000000	6.982579
2462.000000	7.023697
2461.000000	7.063300
2460.000000	7.087546
2459.000000	7.144727
2458.000000	7.188674
2457.000000	7.213830
2456.000000	7.290307
2455.000000	7.342639
2454.000000	7.401134
2453.000000	7.459123
2452.000000	7.524084
2451.000000	7.581366
2450.000000	7.653196
2449.000000	7.731290
2448.000000	7.793017
2447.000000	7.873233
2446.000000	7.934758
2445.000000	8.015479
2444.000000	8.065184
2443.000000	8.146612
2442.000000	8.216320
2441.000000	8.247841
2440.000000	8.309164
2439.000000	8.391299
2438.000000	8.467271
2437.000000	8.537485
2436.000000	8.601536
2435.000000	8.648918
2434.000000	8.705493
2433.000000	8.760148
2432.000000	8.830867
2431.000000	8.875117
2430.000000	8.907042
2429.000000	8.951291
2428.000000	9.024435
2427.000000	9.064644
2426.000000	9.111924
2425.000000	9.143344
2424.000000	9.191028
2423.000000	9.241239
2422.000000	9.278619
2421.000000	9.321353
2420.000000	9.366310
2419.000000	9.404094
2418.000000	9.461276
2417.000000	9.518053
2416.000000	9.537753
2415.000000	9.556948
2414.000000	9.603016
2413.000000	9.650701
2412.000000	9.677069
2411.000000	9.714954
2410.000000	9.747384
2409.000000	9.768802
2408.000000	9.802646
2407.000000	9.849926
2406.000000	9.900541
2405.000000	9.917715
2404.000000	9.939840
2403.000000	9.979645
2402.000000	10.007730
2401.000000	10.023895
2400.000000	10.069862
2399.000000	10.106232
2398.000000	10.126740
2397.000000	10.172303
2396.000000	10.193216
2395.000000	10.225241
2394.000000	10.271310
2393.000000	10.294849
2392.000000	10.324046
2391.000000	10.337482
2390.000000	10.353950
2389.000000	10.372943
2388.000000	10.386177
2387.000000	10.388703
2386.000000	10.401028
2385.000000	10.422547
2384.000000	10.437297
2383.000000	10.426285
2382.000000	10.421638
2381.000000	10.412242
2380.000000	10.397694
2379.000000	10.390218
2378.000000	10.375569
2377.000000	10.352939
2376.000000	10.346171
2375.000000	10.336472
2374.000000	10.309094
2373.000000	10.284948
2372.000000	10.261611
2371.000000	10.242012
2370.000000	10.201298
2369.000000	10.153209
2368.000000	10.122295
2367.000000	10.084814
2366.000000	10.035412
2365.000000	9.982070
2364.000000	9.928222
2363.000000	9.878517
2362.000000	9.826791
2361.000000	9.766781
2360.000000	9.700911
2359.000000	9.644033
2358.000000	9.605744
2357.000000	9.571092
2356.000000	9.520881
2355.000000	9.486835
2354.000000	9.467640
2353.000000	9.443596
2352.000000	9.438443
2351.000000	9.447940
2350.000000	9.463397
2349.000000	9.480269
2348.000000	9.504616
2347.000000	9.534823
2346.000000	9.561696
2345.000000	9.582609
2344.000000	9.612816
2343.000000	9.641407
2342.000000	9.655146
2341.000000	9.673937
2340.000000	9.700204
2339.000000	9.704346
2338.000000	9.700608
2337.000000	9.687778
2336.000000	9.677675
2335.000000	9.664946
2334.000000	9.645347
2333.000000	9.604633
2332.000000	9.565232
2331.000000	9.518053
2330.000000	9.474308
2329.000000	9.426017
2328.000000	9.368129
2327.000000	9.286499
2326.000000	9.224973
2325.000000	9.146172
2324.000000	9.084849
2323.000000	9.015039
2322.000000	8.925328
2321.000000	8.833191
2320.000000	8.755400
2319.000000	8.654171
2318.000000	8.555670
2317.000000	8.463129
2316.000000	8.373417
2315.000000	8.274916
2314.000000	8.178132
2313.000000	8.114182
2312.000000	8.031946
2311.000000	7.950417
2310.000000	7.879699
2309.000000	7.832115
2308.000000	7.783117
2307.000000	7.757860
2306.000000	7.729977
2305.000000	7.719268
2304.000000	7.729067
2303.000000	7.748566
2302.000000	7.778166
2301.000000	7.815243
2300.000000	7.830296
2299.000000	7.887175
2298.000000	7.953145
2297.000000	7.984059
2296.000000	8.007700
2295.000000	8.039422
2294.000000	8.069427
2293.000000	8.088117
2292.000000	8.101655
2291.000000	8.083470
2290.000000	8.078722
2289.000000	8.054475
2288.000000	8.036694
2287.000000	8.017297
2286.000000	7.964561
2285.000000	7.913947
2284.000000	7.871616
2283.000000	7.798978
2282.000000	7.747959
2281.000000	7.707650
2280.000000	7.630667
2279.000000	7.570556
2278.000000	7.516204
2277.000000	7.450334
2276.000000	7.402649
2275.000000	7.370523
2274.000000	7.318393
2273.000000	7.283842
2272.000000	7.243936
2271.000000	7.236662
2270.000000	7.219386
2269.000000	7.218174
2268.000000	7.224236
2267.000000	7.245249
2266.000000	7.275860
2265.000000	7.314756
2264.000000	7.395779
2263.000000	7.445081
2262.000000	7.548734
2261.000000	7.625414
2260.000000	7.733209
2259.000000	7.877678
2258.000000	8.024268
2257.000000	8.124386
2256.000000	8.244810
2255.000000	8.397563
2254.000000	8.544456
2253.000000	8.684984
2252.000000	8.785506
2251.000000	8.936744
2250.000000	9.064139
2249.000000	9.185674
2248.000000	9.279528
2247.000000	9.387627
2246.000000	9.482592
2245.000000	9.553008
2244.000000	9.659490
2243.000000	9.740514
2242.000000	9.819113
2241.000000	9.880032
2240.000000	9.944993
2239.000000	10.021672
2238.000000	10.066023
2237.000000	10.116334
2236.000000	10.151997
2235.000000	10.208774
2234.000000	10.215240
2233.000000	10.265248
2232.000000	10.251104
2231.000000	10.251407
2230.000000	10.249791
2229.000000	10.229080
2228.000000	10.215139
2227.000000	10.175940
2226.000000	10.139874
2225.000000	10.098048
2224.000000	10.034705
2223.000000	9.971664
2222.000000	9.930748
2221.000000	9.862252
2220.000000	9.807293
2219.000000	9.770317
2218.000000	9.688081
2217.000000	9.624232
2216.000000	9.534116
2215.000000	9.485118
2214.000000	9.451981
2213.000000	9.429957
2212.000000	9.406519
2211.000000	9.384293
2210.000000	9.390557
2209.000000	9.420259
2208.000000	9.448546
2207.000000	9.483097
2206.000000	9.571799
2205.000000	9.649792
2204.000000	9.762134
2203.000000	9.874981
2202.000000	9.995607
2201.000000	10.134115
2200.000000	10.295354
2199.000000	10.444975
2198.000000	10.606517
2197.000000	10.765433
2196.000000	10.911315
2195.000000	11.070029
2194.000000	11.192979
2193.000000	11.331285
2192.000000	11.459993
2191.000000	11.582336
2190.000000	11.695083
2189.000000	11.797625
2188.000000	11.892893
2187.000000	11.968563
2186.000000	12.026451
2185.000000	12.100504
2184.000000	12.172839
2183.000000	12.209815
2182.000000	12.253762
2181.000000	12.301244
2180.000000	12.357415
2179.000000	12.405302
2178.000000	12.424093
2177.000000	12.456725
2176.000000	12.485113
2175.000000	12.529969
2174.000000	12.575128
2173.000000	12.600385
2172.000000	12.623116
2171.000000	12.651909
2170.000000	12.702928
2169.000000	12.726669
2168.000000	12.757381
2167.000000	12.807996
2166.000000	12.867399
2165.000000	12.910740
2164.000000	12.948524
2163.000000	12.988329
2162.000000	13.032679
2161.000000	13.067736
2160.000000	13.125018
2159.000000	13.183311
2158.000000	13.222812
2157.000000	13.273326
2156.000000	13.339094
2155.000000	13.395063
2154.000000	13.432847
2153.000000	13.503465
2152.000000	13.559838
2151.000000	13.628739
2150.000000	13.693295
2149.000000	13.725623
2148.000000	13.805940
2147.000000	13.865546
2146.000000	13.900400
2145.000000	13.960511
2144.000000	14.014055
2143.000000	14.064367
2142.000000	14.110132
2141.000000	14.151553
2140.000000	14.207724
2139.000000	14.255914
2138.000000	14.291374
2137.000000	14.326128
2136.000000	14.368357
2135.000000	14.398059
2134.000000	14.424831
2133.000000	14.447259
2132.000000	14.461605
2131.000000	14.485245
2130.000000	14.503228
2129.000000	14.508784
2128.000000	14.523736
2127.000000	14.528283
2126.000000	14.526666
2125.000000	14.513634
2124.000000	14.487872
2123.000000	14.466656
2122.000000	14.452512
2121.000000	14.443622
2120.000000	14.427155
2119.000000	14.398463
2118.000000	14.365124
2117.000000	14.346333
2116.000000	14.322693
2115.000000	14.294607
2114.000000	14.266825
2113.000000	14.244296
2112.000000	14.217928
2111.000000	14.189842
2110.000000	14.159534
2109.000000	14.129024
2108.000000	14.113668
2107.000000	14.088310
2106.000000	14.056891
2105.000000	14.032139
2104.000000	14.005165
2103.000000	13.984050
2102.000000	13.959602
2101.000000	13.928890
2100.000000	13.887873
2099.000000	13.855544
2098.000000	13.838268
2097.000000	13.813820
2096.000000	13.778460
2095.000000	13.747243
2094.000000	13.722997
2093.000000	13.697336
2092.000000	13.678040
2091.000000	13.669553
2090.000000	13.652682
2089.000000	13.623586
2088.000000	13.598026
2087.000000	13.593682
2086.000000	13.580448
2085.000000	13.537915
2084.000000	13.507102
2083.000000	13.482654
2082.000000	13.465479
2081.000000	13.440020
2080.000000	13.420017
2079.000000	13.399710
2078.000000	13.364553
2077.000000	13.324849
2076.000000	13.305755
2075.000000	13.275447
2074.000000	13.239482
2073.000000	13.213013
2072.000000	13.184220
2071.000000	13.152295
2070.000000	13.111481
2069.000000	13.080465
2068.000000	13.068746
2067.000000	13.027022
2066.000000	12.983883
2065.000000	12.964789
2064.000000	12.927915
2063.000000	12.904880
2062.000000	12.895889
2061.000000	12.888413
2060.000000	12.890434
2059.000000	12.886089
2058.000000	12.884170
2057.000000	12.895081
2056.000000	12.923570
2055.000000	12.957819
2054.000000	12.991764
2053.000000	13.031164
2052.000000	13.095518
2051.000000	13.170480
2050.000000	13.242816
2049.000000	13.313332
2048.000000	13.425876
2047.000000	13.513164
2046.000000	13.616211
2045.000000	13.743707
2044.000000	13.868374
2043.000000	14.001528
2042.000000	14.111142
2041.000000	14.250155
2040.000000	14.368963
2039.000000	14.494135
2038.000000	14.605871
2037.000000	14.733064
2036.000000	14.831970
2035.000000	14.947342
2034.000000	15.066049
2033.000000	15.156771
2032.000000	15.238603
2031.000000	15.337003
2030.000000	15.424291
2029.000000	15.501778
2028.000000	15.584924
2027.000000	15.657259
2026.000000	15.732625
2025.000000	15.789806
2024.000000	15.881640
2023.000000	15.929223
2022.000000	15.976908
2021.000000	16.046617
2020.000000	16.106425
2019.000000	16.152897
2018.000000	16.213816
2017.000000	16.244326
2016.000000	16.297265
2015.000000	16.347677
2014.000000	16.368186
2013.000000	16.397281
2012.000000	16.432944
2011.000000	16.457089
2010.000000	16.482346
2009.000000	16.492247
2008.000000	16.488307
2007.000000	16.490832
2006.000000	16.479719
2005.000000	16.491741
2004.000000	16.494671
2003.000000	16.476789
2002.000000	16.470627
2001.000000	16.433651
2000.000000	16.418093
1999.000000	16.400716
1998.000000	16.365357
1997.000000	16.322319
1996.000000	16.293122
1995.000000	16.245438
1994.000000	16.210381
1993.000000	16.146936
1992.000000	16.103192
1991.000000	16.053284
1990.000000	15.988223
1989.000000	15.933669
1988.000000	15.875477
1987.000000	15.804354
1986.000000	15.743839
1985.000000	15.662916
1984.000000	15.595127
1983.000000	15.536835
1982.000000	15.478138
1981.000000	15.395599
1980.000000	15.333164
1979.000000	15.278307
1978.000000	15.195566
1977.000000	15.107571
1976.000000	15.034529
1975.000000	14.972700
1974.000000	14.898041
1973.000000	14.835809
1972.000000	14.783578
1971.000000	14.724477
1970.000000	14.646585
1969.000000	14.583241
1968.000000	14.534546
1967.000000	14.463120
1966.000000	14.419274
1965.000000	14.361184
1964.000000	14.297537
1963.000000	14.242477
1962.000000	14.177517
1961.000000	14.120942
1960.000000	14.051637
1959.000000	14.006377
1958.000000	13.934446
1957.000000	13.892419
1956.000000	13.848270
1955.000000	13.767145
1954.000000	13.718653
1953.000000	13.668240
1952.000000	13.612170
1951.000000	13.553473
1950.000000	13.515689
1949.000000	13.479623
1948.000000	13.443152
1947.000000	13.400115
1946.000000	13.348692
1945.000000	13.331517
1944.000000	13.318081
1943.000000	13.290197
1942.000000	13.314141
1941.000000	13.278579
1940.000000	13.283833
1939.000000	13.284237
1938.000000	13.287975
1937.000000	13.293127
1936.000000	13.320202
1935.000000	13.350207
1934.000000	13.390719
1933.000000	13.435979
1932.000000	13.475178
1931.000000	13.549331
1930.000000	13.639548
1929.000000	13.703498
1928.000000	13.804121
1927.000000	13.874840
1926.000000	13.966169
1925.000000	14.097100
1924.000000	14.201359
1923.000000	14.313701
1922.000000	14.480699
1921.000000	14.616681
1920.000000	14.782365
1919.000000	14.920671
1918.000000	15.097367
1917.000000	15.244261
1916.000000	15.381556
1915.000000	15.586641
1914.000000	15.801828
1913.000000	16.019643
1912.000000	16.227455
1911.000000	16.433449
1910.000000	16.617318
1909.000000	16.811290
1908.000000	17.035266
1907.000000	17.280560
1906.000000	17.552525
1905.000000	17.851059
1904.000000	18.121710
1903.000000	18.364377
1902.000000	18.610176
1901.000000	18.869007
1900.000000	19.146124
1899.000000	19.447588
1898.000000	19.736424
1897.000000	20.030413
1896.000000	20.273989
1895.000000	20.520191
1894.000000	20.797914
1893.000000	21.105441
1892.000000	21.424484
1891.000000	21.752114
1890.000000	22.058428
1889.000000	22.348880
1888.000000	22.676107
1887.000000	23.007677
1886.000000	23.376426
1885.000000	23.814680
1884.000000	24.311026
1883.000000	24.798279
1882.000000	25.277551
1881.000000	25.792283
1880.000000	26.278425
1879.000000	26.768204
1878.000000	27.238080
1877.000000	27.695126
1876.000000	28.105598
1875.000000	28.524557
1874.000000	28.896943
1873.000000	29.240939
1872.000000	29.539171
1871.000000	29.793153
1870.000000	30.001773
1869.000000	30.190189
1868.000000	30.305864
1867.000000	30.398809
1866.000000	30.479631
1865.000000	30.554593
1864.000000	30.620159
1863.000000	30.690676
1862.000000	30.770083
1861.000000	30.832013
1860.000000	30.866160
1859.000000	30.887881
1858.000000	30.904752
1857.000000	30.902429
1856.000000	30.889295
1855.000000	30.867170
1854.000000	30.807766
1853.000000	30.732097
1852.000000	30.673198
1851.000000	30.640870
1850.000000	30.627837
1849.000000	30.606016
1848.000000	30.521355
1847.000000	30.399820
1846.000000	30.282224
1845.000000	30.200796
1844.000000	30.150889
1843.000000	30.137857
1842.000000	30.131593
1841.000000	30.087040
1840.000000	30.023696
1839.000000	29.969041
1838.000000	29.906909
1837.000000	29.834271
1836.000000	29.743447
1835.000000	29.637571
1834.000000	29.537858
1833.000000	29.445216
1832.000000	29.360151
1831.000000	29.280441
1830.000000	29.190325
1829.000000	29.091116
1828.000000	28.991100
1827.000000	28.902095
1826.000000	28.808039
1825.000000	28.727318
1824.000000	28.683372
1823.000000	28.673572
1822.000000	28.675592
1821.000000	28.655488
1820.000000	28.612249
1819.000000	28.558199
1818.000000	28.520415
1817.000000	28.512434
1816.000000	28.510716
1815.000000	28.494249
1814.000000	28.466770
1813.000000	28.465962
1812.000000	28.466164
1811.000000	28.423732
1810.000000	28.370895
1809.000000	28.325534
1808.000000	28.289164
1807.000000	28.255724
1806.000000	28.205514
1805.000000	28.135199
1804.000000	28.087919
1803.000000	28.063975
1802.000000	28.011946
1801.000000	27.943551
1800.000000	27.884046
1799.000000	27.823228
1798.000000	27.781807
1797.000000	27.731698
1796.000000	27.677547
1795.000000	27.623902
1794.000000	27.570762
1793.000000	27.517015
1792.000000	27.456500
1791.000000	27.395581
1790.000000	27.325266
1789.000000	27.264650
1788.000000	27.195649
1787.000000	27.132406
1786.000000	27.063000
1785.000000	26.968338
1784.000000	26.877515
1783.000000	26.776892
1782.000000	26.697788
1781.000000	26.588780
1780.000000	26.488258
1779.000000	26.389352
1778.000000	26.284385
1777.000000	26.172246
1776.000000	26.036566
1775.000000	25.891391
1774.000000	25.744699
1773.000000	25.584370
1772.000000	25.412422
1771.000000	25.255123
1770.000000	25.106310
1769.000000	24.943455
1768.000000	24.786762
1767.000000	24.665630
1766.000000	24.566523
1765.000000	24.479842
1764.000000	24.420640
1763.000000	24.394474
1762.000000	24.406092
1761.000000	24.437310
1760.000000	24.496713
1759.000000	24.561674
1758.000000	24.632696
1757.000000	24.687957
1756.000000	24.737360
1755.000000	24.749786
1754.000000	24.770294
1753.000000	24.762111
1752.000000	24.723822
1751.000000	24.660882
1750.000000	24.589759
1749.000000	24.498633
1748.000000	24.412053
1747.000000	24.298802
1746.000000	24.137765
1745.000000	23.984810
1744.000000	23.768410
1743.000000	23.538372
1742.000000	23.287522
1741.000000	23.038995
1740.000000	22.771577
1739.000000	22.481024
1738.000000	22.226436
1737.000000	22.017209
1736.000000	21.858900
1735.000000	21.738374
1734.000000	21.704833
1733.000000	21.700893
1732.000000	21.756256
1731.000000	21.836371
1730.000000	21.936589
1729.000000	22.071359
1728.000000	22.194006
1727.000000	22.327059
1726.000000	22.416467
1725.000000	22.476275
1724.000000	22.553460
1723.000000	22.588011
1722.000000	22.593972
1721.000000	22.633069
1720.000000	22.646708
1719.000000	22.652870
1718.000000	22.713487
1717.000000	22.762384
1716.000000	22.821181
1715.000000	22.898871
1714.000000	22.960194
1713.000000	23.056271
1712.000000	23.092237
1711.000000	23.120423
1710.000000	23.131031
1709.000000	23.145882
1708.000000	23.105976
1707.000000	23.070819
1706.000000	23.006162
1705.000000	22.937766
1704.000000	22.889678
1703.000000	22.772890
1702.000000	22.654487
1701.000000	22.512645
1700.000000	22.315642
1699.000000	22.133794
1698.000000	21.962351
1697.000000	21.835360
1696.000000	21.750094
1695.000000	21.744537
1694.000000	21.826571
1693.000000	21.949521
1692.000000	22.130763
1691.000000	22.323321
1690.000000	22.506381
1689.000000	22.639535
1688.000000	22.698535
1687.000000	22.730358
1686.000000	22.740461
1685.000000	22.781478
1684.000000	22.905842
1683.000000	23.166694
1682.000000	23.592926
1681.000000	24.077148
1680.000000	24.716447
1679.000000	25.369586
1678.000000	25.995751
1677.000000	26.594538
1676.000000	27.150793
1675.000000	27.618547
1674.000000	28.040234
1673.000000	28.379887
1672.000000	28.685897
1671.000000	28.956447
1670.000000	29.184061
1669.000000	29.406523
1668.000000	29.592513
1667.000000	29.740821
1666.000000	29.878419
1665.000000	29.987326
1664.000000	30.092395
1663.000000	30.185541
1662.000000	30.289397
1661.000000	30.342133
1660.000000	30.415075
1659.000000	30.468821
1658.000000	30.509939
1657.000000	30.556714
1656.000000	30.548531
1655.000000	30.543278
1654.000000	30.563988
1653.000000	30.554694
1652.000000	30.540146
1651.000000	30.511959
1650.000000	30.473872
1649.000000	30.458415
1648.000000	30.399921
1647.000000	30.354559
1646.000000	30.294752
1645.000000	30.238884
1644.000000	30.185743
1643.000000	30.109973
1642.000000	30.048852
1641.000000	29.979850
1640.000000	29.910950
1639.000000	29.843363
1638.000000	29.753146
1637.000000	29.695965
1636.000000	29.618275
1635.000000	29.519370
1634.000000	29.440872
1633.000000	29.346614
1632.000000	29.260134
1631.000000	29.173857
1630.000000	29.073639
1629.000000	28.976148
1628.000000	28.892598
1627.000000	28.777428
1626.000000	28.683068
1625.000000	28.593256
1624.000000	28.491521
1623.000000	28.388979
1622.000000	28.299267
1621.000000	28.187935
1620.000000	28.099335
1619.000000	28.019422
1618.000000	27.927286
1617.000000	27.838887
1616.000000	27.732708
1615.000000	27.645926
1614.000000	27.558638
1613.000000	27.468017
