PE UV       SUBTECH     SPECTRUM    ASCII       PEDS        4.00        
   -1
CICIMAUCR0013-3.Sample.ASC
24/04/04
14:19:19.00
24/04/04
14:19:19.00
Vinicio Soto Monge
C. resplendens
250,000000
1
Lambda 1050
1050L1511233
PerkinElmer UV WinLab 6.3.2.0749 / 2.02.05 Lambda 900 UV/VIS/NIR, Aug  7 2015 09:38:08

0
0
3350/servo 860,8/2
0
0
UV/VIS
1
1
1
DoubleDePol,CommonBeamDepol,RBeamAtt,SBeamAtt,60mm sphere, WB InGaAs Detector
0
0
0
0
Program
Program
3350/servo 860,8/2
3350/0,2 860,8/0,2
3350/0,2 860,8/0,2
0
15.00
 
 
 
0
 
860,8
319,2
860,8
Front
100
on
S:100 R:100
0
0
0
0
 
0
 
 
 
0
 
 
0
0
0
0
0
 
 
 
 
0
0


0
0
#HDR
-1
-1
#GR
nm
%R
1.0
0.0
2500,000000
-1,000000
2251
8
70,616200
5,151800
#DATA
2500.000000	6.912521
2499.000000	6.826636
2498.000000	6.859380
2497.000000	6.738495
2496.000000	6.786699
2495.000000	6.854871
2494.000000	6.855944
2493.000000	6.811713
2492.000000	6.837693
2491.000000	6.817295
2490.000000	6.750841
2489.000000	6.696304
2488.000000	6.787235
2487.000000	6.795073
2486.000000	6.835439
2485.000000	6.709509
2484.000000	6.775104
2483.000000	6.773494
2482.000000	6.817618
2481.000000	6.790993
2480.000000	6.736563
2479.000000	6.728189
2478.000000	6.849073
2477.000000	6.839518
2476.000000	6.816222
2475.000000	6.786484
2474.000000	6.824274
2473.000000	6.847892
2472.000000	6.778969
2471.000000	6.874087
2470.000000	6.878489
2469.000000	6.871833
2468.000000	6.826421
2467.000000	6.845530
2466.000000	6.899424
2465.000000	6.867646
2464.000000	6.916816
2463.000000	6.945480
2462.000000	6.996582
2461.000000	7.005171
2460.000000	7.031795
2459.000000	7.057668
2458.000000	7.081931
2457.000000	7.153324
2456.000000	7.192294
2455.000000	7.229870
2454.000000	7.305986
2453.000000	7.344957
2452.000000	7.416027
2451.000000	7.442652
2450.000000	7.488815
2449.000000	7.547969
2448.000000	7.656293
2447.000000	7.686782
2446.000000	7.752377
2445.000000	7.819476
2444.000000	7.853508
2443.000000	7.931127
2442.000000	7.968810
2441.000000	8.025924
2440.000000	8.083467
2439.000000	8.132422
2438.000000	8.183202
2437.000000	8.223354
2436.000000	8.287768
2435.000000	8.329745
2434.000000	8.367857
2433.000000	8.411337
2432.000000	8.444832
2431.000000	8.480260
2430.000000	8.544138
2429.000000	8.564321
2428.000000	8.588047
2427.000000	8.619502
2426.000000	8.641940
2425.000000	8.673932
2424.000000	8.704851
2423.000000	8.721277
2422.000000	8.738884
2421.000000	8.764542
2420.000000	8.805230
2419.000000	8.855152
2418.000000	8.907327
2417.000000	8.919459
2416.000000	8.921391
2415.000000	8.948445
2414.000000	8.985483
2413.000000	8.991173
2412.000000	9.016188
2411.000000	9.051508
2410.000000	9.079958
2409.000000	9.091123
2408.000000	9.122686
2407.000000	9.147163
2406.000000	9.161442
2405.000000	9.189677
2404.000000	9.213403
2403.000000	9.244537
2402.000000	9.249690
2401.000000	9.267189
2400.000000	9.297893
2399.000000	9.345130
2398.000000	9.362737
2397.000000	9.375942
2396.000000	9.400849
2395.000000	9.426937
2394.000000	9.449589
2393.000000	9.467732
2392.000000	9.483192
2391.000000	9.504449
2390.000000	9.518834
2389.000000	9.513896
2388.000000	9.537515
2387.000000	9.546855
2386.000000	9.535045
2385.000000	9.530751
2384.000000	9.534831
2383.000000	9.532039
2382.000000	9.511427
2381.000000	9.507884
2380.000000	9.497148
2379.000000	9.477931
2378.000000	9.453991
2377.000000	9.440893
2376.000000	9.440893
2375.000000	9.412658
2374.000000	9.371111
2373.000000	9.341373
2372.000000	9.321726
2371.000000	9.285762
2370.000000	9.239061
2369.000000	9.197943
2368.000000	9.157792
2367.000000	9.105294
2366.000000	9.035619
2365.000000	8.990207
2364.000000	8.933200
2363.000000	8.850750
2362.000000	8.786550
2361.000000	8.736522
2360.000000	8.681662
2359.000000	8.609840
2358.000000	8.540809
2357.000000	8.490029
2356.000000	8.463297
2355.000000	8.437317
2354.000000	8.417993
2353.000000	8.406720
2352.000000	8.392442
2351.000000	8.403499
2350.000000	8.431734
2349.000000	8.459003
2348.000000	8.469739
2347.000000	8.502376
2346.000000	8.539736
2345.000000	8.575056
2344.000000	8.616604
2343.000000	8.643443
2342.000000	8.672859
2341.000000	8.708394
2340.000000	8.714299
2339.000000	8.717734
2338.000000	8.716553
2337.000000	8.713869
2336.000000	8.700772
2335.000000	8.683702
2334.000000	8.645161
2333.000000	8.605116
2332.000000	8.568508
2331.000000	8.509998
2330.000000	8.464264
2329.000000	8.405432
2328.000000	8.335435
2327.000000	8.264579
2326.000000	8.189000
2325.000000	8.112883
2324.000000	8.034298
2323.000000	7.936388
2322.000000	7.841055
2321.000000	7.759570
2320.000000	7.664881
2319.000000	7.551512
2318.000000	7.446839
2317.000000	7.339267
2316.000000	7.232553
2315.000000	7.151928
2314.000000	7.061533
2313.000000	6.978976
2312.000000	6.903396
2311.000000	6.825347
2310.000000	6.784659
2309.000000	6.728833
2308.000000	6.705537
2307.000000	6.690184
2306.000000	6.672148
2305.000000	6.676335
2304.000000	6.699417
2303.000000	6.733342
2302.000000	6.780579
2301.000000	6.841451
2300.000000	6.872692
2299.000000	6.927229
2298.000000	6.990463
2297.000000	7.040277
2296.000000	7.089876
2295.000000	7.120687
2294.000000	7.164382
2293.000000	7.199810
2292.000000	7.194656
2291.000000	7.210438
2290.000000	7.215698
2289.000000	7.213981
2288.000000	7.176298
2287.000000	7.151284
2286.000000	7.124015
2285.000000	7.078818
2284.000000	7.026213
2283.000000	6.976721
2282.000000	6.924223
2281.000000	6.860560
2280.000000	6.834687
2279.000000	6.763509
2278.000000	6.700813
2277.000000	6.655079
2276.000000	6.614498
2275.000000	6.565006
2274.000000	6.523136
2273.000000	6.509395
2272.000000	6.479442
2271.000000	6.458937
2270.000000	6.488675
2269.000000	6.490070
2268.000000	6.500591
2267.000000	6.525713
2266.000000	6.560712
2265.000000	6.646812
2264.000000	6.706073
2263.000000	6.788094
2262.000000	6.903074
2261.000000	7.012900
2260.000000	7.131530
2259.000000	7.260681
2258.000000	7.405399
2257.000000	7.551834
2256.000000	7.696874
2255.000000	7.835043
2254.000000	7.993502
2253.000000	8.147882
2252.000000	8.261036
2251.000000	8.395126
2250.000000	8.551867
2249.000000	8.676080
2248.000000	8.778606
2247.000000	8.869752
2246.000000	8.978290
2245.000000	9.070618
2244.000000	9.179263
2243.000000	9.270839
2242.000000	9.317647
2241.000000	9.404606
2240.000000	9.472027
2239.000000	9.543204
2238.000000	9.603217
2237.000000	9.647663
2236.000000	9.685453
2235.000000	9.756738
2234.000000	9.763716
2233.000000	9.819220
2232.000000	9.822548
2231.000000	9.826091
2230.000000	9.818791
2229.000000	9.831244
2228.000000	9.808270
2227.000000	9.784758
2226.000000	9.752659
2225.000000	9.732475
2224.000000	9.671711
2223.000000	9.629305
2222.000000	9.565964
2221.000000	9.534079
2220.000000	9.485661
2219.000000	9.413839
2218.000000	9.374117
2217.000000	9.301221
2216.000000	9.254843
2215.000000	9.204278
2214.000000	9.167669
2213.000000	9.152853
2212.000000	9.127302
2211.000000	9.113775
2210.000000	9.126873
2209.000000	9.145446
2208.000000	9.177331
2207.000000	9.224139
2206.000000	9.302187
2205.000000	9.374976
2204.000000	9.482762
2203.000000	9.608156
2202.000000	9.720022
2201.000000	9.846489
2200.000000	9.987986
2199.000000	10.143224
2198.000000	10.289123
2197.000000	10.430405
2196.000000	10.582101
2195.000000	10.719626
2194.000000	10.880340
2193.000000	10.997788
2192.000000	11.124685
2191.000000	11.226782
2190.000000	11.333602
2189.000000	11.427754
2188.000000	11.497215
2187.000000	11.568285
2186.000000	11.639463
2185.000000	11.705166
2184.000000	11.762172
2183.000000	11.775377
2182.000000	11.803505
2181.000000	11.838074
2180.000000	11.881768
2179.000000	11.918592
2178.000000	11.933944
2177.000000	11.955630
2176.000000	11.980537
2175.000000	11.991488
2174.000000	12.025090
2173.000000	12.051822
2172.000000	12.082204
2171.000000	12.092296
2170.000000	12.129442
2169.000000	12.145867
2168.000000	12.170452
2167.000000	12.197721
2166.000000	12.233686
2165.000000	12.267503
2164.000000	12.293484
2163.000000	12.321611
2162.000000	12.345874
2161.000000	12.375612
2160.000000	12.417803
2159.000000	12.445072
2158.000000	12.490699
2157.000000	12.535574
2156.000000	12.560696
2155.000000	12.613408
2154.000000	12.646904
2153.000000	12.680077
2152.000000	12.734293
2151.000000	12.772512
2150.000000	12.817602
2149.000000	12.858398
2148.000000	12.898227
2147.000000	12.942458
2146.000000	12.974880
2145.000000	13.021259
2144.000000	13.048850
2143.000000	13.087069
2142.000000	13.127972
2141.000000	13.162434
2140.000000	13.197217
2139.000000	13.226741
2138.000000	13.244669
2137.000000	13.269147
2136.000000	13.294805
2135.000000	13.311016
2134.000000	13.334205
2133.000000	13.351704
2132.000000	13.364480
2131.000000	13.381228
2130.000000	13.393896
2129.000000	13.393037
2128.000000	13.401948
2127.000000	13.401733
2126.000000	13.386488
2125.000000	13.389280
2124.000000	13.398083
2123.000000	13.394647
2122.000000	13.375538
2121.000000	13.365124
2120.000000	13.348054
2119.000000	13.331521
2118.000000	13.326476
2117.000000	13.296845
2116.000000	13.282352
2115.000000	13.265389
2114.000000	13.222446
2113.000000	13.199901
2112.000000	13.173813
2111.000000	13.149121
2110.000000	13.140425
2109.000000	13.114982
2108.000000	13.079339
2107.000000	13.060444
2106.000000	13.047991
2105.000000	13.030814
2104.000000	13.006229
2103.000000	12.965755
2102.000000	12.951154
2101.000000	12.957381
2100.000000	12.932582
2099.000000	12.889853
2098.000000	12.860652
2097.000000	12.849594
2096.000000	12.834672
2095.000000	12.830592
2094.000000	12.805471
2093.000000	12.774015
2092.000000	12.772619
2091.000000	12.763923
2090.000000	12.756623
2089.000000	12.758877
2088.000000	12.727529
2087.000000	12.718296
2086.000000	12.700475
2085.000000	12.675676
2084.000000	12.668268
2083.000000	12.660001
2082.000000	12.641536
2081.000000	12.626291
2080.000000	12.633162
2079.000000	12.618991
2078.000000	12.600418
2077.000000	12.591615
2076.000000	12.564239
2075.000000	12.562628
2074.000000	12.563487
2073.000000	12.551248
2072.000000	12.518505
2071.000000	12.491558
2070.000000	12.493598
2069.000000	12.483506
2068.000000	12.469335
2067.000000	12.453017
2066.000000	12.442818
2065.000000	12.436698
2064.000000	12.434122
2063.000000	12.449259
2062.000000	12.458707
2061.000000	12.451406
2060.000000	12.457740
2059.000000	12.477601
2058.000000	12.504548
2057.000000	12.523550
2056.000000	12.563165
2055.000000	12.603746
2054.000000	12.663222
2053.000000	12.711640
2052.000000	12.807510
2051.000000	12.884056
2050.000000	12.982503
2049.000000	13.072898
2048.000000	13.155670
2047.000000	13.273870
2046.000000	13.403451
2045.000000	13.539902
2044.000000	13.680540
2043.000000	13.820963
2042.000000	13.943243
2041.000000	14.085277
2040.000000	14.234289
2039.000000	14.372350
2038.000000	14.515458
2037.000000	14.646433
2036.000000	14.769250
2035.000000	14.924274
2034.000000	15.033886
2033.000000	15.167224
2032.000000	15.281452
2031.000000	15.397398
2030.000000	15.501320
2029.000000	15.609214
2028.000000	15.717537
2027.000000	15.799880
2026.000000	15.916578
2025.000000	15.992909
2024.000000	16.092751
2023.000000	16.189480
2022.000000	16.266133
2021.000000	16.341390
2020.000000	16.443058
2019.000000	16.515846
2018.000000	16.597438
2017.000000	16.663140
2016.000000	16.731956
2015.000000	16.814192
2014.000000	16.870447
2013.000000	16.929816
2012.000000	16.967176
2011.000000	17.013447
2010.000000	17.040394
2009.000000	17.071957
2008.000000	17.112108
2007.000000	17.142598
2006.000000	17.146141
2005.000000	17.173946
2004.000000	17.189728
2003.000000	17.200463
2002.000000	17.194344
2001.000000	17.177167
2000.000000	17.160312
1999.000000	17.160312
1998.000000	17.134009
1997.000000	17.132184
1996.000000	17.089671
1995.000000	17.057356
1994.000000	17.030302
1993.000000	17.000564
1992.000000	16.940873
1991.000000	16.892241
1990.000000	16.865938
1989.000000	16.787353
1988.000000	16.736573
1987.000000	16.682464
1986.000000	16.628464
1985.000000	16.545584
1984.000000	16.484390
1983.000000	16.437046
1982.000000	16.368659
1981.000000	16.298877
1980.000000	16.226303
1979.000000	16.160171
1978.000000	16.085558
1977.000000	16.004288
1976.000000	15.948248
1975.000000	15.877070
1974.000000	15.787641
1973.000000	15.717967
1972.000000	15.663107
1971.000000	15.604812
1970.000000	15.536640
1969.000000	15.459235
1968.000000	15.381509
1967.000000	15.355850
1966.000000	15.278768
1965.000000	15.195351
1964.000000	15.142102
1963.000000	15.094757
1962.000000	15.031739
1961.000000	14.973873
1960.000000	14.911177
1959.000000	14.831195
1958.000000	14.771934
1957.000000	14.713532
1956.000000	14.659209
1955.000000	14.586957
1954.000000	14.533171
1953.000000	14.480244
1952.000000	14.429357
1951.000000	14.366446
1950.000000	14.296878
1949.000000	14.263275
1948.000000	14.225700
1947.000000	14.192419
1946.000000	14.147759
1945.000000	14.113619
1944.000000	14.062732
1943.000000	14.070998
1942.000000	14.058115
1941.000000	14.052748
1940.000000	14.046521
1939.000000	14.071320
1938.000000	14.084203
1937.000000	14.105245
1936.000000	14.111687
1935.000000	14.152483
1934.000000	14.207449
1933.000000	14.266925
1932.000000	14.322107
1931.000000	14.388454
1930.000000	14.486471
1929.000000	14.575685
1928.000000	14.666509
1927.000000	14.784817
1926.000000	14.873387
1925.000000	15.016494
1924.000000	15.120631
1923.000000	15.223157
1922.000000	15.384622
1921.000000	15.557789
1920.000000	15.746202
1919.000000	15.936761
1918.000000	16.056464
1917.000000	16.244017
1916.000000	16.399256
1915.000000	16.592929
1914.000000	16.812474
1913.000000	17.047587
1912.000000	17.302238
1911.000000	17.485926
1910.000000	17.702359
1909.000000	17.879606
1908.000000	18.091958
1907.000000	18.328252
1906.000000	18.587734
1905.000000	18.908089
1904.000000	19.184641
1903.000000	19.399356
1902.000000	19.640802
1901.000000	19.890300
1900.000000	20.162129
1899.000000	20.471533
1898.000000	20.728654
1897.000000	20.992645
1896.000000	21.200167
1895.000000	21.446552
1894.000000	21.691863
1893.000000	21.934920
1892.000000	22.219095
1891.000000	22.492856
1890.000000	22.750513
1889.000000	22.989598
1888.000000	23.273129
1887.000000	23.540663
1886.000000	23.847061
1885.000000	24.186739
1884.000000	24.592979
1883.000000	25.015538
1882.000000	25.439169
1881.000000	25.892539
1880.000000	26.321754
1879.000000	26.755048
1878.000000	27.178680
1877.000000	27.555826
1876.000000	27.905703
1875.000000	28.235290
1874.000000	28.517103
1873.000000	28.778947
1872.000000	29.023722
1871.000000	29.216428
1870.000000	29.367802
1869.000000	29.519928
1868.000000	29.643818
1867.000000	29.709198
1866.000000	29.748491
1865.000000	29.795728
1864.000000	29.841141
1863.000000	29.886231
1862.000000	29.927563
1861.000000	29.938406
1860.000000	29.939802
1859.000000	29.914251
1858.000000	29.877964
1857.000000	29.857996
1856.000000	29.814623
1855.000000	29.754503
1854.000000	29.683325
1853.000000	29.582195
1852.000000	29.496309
1851.000000	29.444992
1850.000000	29.406236
1849.000000	29.356315
1848.000000	29.249065
1847.000000	29.117767
1846.000000	28.995809
1845.000000	28.907991
1844.000000	28.865155
1843.000000	28.864511
1842.000000	28.834129
1841.000000	28.772184
1840.000000	28.699074
1839.000000	28.644107
1838.000000	28.574324
1837.000000	28.494343
1836.000000	28.421233
1835.000000	28.315701
1834.000000	28.219616
1833.000000	28.147687
1832.000000	28.065344
1831.000000	27.983537
1830.000000	27.887667
1829.000000	27.775479
1828.000000	27.654702
1827.000000	27.558724
1826.000000	27.470692
1825.000000	27.392535
1824.000000	27.349163
1823.000000	27.333489
1822.000000	27.319103
1821.000000	27.294411
1820.000000	27.239229
1819.000000	27.166226
1818.000000	27.137884
1817.000000	27.139709
1816.000000	27.146795
1815.000000	27.131335
1814.000000	27.102563
1813.000000	27.104925
1812.000000	27.093438
1811.000000	27.042980
1810.000000	26.980391
1809.000000	26.929181
1808.000000	26.897189
1807.000000	26.868739
1806.000000	26.825152
1805.000000	26.738622
1804.000000	26.663365
1803.000000	26.624931
1802.000000	26.581129
1801.000000	26.527450
1800.000000	26.449080
1799.000000	26.369420
1798.000000	26.315956
1797.000000	26.267968
1796.000000	26.215577
1795.000000	26.160825
1794.000000	26.106824
1793.000000	26.043376
1792.000000	25.973594
1791.000000	25.899303
1790.000000	25.822972
1789.000000	25.760705
1788.000000	25.678362
1787.000000	25.595482
1786.000000	25.517862
1785.000000	25.423281
1784.000000	25.322579
1783.000000	25.219516
1782.000000	25.132772
1781.000000	25.031534
1780.000000	24.922029
1779.000000	24.815209
1778.000000	24.715259
1777.000000	24.600387
1776.000000	24.473598
1775.000000	24.330920
1774.000000	24.196509
1773.000000	24.016900
1772.000000	23.840297
1771.000000	23.688494
1770.000000	23.544743
1769.000000	23.395301
1768.000000	23.241351
1767.000000	23.117246
1766.000000	23.003555
1765.000000	22.916703
1764.000000	22.862916
1763.000000	22.836399
1762.000000	22.850785
1761.000000	22.882670
1760.000000	22.946440
1759.000000	23.033400
1758.000000	23.099961
1757.000000	23.167167
1756.000000	23.212257
1755.000000	23.260675
1754.000000	23.270123
1753.000000	23.281181
1752.000000	23.249510
1751.000000	23.197979
1750.000000	23.155143
1749.000000	23.073981
1748.000000	22.982513
1747.000000	22.885247
1746.000000	22.750835
1745.000000	22.591303
1744.000000	22.406111
1743.000000	22.192470
1742.000000	21.957895
1741.000000	21.675760
1740.000000	21.414667
1739.000000	21.130385
1738.000000	20.877021
1737.000000	20.696554
1736.000000	20.535947
1735.000000	20.443620
1734.000000	20.402824
1733.000000	20.425584
1732.000000	20.493326
1731.000000	20.566007
1730.000000	20.696017
1729.000000	20.821303
1728.000000	20.964517
1727.000000	21.094742
1726.000000	21.234521
1725.000000	21.315361
1724.000000	21.390726
1723.000000	21.414559
1722.000000	21.457717
1721.000000	21.458361
1720.000000	21.476504
1719.000000	21.495936
1718.000000	21.525245
1717.000000	21.566255
1716.000000	21.623906
1715.000000	21.683489
1714.000000	21.763148
1713.000000	21.825094
1712.000000	21.874478
1711.000000	21.918602
1710.000000	21.925043
1709.000000	21.928157
1708.000000	21.914737
1707.000000	21.912912
1706.000000	21.832179
1705.000000	21.822946
1704.000000	21.750480
1703.000000	21.661052
1702.000000	21.539416
1701.000000	21.404682
1700.000000	21.232803
1699.000000	21.043210
1698.000000	20.888186
1697.000000	20.743684
1696.000000	20.667030
1695.000000	20.623551
1694.000000	20.694192
1693.000000	20.805521
1692.000000	20.951098
1691.000000	21.169248
1690.000000	21.340483
1689.000000	21.478007
1688.000000	21.559492
1687.000000	21.552513
1686.000000	21.541992
1685.000000	21.560780
1684.000000	21.630347
1683.000000	21.818115
1682.000000	22.143408
1681.000000	22.618357
1680.000000	23.211506
1679.000000	23.838794
1678.000000	24.460608
1677.000000	25.016289
1676.000000	25.539226
1675.000000	25.985081
1674.000000	26.372319
1673.000000	26.693103
1672.000000	27.011632
1671.000000	27.238263
1670.000000	27.462318
1669.000000	27.635914
1668.000000	27.778807
1667.000000	27.912359
1666.000000	28.017033
1665.000000	28.115479
1664.000000	28.212423
1663.000000	28.286178
1662.000000	28.334488
1661.000000	28.398903
1660.000000	28.429500
1659.000000	28.456017
1658.000000	28.480065
1657.000000	28.497993
1656.000000	28.501644
1655.000000	28.491230
1654.000000	28.488546
1653.000000	28.466538
1652.000000	28.447965
1651.000000	28.415006
1650.000000	28.397507
1649.000000	28.336421
1648.000000	28.279199
1647.000000	28.226380
1646.000000	28.175385
1645.000000	28.091109
1644.000000	28.046663
1643.000000	27.995025
1642.000000	27.913111
1641.000000	27.844295
1640.000000	27.772366
1639.000000	27.687016
1638.000000	27.609397
1637.000000	27.541118
1636.000000	27.467793
1635.000000	27.394146
1634.000000	27.319747
1633.000000	27.228816
1632.000000	27.126611
1631.000000	27.034069
1630.000000	26.949472
1629.000000	26.865304
1628.000000	26.792086
1627.000000	26.710172
1626.000000	26.602386
1625.000000	26.507589
1624.000000	26.438129
1623.000000	26.351277
1622.000000	26.232218
1621.000000	26.167481
1620.000000	26.090721
1619.000000	25.998716
1618.000000	25.923888
1617.000000	25.863338
1616.000000	25.763818
1615.000000	25.697042
1614.000000	25.626401
1613.000000	25.543628
1612.000000	25.472772
1611.000000	25.414907
