PE UV       SUBTECH     SPECTRUM    ASCII       PEDS        4.00        
   -1
CICIMAUCR0116-1.ASC
24/04/03
16:59:00.00
24/04/03
16:59:00.00
Vinicio Soto Monge
C. kalinini
250,000000
1
Lambda 1050
1050L1511233
PerkinElmer UV WinLab 6.3.2.0749 / 2.02.05 Lambda 900 UV/VIS/NIR, Aug  7 2015 09:38:08

0
0
3350/servo 860,8/2
0
0
UV/VIS
1
1
1
DoubleDePol,CommonBeamDepol,RBeamAtt,SBeamAtt,60mm sphere, WB InGaAs Detector
0
0
0
0
Program
Program
3350/servo 860,8/2
3350/0,2 860,8/0,2
3350/0,2 860,8/0,2
0
15.00
 
 
 
0
 
860,8
319,2
860,8
Front
100
on
S:100 R:100
0
0
0
0
 
0
 
 
 
0
 
 
0
0
0
0
0
 
 
 
 
0
0


0
0
#HDR
-1
-1
#GR
nm
%R
1.0
0.0
2500,000000
-1,000000
2251
8
74,972100
3,970100
#DATA
2500.000000	4.531120
2499.000000	4.607288
2498.000000	4.502988
2497.000000	4.524620
2496.000000	4.672590
2495.000000	4.564837
2494.000000	4.484403
2493.000000	4.522995
2492.000000	4.489176
2491.000000	4.552345
2490.000000	4.470388
2489.000000	4.511417
2488.000000	4.434741
2487.000000	4.459623
2486.000000	4.576110
2485.000000	4.501465
2484.000000	4.482168
2483.000000	4.479833
2482.000000	4.474145
2481.000000	4.485317
2480.000000	4.502988
2479.000000	4.461247
2478.000000	4.482879
2477.000000	4.503597
2476.000000	4.464091
2475.000000	4.477598
2474.000000	4.513042
2473.000000	4.520253
2472.000000	4.451092
2471.000000	4.453428
2470.000000	4.481254
2469.000000	4.467443
2468.000000	4.497808
2467.000000	4.479833
2466.000000	4.459115
2465.000000	4.502277
2464.000000	4.476786
2463.000000	4.478411
2462.000000	4.482676
2461.000000	4.498824
2460.000000	4.542088
2459.000000	4.518526
2458.000000	4.528276
2457.000000	4.524924
2456.000000	4.531120
2455.000000	4.574282
2454.000000	4.576618
2453.000000	4.589008
2452.000000	4.607897
2451.000000	4.650349
2450.000000	4.641513
2449.000000	4.650349
2448.000000	4.648013
2447.000000	4.689753
2446.000000	4.710776
2445.000000	4.699503
2444.000000	4.733119
2443.000000	4.742767
2442.000000	4.778921
2441.000000	4.790194
2440.000000	4.772016
2439.000000	4.790296
2438.000000	4.805733
2437.000000	4.825740
2436.000000	4.834372
2435.000000	4.868597
2434.000000	4.874183
2433.000000	4.876722
2432.000000	4.916025
2431.000000	4.925673
2430.000000	4.939180
2429.000000	4.946696
2428.000000	4.957969
2427.000000	4.980514
2426.000000	4.984374
2425.000000	4.986913
2424.000000	5.012404
2423.000000	5.013419
2422.000000	5.026419
2421.000000	5.039824
2420.000000	5.041246
2419.000000	5.024997
2418.000000	5.032614
2417.000000	5.035051
2416.000000	5.029262
2415.000000	5.053738
2414.000000	5.064605
2413.000000	5.070698
2412.000000	5.071815
2411.000000	5.082276
2410.000000	5.098119
2409.000000	5.109696
2408.000000	5.109493
2407.000000	5.105533
2406.000000	5.119649
2405.000000	5.120969
2404.000000	5.127266
2403.000000	5.139453
2402.000000	5.151538
2401.000000	5.157733
2400.000000	5.170631
2399.000000	5.193990
2398.000000	5.203841
2397.000000	5.183732
2396.000000	5.194599
2395.000000	5.211661
2394.000000	5.214911
2393.000000	5.228012
2392.000000	5.247206
2391.000000	5.246698
2390.000000	5.247714
2389.000000	5.242433
2388.000000	5.258885
2387.000000	5.268533
2386.000000	5.261831
2385.000000	5.256854
2384.000000	5.267518
2383.000000	5.279806
2382.000000	5.282650
2381.000000	5.291993
2380.000000	5.292603
2379.000000	5.276049
2378.000000	5.288134
2377.000000	5.304079
2376.000000	5.289861
2375.000000	5.296056
2374.000000	5.290572
2373.000000	5.271682
2372.000000	5.274627
2371.000000	5.275338
2370.000000	5.272088
2369.000000	5.260003
2368.000000	5.244667
2367.000000	5.238168
2366.000000	5.241722
2365.000000	5.241925
2364.000000	5.221207
2363.000000	5.208614
2362.000000	5.194091
2361.000000	5.182311
2360.000000	5.179772
2359.000000	5.162100
2358.000000	5.158546
2357.000000	5.151843
2356.000000	5.151335
2355.000000	5.160679
2354.000000	5.150624
2353.000000	5.154179
2352.000000	5.146460
2351.000000	5.143008
2350.000000	5.161694
2349.000000	5.174694
2348.000000	5.187693
2347.000000	5.200794
2346.000000	5.200693
2345.000000	5.217957
2344.000000	5.225879
2343.000000	5.224254
2342.000000	5.229230
2341.000000	5.235019
2340.000000	5.250355
2339.000000	5.254011
2338.000000	5.249948
2337.000000	5.252487
2336.000000	5.241621
2335.000000	5.242738
2334.000000	5.243550
2333.000000	5.236746
2332.000000	5.213083
2331.000000	5.202521
2330.000000	5.203232
2329.000000	5.178248
2328.000000	5.174694
2327.000000	5.160577
2326.000000	5.130516
2325.000000	5.106954
2324.000000	5.089283
2323.000000	5.075167
2322.000000	5.048660
2321.000000	5.018497
2320.000000	5.012911
2319.000000	4.982241
2318.000000	4.948422
2317.000000	4.932173
2316.000000	4.884847
2315.000000	4.851536
2314.000000	4.850926
2313.000000	4.826755
2312.000000	4.809795
2311.000000	4.766938
2310.000000	4.751298
2309.000000	4.743478
2308.000000	4.732509
2307.000000	4.705698
2306.000000	4.722354
2305.000000	4.715143
2304.000000	4.692089
2303.000000	4.700315
2302.000000	4.695339
2301.000000	4.684980
2300.000000	4.682746
2299.000000	4.698691
2298.000000	4.701331
2297.000000	4.706206
2296.000000	4.680512
2295.000000	4.683457
2294.000000	4.688027
2293.000000	4.677465
2292.000000	4.670254
2291.000000	4.652583
2290.000000	4.636842
2289.000000	4.605054
2288.000000	4.596320
2287.000000	4.582813
2286.000000	4.561993
2285.000000	4.531018
2284.000000	4.509488
2283.000000	4.479426
2282.000000	4.438194
2281.000000	4.410875
2280.000000	4.392493
2279.000000	4.363955
2278.000000	4.343237
2277.000000	4.303934
2276.000000	4.286974
2275.000000	4.245436
2274.000000	4.221469
2273.000000	4.201157
2272.000000	4.179424
2271.000000	4.154440
2270.000000	4.148245
2269.000000	4.125598
2268.000000	4.120317
2267.000000	4.077459
2266.000000	4.088224
2265.000000	4.100005
2264.000000	4.071670
2263.000000	4.073701
2262.000000	4.104067
2261.000000	4.107520
2260.000000	4.118286
2259.000000	4.117168
2258.000000	4.132504
2257.000000	4.165409
2256.000000	4.165713
2255.000000	4.178205
2254.000000	4.226039
2253.000000	4.220758
2252.000000	4.240866
2251.000000	4.267982
2250.000000	4.285450
2249.000000	4.303528
2248.000000	4.304239
2247.000000	4.335925
2246.000000	4.364361
2245.000000	4.377564
2244.000000	4.370962
2243.000000	4.382540
2242.000000	4.381524
2241.000000	4.420015
2240.000000	4.412195
2239.000000	4.428546
2238.000000	4.432913
2237.000000	4.425397
2236.000000	4.442053
2235.000000	4.426515
2234.000000	4.425804
2233.000000	4.441444
2232.000000	4.438702
2231.000000	4.415445
2230.000000	4.392391
2229.000000	4.382946
2228.000000	4.394118
2227.000000	4.360603
2226.000000	4.322417
2225.000000	4.318863
2224.000000	4.312769
2223.000000	4.262498
2222.000000	4.251733
2221.000000	4.217914
2220.000000	4.207047
2219.000000	4.185111
2218.000000	4.174955
2217.000000	4.132402
2216.000000	4.096349
2215.000000	4.085279
2214.000000	4.085685
2213.000000	4.064663
2212.000000	4.033383
2211.000000	4.031961
2210.000000	4.053695
2209.000000	4.086193
2208.000000	4.094724
2207.000000	4.122145
2206.000000	4.175463
2205.000000	4.209688
2204.000000	4.263717
2203.000000	4.316426
2202.000000	4.378173
2201.000000	4.422859
2200.000000	4.501363
2199.000000	4.590429
2198.000000	4.646286
2197.000000	4.710268
2196.000000	4.789687
2195.000000	4.865449
2194.000000	4.931462
2193.000000	4.982139
2192.000000	5.074253
2191.000000	5.145648
2190.000000	5.185053
2189.000000	5.216434
2188.000000	5.269955
2187.000000	5.309868
2186.000000	5.347241
2185.000000	5.373240
2184.000000	5.434987
2183.000000	5.477743
2182.000000	5.484446
2181.000000	5.508008
2180.000000	5.527405
2179.000000	5.534006
2178.000000	5.575442
2177.000000	5.603472
2176.000000	5.607738
2175.000000	5.635057
2174.000000	5.665017
2173.000000	5.683195
2172.000000	5.714171
2171.000000	5.743216
2170.000000	5.764442
2169.000000	5.770231
2168.000000	5.794199
2167.000000	5.813190
2166.000000	5.837158
2165.000000	5.840306
2164.000000	5.882046
2163.000000	5.900936
2162.000000	5.926732
2161.000000	5.956082
2160.000000	5.979136
2159.000000	6.014681
2158.000000	6.033673
2157.000000	6.050430
2156.000000	6.067187
2155.000000	6.099584
2154.000000	6.127309
2153.000000	6.137059
2152.000000	6.171589
2151.000000	6.199314
2150.000000	6.218509
2149.000000	6.236687
2148.000000	6.264819
2147.000000	6.279443
2146.000000	6.289904
2145.000000	6.320270
2144.000000	6.351448
2143.000000	6.369322
2142.000000	6.377041
2141.000000	6.393798
2140.000000	6.414719
2139.000000	6.428226
2138.000000	6.435234
2137.000000	6.449655
2136.000000	6.476365
2135.000000	6.483779
2134.000000	6.487739
2133.000000	6.507340
2132.000000	6.506324
2131.000000	6.511199
2130.000000	6.506629
2129.000000	6.508356
2128.000000	6.521558
2127.000000	6.523285
2126.000000	6.512113
2125.000000	6.516582
2124.000000	6.503684
2123.000000	6.500840
2122.000000	6.506020
2121.000000	6.501551
2120.000000	6.493122
2119.000000	6.496169
2118.000000	6.475857
2117.000000	6.457170
2116.000000	6.453311
2115.000000	6.441530
2114.000000	6.420203
2113.000000	6.413907
2112.000000	6.390447
2111.000000	6.373588
2110.000000	6.373689
2109.000000	6.358760
2108.000000	6.345456
2107.000000	6.328801
2106.000000	6.302091
2105.000000	6.287670
2104.000000	6.266850
2103.000000	6.253648
2102.000000	6.247757
2101.000000	6.231305
2100.000000	6.219524
2099.000000	6.196978
2098.000000	6.163870
2097.000000	6.142238
2096.000000	6.133301
2095.000000	6.118068
2094.000000	6.101920
2093.000000	6.092373
2092.000000	6.077140
2091.000000	6.064546
2090.000000	6.039157
2089.000000	6.014275
2088.000000	6.012853
2087.000000	5.990714
2086.000000	5.963090
2085.000000	5.955778
2084.000000	5.939935
2083.000000	5.923787
2082.000000	5.905913
2081.000000	5.877070
2080.000000	5.857165
2079.000000	5.842845
2078.000000	5.829947
2077.000000	5.817354
2076.000000	5.790339
2075.000000	5.771246
2074.000000	5.761801
2073.000000	5.735092
2072.000000	5.706452
2071.000000	5.697312
2070.000000	5.689086
2069.000000	5.666134
2068.000000	5.636783
2067.000000	5.611495
2066.000000	5.595652
2065.000000	5.581942
2064.000000	5.566404
2063.000000	5.550865
2062.000000	5.520804
2061.000000	5.501914
2060.000000	5.488813
2059.000000	5.480892
2058.000000	5.485259
2057.000000	5.469415
2056.000000	5.473579
2055.000000	5.465861
2054.000000	5.452760
2053.000000	5.457838
2052.000000	5.483837
2051.000000	5.481196
2050.000000	5.501102
2049.000000	5.513796
2048.000000	5.517453
2047.000000	5.533905
2046.000000	5.564880
2045.000000	5.579505
2044.000000	5.594840
2043.000000	5.620737
2042.000000	5.626729
2041.000000	5.661259
2040.000000	5.689492
2039.000000	5.710007
2038.000000	5.729100
2037.000000	5.763934
2036.000000	5.781707
2035.000000	5.807401
2034.000000	5.827510
2033.000000	5.833908
2032.000000	5.864578
2031.000000	5.876765
2030.000000	5.897179
2029.000000	5.927951
2028.000000	5.941661
2027.000000	5.949583
2026.000000	5.977917
2025.000000	5.988073
2024.000000	5.988276
2023.000000	6.010721
2022.000000	6.019251
2021.000000	6.031438
2020.000000	6.059062
2019.000000	6.060992
2018.000000	6.084249
2017.000000	6.097959
2016.000000	6.108115
2015.000000	6.134012
2014.000000	6.134418
2013.000000	6.150871
2012.000000	6.158589
2011.000000	6.166511
2010.000000	6.182659
2009.000000	6.165292
2008.000000	6.181745
2007.000000	6.181643
2006.000000	6.203783
2005.000000	6.194338
2004.000000	6.208657
2003.000000	6.212110
2002.000000	6.209064
2001.000000	6.198908
2000.000000	6.179815
1999.000000	6.209978
1998.000000	6.200431
1997.000000	6.199314
1996.000000	6.185908
1995.000000	6.196978
1994.000000	6.179510
1993.000000	6.172706
1992.000000	6.175651
1991.000000	6.156253
1990.000000	6.137973
1989.000000	6.137770
1988.000000	6.129950
1987.000000	6.114208
1986.000000	6.119997
1985.000000	6.112482
1984.000000	6.116443
1983.000000	6.068101
1982.000000	6.055406
1981.000000	6.037227
1980.000000	6.026462
1979.000000	6.019962
1978.000000	6.031134
1977.000000	5.996096
1976.000000	5.982691
1975.000000	5.977511
1974.000000	5.939224
1973.000000	5.930997
1972.000000	5.909061
1971.000000	5.907639
1970.000000	5.873515
1969.000000	5.869859
1968.000000	5.842439
1967.000000	5.833705
1966.000000	5.812479
1965.000000	5.797347
1964.000000	5.792269
1963.000000	5.760481
1962.000000	5.748599
1961.000000	5.719960
1960.000000	5.710413
1959.000000	5.664712
1958.000000	5.654150
1957.000000	5.639018
1956.000000	5.628963
1955.000000	5.619417
1954.000000	5.589051
1953.000000	5.565083
1952.000000	5.539084
1951.000000	5.530858
1950.000000	5.513187
1949.000000	5.482720
1948.000000	5.477946
1947.000000	5.430620
1946.000000	5.419957
1945.000000	5.396090
1944.000000	5.389388
1943.000000	5.385528
1942.000000	5.361764
1941.000000	5.353030
1940.000000	5.334648
1939.000000	5.320430
1938.000000	5.310883
1937.000000	5.293618
1936.000000	5.298798
1935.000000	5.279705
1934.000000	5.280416
1933.000000	5.253604
1932.000000	5.268838
1931.000000	5.256956
1930.000000	5.245277
1929.000000	5.248526
1928.000000	5.277471
1927.000000	5.281431
1926.000000	5.291790
1925.000000	5.291790
1924.000000	5.282752
1923.000000	5.301438
1922.000000	5.323883
1921.000000	5.351811
1920.000000	5.380857
1919.000000	5.395278
1918.000000	5.425847
1917.000000	5.450932
1916.000000	5.440471
1915.000000	5.488407
1914.000000	5.504047
1913.000000	5.541319
1912.000000	5.612511
1911.000000	5.644806
1910.000000	5.667555
1909.000000	5.685430
1908.000000	5.714577
1907.000000	5.765965
1906.000000	5.837665
1905.000000	5.910787
1904.000000	5.988073
1903.000000	6.023314
1902.000000	6.075718
1901.000000	6.131473
1900.000000	6.203376
1899.000000	6.274772
1898.000000	6.348808
1897.000000	6.421828
1896.000000	6.483474
1895.000000	6.518613
1894.000000	6.585337
1893.000000	6.668208
1892.000000	6.754939
1891.000000	6.863606
1890.000000	6.966688
1889.000000	7.063879
1888.000000	7.173054
1887.000000	7.262527
1886.000000	7.387646
1885.000000	7.557655
1884.000000	7.705117
1883.000000	7.865985
1882.000000	8.056204
1881.000000	8.244797
1880.000000	8.426688
1879.000000	8.600352
1878.000000	8.809258
1877.000000	9.020702
1876.000000	9.221584
1875.000000	9.431911
1874.000000	9.622434
1873.000000	9.821285
1872.000000	10.027245
1871.000000	10.185879
1870.000000	10.331818
1869.000000	10.486999
1868.000000	10.614556
1867.000000	10.692451
1866.000000	10.761815
1865.000000	10.832093
1864.000000	10.889271
1863.000000	10.942081
1862.000000	11.012461
1861.000000	11.097566
1860.000000	11.174446
1859.000000	11.222178
1858.000000	11.285449
1857.000000	11.319674
1856.000000	11.346282
1855.000000	11.371977
1854.000000	11.380609
1853.000000	11.388734
1852.000000	11.394319
1851.000000	11.395538
1850.000000	11.382437
1849.000000	11.385890
1848.000000	11.402749
1847.000000	11.421842
1846.000000	11.400413
1845.000000	11.365172
1844.000000	11.336228
1843.000000	11.326072
1842.000000	11.352579
1841.000000	11.384265
1840.000000	11.392288
1839.000000	11.382031
1838.000000	11.372078
1837.000000	11.356540
1836.000000	11.348314
1835.000000	11.332674
1834.000000	11.291543
1833.000000	11.244521
1832.000000	11.211108
1831.000000	11.203187
1830.000000	11.188156
1829.000000	11.164899
1828.000000	11.127323
1827.000000	11.094113
1826.000000	11.055217
1825.000000	11.014796
1824.000000	10.979962
1823.000000	10.952338
1822.000000	10.948987
1821.000000	10.954776
1820.000000	10.953760
1819.000000	10.939542
1818.000000	10.914051
1817.000000	10.892622
1816.000000	10.887544
1815.000000	10.883177
1814.000000	10.874240
1813.000000	10.878201
1812.000000	10.861037
1811.000000	10.823055
1810.000000	10.811274
1809.000000	10.776846
1808.000000	10.746480
1807.000000	10.717536
1806.000000	10.689709
1805.000000	10.673967
1804.000000	10.629180
1803.000000	10.585104
1802.000000	10.564589
1801.000000	10.534426
1800.000000	10.502943
1799.000000	10.454703
1798.000000	10.409916
1797.000000	10.385644
1796.000000	10.353247
1795.000000	10.293023
1794.000000	10.260219
1793.000000	10.228025
1792.000000	10.208425
1791.000000	10.174504
1790.000000	10.127280
1789.000000	10.087875
1788.000000	10.051111
1787.000000	10.002566
1786.000000	9.963060
1785.000000	9.920304
1784.000000	9.869119
1783.000000	9.823621
1782.000000	9.785130
1781.000000	9.743085
1780.000000	9.707946
1779.000000	9.664682
1778.000000	9.598771
1777.000000	9.557944
1776.000000	9.524227
1775.000000	9.483705
1774.000000	9.411599
1773.000000	9.363664
1772.000000	9.301612
1771.000000	9.241388
1770.000000	9.176898
1769.000000	9.123682
1768.000000	9.074020
1767.000000	9.053607
1766.000000	9.001101
1765.000000	8.974797
1764.000000	8.957228
1763.000000	8.950931
1762.000000	8.952759
1761.000000	8.976422
1760.000000	8.988609
1759.000000	9.027201
1758.000000	9.047919
1757.000000	9.079605
1756.000000	9.127236
1755.000000	9.137087
1754.000000	9.176187
1753.000000	9.199850
1752.000000	9.212342
1751.000000	9.206350
1750.000000	9.211326
1749.000000	9.214576
1748.000000	9.191218
1747.000000	9.179437
1746.000000	9.151915
1745.000000	9.117385
1744.000000	9.083058
1743.000000	9.038271
1742.000000	8.992367
1741.000000	8.905535
1740.000000	8.863388
1739.000000	8.775033
1738.000000	8.710949
1737.000000	8.660780
1736.000000	8.641382
1735.000000	8.633765
1734.000000	8.603095
1733.000000	8.610407
1732.000000	8.642093
1731.000000	8.684950
1730.000000	8.737964
1729.000000	8.814843
1728.000000	8.855670
1727.000000	8.935291
1726.000000	9.005468
1725.000000	9.050865
1724.000000	9.084988
1723.000000	9.103675
1722.000000	9.140744
1721.000000	9.179336
1720.000000	9.206553
1719.000000	9.231638
1718.000000	9.268605
1717.000000	9.308010
1716.000000	9.354930
1715.000000	9.366609
1714.000000	9.423278
1713.000000	9.449785
1712.000000	9.484112
1711.000000	9.490510
1710.000000	9.528696
1709.000000	9.530524
1708.000000	9.563429
1707.000000	9.543015
1706.000000	9.542609
1705.000000	9.538344
1704.000000	9.525040
1703.000000	9.489494
1702.000000	9.479542
1701.000000	9.401443
1700.000000	9.364781
1699.000000	9.311666
1698.000000	9.244231
1697.000000	9.205436
1696.000000	9.177304
1695.000000	9.150290
1694.000000	9.163493
1693.000000	9.182687
1692.000000	9.238646
1691.000000	9.264848
1690.000000	9.352391
1689.000000	9.385600
1688.000000	9.401443
1687.000000	9.416576
1686.000000	9.392608
1685.000000	9.381538
1684.000000	9.403474
1683.000000	9.440239
1682.000000	9.564850
1681.000000	9.705712
1680.000000	9.866681
1679.000000	10.077110
1678.000000	10.284593
1677.000000	10.472171
1676.000000	10.697123
1675.000000	10.863983
1674.000000	11.032975
1673.000000	11.146010
1672.000000	11.271637
1671.000000	11.391882
1670.000000	11.476175
1669.000000	11.510400
1668.000000	11.574077
1667.000000	11.622724
1666.000000	11.667409
1665.000000	11.686908
1664.000000	11.721540
1663.000000	11.731696
1662.000000	11.774045
1661.000000	11.776686
1660.000000	11.767952
1659.000000	11.788771
1658.000000	11.792021
1657.000000	11.796794
1656.000000	11.772319
1655.000000	11.778108
1654.000000	11.758812
1653.000000	11.731696
1652.000000	11.735758
1651.000000	11.721134
1650.000000	11.703869
1649.000000	11.673909
1648.000000	11.656441
1647.000000	11.648215
1646.000000	11.614498
1645.000000	11.591342
1644.000000	11.562500
1643.000000	11.535891
1642.000000	11.514260
1641.000000	11.491307
1640.000000	11.455965
1639.000000	11.443169
1638.000000	11.423060
1637.000000	11.404374
1636.000000	11.373297
1635.000000	11.338462
1634.000000	11.313479
1633.000000	11.292761
1632.000000	11.279457
1631.000000	11.266864
1630.000000	11.241068
1629.000000	11.210194
1628.000000	11.185922
1627.000000	11.156165
1626.000000	11.131487
1625.000000	11.116862
1624.000000	11.111988
1623.000000	11.105488
1622.000000	11.072482
1621.000000	11.062427
1620.000000	11.039678
1619.000000	11.012461
1618.000000	11.005859
1617.000000	10.986563
1616.000000	10.980165
1615.000000	10.968791
1614.000000	10.965642
1613.000000	10.949190
1612.000000	10.928878
1611.000000	10.915168
1610.000000	10.895161
1609.000000	10.880841
1608.000000	10.854030
1607.000000	10.842249
1606.000000	10.820109
1605.000000	10.811375
1604.000000	10.793501
1603.000000	10.784564
1602.000000	10.768518
1601.000000	10.749222
1600.000000	10.716215
1599.000000	10.699154
1598.000000	10.676709
1597.000000	10.650406
1596.000000	10.622173
1595.000000	10.604603
1594.000000	10.584291
1593.000000	10.544988
1592.000000	10.527622
1591.000000	10.516755
1590.000000	10.482124
