PE UV       SUBTECH     SPECTRUM    ASCII       PEDS        4.00        
   -1
CICIMAUCR0112-1.Sample.ASC
24/04/04
14:46:15.00
24/04/04
14:46:15.00
Vinicio Soto Monge
C. resplendens
250,000000
1
Lambda 1050
1050L1511233
PerkinElmer UV WinLab 6.3.2.0749 / 2.02.05 Lambda 900 UV/VIS/NIR, Aug  7 2015 09:38:08

0
0
3350/servo 860,8/2
0
0
UV/VIS
1
1
1
DoubleDePol,CommonBeamDepol,RBeamAtt,SBeamAtt,60mm sphere, WB InGaAs Detector
0
0
0
0
Program
Program
3350/servo 860,8/2
3350/0,2 860,8/0,2
3350/0,2 860,8/0,2
0
15.00
 
 
 
0
 
860,8
319,2
860,8
Front
100
on
S:100 R:100
0
0
0
0
 
0
 
 
 
0
 
 
0
0
0
0
0
 
 
 
 
0
0


0
0
#HDR
-1
-1
#GR
nm
%R
1.0
0.0
2500,000000
-1,000000
2251
8
61,245000
4,369400
#DATA
2500.000000	4.271350
2499.000000	4.329786
2498.000000	4.292337
2497.000000	4.327283
2496.000000	4.353758
2495.000000	4.320930
2494.000000	4.206463
2493.000000	4.374745
2492.000000	4.279148
2491.000000	4.256332
2490.000000	4.279726
2489.000000	4.255465
2488.000000	4.313998
2487.000000	4.247282
2486.000000	4.254118
2485.000000	4.262012
2484.000000	4.306681
2483.000000	4.275201
2482.000000	4.264804
2481.000000	4.282132
2480.000000	4.289256
2479.000000	4.297921
2478.000000	4.248534
2477.000000	4.239196
2476.000000	4.313998
2475.000000	4.311880
2474.000000	4.286657
2473.000000	4.294070
2472.000000	4.252962
2471.000000	4.256621
2470.000000	4.287138
2469.000000	4.265477
2468.000000	4.279437
2467.000000	4.248245
2466.000000	4.296573
2465.000000	4.289353
2464.000000	4.240832
2463.000000	4.273853
2462.000000	4.307644
2461.000000	4.333445
2460.000000	4.328342
2459.000000	4.298595
2458.000000	4.317560
2457.000000	4.322662
2456.000000	4.331904
2455.000000	4.369931
2454.000000	4.390630
2453.000000	4.377152
2452.000000	4.388993
2451.000000	4.431930
2450.000000	4.416238
2449.000000	4.440691
2448.000000	4.481221
2447.000000	4.485072
2446.000000	4.500186
2445.000000	4.520884
2444.000000	4.521173
2443.000000	4.539850
2442.000000	4.536673
2441.000000	4.546011
2440.000000	4.551306
2439.000000	4.576625
2438.000000	4.588081
2437.000000	4.606084
2436.000000	4.603003
2435.000000	4.618503
2434.000000	4.647096
2433.000000	4.666157
2432.000000	4.655760
2431.000000	4.667505
2430.000000	4.688685
2429.000000	4.689262
2428.000000	4.712078
2427.000000	4.703992
2426.000000	4.714774
2425.000000	4.716507
2424.000000	4.721609
2423.000000	4.751068
2422.000000	4.759155
2421.000000	4.766760
2420.000000	4.769360
2419.000000	4.804017
2418.000000	4.832610
2417.000000	4.823079
2416.000000	4.848013
2415.000000	4.871985
2414.000000	4.866593
2413.000000	4.869481
2412.000000	4.868904
2411.000000	4.905872
2410.000000	4.925126
2409.000000	4.917810
2408.000000	4.922527
2407.000000	4.927533
2406.000000	4.938026
2405.000000	4.954489
2404.000000	4.965367
2403.000000	4.980674
2402.000000	4.981830
2401.000000	4.973165
2400.000000	4.988569
2399.000000	5.015043
2398.000000	5.024959
2397.000000	5.018413
2396.000000	5.021397
2395.000000	5.027366
2394.000000	5.024959
2393.000000	5.042192
2392.000000	5.043443
2391.000000	5.043924
2390.000000	5.057691
2389.000000	5.060483
2388.000000	5.059424
2387.000000	5.069147
2386.000000	5.078197
2385.000000	5.076464
2384.000000	5.087824
2383.000000	5.067511
2382.000000	5.066741
2381.000000	5.080315
2380.000000	5.083107
2379.000000	5.085128
2378.000000	5.090038
2377.000000	5.089846
2376.000000	5.088787
2375.000000	5.085417
2374.000000	5.082240
2373.000000	5.075213
2372.000000	5.074827
2371.000000	5.078678
2370.000000	5.079352
2369.000000	5.077812
2368.000000	5.069436
2367.000000	5.067030
2366.000000	5.059520
2365.000000	5.036415
2364.000000	5.044310
2363.000000	5.044021
2362.000000	5.030735
2361.000000	5.025826
2360.000000	5.020723
2359.000000	5.019760
2358.000000	5.004357
2357.000000	4.990975
2356.000000	5.003491
2355.000000	4.988184
2354.000000	4.975668
2353.000000	4.995019
2352.000000	4.995308
2351.000000	4.989820
2350.000000	4.974609
2349.000000	4.984044
2348.000000	4.985584
2347.000000	4.973935
2346.000000	4.991264
2345.000000	4.995982
2344.000000	4.983177
2343.000000	4.974417
2342.000000	4.982022
2341.000000	4.982215
2340.000000	4.976342
2339.000000	4.971432
2338.000000	4.969988
2337.000000	4.974994
2336.000000	4.956414
2335.000000	4.945728
2334.000000	4.943225
2333.000000	4.931287
2332.000000	4.942936
2331.000000	4.924452
2330.000000	4.906353
2329.000000	4.899614
2328.000000	4.885366
2327.000000	4.871985
2326.000000	4.844644
2325.000000	4.848494
2324.000000	4.836461
2323.000000	4.807964
2322.000000	4.799878
2321.000000	4.779661
2320.000000	4.764354
2319.000000	4.762332
2318.000000	4.738746
2317.000000	4.719684
2316.000000	4.715640
2315.000000	4.703992
2314.000000	4.690803
2313.000000	4.681079
2312.000000	4.672126
2311.000000	4.646422
2310.000000	4.628034
2309.000000	4.633136
2308.000000	4.607336
2307.000000	4.614075
2306.000000	4.612631
2305.000000	4.598190
2304.000000	4.600308
2303.000000	4.610994
2302.000000	4.594050
2301.000000	4.596457
2300.000000	4.588948
2299.000000	4.583268
2298.000000	4.584423
2297.000000	4.580669
2296.000000	4.577973
2295.000000	4.575374
2294.000000	4.573641
2293.000000	4.570175
2292.000000	4.565169
2291.000000	4.559682
2290.000000	4.557949
2289.000000	4.532437
2288.000000	4.535421
2287.000000	4.522425
2286.000000	4.518574
2285.000000	4.502593
2284.000000	4.484109
2283.000000	4.468224
2282.000000	4.440594
2281.000000	4.454842
2280.000000	4.433952
2279.000000	4.435877
2278.000000	4.408632
2277.000000	4.387645
2276.000000	4.385335
2275.000000	4.371761
2274.000000	4.355298
2273.000000	4.343264
2272.000000	4.326802
2271.000000	4.320063
2270.000000	4.332771
2269.000000	4.295995
2268.000000	4.316020
2267.000000	4.299076
2266.000000	4.286465
2265.000000	4.252192
2264.000000	4.291182
2263.000000	4.277800
2262.000000	4.280014
2261.000000	4.287620
2260.000000	4.303601
2259.000000	4.305526
2258.000000	4.305622
2257.000000	4.320352
2256.000000	4.328054
2255.000000	4.339799
2254.000000	4.346441
2253.000000	4.385720
2252.000000	4.368872
2251.000000	4.387164
2250.000000	4.409114
2249.000000	4.401605
2248.000000	4.416334
2247.000000	4.419800
2246.000000	4.455131
2245.000000	4.447622
2244.000000	4.459175
2243.000000	4.463507
2242.000000	4.490366
2241.000000	4.488441
2240.000000	4.509236
2239.000000	4.521751
2238.000000	4.530030
2237.000000	4.528875
2236.000000	4.537635
2235.000000	4.541486
2234.000000	4.541486
2233.000000	4.541486
2232.000000	4.569405
2231.000000	4.571619
2230.000000	4.553905
2229.000000	4.538598
2228.000000	4.541294
2227.000000	4.518092
2226.000000	4.500571
2225.000000	4.474385
2224.000000	4.476600
2223.000000	4.471112
2222.000000	4.431352
2221.000000	4.414890
2220.000000	4.400931
2219.000000	4.340858
2218.000000	4.344708
2217.000000	4.338740
2216.000000	4.322277
2215.000000	4.307548
2214.000000	4.296862
2213.000000	4.282710
2212.000000	4.279437
2211.000000	4.292530
2210.000000	4.303793
2209.000000	4.299269
2208.000000	4.341146
2207.000000	4.378211
2206.000000	4.410558
2205.000000	4.450607
2204.000000	4.518285
2203.000000	4.569597
2202.000000	4.628804
2201.000000	4.695424
2200.000000	4.803728
2199.000000	4.867075
2198.000000	4.943995
2197.000000	5.015910
2196.000000	5.068281
2195.000000	5.147319
2194.000000	5.214517
2193.000000	5.286816
2192.000000	5.337166
2191.000000	5.385109
2190.000000	5.428912
2189.000000	5.495050
2188.000000	5.535388
2187.000000	5.586700
2186.000000	5.624438
2185.000000	5.663813
2184.000000	5.708772
2183.000000	5.739097
2182.000000	5.752286
2181.000000	5.757677
2180.000000	5.786847
2179.000000	5.806005
2178.000000	5.825645
2177.000000	5.837486
2176.000000	5.843455
2175.000000	5.881674
2174.000000	5.863094
2173.000000	5.884177
2172.000000	5.904106
2171.000000	5.912192
2170.000000	5.907475
2169.000000	5.910171
2168.000000	5.910556
2167.000000	5.935490
2166.000000	5.930195
2165.000000	5.925670
2164.000000	5.947331
2163.000000	5.960617
2162.000000	5.970532
2161.000000	5.965623
2160.000000	5.992193
2159.000000	6.018572
2158.000000	6.035997
2157.000000	6.029161
2156.000000	6.054288
2155.000000	6.061509
2154.000000	6.094433
2153.000000	6.094529
2152.000000	6.110318
2151.000000	6.124181
2150.000000	6.139007
2149.000000	6.147093
2148.000000	6.144975
2147.000000	6.165096
2146.000000	6.167022
2145.000000	6.179344
2144.000000	6.190223
2143.000000	6.190512
2142.000000	6.201101
2141.000000	6.199754
2140.000000	6.198310
2139.000000	6.207070
2138.000000	6.211884
2137.000000	6.217660
2136.000000	6.224014
2135.000000	6.234700
2134.000000	6.234315
2133.000000	6.236625
2132.000000	6.256072
2131.000000	6.269935
2130.000000	6.272053
2129.000000	6.270417
2128.000000	6.270320
2127.000000	6.272438
2126.000000	6.273208
2125.000000	6.268587
2124.000000	6.274075
2123.000000	6.278311
2122.000000	6.268587
2121.000000	6.256168
2120.000000	6.255687
2119.000000	6.260597
2118.000000	6.275519
2117.000000	6.277733
2116.000000	6.259345
2115.000000	6.259730
2114.000000	6.268395
2113.000000	6.263870
2112.000000	6.261175
2111.000000	6.257131
2110.000000	6.245194
2109.000000	6.234989
2108.000000	6.239225
2107.000000	6.230368
2106.000000	6.215927
2105.000000	6.225362
2104.000000	6.235278
2103.000000	6.221800
2102.000000	6.206108
2101.000000	6.200428
2100.000000	6.212750
2099.000000	6.220837
2098.000000	6.216120
2097.000000	6.220259
2096.000000	6.216890
2095.000000	6.211306
2094.000000	6.205915
2093.000000	6.211017
2092.000000	6.220452
2091.000000	6.204278
2090.000000	6.212846
2089.000000	6.221126
2088.000000	6.207648
2087.000000	6.216023
2086.000000	6.221415
2085.000000	6.223436
2084.000000	6.220644
2083.000000	6.214579
2082.000000	6.213328
2081.000000	6.207744
2080.000000	6.209092
2079.000000	6.232293
2078.000000	6.226228
2077.000000	6.212461
2076.000000	6.231331
2075.000000	6.234507
2074.000000	6.228827
2073.000000	6.229598
2072.000000	6.240091
2071.000000	6.245290
2070.000000	6.241054
2069.000000	6.240861
2068.000000	6.243653
2067.000000	6.249237
2066.000000	6.255206
2065.000000	6.255398
2064.000000	6.253088
2063.000000	6.274941
2062.000000	6.274652
2061.000000	6.279370
2060.000000	6.283702
2059.000000	6.284183
2058.000000	6.288804
2057.000000	6.305459
2056.000000	6.315471
2055.000000	6.318456
2054.000000	6.340694
2053.000000	6.353017
2052.000000	6.366687
2051.000000	6.379106
2050.000000	6.404907
2049.000000	6.408950
2048.000000	6.434751
2047.000000	6.473163
2046.000000	6.486352
2045.000000	6.519084
2044.000000	6.527653
2043.000000	6.559518
2042.000000	6.591865
2041.000000	6.617666
2040.000000	6.646162
2039.000000	6.679183
2038.000000	6.703636
2037.000000	6.730495
2036.000000	6.748402
2035.000000	6.781134
2034.000000	6.807416
2033.000000	6.818487
2032.000000	6.856033
2031.000000	6.895311
2030.000000	6.891364
2029.000000	6.917550
2028.000000	6.965493
2027.000000	6.955866
2026.000000	6.984169
2025.000000	7.014302
2024.000000	7.034712
2023.000000	7.049537
2022.000000	7.067925
2021.000000	7.098732
2020.000000	7.101042
2019.000000	7.125977
2018.000000	7.150911
2017.000000	7.160730
2016.000000	7.186050
2015.000000	7.190382
2014.000000	7.198469
2013.000000	7.217145
2012.000000	7.236784
2011.000000	7.237073
2010.000000	7.243427
2009.000000	7.269709
2008.000000	7.253728
2007.000000	7.263259
2006.000000	7.275004
2005.000000	7.276544
2004.000000	7.267302
2003.000000	7.284535
2002.000000	7.269517
2001.000000	7.265762
2000.000000	7.286075
1999.000000	7.274234
1998.000000	7.256809
1997.000000	7.264222
1996.000000	7.255654
1995.000000	7.230912
1994.000000	7.231201
1993.000000	7.210214
1992.000000	7.223499
1991.000000	7.195195
1990.000000	7.185761
1989.000000	7.163811
1988.000000	7.158516
1987.000000	7.140995
1986.000000	7.139166
1985.000000	7.116927
1984.000000	7.084387
1983.000000	7.073028
1982.000000	7.072642
1981.000000	7.049730
1980.000000	7.040873
1979.000000	7.010066
1978.000000	7.003809
1977.000000	6.977334
1976.000000	6.947779
1975.000000	6.933242
1974.000000	6.910330
1973.000000	6.900703
1972.000000	6.908115
1971.000000	6.862194
1970.000000	6.826189
1969.000000	6.824648
1968.000000	6.800196
1967.000000	6.801158
1966.000000	6.789317
1965.000000	6.776994
1964.000000	6.737042
1963.000000	6.728474
1962.000000	6.726452
1961.000000	6.706428
1960.000000	6.679664
1959.000000	6.674369
1958.000000	6.663202
1957.000000	6.647510
1956.000000	6.615259
1955.000000	6.598219
1954.000000	6.620747
1953.000000	6.605536
1952.000000	6.584260
1951.000000	6.573189
1950.000000	6.550758
1949.000000	6.531696
1948.000000	6.543537
1947.000000	6.526979
1946.000000	6.536028
1945.000000	6.493476
1944.000000	6.509361
1943.000000	6.510516
1942.000000	6.505414
1941.000000	6.524091
1940.000000	6.496653
1939.000000	6.504547
1938.000000	6.507339
1937.000000	6.503777
1936.000000	6.521395
1935.000000	6.522069
1934.000000	6.527364
1933.000000	6.538435
1932.000000	6.565776
1931.000000	6.562118
1930.000000	6.572515
1929.000000	6.603707
1928.000000	6.616126
1927.000000	6.636824
1926.000000	6.677258
1925.000000	6.697763
1924.000000	6.700170
1923.000000	6.729340
1922.000000	6.781712
1921.000000	6.836201
1920.000000	6.868163
1919.000000	6.910041
1918.000000	6.956347
1917.000000	6.985710
1916.000000	7.012858
1915.000000	7.043857
1914.000000	7.103834
1913.000000	7.176037
1912.000000	7.247182
1911.000000	7.304463
1910.000000	7.353657
1909.000000	7.377244
1908.000000	7.419699
1907.000000	7.511349
1906.000000	7.576140
1905.000000	7.675395
1904.000000	7.755204
1903.000000	7.810752
1902.000000	7.868226
1901.000000	7.923196
1900.000000	8.011284
1899.000000	8.129986
1898.000000	8.199302
1897.000000	8.262455
1896.000000	8.338798
1895.000000	8.416007
1894.000000	8.478680
1893.000000	8.553579
1892.000000	8.658899
1891.000000	8.759887
1890.000000	8.854714
1889.000000	8.932212
1888.000000	9.036185
1887.000000	9.119171
1886.000000	9.234407
1885.000000	9.387478
1884.000000	9.549983
1883.000000	9.734727
1882.000000	9.932660
1881.000000	10.129245
1880.000000	10.329585
1879.000000	10.525689
1878.000000	10.729206
1877.000000	10.921074
1876.000000	11.098790
1875.000000	11.269190
1874.000000	11.418891
1873.000000	11.598725
1872.000000	11.752759
1871.000000	11.864048
1870.000000	11.967347
1869.000000	12.038395
1868.000000	12.108769
1867.000000	12.149107
1866.000000	12.168938
1865.000000	12.192621
1864.000000	12.213416
1863.000000	12.214763
1862.000000	12.216592
1861.000000	12.218037
1860.000000	12.225738
1859.000000	12.196279
1858.000000	12.182127
1857.000000	12.149973
1856.000000	12.093173
1855.000000	12.050814
1854.000000	12.004508
1853.000000	11.933074
1852.000000	11.877622
1851.000000	11.831027
1850.000000	11.781159
1849.000000	11.732061
1848.000000	11.681133
1847.000000	11.622408
1846.000000	11.549146
1845.000000	11.477135
1844.000000	11.417447
1843.000000	11.390010
1842.000000	11.372681
1841.000000	11.360551
1840.000000	11.332151
1839.000000	11.289599
1838.000000	11.256578
1837.000000	11.225964
1836.000000	11.190248
1835.000000	11.130271
1834.000000	11.068465
1833.000000	11.005985
1832.000000	10.935322
1831.000000	10.870628
1830.000000	10.830098
1829.000000	10.780615
1828.000000	10.703020
1827.000000	10.643236
1826.000000	10.604054
1825.000000	10.561983
1824.000000	10.525882
1823.000000	10.494401
1822.000000	10.481886
1821.000000	10.484100
1820.000000	10.456856
1819.000000	10.424220
1818.000000	10.410645
1817.000000	10.400152
1816.000000	10.396494
1815.000000	10.388888
1814.000000	10.355578
1813.000000	10.351343
1812.000000	10.335554
1811.000000	10.322076
1810.000000	10.307347
1809.000000	10.270475
1808.000000	10.240631
1807.000000	10.219548
1806.000000	10.189704
1805.000000	10.156298
1804.000000	10.130016
1803.000000	10.090641
1802.000000	10.064744
1801.000000	10.047319
1800.000000	10.003804
1799.000000	9.972901
1798.000000	9.937859
1797.000000	9.920145
1796.000000	9.900506
1795.000000	9.874416
1794.000000	9.843802
1793.000000	9.818579
1792.000000	9.796726
1791.000000	9.758410
1790.000000	9.721538
1789.000000	9.681489
1788.000000	9.644810
1787.000000	9.605146
1786.000000	9.561632
1785.000000	9.520139
1784.000000	9.491739
1783.000000	9.441389
1782.000000	9.399608
1781.000000	9.337802
1780.000000	9.305744
1779.000000	9.271375
1778.000000	9.212168
1777.000000	9.158353
1776.000000	9.097702
1775.000000	9.058231
1774.000000	9.000757
1773.000000	8.926629
1772.000000	8.870021
1771.000000	8.811777
1770.000000	8.744388
1769.000000	8.694616
1768.000000	8.648791
1767.000000	8.613748
1766.000000	8.577261
1765.000000	8.553001
1764.000000	8.529030
1763.000000	8.507465
1762.000000	8.525082
1761.000000	8.575047
1760.000000	8.592761
1759.000000	8.609705
1758.000000	8.658803
1757.000000	8.705013
1756.000000	8.726481
1755.000000	8.731680
1754.000000	8.739478
1753.000000	8.755074
1752.000000	8.749298
1751.000000	8.713485
1750.000000	8.709056
1749.000000	8.696830
1748.000000	8.678057
1747.000000	8.619813
1746.000000	8.578031
1745.000000	8.518440
1744.000000	8.456634
1743.000000	8.410905
1742.000000	8.319351
1741.000000	8.235596
1740.000000	8.135666
1739.000000	8.069528
1738.000000	8.007145
1737.000000	7.959876
1736.000000	7.905579
1735.000000	7.892197
1734.000000	7.881896
1733.000000	7.875831
1732.000000	7.870632
1731.000000	7.918383
1730.000000	7.963919
1729.000000	8.005219
1728.000000	8.043246
1727.000000	8.077711
1726.000000	8.150203
1725.000000	8.154536
1724.000000	8.161371
1723.000000	8.172346
1722.000000	8.175330
1721.000000	8.188712
1720.000000	8.168687
1719.000000	8.156076
1718.000000	8.189289
1717.000000	8.195739
1716.000000	8.192466
1715.000000	8.212009
1714.000000	8.240891
1713.000000	8.218652
1712.000000	8.236847
1711.000000	8.270735
1710.000000	8.269676
1709.000000	8.259086
1708.000000	8.248111
1707.000000	8.244741
1706.000000	8.212587
1705.000000	8.186016
1704.000000	8.163874
1703.000000	8.124114
1702.000000	8.091671
1701.000000	8.056724
1700.000000	7.992223
1699.000000	7.958528
1698.000000	7.912221
1697.000000	7.865723
1696.000000	7.844543
1695.000000	7.830969
1694.000000	7.835782
1693.000000	7.884110
1692.000000	7.913088
1691.000000	7.976723
1690.000000	8.004834
1689.000000	8.047867
1688.000000	8.059612
1687.000000	8.086279
1686.000000	8.048637
1685.000000	8.069913
1684.000000	8.083199
1683.000000	8.136725
1682.000000	8.228183
1681.000000	8.386549
1680.000000	8.608261
1679.000000	8.824293
1678.000000	9.046293
1677.000000	9.290725
1676.000000	9.497323
1675.000000	9.687458
1674.000000	9.873839
1673.000000	10.018149
1672.000000	10.155046
1671.000000	10.251702
1670.000000	10.340464
1669.000000	10.431247
1668.000000	10.507398
1667.000000	10.573921
1666.000000	10.626774
1665.000000	10.665090
1664.000000	10.708508
1663.000000	10.743454
1662.000000	10.764249
1661.000000	10.779171
1660.000000	10.797751
1659.000000	10.809400
1658.000000	10.828654
1657.000000	10.828269
1656.000000	10.834045
1655.000000	10.818064
1654.000000	10.819893
1653.000000	10.812095
1652.000000	10.812480
1651.000000	10.776860
1650.000000	10.769159
1649.000000	10.750867
1648.000000	10.708508
1647.000000	10.689542
1646.000000	10.674235
1645.000000	10.647183
1644.000000	10.601743
1643.000000	10.576809
1642.000000	10.558518
1641.000000	10.519528
1640.000000	10.477169
1639.000000	10.442800
1638.000000	10.443955
1637.000000	10.422776
1636.000000	10.378972
1635.000000	10.331800
1634.000000	10.303785
1633.000000	10.265276
1632.000000	10.240631
1631.000000	10.214638
1630.000000	10.175167
1629.000000	10.142531
1628.000000	10.103156
1627.000000	10.083902
1626.000000	10.048667
1625.000000	10.019400
1624.000000	9.982914
1623.000000	9.942672
1622.000000	9.903683
1621.000000	9.876245
1620.000000	9.849193
1619.000000	9.830709
1618.000000	9.789698
1617.000000	9.750034
1616.000000	9.721634
1615.000000	9.698625
1614.000000	9.669455
1613.000000	9.638264
1612.000000	9.621031
1611.000000	9.601007
1610.000000	9.567986
1609.000000	9.547769
1608.000000	9.525915
1607.000000	9.500307
1606.000000	9.485193
1605.000000	9.458622
1604.000000	9.445529
1603.000000	9.423194
1602.000000	9.387670
1601.000000	9.369571
1600.000000	9.356190
1599.000000	9.340112
1598.000000	9.305647
1597.000000	9.277729
1596.000000	9.266561
1595.000000	9.251158
1594.000000	9.231134
1593.000000	9.233155
1592.000000	9.222084
1591.000000	9.184346
1590.000000	9.174911
1589.000000	9.165766
