PE UV       SUBTECH     SPECTRUM    ASCII       PEDS        4.00        
   -1
CICIMAUCR0113-1.ASC
24/04/03
16:15:49.00
24/04/03
16:15:49.00
Vinicio Soto Monge
C. kalinini
250,000000
1
Lambda 1050
1050L1511233
PerkinElmer UV WinLab 6.3.2.0749 / 2.02.05 Lambda 900 UV/VIS/NIR, Aug  7 2015 09:38:08

0
0
3350/servo 860,8/2
0
0
UV/VIS
1
1
1
DoubleDePol,CommonBeamDepol,RBeamAtt,SBeamAtt,60mm sphere, WB InGaAs Detector
0
0
0
0
Program
Program
3350/servo 860,8/2
3350/0,2 860,8/0,2
3350/0,2 860,8/0,2
0
15.00
 
 
 
0
 
860,8
319,2
860,8
Front
100
on
S:100 R:100
0
0
0
0
 
0
 
 
 
0
 
 
0
0
0
0
0
 
 
 
 
0
0


0
0
#HDR
-1
-1
#GR
nm
%R
1.0
0.0
2500,000000
-1,000000
2251
8
83,958100
4,718900
#DATA
2500.000000	4.976097
2499.000000	4.820875
2498.000000	4.893742
2497.000000	4.870126
2496.000000	4.900101
2495.000000	4.853171
2494.000000	4.904844
2493.000000	4.868511
2492.000000	4.898082
2491.000000	4.860235
2490.000000	4.869016
2489.000000	4.808057
2488.000000	4.887384
2487.000000	4.804525
2486.000000	4.802506
2485.000000	4.811892
2484.000000	4.833995
2483.000000	4.872245
2482.000000	4.871236
2481.000000	4.762540
2480.000000	4.865584
2479.000000	4.861648
2478.000000	4.857712
2477.000000	4.850546
2476.000000	4.902119
2475.000000	4.914533
2474.000000	4.919074
2473.000000	4.871135
2472.000000	4.927249
2471.000000	4.912918
2470.000000	4.974886
2469.000000	4.984373
2468.000000	4.939865
2467.000000	4.999612
2466.000000	4.969436
2465.000000	5.030798
2464.000000	5.022320
2463.000000	5.042707
2462.000000	5.010916
2461.000000	5.072379
2460.000000	5.086912
2459.000000	5.097711
2458.000000	5.135457
2457.000000	5.157257
2456.000000	5.198838
2455.000000	5.249502
2454.000000	5.256668
2453.000000	5.277458
2452.000000	5.340435
2451.000000	5.360015
2450.000000	5.399577
2449.000000	5.434901
2448.000000	5.488088
2447.000000	5.518669
2446.000000	5.545817
2445.000000	5.588206
2444.000000	5.654312
2443.000000	5.674194
2442.000000	5.715977
2441.000000	5.750493
2440.000000	5.793184
2439.000000	5.832444
2438.000000	5.871905
2437.000000	5.903798
2436.000000	5.937809
2435.000000	5.970206
2434.000000	6.013099
2433.000000	6.053065
2432.000000	6.076682
2431.000000	6.121492
2430.000000	6.153889
2429.000000	6.197590
2428.000000	6.245630
2427.000000	6.257741
2426.000000	6.279642
2425.000000	6.310928
2424.000000	6.349179
2423.000000	6.375419
2422.000000	6.396512
2421.000000	6.417808
2420.000000	6.457572
2419.000000	6.489565
2418.000000	6.523375
2417.000000	6.555469
2416.000000	6.581810
2415.000000	6.595536
2414.000000	6.615216
2413.000000	6.650237
2412.000000	6.673349
2411.000000	6.680918
2410.000000	6.702920
2409.000000	6.718866
2408.000000	6.758631
2407.000000	6.768420
2406.000000	6.776192
2405.000000	6.803239
2404.000000	6.825443
2403.000000	6.837251
2402.000000	6.846738
2401.000000	6.877823
2400.000000	6.909715
2399.000000	6.925964
2398.000000	6.944837
2397.000000	6.965627
2396.000000	6.986721
2395.000000	7.006805
2394.000000	7.030118
2393.000000	7.034054
2392.000000	7.038091
2391.000000	7.063928
2390.000000	7.083709
2389.000000	7.091481
2388.000000	7.105206
2387.000000	7.110353
2386.000000	7.115400
2385.000000	7.114491
2384.000000	7.115198
2383.000000	7.124988
2382.000000	7.132961
2381.000000	7.134071
2380.000000	7.139924
2379.000000	7.154659
2378.000000	7.147393
2377.000000	7.131649
2376.000000	7.114189
2375.000000	7.102078
2374.000000	7.102582
2373.000000	7.105206
2372.000000	7.103087
2371.000000	7.093196
2370.000000	7.073314
2369.000000	7.067360
2368.000000	7.056561
2367.000000	7.026182
2366.000000	7.001355
2365.000000	6.982381
2364.000000	6.963407
2363.000000	6.937267
2362.000000	6.918596
2361.000000	6.887713
2360.000000	6.859555
2359.000000	6.839875
2358.000000	6.820598
2357.000000	6.802533
2356.000000	6.772155
2355.000000	6.745006
2354.000000	6.737840
2353.000000	6.727445
2352.000000	6.717554
2351.000000	6.726940
2350.000000	6.728656
2349.000000	6.731078
2348.000000	6.746419
2347.000000	6.746721
2346.000000	6.756309
2345.000000	6.784165
2344.000000	6.811111
2343.000000	6.829177
2342.000000	6.847848
2341.000000	6.854610
2340.000000	6.882263
2339.000000	6.893567
2338.000000	6.895586
2337.000000	6.904568
2336.000000	6.897604
2335.000000	6.902347
2334.000000	6.904467
2333.000000	6.891750
2332.000000	6.879034
2331.000000	6.845123
2330.000000	6.820195
2329.000000	6.805258
2328.000000	6.791532
2327.000000	6.762869
2326.000000	6.726234
2325.000000	6.694846
2324.000000	6.667596
2323.000000	6.643374
2322.000000	6.593013
2321.000000	6.542551
2320.000000	6.505915
2319.000000	6.466050
2318.000000	6.393384
2317.000000	6.345243
2316.000000	6.303460
2315.000000	6.241795
2314.000000	6.175588
2313.000000	6.120584
2312.000000	6.092628
2311.000000	6.027834
2310.000000	5.986657
2309.000000	5.959710
2308.000000	5.918835
2307.000000	5.901174
2306.000000	5.887650
2305.000000	5.866556
2304.000000	5.856666
2303.000000	5.863932
2302.000000	5.876447
2301.000000	5.897742
2300.000000	5.917322
2299.000000	5.933066
2298.000000	5.966169
2297.000000	6.000181
2296.000000	6.039642
2295.000000	6.058112
2294.000000	6.070424
2293.000000	6.082132
2292.000000	6.131484
2291.000000	6.136833
2290.000000	6.122603
2289.000000	6.133704
2288.000000	6.127750
2287.000000	6.109482
2286.000000	6.090307
2285.000000	6.077590
2284.000000	6.053671
2283.000000	6.013907
2282.000000	5.987363
2281.000000	5.944067
2280.000000	5.906119
2279.000000	5.867969
2278.000000	5.835572
2277.000000	5.793991
2276.000000	5.757961
2275.000000	5.699526
2274.000000	5.673285
2273.000000	5.640788
2272.000000	5.610207
2271.000000	5.588811
2270.000000	5.565700
2269.000000	5.552478
2268.000000	5.558736
2267.000000	5.560754
2266.000000	5.577508
2265.000000	5.610510
2264.000000	5.636751
2263.000000	5.672680
2262.000000	5.720720
2261.000000	5.770678
2260.000000	5.814277
2259.000000	5.896329
2258.000000	5.961123
2257.000000	6.034495
2256.000000	6.097977
2255.000000	6.215958
2254.000000	6.257943
2253.000000	6.383594
2252.000000	6.431231
2251.000000	6.507933
2250.000000	6.570910
2249.000000	6.641962
2248.000000	6.698883
2247.000000	6.773971
2246.000000	6.833920
2245.000000	6.884080
2244.000000	6.913752
2243.000000	6.945745
2242.000000	6.986014
2241.000000	7.047881
2240.000000	7.060295
2239.000000	7.096325
2238.000000	7.127713
2237.000000	7.145072
2236.000000	7.146283
2235.000000	7.161220
2234.000000	7.176056
2233.000000	7.200378
2232.000000	7.185139
2231.000000	7.175753
2230.000000	7.172321
2229.000000	7.164752
2228.000000	7.151935
2227.000000	7.114592
2226.000000	7.066148
2225.000000	7.052322
2224.000000	7.026081
2223.000000	6.981775
2222.000000	6.946754
2221.000000	6.894274
2220.000000	6.830590
2219.000000	6.805662
2218.000000	6.752878
2217.000000	6.712710
2216.000000	6.674358
2215.000000	6.628438
2214.000000	6.590894
2213.000000	6.571516
2212.000000	6.555469
2211.000000	6.541138
2210.000000	6.543560
2209.000000	6.544569
2208.000000	6.583829
2207.000000	6.617033
2206.000000	6.654073
2205.000000	6.717251
2204.000000	6.772659
2203.000000	6.840380
2202.000000	6.946351
2201.000000	7.046670
2200.000000	7.159302
2199.000000	7.264667
2198.000000	7.370437
2197.000000	7.461774
2196.000000	7.598930
2195.000000	7.681588
2194.000000	7.773026
2193.000000	7.866684
2192.000000	7.946314
2191.000000	8.046532
2190.000000	8.118289
2189.000000	8.188836
2188.000000	8.282797
2187.000000	8.326094
2186.000000	8.362931
2185.000000	8.394722
2184.000000	8.479398
2183.000000	8.510887
2182.000000	8.539650
2181.000000	8.565992
2180.000000	8.604747
2179.000000	8.618069
2178.000000	8.648346
2177.000000	8.665403
2176.000000	8.694974
2175.000000	8.719498
2174.000000	8.731811
2173.000000	8.750079
2172.000000	8.760474
2171.000000	8.795091
2170.000000	8.834754
2169.000000	8.838691
2168.000000	8.864830
2167.000000	8.883602
2166.000000	8.892181
2165.000000	8.932450
2164.000000	8.945469
2163.000000	8.969085
2162.000000	9.011978
2161.000000	9.016318
2160.000000	9.033879
2159.000000	9.073038
2158.000000	9.095342
2157.000000	9.126023
2156.000000	9.166898
2155.000000	9.207167
2154.000000	9.247638
2153.000000	9.282659
2152.000000	9.311725
2151.000000	9.356435
2150.000000	9.385501
2149.000000	9.415173
2148.000000	9.449386
2147.000000	9.498537
2146.000000	9.541834
2145.000000	9.571909
2144.000000	9.593507
2143.000000	9.623684
2142.000000	9.666476
2141.000000	9.705534
2140.000000	9.729856
2139.000000	9.749840
2138.000000	9.770327
2137.000000	9.804945
2136.000000	9.823616
2135.000000	9.848746
2134.000000	9.876904
2133.000000	9.888107
2132.000000	9.900016
2131.000000	9.920201
2130.000000	9.941899
2129.000000	9.947551
2128.000000	9.961378
2127.000000	9.968443
2126.000000	9.976517
2125.000000	9.985095
2124.000000	9.992261
2123.000000	9.994279
2122.000000	9.981765
2121.000000	9.977526
2120.000000	9.981664
2119.000000	9.982774
2118.000000	9.979040
2117.000000	9.954818
2116.000000	9.946744
2115.000000	9.939780
2114.000000	9.942404
2113.000000	9.937459
2112.000000	9.915255
2111.000000	9.908897
2110.000000	9.891841
2109.000000	9.870949
2108.000000	9.860857
2107.000000	9.848746
2106.000000	9.829570
2105.000000	9.811404
2104.000000	9.803027
2103.000000	9.808174
2102.000000	9.803834
2101.000000	9.778099
2100.000000	9.750849
2099.000000	9.750950
2098.000000	9.752060
2097.000000	9.735609
2096.000000	9.736820
2095.000000	9.721984
2094.000000	9.710883
2093.000000	9.701396
2092.000000	9.698267
2091.000000	9.696753
2090.000000	9.683431
2089.000000	9.688477
2088.000000	9.674449
2087.000000	9.655677
2086.000000	9.655172
2085.000000	9.639125
2084.000000	9.643061
2083.000000	9.637510
2082.000000	9.620858
2081.000000	9.592498
2080.000000	9.569184
2079.000000	9.557982
2078.000000	9.526998
2077.000000	9.523062
2076.000000	9.508629
2075.000000	9.490463
2074.000000	9.477141
2073.000000	9.445551
2072.000000	9.406998
2071.000000	9.387822
2070.000000	9.378033
2069.000000	9.346039
2068.000000	9.318487
2067.000000	9.295375
2066.000000	9.289522
2065.000000	9.254904
2064.000000	9.227150
2063.000000	9.204442
2062.000000	9.190918
2061.000000	9.168715
2060.000000	9.146107
2059.000000	9.123702
2058.000000	9.124106
2057.000000	9.122794
2056.000000	9.114619
2055.000000	9.114518
2054.000000	9.124005
2053.000000	9.127335
2052.000000	9.139850
2051.000000	9.181835
2050.000000	9.210497
2049.000000	9.255409
2048.000000	9.259244
2047.000000	9.299109
2046.000000	9.351389
2045.000000	9.394786
2044.000000	9.450900
2043.000000	9.500354
2042.000000	9.529824
2041.000000	9.584424
2040.000000	9.630647
2039.000000	9.672329
2038.000000	9.719058
2037.000000	9.758418
2036.000000	9.770933
2035.000000	9.817560
2034.000000	9.846122
2033.000000	9.896786
2032.000000	9.915861
2031.000000	9.947248
2030.000000	9.986105
2029.000000	9.999931
2028.000000	10.015675
2027.000000	10.044035
2026.000000	10.050192
2025.000000	10.085213
2024.000000	10.086424
2023.000000	10.101764
2022.000000	10.118720
2021.000000	10.124977
2020.000000	10.141327
2019.000000	10.144254
2018.000000	10.139712
2017.000000	10.151621
2016.000000	10.155053
2015.000000	10.161310
2014.000000	10.156062
2013.000000	10.151318
2012.000000	10.158282
2011.000000	10.124271
2010.000000	10.123463
2009.000000	10.118922
2008.000000	10.103581
2007.000000	10.101764
2006.000000	10.076331
2005.000000	10.071487
2004.000000	10.033135
2003.000000	10.021731
2002.000000	9.988829
2001.000000	9.942909
2000.000000	9.949469
1999.000000	9.911824
1998.000000	9.879629
1997.000000	9.853288
1996.000000	9.834717
1995.000000	9.803834
1994.000000	9.770630
1993.000000	9.770226
1992.000000	9.704827
1991.000000	9.638620
1990.000000	9.627620
1989.000000	9.587149
1988.000000	9.562220
1987.000000	9.491775
1986.000000	9.464828
1985.000000	9.432431
1984.000000	9.394685
1983.000000	9.330295
1982.000000	9.303651
1981.000000	9.269438
1980.000000	9.220792
1979.000000	9.187991
1978.000000	9.171843
1977.000000	9.120473
1976.000000	9.087874
1975.000000	9.044375
1974.000000	9.006125
1973.000000	8.941937
1972.000000	8.915797
1971.000000	8.891474
1970.000000	8.836167
1969.000000	8.823552
1968.000000	8.759566
1967.000000	8.732417
1966.000000	8.721416
1965.000000	8.694267
1964.000000	8.652888
1963.000000	8.608077
1962.000000	8.584865
1961.000000	8.532989
1960.000000	8.513612
1959.000000	8.486968
1958.000000	8.455075
1957.000000	8.438927
1956.000000	8.385135
1955.000000	8.361518
1954.000000	8.335480
1953.000000	8.299147
1952.000000	8.284311
1951.000000	8.280980
1950.000000	8.241619
1949.000000	8.186515
1948.000000	8.180459
1947.000000	8.166834
1946.000000	8.136456
1945.000000	8.116675
1944.000000	8.097398
1943.000000	8.089324
1942.000000	8.107390
1941.000000	8.087205
1940.000000	8.078626
1939.000000	8.097095
1938.000000	8.077314
1937.000000	8.072268
1936.000000	8.062074
1935.000000	8.072470
1934.000000	8.088618
1933.000000	8.103756
1932.000000	8.118996
1931.000000	8.166128
1930.000000	8.207507
1929.000000	8.218003
1928.000000	8.223251
1927.000000	8.263217
1926.000000	8.314083
1925.000000	8.367069
1924.000000	8.419146
1923.000000	8.476068
1922.000000	8.531778
1921.000000	8.566698
1920.000000	8.630079
1919.000000	8.693157
1918.000000	8.759364
1917.000000	8.858270
1916.000000	8.927908
1915.000000	9.039834
1914.000000	9.143786
1913.000000	9.209589
1912.000000	9.289925
1911.000000	9.372986
1910.000000	9.491573
1909.000000	9.594314
1908.000000	9.713709
1907.000000	9.836130
1906.000000	9.963598
1905.000000	10.081075
1904.000000	10.201579
1903.000000	10.324808
1902.000000	10.454900
1901.000000	10.602755
1900.000000	10.750206
1899.000000	10.880096
1898.000000	11.027648
1897.000000	11.178632
1896.000000	11.324872
1895.000000	11.499169
1894.000000	11.686586
1893.000000	11.864416
1892.000000	12.068284
1891.000000	12.243691
1890.000000	12.422732
1889.000000	12.616608
1888.000000	12.838037
1887.000000	13.046245
1886.000000	13.304209
1885.000000	13.564797
1884.000000	13.849203
1883.000000	14.142894
1882.000000	14.429117
1881.000000	14.754902
1880.000000	15.064640
1879.000000	15.357827
1878.000000	15.674932
1877.000000	15.989919
1876.000000	16.304703
1875.000000	16.583457
1874.000000	16.854037
1873.000000	17.109275
1872.000000	17.347559
1871.000000	17.555969
1870.000000	17.750854
1869.000000	17.945236
1868.000000	18.114184
1867.000000	18.253763
1866.000000	18.361550
1865.000000	18.484981
1864.000000	18.594283
1863.000000	18.698336
1862.000000	18.804711
1861.000000	18.898066
1860.000000	18.998184
1859.000000	19.052380
1858.000000	19.088411
1857.000000	19.137056
1856.000000	19.172885
1855.000000	19.201043
1854.000000	19.202859
1853.000000	19.195492
1852.000000	19.187317
1851.000000	19.191152
1850.000000	19.230412
1849.000000	19.251606
1848.000000	19.211943
1847.000000	19.169655
1846.000000	19.116670
1845.000000	19.086897
1844.000000	19.082759
1843.000000	19.108596
1842.000000	19.137561
1841.000000	19.122624
1840.000000	19.084172
1839.000000	19.057730
1838.000000	19.049958
1837.000000	19.039260
1836.000000	18.991119
1835.000000	18.933794
1834.000000	18.885855
1833.000000	18.854972
1832.000000	18.834383
1831.000000	18.813189
1830.000000	18.766965
1829.000000	18.715594
1828.000000	18.655241
1827.000000	18.602962
1826.000000	18.560271
1825.000000	18.528783
1824.000000	18.500827
1823.000000	18.484981
1822.000000	18.502038
1821.000000	18.498001
1820.000000	18.449254
1819.000000	18.403737
1818.000000	18.393443
1817.000000	18.409893
1816.000000	18.412517
1815.000000	18.407471
1814.000000	18.412416
1813.000000	18.406159
1812.000000	18.399195
1811.000000	18.381836
1810.000000	18.343384
1809.000000	18.330163
1808.000000	18.305032
1807.000000	18.276471
1806.000000	18.255377
1805.000000	18.224393
1804.000000	18.183216
1803.000000	18.164848
1802.000000	18.142039
1801.000000	18.109642
1800.000000	18.052418
1799.000000	18.000139
1798.000000	17.981468
1797.000000	17.969155
1796.000000	17.928179
1795.000000	17.880745
1794.000000	17.848852
1793.000000	17.814841
1792.000000	17.774269
1791.000000	17.745505
1790.000000	17.709374
1789.000000	17.653967
1788.000000	17.609358
1787.000000	17.587154
1786.000000	17.543252
1785.000000	17.488551
1784.000000	17.432033
1783.000000	17.366836
1782.000000	17.307996
1781.000000	17.273682
1780.000000	17.229780
1779.000000	17.164683
1778.000000	17.096155
1777.000000	17.048317
1776.000000	16.987762
1775.000000	16.917821
1774.000000	16.843944
1773.000000	16.758360
1772.000000	16.689630
1771.000000	16.593247
1770.000000	16.535821
1769.000000	16.453163
1768.000000	16.401591
1767.000000	16.336292
1766.000000	16.268168
1765.000000	16.224468
1764.000000	16.181575
1763.000000	16.164922
1762.000000	16.162904
1761.000000	16.190456
1760.000000	16.198429
1759.000000	16.240414
1758.000000	16.291986
1757.000000	16.338311
1756.000000	16.368286
1755.000000	16.405729
1754.000000	16.434694
1753.000000	16.433079
1752.000000	16.432171
1751.000000	16.409160
1750.000000	16.395939
1749.000000	16.389177
1748.000000	16.345578
1747.000000	16.310052
1746.000000	16.243845
1745.000000	16.180465
1744.000000	16.114359
1743.000000	16.004553
1742.000000	15.915537
1741.000000	15.779692
1740.000000	15.647884
1739.000000	15.513654
1738.000000	15.378516
1737.000000	15.277490
1736.000000	15.197962
1735.000000	15.112378
1734.000000	15.065447
1733.000000	15.041226
1732.000000	15.053841
1731.000000	15.112680
1730.000000	15.134379
1729.000000	15.210375
1728.000000	15.263159
1727.000000	15.353487
1726.000000	15.405665
1725.000000	15.458852
1724.000000	15.507094
1723.000000	15.542216
1722.000000	15.558768
1721.000000	15.601358
1720.000000	15.601156
1719.000000	15.629920
1718.000000	15.673015
1717.000000	15.724285
1716.000000	15.761122
1715.000000	15.825613
1714.000000	15.884351
1713.000000	15.927143
1712.000000	15.971449
1711.000000	16.002130
1710.000000	16.038262
1709.000000	16.030793
1708.000000	16.052492
1707.000000	16.045124
1706.000000	16.010104
1705.000000	16.003947
1704.000000	15.977909
1703.000000	15.940365
1702.000000	15.886874
1701.000000	15.834696
1700.000000	15.737607
1699.000000	15.648086
1698.000000	15.571484
1697.000000	15.506287
1696.000000	15.434025
1695.000000	15.448053
1694.000000	15.459357
1693.000000	15.516480
1692.000000	15.592174
1691.000000	15.672510
1690.000000	15.758397
1689.000000	15.879305
1688.000000	15.916243
1687.000000	15.947026
1686.000000	15.996882
1685.000000	16.025040
1684.000000	16.059254
1683.000000	16.186722
1682.000000	16.334779
1681.000000	16.577604
1680.000000	16.876139
1679.000000	17.209797
1678.000000	17.556372
1677.000000	17.876203
1676.000000	18.172417
1675.000000	18.447841
1674.000000	18.674316
1673.000000	18.898369
1672.000000	19.081245
1671.000000	19.249588
1670.000000	19.400066
1669.000000	19.507148
1668.000000	19.642791
1667.000000	19.718989
1666.000000	19.773791
1665.000000	19.844337
1664.000000	19.906709
1663.000000	19.958786
1662.000000	20.008138
1661.000000	20.039324
1660.000000	20.055775
1659.000000	20.093723
1658.000000	20.096447
1657.000000	20.106641
1656.000000	20.115926
1655.000000	20.121578
1654.000000	20.119055
1653.000000	20.095035
1652.000000	20.080501
1651.000000	20.063041
1650.000000	20.030039
1649.000000	20.023983
1648.000000	19.986641
1647.000000	19.956768
1646.000000	19.917205
1645.000000	19.875523
1644.000000	19.815776
1643.000000	19.776415
1642.000000	19.737559
1641.000000	19.681949
1640.000000	19.655305
1639.000000	19.620486
1638.000000	19.564877
1637.000000	19.521883
1636.000000	19.474549
1635.000000	19.418435
1634.000000	19.364137
1633.000000	19.327905
1632.000000	19.273910
1631.000000	19.212144
1630.000000	19.155828
1629.000000	19.101026
1628.000000	19.051674
1627.000000	19.002423
1626.000000	18.945905
1625.000000	18.892314
1624.000000	18.832667
1623.000000	18.781397
1622.000000	18.724173
1621.000000	18.683299
1620.000000	18.642727
1619.000000	18.579447
1618.000000	18.545637
1617.000000	18.507084
1616.000000	18.467521
1615.000000	18.440373
1614.000000	18.381130
1613.000000	18.346412
1612.000000	18.295949
1611.000000	18.256387
1610.000000	18.207337
1609.000000	18.167775
1608.000000	18.127506
1607.000000	18.096320
1606.000000	18.060492
1605.000000	18.007607
1604.000000	17.984293
1603.000000	17.954722
1602.000000	17.908398
1601.000000	17.876607
1600.000000	17.846026
1599.000000	17.805051
1598.000000	17.762864
