PE UV       SUBTECH     SPECTRUM    ASCII       PEDS        4.00        
   -1
CICIMAUCR0014-2.Sample.ASC
24/04/04
11:56:19.00
24/04/04
11:56:19.00
Vinicio Soto Monge
C. cupreomarginata
250,000000
1
Lambda 1050
1050L1511233
PerkinElmer UV WinLab 6.3.2.0749 / 2.02.05 Lambda 900 UV/VIS/NIR, Aug  7 2015 09:38:08

0
0
3350/servo 860,8/2
0
0
UV/VIS
1
1
1
DoubleDePol,CommonBeamDepol,RBeamAtt,SBeamAtt,60mm sphere, WB InGaAs Detector
0
0
0
0
Program
Program
3350/servo 860,8/2
3350/0,2 860,8/0,2
3350/0,2 860,8/0,2
0
15.00
 
 
 
0
 
860,8
319,2
860,8
Front
100
on
S:100 R:100
0
0
0
0
 
0
 
 
 
0
 
 
0
0
0
0
0
 
 
 
 
0
0


0
0
#HDR
-1
-1
#GR
nm
%R
1.0
0.0
2500,000000
-1,000000
2251
8
66,693600
4,828800
#DATA
2500.000000	11.332167
2499.000000	11.205438
2498.000000	11.288202
2497.000000	11.272602
2496.000000	11.318086
2495.000000	11.258926
2494.000000	11.296712
2493.000000	11.349693
2492.000000	11.352023
2491.000000	11.384642
2490.000000	11.369751
2489.000000	11.341893
2488.000000	11.340474
2487.000000	11.321632
2486.000000	11.404497
2485.000000	11.358607
2484.000000	11.367421
2483.000000	11.481386
2482.000000	11.415134
2481.000000	11.388492
2480.000000	11.457985
2479.000000	11.512485
2478.000000	11.512283
2477.000000	11.580662
2476.000000	11.573672
2475.000000	11.564859
2474.000000	11.617029
2473.000000	11.662007
2472.000000	11.708910
2471.000000	11.716407
2470.000000	11.740415
2469.000000	11.784887
2468.000000	11.853266
2467.000000	11.882137
2466.000000	11.913237
2465.000000	12.008866
2464.000000	12.068533
2463.000000	12.147650
2462.000000	12.187766
2461.000000	12.284408
2460.000000	12.342353
2459.000000	12.412859
2458.000000	12.502511
2457.000000	12.573423
2456.000000	12.676245
2455.000000	12.751310
2454.000000	12.868010
2453.000000	12.945810
2452.000000	13.039616
2451.000000	13.143349
2450.000000	13.253971
2449.000000	13.377864
2448.000000	13.480989
2447.000000	13.611973
2446.000000	13.712465
2445.000000	13.848615
2444.000000	13.951943
2443.000000	14.075633
2442.000000	14.160220
2441.000000	14.285632
2440.000000	14.396153
2439.000000	14.521666
2438.000000	14.614459
2437.000000	14.731362
2436.000000	14.844618
2435.000000	14.961723
2434.000000	15.077207
2433.000000	15.157540
2432.000000	15.258741
2431.000000	15.356194
2430.000000	15.470260
2429.000000	15.573386
2428.000000	15.658885
2427.000000	15.756641
2426.000000	15.840823
2425.000000	15.931185
2424.000000	16.014962
2423.000000	16.086684
2422.000000	16.176539
2421.000000	16.268521
2420.000000	16.342168
2419.000000	16.400011
2418.000000	16.475481
2417.000000	16.541429
2416.000000	16.588839
2415.000000	16.653165
2414.000000	16.719113
2413.000000	16.769258
2412.000000	16.824569
2411.000000	16.882108
2410.000000	16.932557
2409.000000	16.958186
2408.000000	16.996884
2407.000000	17.057766
2406.000000	17.109532
2405.000000	17.142860
2404.000000	17.175986
2403.000000	17.201919
2402.000000	17.234133
2401.000000	17.274553
2400.000000	17.305349
2399.000000	17.329763
2398.000000	17.345768
2397.000000	17.377375
2396.000000	17.420833
2395.000000	17.439574
2394.000000	17.460746
2393.000000	17.477968
2392.000000	17.499241
2391.000000	17.516665
2390.000000	17.524263
2389.000000	17.522642
2388.000000	17.526289
2387.000000	17.541585
2386.000000	17.522135
2385.000000	17.513221
2384.000000	17.510486
2383.000000	17.497519
2382.000000	17.494885
2381.000000	17.460544
2380.000000	17.426202
2379.000000	17.424784
2378.000000	17.412020
2377.000000	17.381933
2376.000000	17.354784
2375.000000	17.319632
2374.000000	17.271514
2373.000000	17.241934
2372.000000	17.205364
2371.000000	17.163526
2370.000000	17.136478
2369.000000	17.095147
2368.000000	17.056044
2367.000000	17.019373
2366.000000	16.975408
2365.000000	16.938534
2364.000000	16.890314
2363.000000	16.834901
2362.000000	16.788201
2361.000000	16.754670
2360.000000	16.715466
2359.000000	16.661776
2358.000000	16.616899
2357.000000	16.584786
2356.000000	16.550445
2355.000000	16.502428
2354.000000	16.464136
2353.000000	16.442254
2352.000000	16.399505
2351.000000	16.372660
2350.000000	16.366987
2349.000000	16.350171
2348.000000	16.339433
2347.000000	16.339331
2346.000000	16.331632
2345.000000	16.320185
2344.000000	16.314107
2343.000000	16.301748
2342.000000	16.294961
2341.000000	16.279158
2340.000000	16.272573
2339.000000	16.259809
2338.000000	16.260619
2337.000000	16.230634
2336.000000	16.209563
2335.000000	16.180895
2334.000000	16.150200
2333.000000	16.134093
2332.000000	16.105121
2331.000000	16.077263
2330.000000	16.035526
2329.000000	16.011315
2328.000000	15.979810
2327.000000	15.931084
2326.000000	15.893703
2325.000000	15.852574
2324.000000	15.805975
2323.000000	15.752589
2322.000000	15.697886
2321.000000	15.636598
2320.000000	15.562648
2319.000000	15.496801
2318.000000	15.409681
2317.000000	15.319725
2316.000000	15.232200
2315.000000	15.120362
2314.000000	15.032027
2313.000000	14.939538
2312.000000	14.842085
2311.000000	14.742708
2310.000000	14.651536
2309.000000	14.571304
2308.000000	14.514373
2307.000000	14.463215
2306.000000	14.396254
2305.000000	14.346211
2304.000000	14.330104
2303.000000	14.299207
2302.000000	14.289178
2301.000000	14.295661
2300.000000	14.294952
2299.000000	14.286645
2298.000000	14.307412
2297.000000	14.333852
2296.000000	14.334966
2295.000000	14.335372
2294.000000	14.348642
2293.000000	14.366066
2292.000000	14.370726
2291.000000	14.355632
2290.000000	14.332434
2289.000000	14.335878
2288.000000	14.310654
2287.000000	14.279352
2286.000000	14.241262
2285.000000	14.206921
2284.000000	14.193245
2283.000000	14.133578
2282.000000	14.082825
2281.000000	14.045749
2280.000000	13.985373
2279.000000	13.925908
2278.000000	13.872218
2277.000000	13.813969
2276.000000	13.763926
2275.000000	13.707400
2274.000000	13.665562
2273.000000	13.623015
2272.000000	13.585634
2271.000000	13.529006
2270.000000	13.519079
2269.000000	13.496995
2268.000000	13.500135
2267.000000	13.505606
2266.000000	13.544810
2265.000000	13.579151
2264.000000	13.632639
2263.000000	13.693217
2262.000000	13.766661
2261.000000	13.857833
2260.000000	13.953463
2259.000000	14.076747
2258.000000	14.196183
2257.000000	14.325039
2256.000000	14.460075
2255.000000	14.587411
2254.000000	14.744126
2253.000000	14.880276
2252.000000	14.995153
2251.000000	15.143257
2250.000000	15.269479
2249.000000	15.382937
2248.000000	15.502879
2247.000000	15.597901
2246.000000	15.710245
2245.000000	15.806077
2244.000000	15.880939
2243.000000	15.964007
2242.000000	16.049404
2241.000000	16.096713
2240.000000	16.135613
2239.000000	16.182110
2238.000000	16.237421
2237.000000	16.255757
2236.000000	16.242182
2235.000000	16.272978
2234.000000	16.248666
2233.000000	16.227899
2232.000000	16.215236
2231.000000	16.160432
2230.000000	16.120519
2229.000000	16.038768
2228.000000	15.956510
2227.000000	15.890867
2226.000000	15.788045
2225.000000	15.653009
2224.000000	15.543197
2223.000000	15.438654
2222.000000	15.321650
2221.000000	15.186715
2220.000000	15.052794
2219.000000	14.914010
2218.000000	14.784748
2217.000000	14.652042
2216.000000	14.553779
2215.000000	14.440523
2214.000000	14.340842
2213.000000	14.271653
2212.000000	14.215329
2211.000000	14.187167
2210.000000	14.153028
2209.000000	14.160322
2208.000000	14.188787
2207.000000	14.240958
2206.000000	14.341855
2205.000000	14.459872
2204.000000	14.589235
2203.000000	14.725486
2202.000000	14.917859
2201.000000	15.101014
2200.000000	15.295311
2199.000000	15.522228
2198.000000	15.730910
2197.000000	15.953370
2196.000000	16.168941
2195.000000	16.382689
2194.000000	16.571313
2193.000000	16.778983
2192.000000	16.962137
2191.000000	17.129590
2190.000000	17.296535
2189.000000	17.426911
2188.000000	17.563062
2187.000000	17.656665
2186.000000	17.771643
2185.000000	17.861092
2184.000000	17.946186
2183.000000	18.020745
2182.000000	18.084666
2181.000000	18.151830
2180.000000	18.198327
2179.000000	18.238848
2178.000000	18.308848
2177.000000	18.335085
2176.000000	18.365273
2175.000000	18.400932
2174.000000	18.448442
2173.000000	18.488659
2172.000000	18.562306
2171.000000	18.604245
2170.000000	18.656011
2169.000000	18.691264
2168.000000	18.752146
2167.000000	18.811104
2166.000000	18.853955
2165.000000	18.928311
2164.000000	19.010568
2163.000000	19.079352
2162.000000	19.135575
2161.000000	19.219352
2160.000000	19.305965
2159.000000	19.394909
2158.000000	19.485372
2157.000000	19.584749
2156.000000	19.677744
2155.000000	19.793128
2154.000000	19.914690
2153.000000	20.022172
2152.000000	20.131072
2151.000000	20.248785
2150.000000	20.383111
2149.000000	20.508118
2148.000000	20.633125
2147.000000	20.757423
2146.000000	20.887900
2145.000000	21.008855
2144.000000	21.132342
2143.000000	21.251372
2142.000000	21.367465
2141.000000	21.477783
2140.000000	21.593166
2139.000000	21.711385
2138.000000	21.809649
2137.000000	21.915205
2136.000000	22.014279
2135.000000	22.111023
2134.000000	22.203815
2133.000000	22.277563
2132.000000	22.362049
2131.000000	22.449473
2130.000000	22.517953
2129.000000	22.578735
2128.000000	22.644986
2127.000000	22.709111
2126.000000	22.768676
2125.000000	22.816390
2124.000000	22.855492
2123.000000	22.899964
2122.000000	22.928936
2121.000000	22.966317
2120.000000	22.995796
2119.000000	23.019804
2118.000000	23.035304
2117.000000	23.051917
2116.000000	23.058704
2115.000000	23.071468
2114.000000	23.078863
2113.000000	23.087981
2112.000000	23.085246
2111.000000	23.080788
2110.000000	23.075824
2109.000000	23.075521
2108.000000	23.070354
2107.000000	23.051816
2106.000000	23.039356
2105.000000	23.036114
2104.000000	23.029124
2103.000000	23.020716
2102.000000	23.007040
2101.000000	23.002076
2100.000000	22.992149
2099.000000	22.975535
2098.000000	22.970268
2097.000000	22.974218
2096.000000	22.967735
2095.000000	22.963886
2094.000000	22.969964
2093.000000	22.965608
2092.000000	22.960036
2091.000000	22.962062
2090.000000	22.969761
2089.000000	22.969558
2088.000000	22.955174
2087.000000	22.943625
2086.000000	22.925695
2085.000000	22.908372
2084.000000	22.884465
2083.000000	22.848401
2082.000000	22.819125
2081.000000	22.789646
2080.000000	22.739501
2079.000000	22.679632
2078.000000	22.613279
2077.000000	22.547939
2076.000000	22.481890
2075.000000	22.398518
2074.000000	22.299546
2073.000000	22.224785
2072.000000	22.127535
2071.000000	22.020762
2070.000000	21.940227
2069.000000	21.835278
2068.000000	21.711791
2067.000000	21.615959
2066.000000	21.519924
2065.000000	21.400185
2064.000000	21.304252
2063.000000	21.203254
2062.000000	21.096785
2061.000000	21.018681
2060.000000	20.952227
2059.000000	20.884861
2058.000000	20.821243
2057.000000	20.785180
2056.000000	20.765527
2055.000000	20.759753
2054.000000	20.790346
2053.000000	20.835628
2052.000000	20.883544
2051.000000	20.973197
2050.000000	21.063761
2049.000000	21.181980
2048.000000	21.322385
2047.000000	21.471907
2046.000000	21.643614
2045.000000	21.819981
2044.000000	21.985610
2043.000000	22.165624
2042.000000	22.367013
2041.000000	22.561311
2040.000000	22.749530
2039.000000	22.941700
2038.000000	23.095173
2037.000000	23.270325
2036.000000	23.436156
2035.000000	23.603204
2034.000000	23.755461
2033.000000	23.897993
2032.000000	24.037992
2031.000000	24.184070
2030.000000	24.320626
2029.000000	24.430336
2028.000000	24.542680
2027.000000	24.656746
2026.000000	24.763113
2025.000000	24.866340
2024.000000	24.955891
2023.000000	25.036021
2022.000000	25.115240
2021.000000	25.218365
2020.000000	25.290493
2019.000000	25.346006
2018.000000	25.410232
2017.000000	25.455716
2016.000000	25.518929
2015.000000	25.553372
2014.000000	25.597843
2013.000000	25.660752
2012.000000	25.681519
2011.000000	25.707655
2010.000000	25.720318
2009.000000	25.733487
2008.000000	25.750404
2007.000000	25.732575
2006.000000	25.737944
2005.000000	25.725788
2004.000000	25.709478
2003.000000	25.685470
2002.000000	25.636136
2001.000000	25.610607
2000.000000	25.556613
1999.000000	25.524298
1998.000000	25.478205
1997.000000	25.415702
1996.000000	25.365659
1995.000000	25.301534
1994.000000	25.234574
1993.000000	25.165080
1992.000000	25.081101
1991.000000	25.002288
1990.000000	24.917194
1989.000000	24.851246
1988.000000	24.754908
1987.000000	24.650668
1986.000000	24.572159
1985.000000	24.483722
1984.000000	24.376038
1983.000000	24.297225
1982.000000	24.198759
1981.000000	24.121871
1980.000000	24.011958
1979.000000	23.925648
1978.000000	23.817559
1977.000000	23.729325
1976.000000	23.639368
1975.000000	23.552046
1974.000000	23.477082
1973.000000	23.381352
1972.000000	23.304970
1971.000000	23.223118
1970.000000	23.140557
1969.000000	23.046953
1968.000000	22.967634
1967.000000	22.887098
1966.000000	22.802815
1965.000000	22.725623
1964.000000	22.626549
1963.000000	22.583293
1962.000000	22.481788
1961.000000	22.399936
1960.000000	22.285971
1959.000000	22.222455
1958.000000	22.137868
1957.000000	22.052166
1956.000000	21.970618
1955.000000	21.918751
1954.000000	21.809750
1953.000000	21.702066
1952.000000	21.642095
1951.000000	21.549505
1950.000000	21.492471
1949.000000	21.429158
1948.000000	21.366350
1947.000000	21.282776
1946.000000	21.250866
1945.000000	21.191908
1944.000000	21.123225
1943.000000	21.091011
1942.000000	21.077335
1941.000000	21.058290
1940.000000	21.056163
1939.000000	21.037219
1938.000000	21.012198
1937.000000	21.007335
1936.000000	21.014224
1935.000000	21.058594
1934.000000	21.097494
1933.000000	21.174180
1932.000000	21.228275
1931.000000	21.303442
1930.000000	21.389143
1929.000000	21.466133
1928.000000	21.566321
1927.000000	21.676132
1926.000000	21.793035
1925.000000	21.923107
1924.000000	22.098765
1923.000000	22.245856
1922.000000	22.447346
1921.000000	22.627360
1920.000000	22.800181
1919.000000	22.982221
1918.000000	23.189587
1917.000000	23.446894
1916.000000	23.704404
1915.000000	23.967385
1914.000000	24.267746
1913.000000	24.535285
1912.000000	24.805559
1911.000000	25.107237
1910.000000	25.419551
1909.000000	25.774818
1908.000000	26.124412
1907.000000	26.512298
1906.000000	26.920850
1905.000000	27.329300
1904.000000	27.744943
1903.000000	28.168487
1902.000000	28.624853
1901.000000	29.066126
1900.000000	29.541030
1899.000000	30.023431
1898.000000	30.509277
1897.000000	30.980737
1896.000000	31.430518
1895.000000	31.927811
1894.000000	32.442932
1893.000000	32.968387
1892.000000	33.496779
1891.000000	34.004201
1890.000000	34.492275
1889.000000	34.950566
1888.000000	35.466397
1887.000000	35.936844
1886.000000	36.395743
1885.000000	36.887768
1884.000000	37.355379
1883.000000	37.778315
1882.000000	38.174204
1881.000000	38.565332
1880.000000	38.925765
1879.000000	39.285286
1878.000000	39.634272
1877.000000	39.956109
1876.000000	40.250595
1875.000000	40.529885
1874.000000	40.798741
1873.000000	41.035585
1872.000000	41.229275
1871.000000	41.392777
1870.000000	41.480606
1869.000000	41.598116
1868.000000	41.723832
1867.000000	41.789982
1866.000000	41.868188
1865.000000	41.956017
1864.000000	42.060865
1863.000000	42.173614
1862.000000	42.267622
1861.000000	42.355451
1860.000000	42.426059
1859.000000	42.451283
1858.000000	42.472253
1857.000000	42.511963
1856.000000	42.545494
1855.000000	42.563931
1854.000000	42.558157
1853.000000	42.523309
1852.000000	42.524322
1851.000000	42.578620
1850.000000	42.661992
1849.000000	42.700486
1848.000000	42.622484
1847.000000	42.486232
1846.000000	42.388273
1845.000000	42.378852
1844.000000	42.410762
1843.000000	42.473671
1842.000000	42.483193
1841.000000	42.405596
1840.000000	42.309764
1839.000000	42.247261
1838.000000	42.224265
1837.000000	42.161255
1836.000000	42.066639
1835.000000	41.977594
1834.000000	41.910532
1833.000000	41.865453
1832.000000	41.844382
1831.000000	41.816726
1830.000000	41.745308
1829.000000	41.689288
1828.000000	41.622429
1827.000000	41.555873
1826.000000	41.488912
1825.000000	41.437856
1824.000000	41.446872
1823.000000	41.518189
1822.000000	41.564585
1821.000000	41.532776
1820.000000	41.454064
1819.000000	41.381127
1818.000000	41.371908
1817.000000	41.397133
1816.000000	41.408479
1815.000000	41.370085
1814.000000	41.354484
1813.000000	41.365729
1812.000000	41.346076
1811.000000	41.292893
1810.000000	41.214789
1809.000000	41.188957
1808.000000	41.189261
1807.000000	41.174369
1806.000000	41.114905
1805.000000	41.039637
1804.000000	41.016743
1803.000000	41.012184
1802.000000	40.992836
1801.000000	40.948060
1800.000000	40.884037
1799.000000	40.838856
1798.000000	40.813936
1797.000000	40.793473
1796.000000	40.748697
1795.000000	40.703314
1794.000000	40.676672
1793.000000	40.640000
1792.000000	40.618828
1791.000000	40.579725
1790.000000	40.552678
1789.000000	40.519451
1788.000000	40.494936
1787.000000	40.483894
1786.000000	40.459581
1785.000000	40.420985
1784.000000	40.382591
1783.000000	40.337917
1782.000000	40.299726
1781.000000	40.254444
1780.000000	40.190219
1779.000000	40.136832
1778.000000	40.070885
1777.000000	39.988323
1776.000000	39.898975
1775.000000	39.821783
1774.000000	39.718657
1773.000000	39.644605
1772.000000	39.550597
1771.000000	39.447370
1770.000000	39.358325
1769.000000	39.264013
1768.000000	39.175779
1767.000000	39.094636
1766.000000	39.023218
1765.000000	38.952509
1764.000000	38.909253
1763.000000	38.880280
1762.000000	38.850092
1761.000000	38.818587
1760.000000	38.818283
1759.000000	38.813725
1758.000000	38.813927
1757.000000	38.789311
1756.000000	38.775736
1755.000000	38.767632
1754.000000	38.729137
1753.000000	38.704622
1752.000000	38.674232
1751.000000	38.607372
1750.000000	38.555607
1749.000000	38.474869
1748.000000	38.396866
1747.000000	38.296273
1746.000000	38.177446
1745.000000	38.064899
1744.000000	37.913351
1743.000000	37.778011
1742.000000	37.636999
1741.000000	37.471674
1740.000000	37.316985
1739.000000	37.173541
1738.000000	37.041747
1737.000000	36.928795
1736.000000	36.851299
1735.000000	36.764179
1734.000000	36.735511
1733.000000	36.702081
1732.000000	36.678376
1731.000000	36.677464
1730.000000	36.668550
1729.000000	36.673716
1728.000000	36.670981
1727.000000	36.665713
1726.000000	36.640287
1725.000000	36.660243
1724.000000	36.680504
1723.000000	36.713933
1722.000000	36.775221
1721.000000	36.866900
1720.000000	36.994135
1719.000000	37.169996
1718.000000	37.337549
1717.000000	37.508750
1716.000000	37.719965
1715.000000	37.869386
1714.000000	38.044335
1713.000000	38.192540
1712.000000	38.329602
1711.000000	38.434247
1710.000000	38.520759
1709.000000	38.581945
1708.000000	38.614970
1707.000000	38.658125
1706.000000	38.676562
1705.000000	38.660961
1704.000000	38.653161
1703.000000	38.615882
1702.000000	38.561077
1701.000000	38.482061
1700.000000	38.414999
1699.000000	38.333552
1698.000000	38.283003
1697.000000	38.238024
1696.000000	38.188082
1695.000000	38.172988
1694.000000	38.169747
1693.000000	38.144117
1692.000000	38.142091
1691.000000	38.119096
1690.000000	38.120615
1689.000000	38.136722
1688.000000	38.198111
1687.000000	38.264363
1686.000000	38.389876
1685.000000	38.549022
1684.000000	38.768848
1683.000000	39.044998
1682.000000	39.352348
1681.000000	39.688672
1680.000000	40.045559
1679.000000	40.399914
1678.000000	40.721548
1677.000000	41.032951
1676.000000	41.298870
1675.000000	41.567016
1674.000000	41.812573
1673.000000	42.061168
1672.000000	42.294771
1671.000000	42.527766
1670.000000	42.728547
1669.000000	42.947664
1668.000000	43.138213
1667.000000	43.328256
1666.000000	43.487807
1665.000000	43.639051
1664.000000	43.784521
1663.000000	43.932523
1662.000000	44.069889
1661.000000	44.202392
1660.000000	44.289512
1659.000000	44.404592
1658.000000	44.476921
1657.000000	44.558672
1656.000000	44.612970
1655.000000	44.664634
1654.000000	44.698267
1653.000000	44.745777
1652.000000	44.729164
1651.000000	44.753375
1650.000000	44.763505
1649.000000	44.744764
1648.000000	44.737065
1647.000000	44.713259
1646.000000	44.695227
1645.000000	44.673245
1644.000000	44.646096
1643.000000	44.630495
1642.000000	44.604967
1641.000000	44.588860
1640.000000	44.567080
1639.000000	44.551277
1638.000000	44.518557
1637.000000	44.486545
1636.000000	44.458079
1635.000000	44.429613
1634.000000	44.391220
1633.000000	44.355460
1632.000000	44.304910
1631.000000	44.246864
1630.000000	44.174433
1629.000000	44.119325
1628.000000	44.075056
1627.000000	44.031597
1626.000000	43.962408
1625.000000	43.889470
