PE UV       SUBTECH     SPECTRUM    ASCII       PEDS        4.00        
   -1
CICIMAUCR0001-3.Sample.ASC
24/04/04
15:45:00.00
24/04/04
15:45:00.00
Vinicio Soto Monge
C. kalinini
250,000000
1
Lambda 1050
1050L1511233
PerkinElmer UV WinLab 6.3.2.0749 / 2.02.05 Lambda 900 UV/VIS/NIR, Aug  7 2015 09:38:08

0
0
3350/servo 860,8/2
0
0
UV/VIS
1
1
1
DoubleDePol,CommonBeamDepol,RBeamAtt,SBeamAtt,60mm sphere, WB InGaAs Detector
0
0
0
0
Program
Program
3350/servo 860,8/2
3350/0,2 860,8/0,2
3350/0,2 860,8/0,2
0
15.00
 
 
 
0
 
860,8
319,2
860,8
Front
100
on
S:100 R:100
0
0
0
0
 
0
 
 
 
0
 
 
0
0
0
0
0
 
 
 
 
0
0


0
0
#HDR
-1
-1
#GR
nm
%R
1.0
0.0
2500,000000
-1,000000
2251
8
73,921900
4,917300
#DATA
2500.000000	8.535065
2499.000000	8.418253
2498.000000	8.454265
2497.000000	8.516012
2496.000000	8.483792
2495.000000	8.550727
2494.000000	8.456459
2493.000000	8.545639
2492.000000	8.572573
2491.000000	8.553121
2490.000000	8.561500
2489.000000	8.587536
2488.000000	8.505638
2487.000000	8.605292
2486.000000	8.621752
2485.000000	8.595317
2484.000000	8.605093
2483.000000	8.666641
2482.000000	8.672826
2481.000000	8.676716
2480.000000	8.747741
2479.000000	8.725496
2478.000000	8.793229
2477.000000	8.753128
2476.000000	8.839515
2475.000000	8.847795
2474.000000	8.885502
2473.000000	8.901363
2472.000000	8.964308
2471.000000	8.978173
2470.000000	8.974383
2469.000000	9.065458
2468.000000	9.035332
2467.000000	9.147755
2466.000000	9.174889
2465.000000	9.168903
2464.000000	9.244018
2463.000000	9.294194
2462.000000	9.340381
2461.000000	9.386068
2460.000000	9.435845
2459.000000	9.455497
2458.000000	9.537196
2457.000000	9.601238
2456.000000	9.626775
2455.000000	9.697999
2454.000000	9.788277
2453.000000	9.841745
2452.000000	9.914665
2451.000000	9.956961
2450.000000	10.032276
2449.000000	10.103899
2448.000000	10.176021
2447.000000	10.246647
2446.000000	10.312684
2445.000000	10.406653
2444.000000	10.470895
2443.000000	10.539226
2442.000000	10.640177
2441.000000	10.705117
2440.000000	10.769459
2439.000000	10.857143
2438.000000	10.924975
2437.000000	11.017847
2436.000000	11.086278
2435.000000	11.165283
2434.000000	11.246184
2433.000000	11.322396
2432.000000	11.392224
2431.000000	11.470232
2430.000000	11.538464
2429.000000	11.623953
2428.000000	11.695876
2427.000000	11.762611
2426.000000	11.827252
2425.000000	11.894686
2424.000000	11.966908
2423.000000	12.037534
2422.000000	12.088807
2421.000000	12.152550
2420.000000	12.225770
2419.000000	12.288315
2418.000000	12.365725
2417.000000	12.421088
2416.000000	12.471464
2415.000000	12.530120
2414.000000	12.580595
2413.000000	12.644837
2412.000000	12.679252
2411.000000	12.720949
2410.000000	12.772722
2409.000000	12.825192
2408.000000	12.870381
2407.000000	12.911280
2406.000000	12.920757
2405.000000	12.960160
2404.000000	13.016421
2403.000000	13.059315
2402.000000	13.078169
2401.000000	13.107397
2400.000000	13.137323
2399.000000	13.158571
2398.000000	13.179818
2397.000000	13.212438
2396.000000	13.234085
2395.000000	13.258524
2394.000000	13.277278
2393.000000	13.302217
2392.000000	13.326058
2391.000000	13.339625
2390.000000	13.348902
2389.000000	13.364663
2388.000000	13.382319
2387.000000	13.393891
2386.000000	13.394290
2385.000000	13.388005
2384.000000	13.397482
2383.000000	13.402270
2382.000000	13.407856
2381.000000	13.417433
2380.000000	13.397881
2379.000000	13.385811
2378.000000	13.380224
2377.000000	13.380923
2376.000000	13.370349
2375.000000	13.362568
2374.000000	13.349400
2373.000000	13.336931
2372.000000	13.340722
2371.000000	13.333340
2370.000000	13.324661
2369.000000	13.328652
2368.000000	13.332243
2367.000000	13.312192
2366.000000	13.295334
2365.000000	13.304212
2364.000000	13.304611
2363.000000	13.293139
2362.000000	13.292940
2361.000000	13.282964
2360.000000	13.274784
2359.000000	13.274086
2358.000000	13.269098
2357.000000	13.257726
2356.000000	13.248150
2355.000000	13.237177
2354.000000	13.216029
2353.000000	13.204258
2352.000000	13.203759
2351.000000	13.197774
2350.000000	13.178422
2349.000000	13.165254
2348.000000	13.143109
2347.000000	13.118370
2346.000000	13.118071
2345.000000	13.104404
2344.000000	13.096723
2343.000000	13.088344
2342.000000	13.076274
2341.000000	13.076373
2340.000000	13.065101
2339.000000	13.053031
2338.000000	13.039265
2337.000000	13.034975
2336.000000	13.027095
2335.000000	13.028591
2334.000000	13.028591
2333.000000	13.020810
2332.000000	13.019015
2331.000000	13.024202
2330.000000	13.043055
2329.000000	13.045350
2328.000000	13.049440
2327.000000	13.060712
2326.000000	13.068692
2325.000000	13.075376
2324.000000	13.078668
2323.000000	13.077670
2322.000000	13.081261
2321.000000	13.082159
2320.000000	13.071785
2319.000000	13.068792
2318.000000	13.058019
2317.000000	13.038068
2316.000000	13.019015
2315.000000	12.995173
2314.000000	12.983502
2313.000000	12.942204
2312.000000	12.912477
2311.000000	12.868984
2310.000000	12.820903
2309.000000	12.796164
2308.000000	12.759853
2307.000000	12.723144
2306.000000	12.687332
2305.000000	12.654812
2304.000000	12.614911
2303.000000	12.583688
2302.000000	12.545083
2301.000000	12.508972
2300.000000	12.477050
2299.000000	12.444930
2298.000000	12.411412
2297.000000	12.403033
2296.000000	12.383281
2295.000000	12.384479
2294.000000	12.354552
2293.000000	12.330212
2292.000000	12.317045
2291.000000	12.285822
2290.000000	12.289912
2289.000000	12.268065
2288.000000	12.273652
2287.000000	12.253102
2286.000000	12.244922
2285.000000	12.248713
2284.000000	12.234748
2283.000000	12.225670
2282.000000	12.201928
2281.000000	12.186666
2280.000000	12.183673
2279.000000	12.161727
2278.000000	12.148560
2277.000000	12.131203
2276.000000	12.105067
2275.000000	12.090902
2274.000000	12.059978
2273.000000	12.032845
2272.000000	12.016685
2271.000000	11.990450
2270.000000	11.958129
2269.000000	11.933689
2268.000000	11.938478
2267.000000	11.909748
2266.000000	11.897479
2265.000000	11.878525
2264.000000	11.869548
2263.000000	11.862066
2262.000000	11.880221
2261.000000	11.903564
2260.000000	11.921819
2259.000000	11.946358
2258.000000	11.956034
2257.000000	12.027458
2256.000000	12.060776
2255.000000	12.109456
2254.000000	12.162625
2253.000000	12.204921
2252.000000	12.269262
2251.000000	12.325524
2250.000000	12.396050
2249.000000	12.439742
2248.000000	12.504084
2247.000000	12.549871
2246.000000	12.606032
2245.000000	12.645136
2244.000000	12.699901
2243.000000	12.746287
2242.000000	12.787685
2241.000000	12.812923
2240.000000	12.852425
2239.000000	12.849433
2238.000000	12.867289
2237.000000	12.893524
2236.000000	12.891529
2235.000000	12.876566
2234.000000	12.860106
2233.000000	12.846240
2232.000000	12.804444
2231.000000	12.772323
2230.000000	12.697008
2229.000000	12.661197
2228.000000	12.592765
2227.000000	12.543187
2226.000000	12.428470
2225.000000	12.359141
2224.000000	12.278240
2223.000000	12.176691
2222.000000	12.077635
2221.000000	11.959227
2220.000000	11.857078
2219.000000	11.736376
2218.000000	11.635724
2217.000000	11.546843
2216.000000	11.434121
2215.000000	11.370178
2214.000000	11.266534
2213.000000	11.190421
2212.000000	11.165383
2211.000000	11.127676
2210.000000	11.103635
2209.000000	11.089470
2208.000000	11.105131
2207.000000	11.135856
2206.000000	11.214761
2205.000000	11.289677
2204.000000	11.407486
2203.000000	11.521705
2202.000000	11.621858
2201.000000	11.778971
2200.000000	11.924213
2199.000000	12.080927
2198.000000	12.251506
2197.000000	12.406125
2196.000000	12.575707
2195.000000	12.740102
2194.000000	12.874471
2193.000000	13.044751
2192.000000	13.173833
2191.000000	13.319773
2190.000000	13.427009
2189.000000	13.534744
2188.000000	13.619634
2187.000000	13.722780
2186.000000	13.798494
2185.000000	13.853259
2184.000000	13.929970
2183.000000	13.961691
2182.000000	14.006880
2181.000000	14.055061
2180.000000	14.090574
2179.000000	14.115413
2178.000000	14.160901
2177.000000	14.174367
2176.000000	14.214269
2175.000000	14.240205
2174.000000	14.272725
2173.000000	14.286291
2172.000000	14.328288
2171.000000	14.363401
2170.000000	14.379562
2169.000000	14.418266
2168.000000	14.447993
2167.000000	14.498568
2166.000000	14.524504
2165.000000	14.565104
2164.000000	14.603609
2163.000000	14.649297
2162.000000	14.698276
2161.000000	14.754837
2160.000000	14.794639
2159.000000	14.885016
2158.000000	14.952250
2157.000000	14.999833
2156.000000	15.067766
2155.000000	15.162532
2154.000000	15.233657
2153.000000	15.318148
2152.000000	15.399947
2151.000000	15.486733
2150.000000	15.580701
2149.000000	15.665792
2148.000000	15.766444
2147.000000	15.870886
2146.000000	15.953084
2145.000000	16.025605
2144.000000	16.122965
2143.000000	16.230201
2142.000000	16.318583
2141.000000	16.378635
2140.000000	16.455346
2139.000000	16.555699
2138.000000	16.641687
2137.000000	16.714707
2136.000000	16.798500
2135.000000	16.881097
2134.000000	16.944740
2133.000000	17.021151
2132.000000	17.089683
2131.000000	17.149036
2130.000000	17.208290
2129.000000	17.253279
2128.000000	17.294179
2127.000000	17.353931
2126.000000	17.402811
2125.000000	17.440717
2124.000000	17.481716
2123.000000	17.523114
2122.000000	17.558427
2121.000000	17.599726
2120.000000	17.627158
2119.000000	17.660476
2118.000000	17.688108
2117.000000	17.702173
2116.000000	17.723022
2115.000000	17.752449
2114.000000	17.764819
2113.000000	17.777986
2112.000000	17.796441
2111.000000	17.813100
2110.000000	17.825569
2109.000000	17.819883
2108.000000	17.814995
2107.000000	17.827963
2106.000000	17.847814
2105.000000	17.858288
2104.000000	17.861680
2103.000000	17.865371
2102.000000	17.869960
2101.000000	17.866967
2100.000000	17.867166
2099.000000	17.871755
2098.000000	17.870458
2097.000000	17.873950
2096.000000	17.889611
2095.000000	17.905273
2094.000000	17.909861
2093.000000	17.911956
2092.000000	17.918540
2091.000000	17.924525
2090.000000	17.930311
2089.000000	17.951658
2088.000000	17.958441
2087.000000	17.944576
2086.000000	17.925323
2085.000000	17.916645
2084.000000	17.923428
2083.000000	17.917642
2082.000000	17.896893
2081.000000	17.861780
2080.000000	17.825569
2079.000000	17.788660
2078.000000	17.752349
2077.000000	17.689704
2076.000000	17.639228
2075.000000	17.600524
2074.000000	17.534885
2073.000000	17.458573
2072.000000	17.371388
2071.000000	17.302458
2070.000000	17.222356
2069.000000	17.142253
2068.000000	17.062450
2067.000000	16.973569
2066.000000	16.892967
2065.000000	16.813763
2064.000000	16.727276
2063.000000	16.634305
2062.000000	16.549015
2061.000000	16.474499
2060.000000	16.409359
2059.000000	16.363971
2058.000000	16.303620
2057.000000	16.244067
2056.000000	16.218031
2055.000000	16.190000
2054.000000	16.180922
2053.000000	16.176633
2052.000000	16.199377
2051.000000	16.229203
2050.000000	16.273295
2049.000000	16.317885
2048.000000	16.386915
2047.000000	16.452453
2046.000000	16.539738
2045.000000	16.624529
2044.000000	16.715205
2043.000000	16.805782
2042.000000	16.904838
2041.000000	16.987435
2040.000000	17.074221
2039.000000	17.166992
2038.000000	17.252781
2037.000000	17.326200
2036.000000	17.401315
2035.000000	17.486205
2034.000000	17.539973
2033.000000	17.587157
2032.000000	17.652994
2031.000000	17.712647
2030.000000	17.766914
2029.000000	17.809010
2028.000000	17.849610
2027.000000	17.873251
2026.000000	17.909063
2025.000000	17.946770
2024.000000	17.980188
2023.000000	17.996747
2022.000000	18.009915
2021.000000	18.018992
2020.000000	18.030763
2019.000000	18.036449
2018.000000	18.044230
2017.000000	18.048520
2016.000000	18.032758
2015.000000	18.039442
2014.000000	18.001236
2013.000000	18.007521
2012.000000	17.977594
2011.000000	17.934999
2010.000000	17.910061
2009.000000	17.896694
2008.000000	17.844123
2007.000000	17.812601
2006.000000	17.762026
2005.000000	17.711450
2004.000000	17.649303
2003.000000	17.585760
2002.000000	17.515433
2001.000000	17.451291
2000.000000	17.398422
1999.000000	17.310937
1998.000000	17.243304
1997.000000	17.182753
1996.000000	17.103848
1995.000000	17.008383
1994.000000	16.932470
1993.000000	16.854063
1992.000000	16.761990
1991.000000	16.684681
1990.000000	16.577445
1989.000000	16.510111
1988.000000	16.404272
1987.000000	16.307011
1986.000000	16.228305
1985.000000	16.148003
1984.000000	16.035181
1983.000000	15.954580
1982.000000	15.862906
1981.000000	15.771132
1980.000000	15.694421
1979.000000	15.609032
1978.000000	15.525537
1977.000000	15.428676
1976.000000	15.337900
1975.000000	15.286127
1974.000000	15.185076
1973.000000	15.097891
1972.000000	15.025769
1971.000000	14.947263
1970.000000	14.879130
1969.000000	14.800125
1968.000000	14.728103
1967.000000	14.656479
1966.000000	14.578870
1965.000000	14.513531
1964.000000	14.441509
1963.000000	14.352029
1962.000000	14.316118
1961.000000	14.218060
1960.000000	14.157509
1959.000000	14.088878
1958.000000	14.034013
1957.000000	13.953212
1956.000000	13.877998
1955.000000	13.813158
1954.000000	13.749814
1953.000000	13.679686
1952.000000	13.627415
1951.000000	13.566266
1950.000000	13.504817
1949.000000	13.462921
1948.000000	13.399278
1947.000000	13.359575
1946.000000	13.315484
1945.000000	13.286555
1944.000000	13.234982
1943.000000	13.189395
1942.000000	13.179818
1941.000000	13.173334
1940.000000	13.166651
1939.000000	13.135528
1938.000000	13.145204
1937.000000	13.123258
1936.000000	13.116075
1935.000000	13.126250
1934.000000	13.167449
1933.000000	13.186901
1932.000000	13.209944
1931.000000	13.260619
1930.000000	13.306506
1929.000000	13.365760
1928.000000	13.421024
1927.000000	13.478881
1926.000000	13.557288
1925.000000	13.653750
1924.000000	13.753305
1923.000000	13.854456
1922.000000	13.984735
1921.000000	14.101347
1920.000000	14.229930
1919.000000	14.357316
1918.000000	14.515227
1917.000000	14.669647
1916.000000	14.823567
1915.000000	14.992850
1914.000000	15.200339
1913.000000	15.437754
1912.000000	15.668286
1911.000000	15.895426
1910.000000	16.134137
1909.000000	16.372550
1908.000000	16.626125
1907.000000	16.924889
1906.000000	17.266447
1905.000000	17.629153
1904.000000	17.992757
1903.000000	18.345787
1902.000000	18.724653
1901.000000	19.114592
1900.000000	19.576653
1899.000000	20.052581
1898.000000	20.502073
1897.000000	20.992564
1896.000000	21.430983
1895.000000	21.870600
1894.000000	22.369072
1893.000000	22.868042
1892.000000	23.400230
1891.000000	23.988580
1890.000000	24.505107
1889.000000	24.993404
1888.000000	25.540954
1887.000000	26.023665
1886.000000	26.497397
1885.000000	27.001056
1884.000000	27.508705
1883.000000	27.949718
1882.000000	28.366690
1881.000000	28.781269
1880.000000	29.182280
1879.000000	29.567331
1878.000000	29.948492
1877.000000	30.298529
1876.000000	30.644676
1875.000000	30.963590
1874.000000	31.267541
1873.000000	31.576280
1872.000000	31.842325
1871.000000	32.069864
1870.000000	32.249721
1869.000000	32.413417
1868.000000	32.590082
1867.000000	32.741409
1866.000000	32.849044
1865.000000	32.973637
1864.000000	33.118679
1863.000000	33.253447
1862.000000	33.386818
1861.000000	33.526474
1860.000000	33.624433
1859.000000	33.701742
1858.000000	33.772767
1857.000000	33.840101
1856.000000	33.904443
1855.000000	33.965592
1854.000000	34.011180
1853.000000	34.009584
1852.000000	34.024646
1851.000000	34.093178
1850.000000	34.186148
1849.000000	34.249891
1848.000000	34.228245
1847.000000	34.173679
1846.000000	34.092479
1845.000000	34.055271
1844.000000	34.107841
1843.000000	34.155723
1842.000000	34.186647
1841.000000	34.155624
1840.000000	34.100559
1839.000000	34.060558
1838.000000	34.028038
1837.000000	33.980256
1836.000000	33.903246
1835.000000	33.833118
1834.000000	33.782543
1833.000000	33.767480
1832.000000	33.747829
1831.000000	33.733165
1830.000000	33.698251
1829.000000	33.648074
1828.000000	33.605479
1827.000000	33.572860
1826.000000	33.541338
1825.000000	33.491261
1824.000000	33.471709
1823.000000	33.529966
1822.000000	33.572162
1821.000000	33.550714
1820.000000	33.506224
1819.000000	33.457444
1818.000000	33.433703
1817.000000	33.435399
1816.000000	33.450960
1815.000000	33.435399
1814.000000	33.409263
1813.000000	33.407667
1812.000000	33.392604
1811.000000	33.352303
1810.000000	33.310008
1809.000000	33.278485
1808.000000	33.265218
1807.000000	33.262325
1806.000000	33.236988
1805.000000	33.209655
1804.000000	33.183320
1803.000000	33.174442
1802.000000	33.165863
1801.000000	33.148705
1800.000000	33.120974
1799.000000	33.082867
1798.000000	33.049649
1797.000000	33.043365
1796.000000	33.042666
1795.000000	33.016930
1794.000000	33.003363
1793.000000	32.989597
1792.000000	32.964559
1791.000000	32.958673
1790.000000	32.958773
1789.000000	32.964659
1788.000000	32.957377
1787.000000	32.962065
1786.000000	32.986505
1785.000000	32.975831
1784.000000	32.983014
1783.000000	32.984011
1782.000000	32.978325
1781.000000	32.983413
1780.000000	32.964359
1779.000000	32.962065
1778.000000	32.943810
1777.000000	32.906303
1776.000000	32.883160
1775.000000	32.863408
1774.000000	32.822010
1773.000000	32.804952
1772.000000	32.781809
1771.000000	32.744402
1770.000000	32.729738
1769.000000	32.691432
1768.000000	32.660209
1767.000000	32.628288
1766.000000	32.607639
1765.000000	32.566440
1764.000000	32.550879
1763.000000	32.551078
1762.000000	32.529032
1761.000000	32.513570
1760.000000	32.508782
1759.000000	32.495615
1758.000000	32.491026
1757.000000	32.481150
1756.000000	32.470477
1755.000000	32.472073
1754.000000	32.455115
1753.000000	32.464092
1752.000000	32.454316
1751.000000	32.436061
1750.000000	32.404140
1749.000000	32.386284
1748.000000	32.349275
1747.000000	32.296306
1746.000000	32.244434
1745.000000	32.178895
1744.000000	32.111262
1743.000000	32.067171
1742.000000	32.002231
1741.000000	31.941680
1740.000000	31.852799
1739.000000	31.797535
1738.000000	31.732096
1737.000000	31.672842
1736.000000	31.635435
1735.000000	31.581368
1734.000000	31.545855
1733.000000	31.495579
1732.000000	31.464456
1731.000000	31.417372
1730.000000	31.365899
1729.000000	31.343055
1728.000000	31.300859
1727.000000	31.265047
1726.000000	31.241306
1725.000000	31.221954
1724.000000	31.215769
1723.000000	31.220358
1722.000000	31.273527
1721.000000	31.358417
1720.000000	31.481414
1719.000000	31.647505
1718.000000	31.803121
1717.000000	31.979886
1716.000000	32.135003
1715.000000	32.324437
1714.000000	32.498508
1713.000000	32.648039
1712.000000	32.771335
1711.000000	32.897823
1710.000000	33.007952
1709.000000	33.110300
1708.000000	33.225416
1707.000000	33.251352
1706.000000	33.344323
1705.000000	33.371257
1704.000000	33.402979
1703.000000	33.419238
1702.000000	33.442082
1701.000000	33.430311
1700.000000	33.439489
1699.000000	33.447070
1698.000000	33.437793
1697.000000	33.431209
1696.000000	33.393901
1695.000000	33.370858
1694.000000	33.326168
1693.000000	33.274994
1692.000000	33.210553
1691.000000	33.128355
1690.000000	33.090748
1689.000000	33.056233
1688.000000	33.066009
1687.000000	33.121073
1686.000000	33.220528
1685.000000	33.335445
1684.000000	33.488667
1683.000000	33.674210
1682.000000	33.870227
1681.000000	34.056568
1680.000000	34.262161
1679.000000	34.468951
1678.000000	34.647212
1677.000000	34.812305
1676.000000	34.985179
1675.000000	35.145983
1674.000000	35.310976
1673.000000	35.471082
1672.000000	35.636873
1671.000000	35.803064
1670.000000	35.968256
1669.000000	36.137240
1668.000000	36.296847
1667.000000	36.454857
1666.000000	36.583839
1665.000000	36.714118
1664.000000	36.848188
1663.000000	36.981559
1662.000000	37.106052
1661.000000	37.200719
1660.000000	37.327407
1659.000000	37.398531
1658.000000	37.501777
1657.000000	37.567715
1656.000000	37.636146
1655.000000	37.679539
1654.000000	37.728618
1653.000000	37.748369
1652.000000	37.784879
1651.000000	37.821988
1650.000000	37.830567
1649.000000	37.829070
1648.000000	37.826577
1647.000000	37.809918
1646.000000	37.818097
1645.000000	37.796850
1644.000000	37.784780
1643.000000	37.781089
1642.000000	37.765427
1641.000000	37.746374
1640.000000	37.728718
1639.000000	37.722832
1638.000000	37.702383
1637.000000	37.678142
1636.000000	37.656795
1635.000000	37.631258
1634.000000	37.589960
1633.000000	37.563325
1632.000000	37.527813
1631.000000	37.480430
1630.000000	37.441925
1629.000000	37.406312
1628.000000	37.350749
1627.000000	37.298079
1626.000000	37.248501
1625.000000	37.202614
1624.000000	37.158323
1623.000000	37.111938
1622.000000	37.068245
