PE UV       SUBTECH     SPECTRUM    ASCII       PEDS        4.00        
   -1
CICIMAUCR0008-1.Sample.ASC
24/03/08
13:07:07.00
24/03/08
13:07:07.00
Vinicio Soto Monge
C. kalinini
250,000000
1
Lambda 1050
1050L1511233
PerkinElmer UV WinLab 6.3.2.0749 / 2.02.05 Lambda 900 UV/VIS/NIR, Aug  7 2015 09:38:08

0
0
3350/servo 860,8/2
0
0
UV/VIS
1
1
1
DoubleDePol,CommonBeamDepol,RBeamAtt,SBeamAtt,60mm sphere, WB InGaAs Detector
0
0
0
0
Program
Program
3350/servo 860,8/2
3350/0,2 860,8/0,2
3350/0,2 860,8/0,2
0
15.00
 
 
 
0
 
860,8
319,2
860,8
Front
100
on
S:100 R:100
0
0
0
0
 
0
 
 
 
0
 
 
0
0
0
0
0
 
 
 
 
0
0


0
0
#HDR
-1
-1
#GR
nm
%R
1.0
0.0
2500,000000
-1,000000
2251
8
36,165400
2,347300
#DATA
2500.000000	2.471364
2499.000000	2.438869
2498.000000	2.576742
2497.000000	2.519132
2496.000000	2.473721
2495.000000	2.514930
2494.000000	2.559111
2493.000000	2.524565
2492.000000	2.540249
2491.000000	2.429438
2490.000000	2.495351
2489.000000	2.455270
2488.000000	2.448197
2487.000000	2.445634
2486.000000	2.464291
2485.000000	2.504166
2484.000000	2.487047
2483.000000	2.406169
2482.000000	2.451067
2481.000000	2.489610
2480.000000	2.491558
2479.000000	2.468596
2478.000000	2.473721
2477.000000	2.486637
2476.000000	2.455680
2475.000000	2.473106
2474.000000	2.515135
2473.000000	2.497196
2472.000000	2.466546
2471.000000	2.494633
2470.000000	2.496478
2469.000000	2.474952
2468.000000	2.520670
2467.000000	2.518312
2466.000000	2.508779
2465.000000	2.501501
2464.000000	2.524975
2463.000000	2.577767
2462.000000	2.566491
2461.000000	2.590068
2460.000000	2.611185
2459.000000	2.617233
2458.000000	2.645320
2457.000000	2.630456
2456.000000	2.666231
2455.000000	2.678430
2454.000000	2.734092
2453.000000	2.737577
2452.000000	2.726198
2451.000000	2.752748
2450.000000	2.806565
2449.000000	2.831269
2448.000000	2.832602
2447.000000	2.873400
2446.000000	2.911840
2445.000000	2.913788
2444.000000	2.940235
2443.000000	2.986056
2442.000000	2.997947
2441.000000	3.018039
2440.000000	3.044178
2439.000000	3.062527
2438.000000	3.082106
2437.000000	3.109681
2436.000000	3.145148
2435.000000	3.182256
2434.000000	3.195787
2433.000000	3.199785
2432.000000	3.220287
2431.000000	3.232793
2430.000000	3.263340
2429.000000	3.282509
2428.000000	3.305881
2427.000000	3.339708
2426.000000	3.354880
2425.000000	3.369641
2424.000000	3.401111
2423.000000	3.440679
2422.000000	3.481067
2421.000000	3.518482
2420.000000	3.535909
2419.000000	3.541444
2418.000000	3.558665
2417.000000	3.591775
2416.000000	3.611764
2415.000000	3.618428
2414.000000	3.643952
2413.000000	3.679727
2412.000000	3.696641
2411.000000	3.708840
2410.000000	3.731186
2409.000000	3.751278
2408.000000	3.749228
2407.000000	3.767884
2406.000000	3.793921
2405.000000	3.805915
2404.000000	3.823443
2403.000000	3.833489
2402.000000	3.862499
2401.000000	3.861884
2400.000000	3.883616
2399.000000	3.925336
2398.000000	3.927079
2397.000000	3.928309
2396.000000	3.943685
2395.000000	3.981408
2394.000000	4.007445
2393.000000	4.007240
2392.000000	3.991454
2391.000000	4.017286
2390.000000	4.035942
2389.000000	4.042400
2388.000000	4.056341
2387.000000	4.086581
2386.000000	4.096935
2385.000000	4.088529
2384.000000	4.094679
2383.000000	4.112208
2382.000000	4.116001
2381.000000	4.119076
2380.000000	4.108005
2379.000000	4.094064
2378.000000	4.105545
2377.000000	4.119179
2376.000000	4.107595
2375.000000	4.124612
2374.000000	4.129942
2373.000000	4.116411
2372.000000	4.110056
2371.000000	4.102367
2370.000000	4.087709
2369.000000	4.097550
2368.000000	4.102060
2367.000000	4.075715
2366.000000	4.061979
2365.000000	4.050601
2364.000000	4.034610
2363.000000	4.015133
2362.000000	4.005907
2361.000000	3.995144
2360.000000	3.983253
2359.000000	3.963572
2358.000000	3.954244
2357.000000	3.928617
2356.000000	3.902067
2355.000000	3.893456
2354.000000	3.882283
2353.000000	3.877465
2352.000000	3.859629
2351.000000	3.861884
2350.000000	3.879515
2349.000000	3.886383
2348.000000	3.887408
2347.000000	3.889151
2346.000000	3.922056
2345.000000	3.946145
2344.000000	3.952398
2343.000000	3.967672
2342.000000	3.984483
2341.000000	3.984073
2340.000000	3.996784
2339.000000	4.018823
2338.000000	4.044655
2337.000000	4.050703
2336.000000	4.027024
2335.000000	4.021694
2334.000000	4.043323
2333.000000	4.042605
2332.000000	4.028664
2331.000000	4.021386
2330.000000	4.014826
2329.000000	3.991556
2328.000000	3.981818
2327.000000	3.958446
2326.000000	3.932512
2325.000000	3.928924
2324.000000	3.899914
2323.000000	3.862704
2322.000000	3.843022
2321.000000	3.810425
2320.000000	3.761221
2319.000000	3.731186
2318.000000	3.680957
2317.000000	3.635136
2316.000000	3.606229
2315.000000	3.569839
2314.000000	3.532936
2313.000000	3.482605
2312.000000	3.441909
2311.000000	3.420895
2310.000000	3.413617
2309.000000	3.390450
2308.000000	3.367386
2307.000000	3.332123
2306.000000	3.328638
2305.000000	3.330585
2304.000000	3.321975
2303.000000	3.332840
2302.000000	3.346884
2301.000000	3.366668
2300.000000	3.387990
2299.000000	3.405929
2298.000000	3.419255
2297.000000	3.461180
2296.000000	3.481169
2295.000000	3.504439
2294.000000	3.524325
2293.000000	3.534371
2292.000000	3.556410
2291.000000	3.574657
2290.000000	3.578654
2289.000000	3.579372
2288.000000	3.579064
2287.000000	3.579680
2286.000000	3.550772
2285.000000	3.543597
2284.000000	3.520020
2283.000000	3.513767
2282.000000	3.478504
2281.000000	3.460463
2280.000000	3.432786
2279.000000	3.419050
2278.000000	3.379174
2277.000000	3.367181
2276.000000	3.336018
2275.000000	3.296143
2274.000000	3.289275
2273.000000	3.285174
2272.000000	3.267645
2271.000000	3.261392
2270.000000	3.239558
2269.000000	3.255037
2268.000000	3.261495
2267.000000	3.271131
2266.000000	3.283944
2265.000000	3.308751
2264.000000	3.343706
2263.000000	3.371896
2262.000000	3.426225
2261.000000	3.456055
2260.000000	3.493675
2259.000000	3.551285
2258.000000	3.602949
2257.000000	3.696744
2256.000000	3.736517
2255.000000	3.782645
2254.000000	3.865062
2253.000000	3.909243
2252.000000	3.961317
2251.000000	4.022001
2250.000000	4.056854
2249.000000	4.111286
2248.000000	4.179761
2247.000000	4.209488
2246.000000	4.258795
2245.000000	4.282269
2244.000000	4.328295
2243.000000	4.361200
2242.000000	4.397180
2241.000000	4.434493
2240.000000	4.449049
2239.000000	4.477341
2238.000000	4.481749
2237.000000	4.514142
2236.000000	4.529005
2235.000000	4.533106
2234.000000	4.558220
2233.000000	4.562321
2232.000000	4.558425
2231.000000	4.577082
2230.000000	4.549097
2229.000000	4.572469
2228.000000	4.541614
2227.000000	4.533003
2226.000000	4.512707
2225.000000	4.465041
2224.000000	4.479699
2223.000000	4.462785
2222.000000	4.433673
2221.000000	4.404151
2220.000000	4.383547
2219.000000	4.355562
2218.000000	4.330038
2217.000000	4.279399
2216.000000	4.250901
2215.000000	4.241676
2214.000000	4.232450
2213.000000	4.211231
2212.000000	4.197802
2211.000000	4.179863
2210.000000	4.196162
2209.000000	4.205388
2208.000000	4.211538
2207.000000	4.250901
2206.000000	4.297030
2205.000000	4.298568
2204.000000	4.330755
2203.000000	4.400256
2202.000000	4.457250
2201.000000	4.528185
2200.000000	4.567138
2199.000000	4.652425
2198.000000	4.714647
2197.000000	4.799216
2196.000000	4.857851
2195.000000	4.918228
2194.000000	4.977683
2193.000000	5.048618
2192.000000	5.108585
2191.000000	5.159942
2190.000000	5.228212
2189.000000	5.256197
2188.000000	5.311038
2187.000000	5.336973
2186.000000	5.364650
2185.000000	5.405551
2184.000000	5.425745
2183.000000	5.429948
2182.000000	5.464698
2181.000000	5.471976
2180.000000	5.498423
2179.000000	5.516567
2178.000000	5.519130
2177.000000	5.538504
2176.000000	5.541169
2175.000000	5.548242
2174.000000	5.561773
2173.000000	5.581249
2172.000000	5.586887
2171.000000	5.586272
2170.000000	5.586580
2169.000000	5.604314
2168.000000	5.614154
2167.000000	5.627993
2166.000000	5.661206
2165.000000	5.660386
2164.000000	5.677299
2163.000000	5.693393
2162.000000	5.707949
2161.000000	5.696981
2160.000000	5.723428
2159.000000	5.743007
2158.000000	5.759716
2157.000000	5.745057
2156.000000	5.760843
2155.000000	5.794876
2154.000000	5.808509
2153.000000	5.818453
2152.000000	5.835879
2151.000000	5.854536
2150.000000	5.875755
2149.000000	5.900049
2148.000000	5.917783
2147.000000	5.922396
2146.000000	5.939310
2145.000000	5.988821
2144.000000	6.006452
2143.000000	6.000507
2142.000000	6.018138
2141.000000	6.038640
2140.000000	6.058116
2139.000000	6.083026
2138.000000	6.110190
2137.000000	6.106295
2136.000000	6.114188
2135.000000	6.124131
2134.000000	6.138278
2133.000000	6.141558
2132.000000	6.155294
2131.000000	6.171900
2130.000000	6.159189
2129.000000	6.190762
2128.000000	6.193837
2127.000000	6.187686
2126.000000	6.193222
2125.000000	6.190352
2124.000000	6.183996
2123.000000	6.181023
2122.000000	6.198860
2121.000000	6.209726
2120.000000	6.196194
2119.000000	6.199167
2118.000000	6.195272
2117.000000	6.176923
2116.000000	6.171490
2115.000000	6.167082
2114.000000	6.170670
2113.000000	6.171183
2112.000000	6.160727
2111.000000	6.153346
2110.000000	6.133152
2109.000000	6.124029
2108.000000	6.126489
2107.000000	6.133152
2106.000000	6.107525
2105.000000	6.089586
2104.000000	6.105475
2103.000000	6.096454
2102.000000	6.083436
2101.000000	6.095019
2100.000000	6.096659
2099.000000	6.081488
2098.000000	6.076670
2097.000000	6.066624
2096.000000	6.049711
2095.000000	6.047763
2094.000000	6.066522
2093.000000	6.072672
2092.000000	6.066009
2091.000000	6.057604
2090.000000	6.044995
2089.000000	6.046020
2088.000000	6.042740
2087.000000	6.039152
2086.000000	6.051556
2085.000000	6.057911
2084.000000	6.040177
2083.000000	6.028902
2082.000000	6.027364
2081.000000	6.022239
2080.000000	6.014345
2079.000000	6.001122
2078.000000	6.004812
2077.000000	5.995894
2076.000000	5.975905
2075.000000	5.972317
2074.000000	5.968012
2073.000000	5.952123
2072.000000	5.947613
2071.000000	5.928649
2070.000000	5.929366
2069.000000	5.929879
2068.000000	5.909890
2067.000000	5.886108
2066.000000	5.871654
2065.000000	5.855663
2064.000000	5.853818
2063.000000	5.853921
2062.000000	5.840184
2061.000000	5.839877
2060.000000	5.836904
2059.000000	5.829011
2058.000000	5.815788
2057.000000	5.817633
2056.000000	5.826243
2055.000000	5.838237
2054.000000	5.871039
2053.000000	5.879342
2052.000000	5.880368
2051.000000	5.906302
2050.000000	5.948843
2049.000000	5.975802
2048.000000	6.012603
2047.000000	6.039665
2046.000000	6.072467
2045.000000	6.104757
2044.000000	6.160624
2043.000000	6.206240
2042.000000	6.269385
2041.000000	6.286709
2040.000000	6.320434
2039.000000	6.377224
2038.000000	6.403876
2037.000000	6.435243
2036.000000	6.465688
2035.000000	6.509664
2034.000000	6.543389
2033.000000	6.584597
2032.000000	6.610839
2031.000000	6.636569
2030.000000	6.643539
2029.000000	6.678289
2028.000000	6.710169
2027.000000	6.724520
2026.000000	6.738256
2025.000000	6.770444
2024.000000	6.785000
2023.000000	6.802119
2022.000000	6.828361
2021.000000	6.841072
2020.000000	6.843532
2019.000000	6.860446
2018.000000	6.864444
2017.000000	6.885355
2016.000000	6.882280
2015.000000	6.901757
2014.000000	6.890276
2013.000000	6.902167
2012.000000	6.887610
2011.000000	6.895914
2010.000000	6.898476
2009.000000	6.898169
2008.000000	6.884125
2007.000000	6.903192
2006.000000	6.886073
2005.000000	6.863316
2004.000000	6.858806
2003.000000	6.859216
2002.000000	6.845172
2001.000000	6.832666
2000.000000	6.814727
1999.000000	6.775877
1998.000000	6.779567
1997.000000	6.763166
1996.000000	6.717960
1995.000000	6.711194
1994.000000	6.694793
1993.000000	6.673369
1992.000000	6.641079
1991.000000	6.612479
1990.000000	6.591260
1989.000000	6.553947
1988.000000	6.528730
1987.000000	6.516122
1986.000000	6.478809
1985.000000	6.465380
1984.000000	6.421302
1983.000000	6.386654
1982.000000	6.347086
1981.000000	6.337963
1980.000000	6.314591
1979.000000	6.272665
1978.000000	6.246628
1977.000000	6.210443
1976.000000	6.177743
1975.000000	6.145863
1974.000000	6.108140
1973.000000	6.050428
1972.000000	6.067650
1971.000000	6.040997
1970.000000	6.006760
1969.000000	5.981850
1968.000000	5.936132
1967.000000	5.919218
1966.000000	5.896256
1965.000000	5.884980
1964.000000	5.822041
1963.000000	5.802359
1962.000000	5.781960
1961.000000	5.744955
1960.000000	5.718097
1959.000000	5.700774
1958.000000	5.652390
1957.000000	5.632606
1956.000000	5.626865
1955.000000	5.579199
1954.000000	5.571101
1953.000000	5.539119
1952.000000	5.503138
1951.000000	5.491247
1950.000000	5.463160
1949.000000	5.438661
1948.000000	5.416007
1947.000000	5.396018
1946.000000	5.370698
1945.000000	5.368340
1944.000000	5.335025
1943.000000	5.329695
1942.000000	5.322007
1941.000000	5.295560
1940.000000	5.312884
1939.000000	5.288794
1938.000000	5.296892
1937.000000	5.285719
1936.000000	5.284181
1935.000000	5.286949
1934.000000	5.297610
1933.000000	5.313396
1932.000000	5.336768
1931.000000	5.364343
1930.000000	5.382589
1929.000000	5.405038
1928.000000	5.412521
1927.000000	5.449219
1926.000000	5.463775
1925.000000	5.503446
1924.000000	5.544654
1923.000000	5.588015
1922.000000	5.636399
1921.000000	5.702824
1920.000000	5.752950
1919.000000	5.793646
1918.000000	5.842952
1917.000000	5.900459
1916.000000	5.978160
1915.000000	6.054221
1914.000000	6.104552
1913.000000	6.162264
1912.000000	6.254932
1911.000000	6.309671
1910.000000	6.386962
1909.000000	6.457385
1908.000000	6.535803
1907.000000	6.615247
1906.000000	6.742869
1905.000000	6.821595
1904.000000	6.897964
1903.000000	6.989401
1902.000000	7.076943
1901.000000	7.189291
1900.000000	7.281036
1899.000000	7.375958
1898.000000	7.465755
1897.000000	7.567853
1896.000000	7.673129
1895.000000	7.780762
1894.000000	7.895879
1893.000000	8.014480
1892.000000	8.119448
1891.000000	8.215498
1890.000000	8.321081
1889.000000	8.420514
1888.000000	8.562693
1887.000000	8.676989
1886.000000	8.815375
1885.000000	8.973442
1884.000000	9.131304
1883.000000	9.275635
1882.000000	9.439648
1881.000000	9.632465
1880.000000	9.808472
1879.000000	9.993601
1878.000000	10.157921
1877.000000	10.328802
1876.000000	10.486767
1875.000000	10.624742
1874.000000	10.753902
1873.000000	10.877527
1872.000000	11.000844
1871.000000	11.081313
1870.000000	11.138512
1869.000000	11.210883
1868.000000	11.274745
1867.000000	11.322514
1866.000000	11.400830
1865.000000	11.439168
1864.000000	11.489089
1863.000000	11.561870
1862.000000	11.605743
1861.000000	11.636906
1860.000000	11.672066
1859.000000	11.697180
1858.000000	11.689390
1857.000000	11.689082
1856.000000	11.698615
1855.000000	11.714914
1854.000000	11.711326
1853.000000	11.690415
1852.000000	11.677089
1851.000000	11.693182
1850.000000	11.720347
1849.000000	11.740644
1848.000000	11.697795
1847.000000	11.618762
1846.000000	11.564022
1845.000000	11.556744
1844.000000	11.579809
1843.000000	11.605333
1842.000000	11.611176
1841.000000	11.591084
1840.000000	11.551004
1839.000000	11.523839
1838.000000	11.524249
1837.000000	11.508156
1836.000000	11.464180
1835.000000	11.414361
1834.000000	11.391297
1833.000000	11.372230
1832.000000	11.357469
1831.000000	11.348038
1830.000000	11.314518
1829.000000	11.286431
1828.000000	11.242147
1827.000000	11.207910
1826.000000	11.181053
1825.000000	11.152146
1824.000000	11.135949
1823.000000	11.153991
1822.000000	11.163011
1821.000000	11.136359
1820.000000	11.097714
1819.000000	11.053328
1818.000000	11.058351
1817.000000	11.078750
1816.000000	11.080287
1815.000000	11.070344
1814.000000	11.060503
1813.000000	11.048715
1812.000000	11.057223
1811.000000	11.048100
1810.000000	11.022165
1809.000000	11.008737
1808.000000	10.999614
1807.000000	10.987415
1806.000000	10.966401
1805.000000	10.939442
1804.000000	10.924988
1803.000000	10.907152
1802.000000	10.891160
1801.000000	10.874657
1800.000000	10.844929
1799.000000	10.829553
1798.000000	10.806489
1797.000000	10.786705
1796.000000	10.765486
1795.000000	10.755952
1794.000000	10.756362
1793.000000	10.729300
1792.000000	10.720997
1791.000000	10.700188
1790.000000	10.677124
1789.000000	10.640836
1788.000000	10.640631
1787.000000	10.609674
1786.000000	10.595527
1785.000000	10.565595
1784.000000	10.558112
1783.000000	10.533100
1782.000000	10.499067
1781.000000	10.457859
1780.000000	10.447916
1779.000000	10.424134
1778.000000	10.399840
1777.000000	10.355044
1776.000000	10.305430
1775.000000	10.272320
1774.000000	10.229472
1773.000000	10.199949
1772.000000	10.155871
1771.000000	10.116918
1770.000000	10.062589
1769.000000	10.032144
1768.000000	10.012770
1767.000000	9.977302
1766.000000	9.939067
1765.000000	9.912415
1764.000000	9.898166
1763.000000	9.902676
1762.000000	9.904316
1761.000000	9.917130
1760.000000	9.941322
1759.000000	9.977917
1758.000000	10.003032
1757.000000	10.017485
1756.000000	10.050083
1755.000000	10.061359
1754.000000	10.079913
1753.000000	10.072019
1752.000000	10.077350
1751.000000	10.076017
1750.000000	10.076427
1749.000000	10.067304
1748.000000	10.043317
1747.000000	10.004877
1746.000000	9.987450
1745.000000	9.941527
1744.000000	9.919078
1743.000000	9.864236
1742.000000	9.785510
1741.000000	9.704221
1740.000000	9.639743
1739.000000	9.565630
1738.000000	9.491825
1737.000000	9.434010
1736.000000	9.385011
1735.000000	9.340625
1734.000000	9.338883
1733.000000	9.336320
1732.000000	9.360204
1731.000000	9.362255
1730.000000	9.387061
1729.000000	9.425297
1728.000000	9.466198
1727.000000	9.495925
1726.000000	9.540823
1725.000000	9.555584
1724.000000	9.559787
1723.000000	9.603558
1722.000000	9.610221
1721.000000	9.631338
1720.000000	9.606941
1719.000000	9.642101
1718.000000	9.640461
1717.000000	9.661373
1716.000000	9.678799
1715.000000	9.737126
1714.000000	9.737639
1713.000000	9.770031
1712.000000	9.807959
1711.000000	9.808984
1710.000000	9.817390
1709.000000	9.818517
1708.000000	9.828973
1707.000000	9.810829
1706.000000	9.812674
1705.000000	9.801091
1704.000000	9.789098
1703.000000	9.743482
1702.000000	9.708014
1701.000000	9.649994
1700.000000	9.602738
1699.000000	9.584697
1698.000000	9.510788
1697.000000	9.469068
1696.000000	9.432267
1695.000000	9.450001
1694.000000	9.461892
1693.000000	9.484546
1692.000000	9.503510
1691.000000	9.573728
1690.000000	9.602841
1689.000000	9.667933
1688.000000	9.703196
1687.000000	9.713242
1686.000000	9.706681
1685.000000	9.725030
1684.000000	9.763471
1683.000000	9.815340
1682.000000	9.912927
1681.000000	10.052645
1680.000000	10.233469
1679.000000	10.414703
1678.000000	10.609058
1677.000000	10.787422
1676.000000	10.942414
1675.000000	11.075982
1674.000000	11.199812
1673.000000	11.309495
1672.000000	11.415693
1671.000000	11.478326
1670.000000	11.554797
1669.000000	11.599900
1668.000000	11.703741
1667.000000	11.760428
1666.000000	11.813937
1665.000000	11.851045
1664.000000	11.875441
1663.000000	11.913574
1662.000000	11.927105
1661.000000	11.942277
1660.000000	11.959395
1659.000000	11.971081
1658.000000	11.980615
1657.000000	11.994453
1656.000000	11.987893
1655.000000	11.994146
1654.000000	12.009009
1653.000000	11.994351
1652.000000	12.005012
1651.000000	11.975079
1650.000000	11.985535
1649.000000	11.987175
1648.000000	11.954988
1647.000000	11.953758
1646.000000	11.944019
1645.000000	11.920955
1644.000000	11.907424
1643.000000	11.899223
1642.000000	11.871239
1641.000000	11.858528
1640.000000	11.831158
1639.000000	11.808401
1638.000000	11.797023
1637.000000	11.782467
1636.000000	11.760735
1635.000000	11.735518
1634.000000	11.736543
1633.000000	11.700563
1632.000000	11.675551
1631.000000	11.654332
1630.000000	11.624297
1629.000000	11.594672
1628.000000	11.590674
1627.000000	11.542496
1626.000000	11.524967
1625.000000	11.503850
1624.000000	11.482324
1623.000000	11.448598
1622.000000	11.416821
1621.000000	11.398575
1620.000000	11.360852
1619.000000	11.351421
1618.000000	11.340453
1617.000000	11.323641
1616.000000	11.285508
1615.000000	11.260394
1614.000000	11.253936
1613.000000	11.230872
1612.000000	11.215085
1611.000000	11.186281
1610.000000	11.165164
1609.000000	11.130516
1608.000000	11.103557
1607.000000	11.070857
1606.000000	11.055481
1605.000000	11.050868
1604.000000	11.021140
1603.000000	10.972552
1602.000000	10.961993
1601.000000	10.952255
1600.000000	10.932471
1599.000000	10.908484
1598.000000	10.875067
1597.000000	10.858460
1596.000000	10.837651
1595.000000	10.816022
1594.000000	10.791318
1593.000000	10.765486
