PE UV       SUBTECH     SPECTRUM    ASCII       PEDS        4.00        
   -1
CICIMAUCR0019-1.Sample.ASC
24/03/08
13:32:45.00
24/03/08
13:32:45.00
Vinicio Soto Monge
C. cupreomarginata
250,000000
1
Lambda 1050
1050L1511233
PerkinElmer UV WinLab 6.3.2.0749 / 2.02.05 Lambda 900 UV/VIS/NIR, Aug  7 2015 09:38:08

0
0
3350/servo 860,8/2
0
0
UV/VIS
1
1
1
DoubleDePol,CommonBeamDepol,RBeamAtt,SBeamAtt,60mm sphere, WB InGaAs Detector
0
0
0
0
Program
Program
3350/servo 860,8/2
3350/0,2 860,8/0,2
3350/0,2 860,8/0,2
0
15.00
 
 
 
0
 
860,8
319,2
860,8
Front
100
on
S:100 R:100
0
0
0
0
 
0
 
 
 
0
 
 
0
0
0
0
0
 
 
 
 
0
0


0
0
#HDR
-1
-1
#GR
nm
%R
1.0
0.0
2500,000000
-1,000000
2251
8
27,863200
2,274800
#DATA
2500.000000	2.879078
2499.000000	2.758300
2498.000000	2.700865
2497.000000	2.778649
2496.000000	2.877765
2495.000000	2.762895
2494.000000	2.842757
2493.000000	2.712681
2492.000000	2.771647
2491.000000	2.762895
2490.000000	2.785869
2489.000000	2.802935
2488.000000	2.675703
2487.000000	2.784337
2486.000000	2.669577
2485.000000	2.758847
2484.000000	2.771100
2483.000000	2.711805
2482.000000	2.690801
2481.000000	2.749001
2480.000000	2.724496
2479.000000	2.759394
2478.000000	2.704366
2477.000000	2.725590
2476.000000	2.747360
2475.000000	2.730075
2474.000000	2.696599
2473.000000	2.768365
2472.000000	2.784009
2471.000000	2.727231
2470.000000	2.723730
2469.000000	2.786525
2468.000000	2.743969
2467.000000	2.743203
2466.000000	2.806546
2465.000000	2.775367
2464.000000	2.771975
2463.000000	2.774601
2462.000000	2.804576
2461.000000	2.811797
2460.000000	2.869122
2459.000000	2.839803
2458.000000	2.845383
2457.000000	2.866934
2456.000000	2.911241
2455.000000	2.912882
2454.000000	2.938373
2453.000000	2.976444
2452.000000	3.005982
2451.000000	3.018782
2450.000000	3.049085
2449.000000	3.038911
2448.000000	3.093939
2447.000000	3.121727
2446.000000	3.129275
2445.000000	3.164174
2444.000000	3.206621
2443.000000	3.220296
2442.000000	3.264603
2441.000000	3.300705
2440.000000	3.303768
2439.000000	3.352451
2438.000000	3.373456
2437.000000	3.386365
2436.000000	3.403103
2435.000000	3.424765
2434.000000	3.453974
2433.000000	3.483512
2432.000000	3.519943
2431.000000	3.542698
2430.000000	3.556810
2429.000000	3.577049
2428.000000	3.594225
2427.000000	3.615996
2426.000000	3.623107
2425.000000	3.650894
2424.000000	3.688965
2423.000000	3.723645
2422.000000	3.758763
2421.000000	3.838953
2420.000000	3.868928
2419.000000	3.881947
2418.000000	3.912251
2417.000000	3.922644
2416.000000	3.932380
2415.000000	3.964106
2414.000000	3.991675
2413.000000	4.003490
2412.000000	4.034122
2411.000000	4.056549
2410.000000	4.068583
2409.000000	4.091338
2408.000000	4.120001
2407.000000	4.141444
2406.000000	4.168465
2405.000000	4.184328
2404.000000	4.205333
2403.000000	4.222728
2402.000000	4.233668
2401.000000	4.270973
2400.000000	4.304668
2399.000000	4.297995
2398.000000	4.298979
2397.000000	4.331252
2396.000000	4.373262
2395.000000	4.382342
2394.000000	4.401706
2393.000000	4.430259
2392.000000	4.433760
2391.000000	4.452249
2390.000000	4.474457
2389.000000	4.484303
2388.000000	4.495790
2387.000000	4.505198
2386.000000	4.504761
2385.000000	4.500713
2384.000000	4.516576
2383.000000	4.540425
2382.000000	4.549943
2381.000000	4.548411
2380.000000	4.566900
2379.000000	4.564055
2378.000000	4.561539
2377.000000	4.568103
2376.000000	4.560336
2375.000000	4.551037
2374.000000	4.547864
2373.000000	4.553006
2372.000000	4.542394
2371.000000	4.538346
2370.000000	4.533642
2369.000000	4.516795
2368.000000	4.523468
2367.000000	4.511325
2366.000000	4.467674
2365.000000	4.449951
2364.000000	4.444591
2363.000000	4.424461
2362.000000	4.412318
2361.000000	4.388687
2360.000000	4.350835
2359.000000	4.328627
2358.000000	4.328736
2357.000000	4.319437
2356.000000	4.291759
2355.000000	4.277209
2354.000000	4.293181
2353.000000	4.305762
2352.000000	4.275787
2351.000000	4.251172
2350.000000	4.290337
2349.000000	4.315608
2348.000000	4.323047
2347.000000	4.344927
2346.000000	4.350616
2345.000000	4.369324
2344.000000	4.394814
2343.000000	4.413302
2342.000000	4.451483
2341.000000	4.480365
2340.000000	4.482115
2339.000000	4.483209
2338.000000	4.478724
2337.000000	4.496228
2336.000000	4.508699
2335.000000	4.508152
2334.000000	4.509574
2333.000000	4.500057
2332.000000	4.477739
2331.000000	4.472816
2330.000000	4.460016
2329.000000	4.428947
2328.000000	4.411005
2327.000000	4.379388
2326.000000	4.332346
2325.000000	4.331362
2324.000000	4.304559
2323.000000	4.273817
2322.000000	4.241763
2321.000000	4.196253
2320.000000	4.152165
2319.000000	4.102278
2318.000000	4.086525
2317.000000	4.048125
2316.000000	3.998020
2315.000000	3.943977
2314.000000	3.905906
2313.000000	3.865865
2312.000000	3.813681
2311.000000	3.779002
2310.000000	3.757340
2309.000000	3.730975
2308.000000	3.708110
2307.000000	3.683824
2306.000000	3.688965
2305.000000	3.679010
2304.000000	3.681198
2303.000000	3.697608
2302.000000	3.728349
2301.000000	3.765436
2300.000000	3.783378
2299.000000	3.812150
2298.000000	3.830967
2297.000000	3.849346
2296.000000	3.886542
2295.000000	3.915533
2294.000000	3.939054
2293.000000	3.936209
2292.000000	3.962356
2291.000000	3.971764
2290.000000	3.959402
2289.000000	3.962028
2288.000000	3.935553
2287.000000	3.942883
2286.000000	3.932271
2285.000000	3.897810
2284.000000	3.878884
2283.000000	3.844423
2282.000000	3.825497
2281.000000	3.794865
2280.000000	3.779002
2279.000000	3.739071
2278.000000	3.717847
2277.000000	3.717191
2276.000000	3.682292
2275.000000	3.651441
2274.000000	3.631968
2273.000000	3.628030
2272.000000	3.614027
2271.000000	3.587224
2270.000000	3.587005
2269.000000	3.590068
2268.000000	3.604399
2267.000000	3.632406
2266.000000	3.659099
2265.000000	3.674306
2264.000000	3.716644
2263.000000	3.748260
2262.000000	3.796396
2261.000000	3.878993
2260.000000	3.936209
2259.000000	4.003381
2258.000000	4.074600
2257.000000	4.155556
2256.000000	4.231698
2255.000000	4.305981
2254.000000	4.381686
2253.000000	4.453562
2252.000000	4.522483
2251.000000	4.599392
2250.000000	4.674221
2249.000000	4.747410
2248.000000	4.813597
2247.000000	4.870703
2246.000000	4.922559
2245.000000	4.993560
2244.000000	5.028896
2243.000000	5.037757
2242.000000	5.114556
2241.000000	5.150548
2240.000000	5.194855
2239.000000	5.214110
2238.000000	5.260714
2237.000000	5.255572
2236.000000	5.299442
2235.000000	5.338388
2234.000000	5.351626
2233.000000	5.376022
2232.000000	5.375037
2231.000000	5.370661
2230.000000	5.363113
2229.000000	5.380616
2228.000000	5.349766
2227.000000	5.360815
2226.000000	5.345718
2225.000000	5.316836
2224.000000	5.313117
2223.000000	5.276030
2222.000000	5.267606
2221.000000	5.227238
2220.000000	5.171881
2219.000000	5.139718
2218.000000	5.114118
2217.000000	5.083049
2216.000000	5.050666
2215.000000	5.039179
2214.000000	5.020691
2213.000000	5.004390
2212.000000	4.986886
2211.000000	4.974305
2210.000000	4.965444
2209.000000	5.001218
2208.000000	5.033381
2207.000000	5.036554
2206.000000	5.071562
2205.000000	5.136108
2204.000000	5.196606
2203.000000	5.243976
2202.000000	5.301411
2201.000000	5.406325
2200.000000	5.462557
2199.000000	5.538809
2198.000000	5.635956
2197.000000	5.705097
2196.000000	5.790100
2195.000000	5.863727
2194.000000	5.939322
2193.000000	6.008463
2192.000000	6.067539
2191.000000	6.149151
2190.000000	6.198272
2189.000000	6.243016
2188.000000	6.285573
2187.000000	6.334803
2186.000000	6.378891
2185.000000	6.416415
2184.000000	6.432387
2183.000000	6.468271
2182.000000	6.504373
2181.000000	6.511374
2180.000000	6.529316
2179.000000	6.548679
2178.000000	6.556775
2177.000000	6.565418
2176.000000	6.583359
2175.000000	6.585875
2174.000000	6.611913
2173.000000	6.619352
2172.000000	6.632699
2171.000000	6.644623
2170.000000	6.665956
2169.000000	6.681600
2168.000000	6.684992
2167.000000	6.703480
2166.000000	6.721422
2165.000000	6.729518
2164.000000	6.756868
2163.000000	6.770214
2162.000000	6.800846
2161.000000	6.806535
2160.000000	6.806426
2159.000000	6.838261
2158.000000	6.850076
2157.000000	6.875238
2156.000000	6.896243
2155.000000	6.902369
2154.000000	6.945145
2153.000000	6.954006
2152.000000	6.984748
2151.000000	7.019427
2150.000000	7.044152
2149.000000	7.055311
2148.000000	7.076972
2147.000000	7.115152
2146.000000	7.140861
2145.000000	7.166023
2144.000000	7.188013
2143.000000	7.216566
2142.000000	7.231773
2141.000000	7.248948
2140.000000	7.277064
2139.000000	7.293584
2138.000000	7.317652
2137.000000	7.334718
2136.000000	7.343579
2135.000000	7.345330
2134.000000	7.347299
2133.000000	7.367429
2132.000000	7.390512
2131.000000	7.400030
2130.000000	7.420159
2129.000000	7.438101
2128.000000	7.432521
2127.000000	7.426067
2126.000000	7.430771
2125.000000	7.438538
2124.000000	7.440945
2123.000000	7.435585
2122.000000	7.424863
2121.000000	7.410860
2120.000000	7.408016
2119.000000	7.430005
2118.000000	7.419393
2117.000000	7.397404
2116.000000	7.408454
2115.000000	7.400030
2114.000000	7.382635
2113.000000	7.383073
2112.000000	7.379572
2111.000000	7.371367
2110.000000	7.355395
2109.000000	7.335374
2108.000000	7.330998
2107.000000	7.321809
2106.000000	7.309337
2105.000000	7.309447
2104.000000	7.288223
2103.000000	7.276080
2102.000000	7.285816
2101.000000	7.265140
2100.000000	7.244244
2099.000000	7.239102
2098.000000	7.243369
2097.000000	7.228381
2096.000000	7.212409
2095.000000	7.203329
2094.000000	7.207705
2093.000000	7.216019
2092.000000	7.197530
2091.000000	7.189872
2090.000000	7.193592
2089.000000	7.195342
2088.000000	7.184840
2087.000000	7.163069
2086.000000	7.145456
2085.000000	7.148410
2084.000000	7.151473
2083.000000	7.133094
2082.000000	7.126202
2081.000000	7.129921
2080.000000	7.121826
2079.000000	7.112855
2078.000000	7.107057
2077.000000	7.088896
2076.000000	7.096007
2075.000000	7.084192
2074.000000	7.056405
2073.000000	7.049841
2072.000000	7.045683
2071.000000	7.029164
2070.000000	7.010894
2069.000000	6.999407
2068.000000	6.976105
2067.000000	6.967462
2066.000000	6.957179
2065.000000	6.952912
2064.000000	6.947005
2063.000000	6.932236
2062.000000	6.920311
2061.000000	6.911012
2060.000000	6.918998
2059.000000	6.924140
2058.000000	6.918779
2057.000000	6.919108
2056.000000	6.948646
2055.000000	6.961008
2054.000000	6.973698
2053.000000	7.024241
2052.000000	7.059796
2051.000000	7.098633
2050.000000	7.141627
2049.000000	7.181230
2048.000000	7.249058
2047.000000	7.305836
2046.000000	7.366882
2045.000000	7.429021
2044.000000	7.497505
2043.000000	7.580430
2042.000000	7.666419
2041.000000	7.718383
2040.000000	7.786102
2039.000000	7.877889
2038.000000	7.949436
2037.000000	8.043520
2036.000000	8.108504
2035.000000	8.161453
2034.000000	8.229062
2033.000000	8.280590
2032.000000	8.342072
2031.000000	8.423247
2030.000000	8.459459
2029.000000	8.531225
2028.000000	8.564701
2027.000000	8.634936
2026.000000	8.693684
2025.000000	8.724425
2024.000000	8.766435
2023.000000	8.830215
2022.000000	8.881742
2021.000000	8.912265
2020.000000	8.935567
2019.000000	8.981296
2018.000000	9.020243
2017.000000	9.055907
2016.000000	9.088399
2015.000000	9.116296
2014.000000	9.175809
2013.000000	9.203269
2012.000000	9.210927
2011.000000	9.244950
2010.000000	9.261579
2009.000000	9.307308
2008.000000	9.297024
2007.000000	9.297243
2006.000000	9.322624
2005.000000	9.318248
2004.000000	9.321968
2003.000000	9.316826
2002.000000	9.317701
2001.000000	9.302276
2000.000000	9.319014
1999.000000	9.297024
1998.000000	9.298009
1997.000000	9.282474
1996.000000	9.283131
1995.000000	9.258516
1994.000000	9.222742
1993.000000	9.224711
1992.000000	9.207098
1991.000000	9.149772
1990.000000	9.155680
1989.000000	9.116077
1988.000000	9.099120
1987.000000	9.044420
1986.000000	9.028557
1985.000000	9.002957
1984.000000	8.972654
1983.000000	8.930972
1982.000000	8.900231
1981.000000	8.875616
1980.000000	8.836341
1979.000000	8.787221
1978.000000	8.773108
1977.000000	8.708672
1976.000000	8.678805
1975.000000	8.660864
1974.000000	8.626731
1973.000000	8.583190
1972.000000	8.552120
1971.000000	8.499061
1970.000000	8.469852
1969.000000	8.455083
1968.000000	8.417011
1967.000000	8.395350
1966.000000	8.368766
1965.000000	8.330148
1964.000000	8.309252
1963.000000	8.274135
1962.000000	8.239784
1961.000000	8.217357
1960.000000	8.159046
1959.000000	8.138589
1958.000000	8.118568
1957.000000	8.083451
1956.000000	8.036628
1955.000000	8.019343
1954.000000	7.985429
1953.000000	7.956219
1952.000000	7.920664
1951.000000	7.880733
1950.000000	7.831284
1949.000000	7.840802
1948.000000	7.812796
1947.000000	7.778772
1946.000000	7.761268
1945.000000	7.731074
1944.000000	7.738622
1943.000000	7.732496
1942.000000	7.726698
1941.000000	7.722650
1940.000000	7.694972
1939.000000	7.681406
1938.000000	7.681516
1937.000000	7.719915
1936.000000	7.706459
1935.000000	7.713023
1934.000000	7.751641
1933.000000	7.787524
1932.000000	7.825595
1931.000000	7.858853
1930.000000	7.893423
1929.000000	7.913444
1928.000000	7.972848
1927.000000	8.006433
1926.000000	8.100189
1925.000000	8.162657
1924.000000	8.227421
1923.000000	8.296890
1922.000000	8.377518
1921.000000	8.446112
1920.000000	8.551245
1919.000000	8.629794
1918.000000	8.721034
1917.000000	8.836560
1916.000000	8.947054
1915.000000	9.045186
1914.000000	9.169136
1913.000000	9.276020
1912.000000	9.391984
1911.000000	9.514183
1910.000000	9.654106
1909.000000	9.780353
1908.000000	9.919072
1907.000000	10.035474
1906.000000	10.163581
1905.000000	10.325274
1904.000000	10.455570
1903.000000	10.611464
1902.000000	10.752043
1901.000000	10.894810
1900.000000	11.052346
1899.000000	11.202333
1898.000000	11.377373
1897.000000	11.562697
1896.000000	11.713450
1895.000000	11.852060
1894.000000	12.013862
1893.000000	12.171507
1892.000000	12.307054
1891.000000	12.457588
1890.000000	12.591494
1889.000000	12.727915
1888.000000	12.907988
1887.000000	13.079417
1886.000000	13.243298
1885.000000	13.430810
1884.000000	13.637029
1883.000000	13.836027
1882.000000	14.071565
1881.000000	14.313230
1880.000000	14.538047
1879.000000	14.754221
1878.000000	14.947093
1877.000000	15.139527
1876.000000	15.286670
1875.000000	15.425827
1874.000000	15.557544
1873.000000	15.660599
1872.000000	15.744947
1871.000000	15.832029
1870.000000	15.893512
1869.000000	15.958276
1868.000000	16.058487
1867.000000	16.117235
1866.000000	16.176092
1865.000000	16.254203
1864.000000	16.315577
1863.000000	16.359993
1862.000000	16.364697
1861.000000	16.377497
1860.000000	16.364260
1859.000000	16.331549
1858.000000	16.305731
1857.000000	16.312842
1856.000000	16.310763
1855.000000	16.298729
1854.000000	16.268753
1853.000000	16.219633
1852.000000	16.182218
1851.000000	16.182656
1850.000000	16.184406
1849.000000	16.133973
1848.000000	16.043061
1847.000000	15.949306
1846.000000	15.895262
1845.000000	15.899310
1844.000000	15.924581
1843.000000	15.930051
1842.000000	15.916376
1841.000000	15.880165
1840.000000	15.826450
1839.000000	15.780720
1838.000000	15.738492
1837.000000	15.698561
1836.000000	15.659286
1835.000000	15.633140
1834.000000	15.599773
1833.000000	15.575158
1832.000000	15.557107
1831.000000	15.517285
1830.000000	15.460726
1829.000000	15.411933
1828.000000	15.363907
1827.000000	15.313692
1826.000000	15.277590
1825.000000	15.262493
1824.000000	15.244333
1823.000000	15.255273
1822.000000	15.252428
1821.000000	15.204073
1820.000000	15.148061
1819.000000	15.112506
1818.000000	15.111083
1817.000000	15.137339
1816.000000	15.151561
1815.000000	15.145107
1814.000000	15.137121
1813.000000	15.142262
1812.000000	15.136245
1811.000000	15.110646
1810.000000	15.084062
1809.000000	15.049054
1808.000000	15.041833
1807.000000	15.029580
1806.000000	14.999933
1805.000000	14.955407
1804.000000	14.933090
1803.000000	14.910006
1802.000000	14.882985
1801.000000	14.853556
1800.000000	14.806952
1799.000000	14.775226
1798.000000	14.761551
1797.000000	14.743390
1796.000000	14.713196
1795.000000	14.688143
1794.000000	14.641867
1793.000000	14.621738
1792.000000	14.609922
1791.000000	14.562333
1790.000000	14.518355
1789.000000	14.499975
1788.000000	14.461248
1787.000000	14.408079
1786.000000	14.379745
1785.000000	14.321544
1784.000000	14.258967
1783.000000	14.215317
1782.000000	14.178996
1781.000000	14.138299
1780.000000	14.073863
1779.000000	14.012708
1778.000000	13.932190
1777.000000	13.895760
1776.000000	13.831542
1775.000000	13.749820
1774.000000	13.668974
1773.000000	13.593378
1772.000000	13.506077
1771.000000	13.424793
1770.000000	13.349198
1769.000000	13.272946
1768.000000	13.216933
1767.000000	13.144292
1766.000000	13.082699
1765.000000	13.028656
1764.000000	12.985662
1763.000000	12.989162
1762.000000	13.001415
1761.000000	13.025374
1760.000000	13.067055
1759.000000	13.084012
1758.000000	13.109940
1757.000000	13.147027
1756.000000	13.172189
1755.000000	13.198554
1754.000000	13.196475
1753.000000	13.182800
1752.000000	13.165515
1751.000000	13.129523
1750.000000	13.104251
1749.000000	13.070228
1748.000000	13.021982
1747.000000	12.978222
1746.000000	12.890593
1745.000000	12.815545
1744.000000	12.699143
1743.000000	12.561846
1742.000000	12.468747
1741.000000	12.340640
1740.000000	12.173367
1739.000000	12.040009
1738.000000	11.933234
1737.000000	11.812129
1736.000000	11.746708
1735.000000	11.680958
1734.000000	11.638620
1733.000000	11.649013
1732.000000	11.699228
1731.000000	11.731173
1730.000000	11.795609
1729.000000	11.841667
1728.000000	11.907416
1727.000000	11.965945
1726.000000	12.038368
1725.000000	12.055981
1724.000000	12.119214
1723.000000	12.096897
1722.000000	12.114729
1721.000000	12.148862
1720.000000	12.146345
1719.000000	12.168116
1718.000000	12.172383
1717.000000	12.229380
1716.000000	12.273359
1715.000000	12.314931
1714.000000	12.320401
1713.000000	12.365473
1712.000000	12.381883
1711.000000	12.424987
1710.000000	12.433192
1709.000000	12.446320
1708.000000	12.443038
1707.000000	12.430457
1706.000000	12.411093
1705.000000	12.388666
1704.000000	12.361097
1703.000000	12.309898
1702.000000	12.274015
1701.000000	12.197326
1700.000000	12.108384
1699.000000	12.014081
1698.000000	11.951832
1697.000000	11.877003
1696.000000	11.864531
1695.000000	11.831930
1694.000000	11.852497
1693.000000	11.940892
1692.000000	12.021192
1691.000000	12.157395
1690.000000	12.211110
1689.000000	12.281017
1688.000000	12.324558
1687.000000	12.343265
1686.000000	12.357597
1685.000000	12.369631
1684.000000	12.422908
1683.000000	12.572458
1682.000000	12.769487
1681.000000	12.996383
1680.000000	13.301280
1679.000000	13.623791
1678.000000	13.941161
1677.000000	14.234352
1676.000000	14.480721
1675.000000	14.737811
1674.000000	14.890533
1673.000000	15.068964
1672.000000	15.204839
1671.000000	15.351435
1670.000000	15.444972
1669.000000	15.543323
1668.000000	15.641345
1667.000000	15.763216
1666.000000	15.824809
1665.000000	15.897888
1664.000000	15.950290
1663.000000	15.975562
1662.000000	16.017243
1661.000000	16.030918
1660.000000	16.076866
1659.000000	16.107717
1658.000000	16.120954
1657.000000	16.134301
1656.000000	16.141412
1655.000000	16.130800
1654.000000	16.134738
1653.000000	16.126643
1652.000000	16.110014
1651.000000	16.106513
1650.000000	16.089556
1649.000000	16.076538
1648.000000	16.076100
1647.000000	16.031574
1646.000000	16.012211
1645.000000	15.999192
1644.000000	15.975671
1643.000000	15.941648
1642.000000	15.903139
1641.000000	15.876773
1640.000000	15.832576
1639.000000	15.808508
1638.000000	15.770437
1637.000000	15.727880
1636.000000	15.680948
1635.000000	15.649222
1634.000000	15.625919
1633.000000	15.588505
1632.000000	15.551746
1631.000000	15.487200
1630.000000	15.442018
1629.000000	15.401868
1628.000000	15.353514
1627.000000	15.299251
1626.000000	15.257789
1625.000000	15.226500
1624.000000	15.169503
1623.000000	15.108786
1622.000000	15.060322
1621.000000	15.028924
1620.000000	15.013717
1619.000000	14.970176
1618.000000	14.910335
1617.000000	14.876311
1616.000000	14.825003
1615.000000	14.793933
1614.000000	14.754330
1613.000000	14.706304
1612.000000	14.662434
1611.000000	14.598326
1610.000000	14.559817
1609.000000	14.537609
1608.000000	14.496693
1607.000000	14.449870
1606.000000	14.413768
1605.000000	14.359178
1604.000000	14.316840
1603.000000	14.294851
1602.000000	14.260061
1601.000000	14.212691
1600.000000	14.164774
1599.000000	14.139503
1598.000000	14.088851
