PE UV       SUBTECH     SPECTRUM    ASCII       PEDS        4.00        
   -1
CICIMAUCR0018-1.Sample.ASC
24/03/08
12:50:34.00
24/03/08
12:50:34.00
Vinicio Soto Monge
c. cupreomarginata
250,000000
1
Lambda 1050
1050L1511233
PerkinElmer UV WinLab 6.3.2.0749 / 2.02.05 Lambda 900 UV/VIS/NIR, Aug  7 2015 09:38:08

0
0
3350/servo 860,8/2
0
0
UV/VIS
1
1
1
DoubleDePol,CommonBeamDepol,RBeamAtt,SBeamAtt,60mm sphere, WB InGaAs Detector
0
0
0
0
Program
Program
3350/servo 860,8/2
3350/0,2 860,8/0,2
3350/0,2 860,8/0,2
0
15.00
 
 
 
0
 
860,8
319,2
860,8
Front
100
on
S:100 R:100
0
0
0
0
 
0
 
 
 
0
 
 
0
0
0
0
0
 
 
 
 
0
0


0
0
#HDR
-1
-1
#GR
nm
%R
1.0
0.0
2500,000000
-1,000000
2251
8
27,295000
2,488900
#DATA
2500.000000	3.032349
2499.000000	2.955232
2498.000000	2.964217
2497.000000	3.061774
2496.000000	3.110355
2495.000000	3.002035
2494.000000	2.995716
2493.000000	3.031756
2492.000000	2.990976
2491.000000	2.966785
2490.000000	2.867648
2489.000000	2.874363
2488.000000	2.913464
2487.000000	2.862514
2486.000000	2.900035
2485.000000	2.892136
2484.000000	2.899640
2483.000000	2.980905
2482.000000	2.905466
2481.000000	2.895098
2480.000000	2.906947
2479.000000	2.911292
2478.000000	2.934101
2477.000000	2.920080
2476.000000	2.947629
2475.000000	2.917315
2474.000000	2.899048
2473.000000	2.951875
2472.000000	2.908132
2471.000000	2.937063
2470.000000	2.927880
2469.000000	2.941112
2468.000000	2.968364
2467.000000	2.946049
2466.000000	2.950097
2465.000000	2.953356
2464.000000	2.972018
2463.000000	3.015464
2462.000000	3.018426
2461.000000	2.979621
2460.000000	2.986533
2459.000000	3.019019
2458.000000	3.080337
2457.000000	3.094062
2456.000000	3.113119
2455.000000	3.128424
2454.000000	3.170587
2453.000000	3.179375
2452.000000	3.212354
2451.000000	3.227462
2450.000000	3.262416
2449.000000	3.291446
2448.000000	3.308232
2447.000000	3.334399
2446.000000	3.379227
2445.000000	3.414972
2444.000000	3.461479
2443.000000	3.487152
2442.000000	3.513812
2441.000000	3.549556
2440.000000	3.595866
2439.000000	3.612060
2438.000000	3.634672
2437.000000	3.663405
2436.000000	3.670218
2435.000000	3.716034
2434.000000	3.734104
2433.000000	3.759382
2432.000000	3.784857
2431.000000	3.813887
2430.000000	3.848052
2429.000000	3.880143
2428.000000	3.916183
2427.000000	3.910654
2426.000000	3.936425
2425.000000	3.973453
2424.000000	4.001792
2423.000000	4.044448
2422.000000	4.085821
2421.000000	4.126404
2420.000000	4.161654
2419.000000	4.188710
2418.000000	4.214975
2417.000000	4.218233
2416.000000	4.235513
2415.000000	4.266617
2414.000000	4.267703
2413.000000	4.295252
2412.000000	4.317765
2411.000000	4.340771
2410.000000	4.349164
2409.000000	4.380070
2408.000000	4.412359
2407.000000	4.425492
2406.000000	4.452152
2405.000000	4.478911
2404.000000	4.471011
2403.000000	4.481379
2402.000000	4.504880
2401.000000	4.531145
2400.000000	4.549708
2399.000000	4.571234
2398.000000	4.589698
2397.000000	4.594339
2396.000000	4.617840
2395.000000	4.652597
2394.000000	4.672345
2393.000000	4.680837
2392.000000	4.685478
2391.000000	4.692192
2390.000000	4.708089
2389.000000	4.730306
2388.000000	4.754399
2387.000000	4.766347
2386.000000	4.775530
2385.000000	4.772666
2384.000000	4.769803
2383.000000	4.777900
2382.000000	4.796266
2381.000000	4.805448
2380.000000	4.813940
2379.000000	4.810781
2378.000000	4.798043
2377.000000	4.810583
2376.000000	4.811175
2375.000000	4.806436
2374.000000	4.809991
2373.000000	4.811274
2372.000000	4.804362
2371.000000	4.790539
2370.000000	4.769902
2369.000000	4.762397
2368.000000	4.764471
2367.000000	4.755880
2366.000000	4.741168
2365.000000	4.733960
2364.000000	4.722506
2363.000000	4.705917
2362.000000	4.680639
2361.000000	4.669284
2360.000000	4.653782
2359.000000	4.623271
2358.000000	4.606781
2357.000000	4.601350
2356.000000	4.593253
2355.000000	4.588514
2354.000000	4.571728
2353.000000	4.564618
2352.000000	4.560866
2351.000000	4.528183
2350.000000	4.534502
2349.000000	4.559681
2348.000000	4.572912
2347.000000	4.578738
2346.000000	4.597400
2345.000000	4.613100
2344.000000	4.648252
2343.000000	4.675209
2342.000000	4.683602
2341.000000	4.693081
2340.000000	4.717075
2339.000000	4.740773
2338.000000	4.750153
2337.000000	4.747882
2336.000000	4.750153
2335.000000	4.755387
2334.000000	4.751338
2333.000000	4.743636
2332.000000	4.739292
2331.000000	4.723592
2330.000000	4.709176
2329.000000	4.691205
2328.000000	4.695747
2327.000000	4.673431
2326.000000	4.643118
2325.000000	4.621789
2324.000000	4.602930
2323.000000	4.579232
2322.000000	4.550597
2321.000000	4.499251
2320.000000	4.476640
2319.000000	4.433391
2318.000000	4.377701
2317.000000	4.346992
2316.000000	4.311840
2315.000000	4.266024
2314.000000	4.221097
2313.000000	4.183378
2312.000000	4.148917
2311.000000	4.104384
2310.000000	4.073873
2309.000000	4.045831
2308.000000	4.040499
2307.000000	4.002681
2306.000000	4.002878
2305.000000	3.994288
2304.000000	3.996756
2303.000000	4.017196
2302.000000	4.024799
2301.000000	4.035957
2300.000000	4.049287
2299.000000	4.091943
2298.000000	4.118504
2297.000000	4.149608
2296.000000	4.175380
2295.000000	4.212803
2294.000000	4.252793
2293.000000	4.260791
2292.000000	4.291894
2291.000000	4.294659
2290.000000	4.278663
2289.000000	4.282711
2288.000000	4.280144
2287.000000	4.260396
2286.000000	4.253780
2285.000000	4.258520
2284.000000	4.220208
2283.000000	4.200559
2282.000000	4.164024
2281.000000	4.153163
2280.000000	4.127984
2279.000000	4.117320
2278.000000	4.089277
2277.000000	4.067751
2276.000000	4.025688
2275.000000	4.006927
2274.000000	3.989351
2273.000000	3.976416
2272.000000	3.960024
2271.000000	3.934352
2270.000000	3.951730
2269.000000	3.945115
2268.000000	3.965060
2267.000000	3.983229
2266.000000	3.990141
2265.000000	4.001891
2264.000000	4.026872
2263.000000	4.067159
2262.000000	4.126404
2261.000000	4.175774
2260.000000	4.232452
2259.000000	4.274911
2258.000000	4.335834
2257.000000	4.403176
2256.000000	4.470518
2255.000000	4.537464
2254.000000	4.600758
2253.000000	4.663853
2252.000000	4.692883
2251.000000	4.761410
2250.000000	4.838626
2249.000000	4.889181
2248.000000	4.940922
2247.000000	4.976370
2246.000000	5.019224
2245.000000	5.051216
2244.000000	5.105030
2243.000000	5.132579
2242.000000	5.154104
2241.000000	5.158449
2240.000000	5.218385
2239.000000	5.219965
2238.000000	5.243169
2237.000000	5.259363
2236.000000	5.279210
2235.000000	5.296193
2234.000000	5.279802
2233.000000	5.308042
2232.000000	5.311498
2231.000000	5.306660
2230.000000	5.317916
2229.000000	5.301130
2228.000000	5.303006
2227.000000	5.274569
2226.000000	5.256499
2225.000000	5.241984
2224.000000	5.202290
2223.000000	5.168126
2222.000000	5.150451
2221.000000	5.109078
2220.000000	5.084196
2219.000000	5.073828
2218.000000	5.029197
2217.000000	5.001944
2216.000000	4.967088
2215.000000	4.938651
2214.000000	4.898068
2213.000000	4.904782
2212.000000	4.899055
2211.000000	4.866569
2210.000000	4.869433
2209.000000	4.898858
2208.000000	4.902610
2207.000000	4.947340
2206.000000	4.949611
2205.000000	5.014583
2204.000000	5.044501
2203.000000	5.091601
2202.000000	5.169409
2201.000000	5.242281
2200.000000	5.318706
2199.000000	5.388615
2198.000000	5.486073
2197.000000	5.563783
2196.000000	5.647713
2195.000000	5.708439
2194.000000	5.782692
2193.000000	5.862673
2192.000000	5.936531
2191.000000	5.995283
2190.000000	6.049985
2189.000000	6.111600
2188.000000	6.136088
2187.000000	6.172820
2186.000000	6.227917
2185.000000	6.258231
2184.000000	6.292988
2183.000000	6.304047
2182.000000	6.348086
2181.000000	6.359145
2180.000000	6.371487
2179.000000	6.395482
2178.000000	6.414440
2177.000000	6.425894
2176.000000	6.439816
2175.000000	6.442384
2174.000000	6.455121
2173.000000	6.456800
2172.000000	6.500740
2171.000000	6.502813
2170.000000	6.501431
2169.000000	6.513280
2168.000000	6.538558
2167.000000	6.554554
2166.000000	6.569069
2165.000000	6.563046
2164.000000	6.573512
2163.000000	6.600172
2162.000000	6.626536
2161.000000	6.640064
2160.000000	6.645297
2159.000000	6.678277
2158.000000	6.704443
2157.000000	6.701975
2156.000000	6.730610
2155.000000	6.746803
2154.000000	6.776327
2153.000000	6.791928
2152.000000	6.806937
2151.000000	6.806641
2150.000000	6.837744
2149.000000	6.870428
2148.000000	6.890867
2147.000000	6.905382
2146.000000	6.923551
2145.000000	6.964430
2144.000000	6.975489
2143.000000	6.985758
2142.000000	7.005407
2141.000000	7.020218
2140.000000	7.037597
2139.000000	7.050038
2138.000000	7.055173
2137.000000	7.078575
2136.000000	7.099804
2135.000000	7.108395
2134.000000	7.114023
2133.000000	7.124983
2132.000000	7.131204
2131.000000	7.133771
2130.000000	7.141868
2129.000000	7.148879
2128.000000	7.141473
2127.000000	7.142065
2126.000000	7.155593
2125.000000	7.153322
2124.000000	7.147299
2123.000000	7.156087
2122.000000	7.156778
2121.000000	7.143250
2120.000000	7.136240
2119.000000	7.129723
2118.000000	7.129624
2117.000000	7.129229
2116.000000	7.107901
2115.000000	7.113035
2114.000000	7.123107
2113.000000	7.112245
2112.000000	7.103359
2111.000000	7.075909
2110.000000	7.068108
2109.000000	7.078871
2108.000000	7.070478
2107.000000	7.047965
2106.000000	7.026439
2105.000000	7.015084
2104.000000	7.016368
2103.000000	6.996521
2102.000000	6.980821
2101.000000	6.988325
2100.000000	6.985560
2099.000000	6.964923
2098.000000	6.961369
2097.000000	6.957518
2096.000000	6.937671
2095.000000	6.921576
2094.000000	6.923847
2093.000000	6.926710
2092.000000	6.920588
2091.000000	6.921378
2090.000000	6.923057
2089.000000	6.913973
2088.000000	6.901729
2087.000000	6.894619
2086.000000	6.890373
2085.000000	6.889287
2084.000000	6.880203
2083.000000	6.871613
2082.000000	6.863318
2081.000000	6.844360
2080.000000	6.846137
2079.000000	6.835177
2078.000000	6.813355
2077.000000	6.808517
2076.000000	6.797853
2075.000000	6.775241
2074.000000	6.759640
2073.000000	6.762701
2072.000000	6.747100
2071.000000	6.718860
2070.000000	6.710170
2069.000000	6.706517
2068.000000	6.691113
2067.000000	6.688744
2066.000000	6.666823
2065.000000	6.630289
2064.000000	6.612219
2063.000000	6.608467
2062.000000	6.608269
2061.000000	6.597704
2060.000000	6.600074
2059.000000	6.594643
2058.000000	6.579338
2057.000000	6.592372
2056.000000	6.600469
2055.000000	6.599975
2054.000000	6.619625
2053.000000	6.638978
2052.000000	6.667317
2051.000000	6.697433
2050.000000	6.717971
2049.000000	6.770995
2048.000000	6.808418
2047.000000	6.863318
2046.000000	6.885338
2045.000000	6.934610
2044.000000	6.998495
2043.000000	7.044904
2042.000000	7.089634
2041.000000	7.133080
2040.000000	7.193312
2039.000000	7.269639
2038.000000	7.306174
2037.000000	7.345571
2036.000000	7.406001
2035.000000	7.455174
2034.000000	7.494375
2033.000000	7.544832
2032.000000	7.572183
2031.000000	7.601410
2030.000000	7.660063
2029.000000	7.694721
2028.000000	7.732835
2027.000000	7.738069
2026.000000	7.773912
2025.000000	7.801263
2024.000000	7.839673
2023.000000	7.884206
2022.000000	7.908200
2021.000000	7.934169
2020.000000	7.967346
2019.000000	7.978010
2018.000000	8.007830
2017.000000	8.026887
2016.000000	8.043180
2015.000000	8.069741
2014.000000	8.089785
2013.000000	8.100548
2012.000000	8.124937
2011.000000	8.140341
2010.000000	8.175394
2009.000000	8.185565
2008.000000	8.180529
2007.000000	8.185367
2006.000000	8.191390
2005.000000	8.205905
2004.000000	8.201067
2003.000000	8.201067
2002.000000	8.175296
2001.000000	8.186453
2000.000000	8.187934
1999.000000	8.189416
1998.000000	8.173321
1997.000000	8.176184
1996.000000	8.175987
1995.000000	8.151795
1994.000000	8.126320
1993.000000	8.119112
1992.000000	8.111607
1991.000000	8.084453
1990.000000	8.084552
1989.000000	8.051967
1988.000000	8.036663
1987.000000	8.010002
1986.000000	8.010694
1985.000000	7.978208
1984.000000	7.943056
1983.000000	7.904349
1982.000000	7.885983
1981.000000	7.852016
1980.000000	7.825356
1979.000000	7.822295
1978.000000	7.795734
1977.000000	7.779046
1976.000000	7.739747
1975.000000	7.722566
1974.000000	7.708545
1973.000000	7.672998
1972.000000	7.648806
1971.000000	7.613358
1970.000000	7.585809
1969.000000	7.562408
1968.000000	7.554015
1967.000000	7.514222
1966.000000	7.500299
1965.000000	7.487167
1964.000000	7.442634
1963.000000	7.429897
1962.000000	7.401657
1961.000000	7.388326
1960.000000	7.362259
1959.000000	7.349027
1958.000000	7.333327
1957.000000	7.290671
1956.000000	7.287610
1955.000000	7.244855
1954.000000	7.245941
1953.000000	7.218491
1952.000000	7.188276
1951.000000	7.144435
1950.000000	7.134067
1949.000000	7.118269
1948.000000	7.095163
1947.000000	7.098520
1946.000000	7.095064
1945.000000	7.052211
1944.000000	7.044706
1943.000000	7.026834
1942.000000	7.036313
1941.000000	7.033055
1940.000000	7.020811
1939.000000	7.012813
1938.000000	7.019626
1937.000000	7.015578
1936.000000	7.032166
1935.000000	7.027920
1934.000000	7.060505
1933.000000	7.064060
1932.000000	7.103655
1931.000000	7.116491
1930.000000	7.147496
1929.000000	7.184425
1928.000000	7.227575
1927.000000	7.241399
1926.000000	7.278822
1925.000000	7.321182
1924.000000	7.396522
1923.000000	7.452212
1922.000000	7.492499
1921.000000	7.550954
1920.000000	7.594597
1919.000000	7.653842
1918.000000	7.737575
1917.000000	7.845598
1916.000000	7.909582
1915.000000	7.989958
1914.000000	8.059669
1913.000000	8.130368
1912.000000	8.210151
1911.000000	8.279270
1910.000000	8.381961
1909.000000	8.480900
1908.000000	8.578457
1907.000000	8.668410
1906.000000	8.776038
1905.000000	8.859080
1904.000000	8.956735
1903.000000	9.046985
1902.000000	9.145924
1901.000000	9.257699
1900.000000	9.359403
1899.000000	9.453404
1898.000000	9.580880
1897.000000	9.683274
1896.000000	9.781818
1895.000000	9.893989
1894.000000	10.012182
1893.000000	10.124846
1892.000000	10.208875
1891.000000	10.294286
1890.000000	10.390362
1889.000000	10.484561
1888.000000	10.609173
1887.000000	10.753039
1886.000000	10.863333
1885.000000	10.981329
1884.000000	11.139612
1883.000000	11.270444
1882.000000	11.428726
1881.000000	11.588984
1880.000000	11.749932
1879.000000	11.906931
1878.000000	12.061264
1877.000000	12.177581
1876.000000	12.302489
1875.000000	12.414956
1874.000000	12.491579
1873.000000	12.576003
1872.000000	12.656971
1871.000000	12.711871
1870.000000	12.730237
1869.000000	12.755515
1868.000000	12.806564
1867.000000	12.846258
1866.000000	12.876967
1865.000000	12.913797
1864.000000	12.954676
1863.000000	12.977683
1862.000000	13.011058
1861.000000	13.003948
1860.000000	12.975214
1859.000000	12.947863
1858.000000	12.940754
1857.000000	12.932459
1856.000000	12.915476
1855.000000	12.903726
1854.000000	12.867191
1853.000000	12.835693
1852.000000	12.811008
1851.000000	12.808638
1850.000000	12.823153
1849.000000	12.792938
1848.000000	12.715228
1847.000000	12.620733
1846.000000	12.563759
1845.000000	12.566228
1844.000000	12.583211
1843.000000	12.606712
1842.000000	12.598812
1841.000000	12.546479
1840.000000	12.500959
1839.000000	12.475484
1838.000000	12.461759
1837.000000	12.426508
1836.000000	12.380791
1835.000000	12.345442
1834.000000	12.329446
1833.000000	12.322435
1832.000000	12.309697
1831.000000	12.276619
1830.000000	12.226557
1829.000000	12.175409
1828.000000	12.142627
1827.000000	12.110338
1826.000000	12.072718
1825.000000	12.054846
1824.000000	12.053068
1823.000000	12.060869
1822.000000	12.047835
1821.000000	12.015349
1820.000000	11.978716
1819.000000	11.964300
1818.000000	11.975359
1817.000000	11.980296
1816.000000	11.985233
1815.000000	11.985233
1814.000000	11.979309
1813.000000	11.984048
1812.000000	11.965880
1811.000000	11.942379
1810.000000	11.940503
1809.000000	11.933591
1808.000000	11.929938
1807.000000	11.918879
1806.000000	11.887183
1805.000000	11.859042
1804.000000	11.849562
1803.000000	11.832283
1802.000000	11.802068
1801.000000	11.781332
1800.000000	11.763954
1799.000000	11.751611
1798.000000	11.731270
1797.000000	11.714188
1796.000000	11.691774
1795.000000	11.682097
1794.000000	11.665607
1793.000000	11.648722
1792.000000	11.638354
1791.000000	11.605770
1790.000000	11.573975
1789.000000	11.554326
1788.000000	11.544451
1787.000000	11.516211
1786.000000	11.484318
1785.000000	11.455880
1784.000000	11.440477
1783.000000	11.397722
1782.000000	11.381133
1781.000000	11.338576
1780.000000	11.305003
1779.000000	11.266099
1778.000000	11.246252
1777.000000	11.197079
1776.000000	11.166864
1775.000000	11.096857
1774.000000	11.031983
1773.000000	10.998411
1772.000000	10.960198
1771.000000	10.915469
1770.000000	10.872121
1769.000000	10.824133
1768.000000	10.766468
1767.000000	10.729736
1766.000000	10.699916
1765.000000	10.679872
1764.000000	10.675132
1763.000000	10.669405
1762.000000	10.665357
1761.000000	10.695868
1760.000000	10.725194
1759.000000	10.742770
1758.000000	10.773873
1757.000000	10.786611
1756.000000	10.804384
1755.000000	10.814357
1754.000000	10.812185
1753.000000	10.834994
1752.000000	10.824231
1751.000000	10.797769
1750.000000	10.793325
1749.000000	10.770319
1748.000000	10.732303
1747.000000	10.691128
1746.000000	10.662197
1745.000000	10.629020
1744.000000	10.564542
1743.000000	10.490880
1742.000000	10.418602
1741.000000	10.346323
1740.000000	10.261405
1739.000000	10.193669
1738.000000	10.117638
1737.000000	10.057801
1736.000000	10.008529
1735.000000	9.990360
1734.000000	9.986608
1733.000000	9.987398
1732.000000	10.008825
1731.000000	10.013367
1730.000000	10.078141
1729.000000	10.119020
1728.000000	10.154863
1727.000000	10.206999
1726.000000	10.226352
1725.000000	10.252519
1724.000000	10.274736
1723.000000	10.292706
1722.000000	10.310085
1721.000000	10.308505
1720.000000	10.293990
1719.000000	10.336350
1718.000000	10.350470
1717.000000	10.369034
1716.000000	10.402606
1715.000000	10.399150
1714.000000	10.462838
1713.000000	10.467281
1712.000000	10.475872
1711.000000	10.497200
1710.000000	10.527415
1709.000000	10.534722
1708.000000	10.497694
1707.000000	10.537289
1706.000000	10.514776
1705.000000	10.497792
1704.000000	10.494336
1703.000000	10.472613
1702.000000	10.425612
1701.000000	10.374267
1700.000000	10.330524
1699.000000	10.275130
1698.000000	10.224081
1697.000000	10.186263
1696.000000	10.183597
1695.000000	10.162763
1694.000000	10.195545
1693.000000	10.241361
1692.000000	10.291620
1691.000000	10.342176
1690.000000	10.395891
1689.000000	10.426304
1688.000000	10.450002
1687.000000	10.452964
1686.000000	10.475378
1685.000000	10.468367
1684.000000	10.520305
1683.000000	10.596238
1682.000000	10.706532
1681.000000	10.863432
1680.000000	11.044721
1679.000000	11.237859
1678.000000	11.417174
1677.000000	11.604091
1676.000000	11.764151
1675.000000	11.924310
1674.000000	12.052180
1673.000000	12.178964
1672.000000	12.222311
1671.000000	12.308117
1670.000000	12.379508
1669.000000	12.443591
1668.000000	12.511624
1667.000000	12.594073
1666.000000	12.627447
1665.000000	12.667141
1664.000000	12.678200
1663.000000	12.698936
1662.000000	12.732113
1661.000000	12.759070
1660.000000	12.765192
1659.000000	12.765389
1658.000000	12.778127
1657.000000	12.772498
1656.000000	12.773486
1655.000000	12.792938
1654.000000	12.760057
1653.000000	12.749985
1652.000000	12.748702
1651.000000	12.717499
1650.000000	12.715623
1649.000000	12.697554
1648.000000	12.677410
1647.000000	12.664278
1646.000000	12.651935
1645.000000	12.608983
1644.000000	12.585482
1643.000000	12.563759
1642.000000	12.536309
1641.000000	12.535618
1640.000000	12.506884
1639.000000	12.475583
1638.000000	12.450009
1637.000000	12.422954
1636.000000	12.389875
1635.000000	12.367659
1634.000000	12.335963
1633.000000	12.300514
1632.000000	12.247984
1631.000000	12.234358
1630.000000	12.214511
1629.000000	12.177088
1628.000000	12.130185
1627.000000	12.103920
1626.000000	12.079630
1625.000000	12.040726
1624.000000	12.001822
1623.000000	11.969039
1622.000000	11.935072
1621.000000	11.907129
1620.000000	11.895477
1619.000000	11.843737
1618.000000	11.813917
1617.000000	11.791009
1616.000000	11.763954
1615.000000	11.721692
1614.000000	11.699278
1613.000000	11.678641
1612.000000	11.659386
1611.000000	11.638848
1610.000000	11.599352
1609.000000	11.578221
1608.000000	11.561237
1607.000000	11.529146
1606.000000	11.512459
1605.000000	11.484120
1604.000000	11.445315
1603.000000	11.422407
1602.000000	11.393476
1601.000000	11.368988
1600.000000	11.345389
1599.000000	11.314878
1598.000000	11.285255
1597.000000	11.277553
