PE UV       SUBTECH     SPECTRUM    ASCII       PEDS        4.00        
   -1
CICIMAUCR0104-2.Sample.ASC
24/04/04
10:52:55.00
24/04/04
10:52:55.00
Vinicio Soto Monge
C. resplendens
250,000000
1
Lambda 1050
1050L1511233
PerkinElmer UV WinLab 6.3.2.0749 / 2.02.05 Lambda 900 UV/VIS/NIR, Aug  7 2015 09:38:08

0
0
3350/servo 860,8/2
0
0
UV/VIS
1
1
1
DoubleDePol,CommonBeamDepol,RBeamAtt,SBeamAtt,60mm sphere, WB InGaAs Detector
0
0
0
0
Program
Program
3350/servo 860,8/2
3350/0,2 860,8/0,2
3350/0,2 860,8/0,2
0
15.00
 
 
 
0
 
860,8
319,2
860,8
Front
100
on
S:100 R:100
0
0
0
0
 
0
 
 
 
0
 
 
0
0
0
0
0
 
 
 
 
0
0


0
0
#HDR
-1
-1
#GR
nm
%R
1.0
0.0
2500,000000
-1,000000
2251
8
74,605500
5,229500
#DATA
2500.000000	6.135578
2499.000000	6.303497
2498.000000	6.195964
2497.000000	6.235286
2496.000000	6.241505
2495.000000	6.120832
2494.000000	6.138788
2493.000000	6.201782
2492.000000	6.217431
2491.000000	6.077097
2490.000000	6.111202
2489.000000	6.197369
2488.000000	6.242910
2487.000000	6.181620
2486.000000	6.163564
2485.000000	6.162361
2484.000000	6.092444
2483.000000	6.150925
2482.000000	6.201281
2481.000000	6.155640
2480.000000	6.184930
2479.000000	6.145408
2478.000000	6.198171
2477.000000	6.213118
2476.000000	6.218936
2475.000000	6.196867
2474.000000	6.196165
2473.000000	6.258558
2472.000000	6.271197
2471.000000	6.216227
2470.000000	6.258157
2469.000000	6.300889
2468.000000	6.304300
2467.000000	6.322255
2466.000000	6.363784
2465.000000	6.378730
2464.000000	6.396585
2463.000000	6.442928
2462.000000	6.493786
2461.000000	6.500607
2460.000000	6.566511
2459.000000	6.584867
2458.000000	6.608440
2457.000000	6.673843
2456.000000	6.719684
2455.000000	6.781074
2454.000000	6.854401
2453.000000	6.920405
2452.000000	6.996139
2451.000000	7.053918
2450.000000	7.106481
2449.000000	7.159745
2448.000000	7.235279
2447.000000	7.302286
2446.000000	7.383437
2445.000000	7.442219
2444.000000	7.498594
2443.000000	7.575632
2442.000000	7.652670
2441.000000	7.713258
2440.000000	7.780465
2439.000000	7.839648
2438.000000	7.909063
2437.000000	7.983493
2436.000000	8.045385
2435.000000	8.095139
2434.000000	8.165055
2433.000000	8.234470
2432.000000	8.300674
2431.000000	8.335984
2430.000000	8.405800
2429.000000	8.457158
2428.000000	8.504706
2427.000000	8.543225
2426.000000	8.579838
2425.000000	8.651861
2424.000000	8.681753
2423.000000	8.729200
2422.000000	8.792395
2421.000000	8.840344
2420.000000	8.881672
2419.000000	8.919589
2418.000000	8.958710
2417.000000	8.977267
2416.000000	9.008865
2415.000000	9.056111
2414.000000	9.100950
2413.000000	9.141375
2412.000000	9.166151
2411.000000	9.214702
2410.000000	9.224632
2409.000000	9.250713
2408.000000	9.301269
2407.000000	9.344603
2406.000000	9.355638
2405.000000	9.381518
2404.000000	9.426757
2403.000000	9.460462
2402.000000	9.482430
2401.000000	9.525362
2400.000000	9.549136
2399.000000	9.577223
2398.000000	9.624268
2397.000000	9.649346
2396.000000	9.669508
2395.000000	9.716754
2394.000000	9.732403
2393.000000	9.750559
2392.000000	9.775737
2391.000000	9.804125
2390.000000	9.820877
2389.000000	9.836224
2388.000000	9.858894
2387.000000	9.867721
2386.000000	9.869728
2385.000000	9.877351
2384.000000	9.889288
2383.000000	9.880661
2382.000000	9.868323
2381.000000	9.853778
2380.000000	9.846054
2379.000000	9.853578
2378.000000	9.841641
2377.000000	9.818870
2376.000000	9.808237
2375.000000	9.789379
2374.000000	9.761794
2373.000000	9.734509
2372.000000	9.719864
2371.000000	9.693884
2370.000000	9.658173
2369.000000	9.625171
2368.000000	9.592470
2367.000000	9.546227
2366.000000	9.491558
2365.000000	9.453340
2364.000000	9.409504
2363.000000	9.348315
2362.000000	9.292041
2361.000000	9.236369
2360.000000	9.190126
2359.000000	9.140873
2358.000000	9.090217
2357.000000	9.037754
2356.000000	8.991912
2355.000000	8.958409
2354.000000	8.940654
2353.000000	8.924303
2352.000000	8.910962
2351.000000	8.905746
2350.000000	8.899226
2349.000000	8.912366
2348.000000	8.940052
2347.000000	8.967537
2346.000000	8.990709
2345.000000	9.013880
2344.000000	9.029629
2343.000000	9.067546
2342.000000	9.102655
2341.000000	9.115896
2340.000000	9.127432
2339.000000	9.130441
2338.000000	9.118103
2337.000000	9.111783
2336.000000	9.108373
2335.000000	9.094430
2334.000000	9.055008
2333.000000	9.031033
2332.000000	9.011172
2331.000000	8.974358
2330.000000	8.920692
2329.000000	8.867427
2328.000000	8.829911
2327.000000	8.776045
2326.000000	8.704423
2325.000000	8.648450
2324.000000	8.578333
2323.000000	8.497082
2322.000000	8.417837
2321.000000	8.335582
2320.000000	8.249717
2319.000000	8.160240
2318.000000	8.071867
2317.000000	7.984396
2316.000000	7.880274
2315.000000	7.792001
2314.000000	7.709045
2313.000000	7.619167
2312.000000	7.530091
2311.000000	7.453253
2310.000000	7.392867
2309.000000	7.331075
2308.000000	7.287039
2307.000000	7.262965
2306.000000	7.247316
2305.000000	7.244307
2304.000000	7.254137
2303.000000	7.269084
2302.000000	7.298575
2301.000000	7.322950
2300.000000	7.375112
2299.000000	7.431185
2298.000000	7.471911
2297.000000	7.515145
2296.000000	7.562090
2295.000000	7.600609
2294.000000	7.628194
2293.000000	7.666212
2292.000000	7.678350
2291.000000	7.667416
2290.000000	7.665008
2289.000000	7.667015
2288.000000	7.627392
2287.000000	7.608233
2286.000000	7.578039
2285.000000	7.526179
2284.000000	7.471911
2283.000000	7.423361
2282.000000	7.358360
2281.000000	7.314324
2280.000000	7.279717
2279.000000	7.215719
2278.000000	7.169476
2277.000000	7.125339
2276.000000	7.078193
2275.000000	7.007876
2274.000000	6.979087
2273.000000	6.966548
2272.000000	6.935452
2271.000000	6.928229
2270.000000	6.904857
2269.000000	6.921408
2268.000000	6.929333
2267.000000	6.961231
2266.000000	6.998246
2265.000000	7.080400
2264.000000	7.136373
2263.000000	7.209198
2262.000000	7.316330
2261.000000	7.439812
2260.000000	7.537614
2259.000000	7.688882
2258.000000	7.828012
2257.000000	7.954805
2256.000000	8.141181
2255.000000	8.247610
2254.000000	8.398979
2253.000000	8.540215
2252.000000	8.709138
2251.000000	8.798715
2250.000000	8.948779
2249.000000	9.069252
2248.000000	9.184408
2247.000000	9.327250
2246.000000	9.413115
2245.000000	9.507307
2244.000000	9.592771
2243.000000	9.663590
2242.000000	9.734008
2241.000000	9.826895
2240.000000	9.859396
2239.000000	9.933625
2238.000000	9.994313
2237.000000	10.045572
2236.000000	10.078072
2235.000000	10.111776
2234.000000	10.118698
2233.000000	10.136352
2232.000000	10.147487
2231.000000	10.169154
2230.000000	10.176075
2229.000000	10.144979
2228.000000	10.120905
2227.000000	10.075865
2226.000000	10.036945
2225.000000	10.004946
2224.000000	9.927406
2223.000000	9.875546
2222.000000	9.810043
2221.000000	9.757581
2220.000000	9.701909
2219.000000	9.628381
2218.000000	9.554152
2217.000000	9.473803
2216.000000	9.436387
2215.000000	9.376201
2214.000000	9.340290
2213.000000	9.294649
2212.000000	9.262249
2211.000000	9.270775
2210.000000	9.285521
2209.000000	9.288028
2208.000000	9.345506
2207.000000	9.385329
2206.000000	9.492661
2205.000000	9.565888
2204.000000	9.658474
2203.000000	9.787172
2202.000000	9.907745
2201.000000	10.047578
2200.000000	10.192325
2199.000000	10.344396
2198.000000	10.501883
2197.000000	10.651847
2196.000000	10.811139
2195.000000	10.947060
2194.000000	11.089400
2193.000000	11.219101
2192.000000	11.350708
2191.000000	11.468372
2190.000000	11.570789
2189.000000	11.671902
2188.000000	11.754658
2187.000000	11.832900
2186.000000	11.902816
2185.000000	11.955379
2184.000000	12.024894
2183.000000	12.067526
2182.000000	12.095412
2181.000000	12.145467
2180.000000	12.180274
2179.000000	12.219997
2178.000000	12.233037
2177.000000	12.264635
2176.000000	12.305261
2175.000000	12.328433
2174.000000	12.354212
2173.000000	12.381396
2172.000000	12.413696
2171.000000	12.434360
2170.000000	12.495349
2169.000000	12.513505
2168.000000	12.546908
2167.000000	12.592951
2166.000000	12.604988
2165.000000	12.653037
2164.000000	12.679418
2163.000000	12.715931
2162.000000	12.757660
2161.000000	12.797985
2160.000000	12.848742
2159.000000	12.897192
2158.000000	12.941730
2157.000000	12.981051
2156.000000	13.034216
2155.000000	13.091292
2154.000000	13.153886
2153.000000	13.222699
2152.000000	13.265832
2151.000000	13.329027
2150.000000	13.384599
2149.000000	13.440873
2148.000000	13.501160
2147.000000	13.561647
2146.000000	13.614410
2145.000000	13.666271
2144.000000	13.724049
2143.000000	13.778317
2142.000000	13.837600
2141.000000	13.882941
2140.000000	13.928582
2139.000000	13.973822
2138.000000	14.020466
2137.000000	14.047851
2136.000000	14.064603
2135.000000	14.110344
2134.000000	14.148261
2133.000000	14.175746
2132.000000	14.208648
2131.000000	14.226403
2130.000000	14.245562
2129.000000	14.258302
2128.000000	14.283981
2127.000000	14.306451
2126.000000	14.312369
2125.000000	14.303341
2124.000000	14.298927
2123.000000	14.302940
2122.000000	14.302238
2121.000000	14.276558
2120.000000	14.280872
2119.000000	14.285386
2118.000000	14.260107
2117.000000	14.243656
2116.000000	14.240447
2115.000000	14.225099
2114.000000	14.195407
2113.000000	14.184273
2112.000000	14.169126
2111.000000	14.135622
2110.000000	14.102921
2109.000000	14.081756
2108.000000	14.064101
2107.000000	14.043136
2106.000000	14.011639
2105.000000	13.998598
2104.000000	13.991476
2103.000000	13.952656
2102.000000	13.917347
2101.000000	13.888458
2100.000000	13.865988
2099.000000	13.864785
2098.000000	13.842917
2097.000000	13.815131
2096.000000	13.797978
2095.000000	13.783132
2094.000000	13.770794
2093.000000	13.763471
2092.000000	13.759760
2091.000000	13.744713
2090.000000	13.719636
2089.000000	13.700677
2088.000000	13.695661
2087.000000	13.684126
2086.000000	13.669480
2085.000000	13.653030
2084.000000	13.639989
2083.000000	13.611000
2082.000000	13.592944
2081.000000	13.595552
2080.000000	13.574085
2079.000000	13.541786
2078.000000	13.518915
2077.000000	13.487919
2076.000000	13.459431
2075.000000	13.427432
2074.000000	13.391420
2073.000000	13.357616
2072.000000	13.324714
2071.000000	13.299135
2070.000000	13.268942
2069.000000	13.217282
2068.000000	13.182173
2067.000000	13.158701
2066.000000	13.115467
2065.000000	13.093098
2064.000000	13.066816
2063.000000	13.045852
2062.000000	13.024586
2061.000000	13.003019
2060.000000	12.997703
2059.000000	12.997402
2058.000000	12.986267
2057.000000	13.012849
2056.000000	13.041739
2055.000000	13.060397
2054.000000	13.101423
2053.000000	13.173847
2052.000000	13.246472
2051.000000	13.316890
2050.000000	13.407771
2049.000000	13.493837
2048.000000	13.609194
2047.000000	13.739698
2046.000000	13.858264
2045.000000	14.008930
2044.000000	14.148161
2043.000000	14.281574
2042.000000	14.423513
2041.000000	14.564148
2040.000000	14.699667
2039.000000	14.849932
2038.000000	14.963583
2037.000000	15.097497
2036.000000	15.238333
2035.000000	15.350981
2034.000000	15.457812
2033.000000	15.574874
2032.000000	15.687221
2031.000000	15.792648
2030.000000	15.895666
2029.000000	15.995475
2028.000000	16.090569
2027.000000	16.173325
2026.000000	16.251366
2025.000000	16.300017
2024.000000	16.388491
2023.000000	16.464626
2022.000000	16.550793
2021.000000	16.614389
2020.000000	16.685509
2019.000000	16.747702
2018.000000	16.824539
2017.000000	16.887434
2016.000000	16.914718
2015.000000	16.967481
2014.000000	17.017637
2013.000000	17.051742
2012.000000	17.100794
2011.000000	17.134699
2010.000000	17.151952
2009.000000	17.187863
2008.000000	17.192778
2007.000000	17.197493
2006.000000	17.197693
2005.000000	17.209530
2004.000000	17.219360
2003.000000	17.215448
2002.000000	17.208627
2001.000000	17.184252
2000.000000	17.154560
1999.000000	17.138711
1998.000000	17.108116
1997.000000	17.090963
1996.000000	17.049936
1995.000000	17.048031
1994.000000	16.992459
1993.000000	16.930467
1992.000000	16.899270
1991.000000	16.873691
1990.000000	16.793844
1989.000000	16.741482
1988.000000	16.686011
1987.000000	16.633649
1986.000000	16.548485
1985.000000	16.511672
1984.000000	16.436639
1983.000000	16.383174
1982.000000	16.333119
1981.000000	16.242740
1980.000000	16.191281
1979.000000	16.119559
1978.000000	16.052953
1977.000000	15.990058
1976.000000	15.913220
1975.000000	15.869084
1974.000000	15.797462
1973.000000	15.724637
1972.000000	15.651411
1971.000000	15.591525
1970.000000	15.543978
1969.000000	15.484595
1968.000000	15.421399
1967.000000	15.351383
1966.000000	15.318280
1965.000000	15.254082
1964.000000	15.181658
1963.000000	15.130600
1962.000000	15.073824
1961.000000	15.012735
1960.000000	14.942418
1959.000000	14.884037
1958.000000	14.815024
1957.000000	14.778009
1956.000000	14.695053
1955.000000	14.665160
1954.000000	14.576586
1953.000000	14.525227
1952.000000	14.461029
1951.000000	14.418898
1950.000000	14.370950
1949.000000	14.304846
1948.000000	14.282477
1947.000000	14.230616
1946.000000	14.190191
1945.000000	14.160499
1944.000000	14.120375
1943.000000	14.094395
1942.000000	14.085768
1941.000000	14.073430
1940.000000	14.080351
1939.000000	14.062897
1938.000000	14.061092
1937.000000	14.075938
1936.000000	14.078746
1935.000000	14.101116
1934.000000	14.137027
1933.000000	14.192799
1932.000000	14.240848
1931.000000	14.298727
1930.000000	14.371151
1929.000000	14.439362
1928.000000	14.525328
1927.000000	14.607281
1926.000000	14.701472
1925.000000	14.818033
1924.000000	14.939208
1923.000000	15.043932
1922.000000	15.181557
1921.000000	15.345765
1920.000000	15.473561
1919.000000	15.619211
1918.000000	15.801675
1917.000000	15.970297
1916.000000	16.144837
1915.000000	16.323891
1914.000000	16.532035
1913.000000	16.745796
1912.000000	16.967281
1911.000000	17.177330
1910.000000	17.383869
1909.000000	17.588703
1908.000000	17.823730
1907.000000	18.064876
1906.000000	18.357180
1905.000000	18.620093
1904.000000	18.885614
1903.000000	19.155850
1902.000000	19.412243
1901.000000	19.691407
1900.000000	19.988425
1899.000000	20.281833
1898.000000	20.550765
1897.000000	20.854705
1896.000000	21.126847
1895.000000	21.393772
1894.000000	21.688383
1893.000000	22.007370
1892.000000	22.323046
1891.000000	22.637519
1890.000000	22.927817
1889.000000	23.218215
1888.000000	23.557364
1887.000000	23.902030
1886.000000	24.259737
1885.000000	24.667197
1884.000000	25.128725
1883.000000	25.577111
1882.000000	26.031116
1881.000000	26.506185
1880.000000	26.951763
1879.000000	27.399749
1878.000000	27.833190
1877.000000	28.222594
1876.000000	28.616011
1875.000000	28.982745
1874.000000	29.300127
1873.000000	29.579190
1872.000000	29.841000
1871.000000	30.061382
1870.000000	30.217665
1869.000000	30.374249
1868.000000	30.526621
1867.000000	30.617702
1866.000000	30.688622
1865.000000	30.776594
1864.000000	30.847312
1863.000000	30.938795
1862.000000	31.017539
1861.000000	31.071606
1860.000000	31.116144
1859.000000	31.121160
1858.000000	31.107016
1857.000000	31.107016
1856.000000	31.110226
1855.000000	31.093173
1854.000000	31.026868
1853.000000	30.952137
1852.000000	30.912815
1851.000000	30.906295
1850.000000	30.900276
1849.000000	30.862660
1848.000000	30.771679
1847.000000	30.654316
1846.000000	30.552200
1845.000000	30.498132
1844.000000	30.491111
1843.000000	30.504552
1842.000000	30.484791
1841.000000	30.415276
1840.000000	30.344658
1839.000000	30.295606
1838.000000	30.248561
1837.000000	30.175234
1836.000000	30.074221
1835.000000	29.966287
1834.000000	29.889751
1833.000000	29.824449
1832.000000	29.757040
1831.000000	29.679500
1830.000000	29.594638
1829.000000	29.507067
1828.000000	29.405252
1827.000000	29.327110
1826.000000	29.239439
1825.000000	29.171830
1824.000000	29.160194
1823.000000	29.190087
1822.000000	29.194901
1821.000000	29.146050
1820.000000	29.079043
1819.000000	29.023371
1818.000000	29.015145
1817.000000	29.028788
1816.000000	29.026982
1815.000000	29.003610
1814.000000	29.002406
1813.000000	28.998594
1812.000000	28.963385
1811.000000	28.920152
1810.000000	28.881633
1809.000000	28.843515
1808.000000	28.801485
1807.000000	28.757649
1806.000000	28.716121
1805.000000	28.659847
1804.000000	28.607284
1803.000000	28.569166
1802.000000	28.537067
1801.000000	28.477382
1800.000000	28.407867
1799.000000	28.345976
1798.000000	28.294517
1797.000000	28.250681
1796.000000	28.212162
1795.000000	28.152076
1794.000000	28.101219
1793.000000	28.037823
1792.000000	27.985561
1791.000000	27.928284
1790.000000	27.859270
1789.000000	27.797981
1788.000000	27.729870
1787.000000	27.678812
1786.000000	27.611303
1785.000000	27.521124
1784.000000	27.433955
1783.000000	27.352703
1782.000000	27.267440
1781.000000	27.171543
1780.000000	27.084975
1779.000000	26.983562
1778.000000	26.866399
1777.000000	26.740610
1776.000000	26.625855
1775.000000	26.487527
1774.000000	26.330442
1773.000000	26.189305
1772.000000	26.041648
1771.000000	25.902317
1770.000000	25.740316
1769.000000	25.611317
1768.000000	25.483823
1767.000000	25.353018
1766.000000	25.266350
1765.000000	25.186704
1764.000000	25.148084
1763.000000	25.123910
1762.000000	25.137452
1761.000000	25.174968
1760.000000	25.222615
1759.000000	25.291829
1758.000000	25.334260
1757.000000	25.395550
1756.000000	25.430358
1755.000000	25.454031
1754.000000	25.452125
1753.000000	25.432263
1752.000000	25.398760
1751.000000	25.343589
1750.000000	25.280494
1749.000000	25.187406
1748.000000	25.101340
1747.000000	24.960404
1746.000000	24.829298
1745.000000	24.672112
1744.000000	24.481422
1743.000000	24.268163
1742.000000	24.025713
1741.000000	23.781457
1740.000000	23.519748
1739.000000	23.292846
1738.000000	23.058220
1737.000000	22.872245
1736.000000	22.753979
1735.000000	22.651563
1734.000000	22.618360
1733.000000	22.623074
1732.000000	22.684364
1731.000000	22.747359
1730.000000	22.860509
1729.000000	22.950086
1728.000000	23.069054
1727.000000	23.158832
1726.000000	23.242089
1725.000000	23.306789
1724.000000	23.346211
1723.000000	23.373596
1722.000000	23.396065
1721.000000	23.420742
1720.000000	23.467085
1719.000000	23.509617
1718.000000	23.569502
1717.000000	23.662088
1716.000000	23.749759
1715.000000	23.827299
1714.000000	23.910055
1713.000000	23.991507
1712.000000	24.046477
1711.000000	24.096131
1710.000000	24.118199
1709.000000	24.117396
1708.000000	24.108369
1707.000000	24.087203
1706.000000	24.038452
1705.000000	24.010767
1704.000000	23.942556
1703.000000	23.868226
1702.000000	23.729597
1701.000000	23.581439
1700.000000	23.411313
1699.000000	23.266966
1698.000000	23.112789
1697.000000	23.013582
1696.000000	22.958211
1695.000000	22.965032
1694.000000	23.028428
1693.000000	23.187219
1692.000000	23.320833
1691.000000	23.482232
1690.000000	23.614140
1689.000000	23.720770
1688.000000	23.768317
1687.000000	23.793595
1686.000000	23.798911
1685.000000	23.875749
1684.000000	24.040358
1683.000000	24.301265
1682.000000	24.695284
1681.000000	25.211982
1680.000000	25.808126
1679.000000	26.378891
1678.000000	26.958384
1677.000000	27.495646
1676.000000	27.979944
1675.000000	28.376069
1674.000000	28.737286
1673.000000	29.050154
1672.000000	29.338445
1671.000000	29.565749
1670.000000	29.774394
1669.000000	29.970500
1668.000000	30.154971
1667.000000	30.314765
1666.000000	30.456704
1665.000000	30.552802
1664.000000	30.659833
1663.000000	30.750714
1662.000000	30.840391
1661.000000	30.908101
1660.000000	30.970493
1659.000000	31.010116
1658.000000	31.056259
1657.000000	31.077926
1656.000000	31.094979
1655.000000	31.108520
1654.000000	31.108621
1653.000000	31.102602
1652.000000	31.079330
1651.000000	31.056660
1650.000000	31.044623
1649.000000	30.985941
1648.000000	30.951535
1647.000000	30.907800
1646.000000	30.848416
1645.000000	30.791640
1644.000000	30.744093
1643.000000	30.687217
1642.000000	30.617502
1641.000000	30.556513
1640.000000	30.499136
1639.000000	30.429520
1638.000000	30.368030
1637.000000	30.286879
1636.000000	30.219270
1635.000000	30.147548
1634.000000	30.062585
1633.000000	29.977622
1632.000000	29.899581
1631.000000	29.817126
1630.000000	29.729656
1629.000000	29.625734
1628.000000	29.545386
1627.000000	29.458116
1626.000000	29.360614
1625.000000	29.264818
1624.000000	29.188783
1623.000000	29.105826
1622.000000	29.011735
1621.000000	28.934998
1620.000000	28.852843
1619.000000	28.764771
1618.000000	28.682416
1617.000000	28.599460
1616.000000	28.525431
1615.000000	28.447791
1614.000000	28.366840
1613.000000	28.284486
1612.000000	28.209052
1611.000000	28.134722
