PE UV       SUBTECH     SPECTRUM    ASCII       PEDS        4.00        
   -1
CICIMAUCR0013-1.Sample.ASC
24/04/04
13:29:52.00
24/04/04
13:29:52.00
Vinicio Soto Monge
C. resplendens
250,000000
1
Lambda 1050
1050L1511233
PerkinElmer UV WinLab 6.3.2.0749 / 2.02.05 Lambda 900 UV/VIS/NIR, Aug  7 2015 09:38:08

0
0
3350/servo 860,8/2
0
0
UV/VIS
1
1
1
DoubleDePol,CommonBeamDepol,RBeamAtt,SBeamAtt,60mm sphere, WB InGaAs Detector
0
0
0
0
Program
Program
3350/servo 860,8/2
3350/0,2 860,8/0,2
3350/0,2 860,8/0,2
0
15.00
 
 
 
0
 
860,8
319,2
860,8
Front
100
on
S:100 R:100
0
0
0
0
 
0
 
 
 
0
 
 
0
0
0
0
0
 
 
 
 
0
0


0
0
#HDR
-1
-1
#GR
nm
%R
1.0
0.0
2500,000000
-1,000000
2251
8
69,170400
4,972700
#DATA
2500.000000	6.380892
2499.000000	6.284749
2498.000000	6.264748
2497.000000	6.266134
2496.000000	6.290096
2495.000000	6.249104
2494.000000	6.309701
2493.000000	6.265342
2492.000000	6.168308
2491.000000	6.203161
2490.000000	6.244747
2489.000000	6.185735
2488.000000	6.232073
2487.000000	6.190091
2486.000000	6.175437
2485.000000	6.252569
2484.000000	6.182170
2483.000000	6.218806
2482.000000	6.202072
2481.000000	6.187715
2480.000000	6.239797
2479.000000	6.205042
2478.000000	6.240688
2477.000000	6.181180
2476.000000	6.199696
2475.000000	6.240985
2474.000000	6.223954
2473.000000	6.258708
2472.000000	6.238113
2471.000000	6.275145
2470.000000	6.255540
2469.000000	6.235935
2468.000000	6.261382
2467.000000	6.283165
2466.000000	6.272075
2465.000000	6.319404
2464.000000	6.338316
2463.000000	6.364159
2462.000000	6.378813
2461.000000	6.397626
2460.000000	6.425548
2459.000000	6.493670
2458.000000	6.553277
2457.000000	6.594170
2456.000000	6.605655
2455.000000	6.663084
2454.000000	6.691402
2453.000000	6.740216
2452.000000	6.811605
2451.000000	6.892896
2450.000000	6.930621
2449.000000	7.009536
2448.000000	7.055874
2447.000000	7.132611
2446.000000	7.174197
2445.000000	7.246081
2444.000000	7.310144
2443.000000	7.367869
2442.000000	7.422327
2441.000000	7.487974
2440.000000	7.556294
2439.000000	7.582236
2438.000000	7.658972
2437.000000	7.686993
2436.000000	7.746204
2435.000000	7.793533
2434.000000	7.853733
2433.000000	7.905221
2432.000000	7.945025
2431.000000	7.996710
2430.000000	8.047109
2429.000000	8.082952
2428.000000	8.116716
2427.000000	8.151074
2426.000000	8.184244
2425.000000	8.218503
2424.000000	8.267713
2423.000000	8.289496
2422.000000	8.319894
2421.000000	8.346430
2420.000000	8.396927
2419.000000	8.431087
2418.000000	8.454455
2417.000000	8.483763
2416.000000	8.509111
2415.000000	8.528814
2414.000000	8.548914
2413.000000	8.579906
2412.000000	8.619116
2411.000000	8.633374
2410.000000	8.652484
2409.000000	8.678821
2408.000000	8.694961
2407.000000	8.726844
2406.000000	8.738032
2405.000000	8.756746
2404.000000	8.802689
2403.000000	8.814075
2402.000000	8.839225
2401.000000	8.871999
2400.000000	8.868632
2399.000000	8.909228
2398.000000	8.947646
2397.000000	8.974974
2396.000000	9.014283
2395.000000	9.021016
2394.000000	9.032402
2393.000000	9.068741
2392.000000	9.096663
2391.000000	9.109832
2390.000000	9.117852
2389.000000	9.123001
2388.000000	9.136764
2387.000000	9.150329
2386.000000	9.152507
2385.000000	9.156468
2384.000000	9.169934
2383.000000	9.176270
2382.000000	9.157557
2381.000000	9.151913
2380.000000	9.145774
2379.000000	9.135377
2378.000000	9.129041
2377.000000	9.118743
2376.000000	9.107059
2375.000000	9.087157
2374.000000	9.053789
2373.000000	9.041116
2372.000000	9.022105
2371.000000	8.996361
2370.000000	8.976162
2369.000000	8.931209
2368.000000	8.887247
2367.000000	8.858137
2366.000000	8.809620
2365.000000	8.758924
2364.000000	8.706744
2363.000000	8.658226
2362.000000	8.605749
2361.000000	8.533567
2360.000000	8.469703
2359.000000	8.428216
2358.000000	8.396135
2357.000000	8.354351
2356.000000	8.310784
2355.000000	8.280783
2354.000000	8.257614
2353.000000	8.236821
2352.000000	8.228899
2351.000000	8.226325
2350.000000	8.246425
2349.000000	8.283555
2348.000000	8.294447
2347.000000	8.313161
2346.000000	8.351083
2345.000000	8.391184
2344.000000	8.434256
2343.000000	8.464356
2342.000000	8.489506
2341.000000	8.507625
2340.000000	8.523369
2339.000000	8.532181
2338.000000	8.537231
2337.000000	8.545746
2336.000000	8.545548
2335.000000	8.529409
2334.000000	8.502378
2333.000000	8.472079
2332.000000	8.428018
2331.000000	8.388412
2330.000000	8.345043
2329.000000	8.293457
2328.000000	8.237019
2327.000000	8.178303
2326.000000	8.131865
2325.000000	8.044732
2324.000000	7.947005
2323.000000	7.871457
2322.000000	7.813633
2321.000000	7.712935
2320.000000	7.629267
2319.000000	7.537580
2318.000000	7.448467
2317.000000	7.342620
2316.000000	7.259448
2315.000000	7.163008
2314.000000	7.061023
2313.000000	6.982901
2312.000000	6.906362
2311.000000	6.820814
2310.000000	6.755266
2309.000000	6.714472
2308.000000	6.678530
2307.000000	6.645756
2306.000000	6.628726
2305.000000	6.633478
2304.000000	6.660311
2303.000000	6.687837
2302.000000	6.710314
2301.000000	6.745266
2300.000000	6.788733
2299.000000	6.858439
2298.000000	6.910026
2297.000000	6.945671
2296.000000	6.993297
2295.000000	7.048151
2294.000000	7.088747
2293.000000	7.102609
2292.000000	7.107956
2291.000000	7.128749
2290.000000	7.123105
2289.000000	7.116768
2288.000000	7.106174
2287.000000	7.068152
2286.000000	7.027259
2285.000000	6.987158
2284.000000	6.950226
2283.000000	6.875866
2282.000000	6.833587
2281.000000	6.787050
2280.000000	6.732988
2279.000000	6.671896
2278.000000	6.606150
2277.000000	6.540207
2276.000000	6.501195
2275.000000	6.469609
2274.000000	6.435053
2273.000000	6.389804
2272.000000	6.350792
2271.000000	6.327920
2270.000000	6.333464
2269.000000	6.332177
2268.000000	6.337227
2267.000000	6.363862
2266.000000	6.400497
2265.000000	6.439311
2264.000000	6.504858
2263.000000	6.582090
2262.000000	6.667638
2261.000000	6.751009
2260.000000	6.873490
2259.000000	6.962108
2258.000000	7.086371
2257.000000	7.200832
2256.000000	7.337868
2255.000000	7.468270
2254.000000	7.588672
2253.000000	7.706499
2252.000000	7.807296
2251.000000	7.936708
2250.000000	8.006414
2249.000000	8.144935
2248.000000	8.219196
2247.000000	8.311478
2246.000000	8.363757
2245.000000	8.450395
2244.000000	8.507427
2243.000000	8.562479
2242.000000	8.652682
2241.000000	8.690703
2240.000000	8.745359
2239.000000	8.792985
2238.000000	8.825264
2237.000000	8.854770
2236.000000	8.901406
2235.000000	8.931309
2234.000000	8.958339
2233.000000	8.954082
2232.000000	8.972400
2231.000000	8.963488
2230.000000	8.963785
2229.000000	8.928734
2228.000000	8.922991
2227.000000	8.894475
2226.000000	8.862988
2225.000000	8.829819
2224.000000	8.793678
2223.000000	8.764766
2222.000000	8.689416
2221.000000	8.651295
2220.000000	8.585748
2219.000000	8.542577
2218.000000	8.482971
2217.000000	8.435345
2216.000000	8.385738
2215.000000	8.334053
2214.000000	8.289694
2213.000000	8.255039
2212.000000	8.255039
2211.000000	8.216226
2210.000000	8.222563
2209.000000	8.253356
2208.000000	8.286130
2207.000000	8.326231
2206.000000	8.390194
2205.000000	8.450593
2204.000000	8.547231
2203.000000	8.624958
2202.000000	8.766746
2201.000000	8.866553
2200.000000	9.003490
2199.000000	9.118545
2198.000000	9.266968
2197.000000	9.396182
2196.000000	9.534307
2195.000000	9.665303
2194.000000	9.787982
2193.000000	9.911255
2192.000000	10.013339
2191.000000	10.100175
2190.000000	10.223844
2189.000000	10.311274
2188.000000	10.391971
2187.000000	10.456330
2186.000000	10.520789
2185.000000	10.590990
2184.000000	10.618516
2183.000000	10.674855
2182.000000	10.700203
2181.000000	10.726937
2180.000000	10.763671
2179.000000	10.805951
2178.000000	10.823971
2177.000000	10.865260
2176.000000	10.896252
2175.000000	10.934372
2174.000000	10.950215
2173.000000	10.989722
2172.000000	11.016356
2171.000000	11.048338
2170.000000	11.075666
2169.000000	11.105965
2168.000000	11.124381
2167.000000	11.157551
2166.000000	11.205474
2165.000000	11.231911
2164.000000	11.262507
2163.000000	11.282904
2162.000000	11.309439
2161.000000	11.357759
2160.000000	11.398454
2159.000000	11.435386
2158.000000	11.481131
2157.000000	11.528262
2156.000000	11.571531
2155.000000	11.619454
2154.000000	11.647970
2153.000000	11.700448
2152.000000	11.745301
2151.000000	11.801047
2150.000000	11.838771
2149.000000	11.885308
2148.000000	11.935409
2147.000000	11.962836
2146.000000	12.005809
2145.000000	12.058583
2144.000000	12.097991
2143.000000	12.152548
2142.000000	12.196115
2141.000000	12.214432
2140.000000	12.242057
2139.000000	12.274435
2138.000000	12.294238
2137.000000	12.331269
2136.000000	12.362558
2135.000000	12.392559
2134.000000	12.432561
2133.000000	12.446621
2132.000000	12.443057
2131.000000	12.456424
2130.000000	12.494346
2129.000000	12.512169
2128.000000	12.521278
2127.000000	12.535338
2126.000000	12.534051
2125.000000	12.533160
2124.000000	12.536527
2123.000000	12.536923
2122.000000	12.529496
2121.000000	12.523061
2120.000000	12.499297
2119.000000	12.503060
2118.000000	12.512466
2117.000000	12.485732
2116.000000	12.467414
2115.000000	12.462959
2114.000000	12.452661
2113.000000	12.437413
2112.000000	12.424343
2111.000000	12.410877
2110.000000	12.395629
2109.000000	12.378499
2108.000000	12.361667
2107.000000	12.346122
2106.000000	12.331071
2105.000000	12.315229
2104.000000	12.307605
2103.000000	12.296515
2102.000000	12.272950
2101.000000	12.259781
2100.000000	12.247305
2099.000000	12.214333
2098.000000	12.188986
2097.000000	12.183342
2096.000000	12.184233
2095.000000	12.180866
2094.000000	12.159875
2093.000000	12.138884
2092.000000	12.128290
2091.000000	12.120765
2090.000000	12.115814
2089.000000	12.105318
2088.000000	12.102051
2087.000000	12.092050
2086.000000	12.079971
2085.000000	12.072643
2084.000000	12.056207
2083.000000	12.040167
2082.000000	12.034721
2081.000000	12.019968
2080.000000	12.018681
2079.000000	12.000066
2078.000000	11.981055
2077.000000	11.975114
2076.000000	11.952935
2075.000000	11.937390
2074.000000	11.912339
2073.000000	11.898378
2072.000000	11.879664
2071.000000	11.867287
2070.000000	11.854118
2069.000000	11.831444
2068.000000	11.811839
2067.000000	11.804017
2066.000000	11.798571
2065.000000	11.778471
2064.000000	11.769263
2063.000000	11.758173
2062.000000	11.737875
2061.000000	11.747282
2060.000000	11.740450
2059.000000	11.731835
2058.000000	11.751044
2057.000000	11.765302
2056.000000	11.781244
2055.000000	11.798769
2054.000000	11.845702
2053.000000	11.883526
2052.000000	11.931845
2051.000000	12.003036
2050.000000	12.068386
2049.000000	12.130468
2048.000000	12.205026
2047.000000	12.286911
2046.000000	12.396124
2045.000000	12.481177
2044.000000	12.576429
2043.000000	12.687326
2042.000000	12.784162
2041.000000	12.894860
2040.000000	12.996152
2039.000000	13.116158
2038.000000	13.226658
2037.000000	13.307256
2036.000000	13.385774
2035.000000	13.497165
2034.000000	13.591823
2033.000000	13.686877
2032.000000	13.769752
2031.000000	13.848271
2030.000000	13.918967
2029.000000	13.983030
2028.000000	14.065608
2027.000000	14.138780
2026.000000	14.210565
2025.000000	14.288391
2024.000000	14.327006
2023.000000	14.401366
2022.000000	14.477112
2021.000000	14.531966
2020.000000	14.587513
2019.000000	14.649596
2018.000000	14.702469
2017.000000	14.760591
2016.000000	14.809999
2015.000000	14.841090
2014.000000	14.872972
2013.000000	14.914756
2012.000000	14.979512
2011.000000	15.006048
2010.000000	15.033277
2009.000000	15.047634
2008.000000	15.090012
2007.000000	15.077635
2006.000000	15.109122
2005.000000	15.129222
2004.000000	15.130707
2003.000000	15.126846
2002.000000	15.111795
2001.000000	15.116647
2000.000000	15.122687
1999.000000	15.122093
1998.000000	15.099320
1997.000000	15.102587
1996.000000	15.072685
1995.000000	15.064169
1994.000000	15.035653
1993.000000	15.005256
1992.000000	14.972185
1991.000000	14.940797
1990.000000	14.906736
1989.000000	14.874260
1988.000000	14.836832
1987.000000	14.792176
1986.000000	14.763165
1985.000000	14.719104
1984.000000	14.657616
1983.000000	14.617614
1982.000000	14.580582
1981.000000	14.535927
1980.000000	14.475033
1979.000000	14.444933
1978.000000	14.393346
1977.000000	14.327303
1976.000000	14.300965
1975.000000	14.244428
1974.000000	14.209575
1973.000000	14.165910
1972.000000	14.112838
1971.000000	14.090956
1970.000000	14.021546
1969.000000	13.999664
1968.000000	13.952236
1967.000000	13.915700
1966.000000	13.887679
1965.000000	13.857974
1964.000000	13.828963
1963.000000	13.793120
1962.000000	13.738167
1961.000000	13.702027
1960.000000	13.675392
1959.000000	13.645192
1958.000000	13.601626
1957.000000	13.562515
1956.000000	13.516176
1955.000000	13.494987
1954.000000	13.469342
1953.000000	13.432707
1952.000000	13.394784
1951.000000	13.379734
1950.000000	13.328742
1949.000000	13.310424
1948.000000	13.285769
1947.000000	13.269135
1946.000000	13.250619
1945.000000	13.240916
1944.000000	13.215073
1943.000000	13.226064
1942.000000	13.209330
1941.000000	13.221113
1940.000000	13.268145
1939.000000	13.286463
1938.000000	13.292304
1937.000000	13.312701
1936.000000	13.358842
1935.000000	13.389240
1934.000000	13.420924
1933.000000	13.490928
1932.000000	13.547366
1931.000000	13.611329
1930.000000	13.680936
1929.000000	13.763614
1928.000000	13.838766
1927.000000	13.932928
1926.000000	14.023230
1925.000000	14.123036
1924.000000	14.224031
1923.000000	14.350770
1922.000000	14.459191
1921.000000	14.598306
1920.000000	14.735441
1919.000000	14.855447
1918.000000	15.002384
1917.000000	15.128133
1916.000000	15.267149
1915.000000	15.414582
1914.000000	15.600432
1913.000000	15.777470
1912.000000	15.956785
1911.000000	16.112634
1910.000000	16.267592
1909.000000	16.437600
1908.000000	16.606123
1907.000000	16.794844
1906.000000	16.999111
1905.000000	17.198527
1904.000000	17.394971
1903.000000	17.575574
1902.000000	17.754988
1901.000000	17.939650
1900.000000	18.138174
1899.000000	18.321153
1898.000000	18.522054
1897.000000	18.726816
1896.000000	18.900190
1895.000000	19.073169
1894.000000	19.247533
1893.000000	19.431601
1892.000000	19.604679
1891.000000	19.808649
1890.000000	20.000935
1889.000000	20.161833
1888.000000	20.354417
1887.000000	20.561060
1886.000000	20.802754
1885.000000	21.064945
1884.000000	21.361691
1883.000000	21.680023
1882.000000	22.020039
1881.000000	22.345599
1880.000000	22.679872
1879.000000	22.998204
1878.000000	23.320991
1877.000000	23.615955
1876.000000	23.894978
1875.000000	24.152713
1874.000000	24.364703
1873.000000	24.562138
1872.000000	24.742444
1871.000000	24.894926
1870.000000	24.991861
1869.000000	25.089985
1868.000000	25.168602
1867.000000	25.200188
1866.000000	25.217614
1865.000000	25.224050
1864.000000	25.251279
1863.000000	25.272567
1862.000000	25.281380
1861.000000	25.276825
1860.000000	25.280092
1859.000000	25.247121
1858.000000	25.199693
1857.000000	25.149789
1856.000000	25.090084
1855.000000	25.030378
1854.000000	24.954731
1853.000000	24.851360
1852.000000	24.766207
1851.000000	24.712937
1850.000000	24.665707
1849.000000	24.609269
1848.000000	24.508472
1847.000000	24.392724
1846.000000	24.289947
1845.000000	24.202319
1844.000000	24.153010
1843.000000	24.140336
1842.000000	24.118157
1841.000000	24.071323
1840.000000	23.998052
1839.000000	23.949634
1838.000000	23.913494
1837.000000	23.847154
1836.000000	23.771507
1835.000000	23.678037
1834.000000	23.583379
1833.000000	23.522287
1832.000000	23.450007
1831.000000	23.370993
1830.000000	23.301485
1829.000000	23.199698
1828.000000	23.109001
1827.000000	23.048998
1826.000000	22.965727
1825.000000	22.890575
1824.000000	22.860969
1823.000000	22.864237
1822.000000	22.886416
1821.000000	22.873940
1820.000000	22.804927
1819.000000	22.764925
1818.000000	22.759480
1817.000000	22.753440
1816.000000	22.760371
1815.000000	22.762846
1814.000000	22.767896
1813.000000	22.770965
1812.000000	22.760767
1811.000000	22.737696
1810.000000	22.702150
1809.000000	22.680169
1808.000000	22.660465
1807.000000	22.650762
1806.000000	22.611255
1805.000000	22.557886
1804.000000	22.509765
1803.000000	22.482536
1802.000000	22.457980
1801.000000	22.418176
1800.000000	22.378373
1799.000000	22.340648
1798.000000	22.315003
1797.000000	22.290646
1796.000000	22.257773
1795.000000	22.217870
1794.000000	22.191037
1793.000000	22.158164
1792.000000	22.111330
1791.000000	22.064695
1790.000000	22.027465
1789.000000	21.965383
1788.000000	21.927857
1787.000000	21.878448
1786.000000	21.808940
1785.000000	21.742996
1784.000000	21.681211
1783.000000	21.626654
1782.000000	21.554275
1781.000000	21.474568
1780.000000	21.398525
1779.000000	21.338522
1778.000000	21.258122
1777.000000	21.176336
1776.000000	21.065044
1775.000000	20.954742
1774.000000	20.836419
1773.000000	20.719186
1772.000000	20.603537
1771.000000	20.465511
1770.000000	20.343723
1769.000000	20.242926
1768.000000	20.139357
1767.000000	20.042323
1766.000000	19.956180
1765.000000	19.893504
1764.000000	19.840531
1763.000000	19.826273
1762.000000	19.834986
1761.000000	19.868453
1760.000000	19.924892
1759.000000	19.983607
1758.000000	20.052323
1757.000000	20.093711
1756.000000	20.135397
1755.000000	20.174408
1754.000000	20.174111
1753.000000	20.160348
1752.000000	20.131436
1751.000000	20.094603
1750.000000	20.026877
1749.000000	19.965983
1748.000000	19.895781
1747.000000	19.796272
1746.000000	19.678246
1745.000000	19.546854
1744.000000	19.375064
1743.000000	19.193669
1742.000000	19.010492
1741.000000	18.798799
1740.000000	18.587106
1739.000000	18.363036
1738.000000	18.174810
1737.000000	18.002525
1736.000000	17.872816
1735.000000	17.788257
1734.000000	17.748057
1733.000000	17.740334
1732.000000	17.766078
1731.000000	17.823407
1730.000000	17.901827
1729.000000	17.991237
1728.000000	18.101242
1727.000000	18.190850
1726.000000	18.256794
1725.000000	18.320460
1724.000000	18.352640
1723.000000	18.367492
1722.000000	18.361848
1721.000000	18.342837
1720.000000	18.336303
1719.000000	18.353432
1718.000000	18.345907
1717.000000	18.357591
1716.000000	18.379869
1715.000000	18.424723
1714.000000	18.450565
1713.000000	18.496310
1712.000000	18.516806
1711.000000	18.532450
1710.000000	18.545718
1709.000000	18.531361
1708.000000	18.494132
1707.000000	18.472348
1706.000000	18.443139
1705.000000	18.390166
1704.000000	18.364621
1703.000000	18.266002
1702.000000	18.168968
1701.000000	18.047675
1700.000000	17.914006
1699.000000	17.771623
1698.000000	17.641023
1697.000000	17.524185
1696.000000	17.465767
1695.000000	17.449825
1694.000000	17.489035
1693.000000	17.612506
1692.000000	17.747859
1691.000000	17.894005
1690.000000	18.037972
1689.000000	18.125600
1688.000000	18.193821
1687.000000	18.193722
1686.000000	18.196296
1685.000000	18.206792
1684.000000	18.279171
1683.000000	18.468586
1682.000000	18.737905
1681.000000	19.125052
1680.000000	19.590916
1679.000000	20.127673
1678.000000	20.613736
1677.000000	21.104650
1676.000000	21.525560
1675.000000	21.897855
1674.000000	22.237970
1673.000000	22.530459
1672.000000	22.769282
1671.000000	23.004144
1670.000000	23.196728
1669.000000	23.349507
1668.000000	23.498425
1667.000000	23.604965
1666.000000	23.710910
1665.000000	23.807548
1664.000000	23.882205
1663.000000	23.974784
1662.000000	24.043005
1661.000000	24.107760
1660.000000	24.160733
1659.000000	24.180437
1658.000000	24.216577
1657.000000	24.235984
1656.000000	24.267174
1655.000000	24.272025
1654.000000	24.277669
1653.000000	24.289155
1652.000000	24.272125
1651.000000	24.265590
1650.000000	24.231132
1649.000000	24.219449
1648.000000	24.207567
1647.000000	24.168258
1646.000000	24.139841
1645.000000	24.094988
1644.000000	24.036866
1643.000000	23.995973
1642.000000	23.950921
1641.000000	23.919039
1640.000000	23.865670
1639.000000	23.803489
1638.000000	23.748239
1637.000000	23.686652
1636.000000	23.626055
1635.000000	23.581003
1634.000000	23.519911
1633.000000	23.456047
1632.000000	23.389905
1631.000000	23.324853
1630.000000	23.259107
1629.000000	23.174647
1628.000000	23.102763
1627.000000	23.024046
1626.000000	22.943152
1625.000000	22.847702
1624.000000	22.776906
1623.000000	22.714428
1622.000000	22.647593
1621.000000	22.560262
1620.000000	22.485605
1619.000000	22.411146
1618.000000	22.330945
1617.000000	22.240346
1616.000000	22.172719
1615.000000	22.104399
1614.000000	22.036872
1613.000000	21.955482
1612.000000	21.888944
1611.000000	21.813099
1610.000000	21.731709
