PE UV       SUBTECH     SPECTRUM    ASCII       PEDS        4.00        
   -1
CICIMAUCR0014-1.Sample.ASC
24/04/04
10:38:24.00
24/04/04
10:38:24.00
Vinicio Soto Monge
C. cupreomarginata
250,000000
1
Lambda 1050
1050L1511233
PerkinElmer UV WinLab 6.3.2.0749 / 2.02.05 Lambda 900 UV/VIS/NIR, Aug  7 2015 09:38:08

0
0
3350/servo 860,8/2
0
0
UV/VIS
1
1
1
DoubleDePol,CommonBeamDepol,RBeamAtt,SBeamAtt,60mm sphere, WB InGaAs Detector
0
0
0
0
Program
Program
3350/servo 860,8/2
3350/0,2 860,8/0,2
3350/0,2 860,8/0,2
0
15.00
 
 
 
0
 
860,8
319,2
860,8
Front
100
on
S:100 R:100
0
0
0
0
 
0
 
 
 
0
 
 
0
0
0
0
0
 
 
 
 
0
0


0
0
#HDR
-1
-1
#GR
nm
%R
1.0
0.0
2500,000000
-1,000000
2251
8
68,620100
4,694900
#DATA
2500.000000	12.454641
2499.000000	12.339023
2498.000000	12.487896
2497.000000	12.452307
2496.000000	12.448709
2495.000000	12.541281
2494.000000	12.537100
2493.000000	12.512498
2492.000000	12.477395
2491.000000	12.511817
2490.000000	12.594763
2489.000000	12.513276
2488.000000	12.509970
2487.000000	12.581538
2486.000000	12.574537
2485.000000	12.575996
2484.000000	12.536322
2483.000000	12.611391
2482.000000	12.602056
2481.000000	12.633172
2480.000000	12.675763
2479.000000	12.687238
2478.000000	12.734399
2477.000000	12.768238
2476.000000	12.844863
2475.000000	12.841460
2474.000000	12.877438
2473.000000	12.915556
2472.000000	12.946478
2471.000000	12.982749
2470.000000	13.028646
2469.000000	13.098950
2468.000000	13.121510
2467.000000	13.172463
2466.000000	13.246851
2465.000000	13.259201
2464.000000	13.358288
2463.000000	13.452027
2462.000000	13.506481
2461.000000	13.577466
2460.000000	13.661481
2459.000000	13.749483
2458.000000	13.833692
2457.000000	13.938711
2456.000000	14.042563
2455.000000	14.164307
2454.000000	14.240057
2453.000000	14.330781
2452.000000	14.470223
2451.000000	14.577186
2450.000000	14.704959
2449.000000	14.807061
2448.000000	14.926179
2447.000000	15.062995
2446.000000	15.175696
2445.000000	15.304441
2444.000000	15.421323
2443.000000	15.545595
2442.000000	15.657712
2441.000000	15.793070
2440.000000	15.916370
2439.000000	16.044045
2438.000000	16.163456
2437.000000	16.285200
2436.000000	16.390802
2435.000000	16.501071
2434.000000	16.610660
2433.000000	16.743101
2432.000000	16.837131
2431.000000	16.940011
2430.000000	17.046974
2429.000000	17.148395
2428.000000	17.249330
2427.000000	17.332275
2426.000000	17.416485
2425.000000	17.527144
2424.000000	17.646262
2423.000000	17.739418
2422.000000	17.830337
2421.000000	17.913768
2420.000000	17.972695
2419.000000	18.028997
2418.000000	18.122153
2417.000000	18.193624
2416.000000	18.269568
2415.000000	18.334524
2414.000000	18.389464
2413.000000	18.457532
2412.000000	18.521613
2411.000000	18.580345
2410.000000	18.627312
2409.000000	18.684684
2408.000000	18.733692
2407.000000	18.784840
2406.000000	18.838225
2405.000000	18.869730
2404.000000	18.910668
2403.000000	18.953065
2402.000000	18.994781
2401.000000	19.017632
2400.000000	19.060320
2399.000000	19.114774
2398.000000	19.135292
2397.000000	19.173410
2396.000000	19.211625
2395.000000	19.248187
2394.000000	19.275706
2393.000000	19.284457
2392.000000	19.303127
2391.000000	19.325298
2390.000000	19.328701
2389.000000	19.342509
2388.000000	19.350288
2387.000000	19.359235
2386.000000	19.362638
2385.000000	19.342996
2384.000000	19.336286
2383.000000	19.331716
2382.000000	19.320922
2381.000000	19.312948
2380.000000	19.290972
2379.000000	19.268899
2378.000000	19.248868
2377.000000	19.220863
2376.000000	19.179341
2375.000000	19.143265
2374.000000	19.112343
2373.000000	19.089297
2372.000000	19.053513
2371.000000	19.020452
2370.000000	18.984181
2369.000000	18.922921
2368.000000	18.875273
2367.000000	18.827140
2366.000000	18.789897
2365.000000	18.746917
2364.000000	18.695672
2363.000000	18.654053
2362.000000	18.595612
2361.000000	18.531239
2360.000000	18.479605
2359.000000	18.434292
2358.000000	18.390534
2357.000000	18.347165
2356.000000	18.310797
2355.000000	18.266067
2354.000000	18.236117
2353.000000	18.214627
2352.000000	18.180691
2351.000000	18.171550
2350.000000	18.165813
2349.000000	18.157353
2348.000000	18.151033
2347.000000	18.159006
2346.000000	18.174273
2345.000000	18.181955
2344.000000	18.181955
2343.000000	18.187109
2342.000000	18.193235
2341.000000	18.178454
2340.000000	18.175245
2339.000000	18.167077
2338.000000	18.155700
2337.000000	18.144615
2336.000000	18.121277
2335.000000	18.080826
2334.000000	18.050681
2333.000000	18.014314
2332.000000	17.974932
2331.000000	17.927868
2330.000000	17.898599
2329.000000	17.861453
2328.000000	17.798831
2327.000000	17.737473
2326.000000	17.681949
2325.000000	17.612714
2324.000000	17.543480
2323.000000	17.477162
2322.000000	17.390425
2321.000000	17.309327
2320.000000	17.195945
2319.000000	17.091607
2318.000000	16.996215
2317.000000	16.897420
2316.000000	16.776162
2315.000000	16.658016
2314.000000	16.541426
2313.000000	16.439519
2312.000000	16.333041
2311.000000	16.236288
2310.000000	16.128547
2309.000000	16.031793
2308.000000	15.962753
2307.000000	15.923079
2306.000000	15.874751
2305.000000	15.845677
2304.000000	15.826715
2303.000000	15.809406
2302.000000	15.813490
2301.000000	15.819714
2300.000000	15.846552
2299.000000	15.877474
2298.000000	15.890504
2297.000000	15.905771
2296.000000	15.940874
2295.000000	15.944569
2294.000000	15.955557
2293.000000	15.939416
2292.000000	15.942041
2291.000000	15.938638
2290.000000	15.919579
2289.000000	15.879808
2288.000000	15.844412
2287.000000	15.805808
2286.000000	15.763023
2285.000000	15.701957
2284.000000	15.661310
2283.000000	15.593048
2282.000000	15.539372
2281.000000	15.466248
2280.000000	15.386122
2279.000000	15.312901
2278.000000	15.246195
2277.000000	15.181239
2276.000000	15.111907
2275.000000	15.045006
2274.000000	14.991038
2273.000000	14.927249
2272.000000	14.884561
2271.000000	14.869002
2270.000000	14.846054
2269.000000	14.831468
2268.000000	14.838080
2267.000000	14.854416
2266.000000	14.864140
2265.000000	14.926179
2264.000000	15.006693
2263.000000	15.085749
2262.000000	15.156734
2261.000000	15.283437
2260.000000	15.405667
2259.000000	15.535191
2258.000000	15.666075
2257.000000	15.799488
2256.000000	15.932317
2255.000000	16.093540
2254.000000	16.232787
2253.000000	16.359782
2252.000000	16.532091
2251.000000	16.661614
2250.000000	16.771592
2249.000000	16.896156
2248.000000	17.008662
2247.000000	17.099095
2246.000000	17.186124
2245.000000	17.298728
2244.000000	17.385854
2243.000000	17.469091
2242.000000	17.507890
2241.000000	17.582570
2240.000000	17.619813
2239.000000	17.667557
2238.000000	17.688756
2237.000000	17.711413
2236.000000	17.729402
2235.000000	17.740682
2234.000000	17.715010
2233.000000	17.679907
2232.000000	17.661237
2231.000000	17.605908
2230.000000	17.533561
2229.000000	17.454311
2228.000000	17.386049
2227.000000	17.293185
2226.000000	17.179220
2225.000000	17.090441
2224.000000	16.958195
2223.000000	16.821573
2222.000000	16.693022
2221.000000	16.557859
2220.000000	16.409472
2219.000000	16.279268
2218.000000	16.155093
2217.000000	16.022653
2216.000000	15.920746
2215.000000	15.802113
2214.000000	15.710416
2213.000000	15.646044
2212.000000	15.604717
2211.000000	15.575448
2210.000000	15.572336
2209.000000	15.598007
2208.000000	15.656351
2207.000000	15.738713
2206.000000	15.861040
2205.000000	16.010109
2204.000000	16.162191
2203.000000	16.351128
2202.000000	16.562041
2201.000000	16.787636
2200.000000	17.025193
2199.000000	17.281808
2198.000000	17.513141
2197.000000	17.753712
2196.000000	18.023357
2195.000000	18.255079
2194.000000	18.477077
2193.000000	18.709577
2192.000000	18.880427
2191.000000	19.063821
2190.000000	19.236907
2189.000000	19.392879
2188.000000	19.528431
2187.000000	19.661650
2186.000000	19.765210
2185.000000	19.876549
2184.000000	19.960370
2183.000000	20.029896
2182.000000	20.119162
2181.000000	20.180520
2180.000000	20.256075
2179.000000	20.298666
2178.000000	20.342910
2177.000000	20.386668
2176.000000	20.435677
2175.000000	20.480407
2174.000000	20.550906
2173.000000	20.602929
2172.000000	20.649604
2171.000000	20.711837
2170.000000	20.754234
2169.000000	20.837276
2168.000000	20.899412
2167.000000	20.955714
2166.000000	21.016100
2165.000000	21.083584
2164.000000	21.146498
2163.000000	21.232069
2162.000000	21.312681
2161.000000	21.381623
2160.000000	21.472153
2159.000000	21.562295
2158.000000	21.649810
2157.000000	21.758135
2156.000000	21.872683
2155.000000	21.982759
2154.000000	22.089333
2153.000000	22.208549
2152.000000	22.337489
2151.000000	22.450870
2150.000000	22.552874
2149.000000	22.671604
2148.000000	22.783138
2147.000000	22.906340
2146.000000	23.033724
2145.000000	23.171707
2144.000000	23.284602
2143.000000	23.392344
2142.000000	23.498043
2141.000000	23.618620
2140.000000	23.724417
2139.000000	23.834103
2138.000000	23.935232
2137.000000	24.011954
2136.000000	24.105207
2135.000000	24.202641
2134.000000	24.280433
2133.000000	24.351320
2132.000000	24.422208
2131.000000	24.497083
2130.000000	24.568067
2129.000000	24.630884
2128.000000	24.677851
2127.000000	24.730846
2126.000000	24.789871
2125.000000	24.819432
2124.000000	24.843450
2123.000000	24.887597
2122.000000	24.922895
2121.000000	24.936508
2120.000000	24.947788
2119.000000	24.965777
2118.000000	24.994949
2117.000000	25.003117
2116.000000	25.014397
2115.000000	25.008368
2114.000000	25.019356
2113.000000	25.025871
2112.000000	25.002923
2111.000000	24.998353
2110.000000	25.011674
2109.000000	25.010896
2108.000000	24.995241
2107.000000	24.972487
2106.000000	24.958873
2105.000000	24.953039
2104.000000	24.946135
2103.000000	24.931452
2102.000000	24.915991
2101.000000	24.901210
2100.000000	24.887597
2099.000000	24.879137
2098.000000	24.883610
2097.000000	24.882832
2096.000000	24.864356
2095.000000	24.857647
2094.000000	24.861050
2093.000000	24.865426
2092.000000	24.870677
2091.000000	24.865621
2090.000000	24.852104
2089.000000	24.858911
2088.000000	24.856869
2087.000000	24.838199
2086.000000	24.826822
2085.000000	24.813986
2084.000000	24.780730
2083.000000	24.751558
2082.000000	24.723748
2081.000000	24.691367
2080.000000	24.649651
2079.000000	24.601518
2078.000000	24.548036
2077.000000	24.486678
2076.000000	24.424153
2075.000000	24.345583
2074.000000	24.273918
2073.000000	24.205558
2072.000000	24.118529
2071.000000	24.035972
2070.000000	23.961390
2069.000000	23.874652
2068.000000	23.777607
2067.000000	23.687368
2066.000000	23.593338
2065.000000	23.513893
2064.000000	23.442325
2063.000000	23.359768
2062.000000	23.279157
2061.000000	23.215659
2060.000000	23.172096
2059.000000	23.125226
2058.000000	23.102472
2057.000000	23.088470
2056.000000	23.075731
2055.000000	23.097999
2054.000000	23.131547
2053.000000	23.185418
2052.000000	23.272739
2051.000000	23.369687
2050.000000	23.475872
2049.000000	23.606854
2048.000000	23.740170
2047.000000	23.900712
2046.000000	24.066992
2045.000000	24.249997
2044.000000	24.433682
2043.000000	24.604629
2042.000000	24.786176
2041.000000	24.975307
2040.000000	25.163076
2039.000000	25.345790
2038.000000	25.512750
2037.000000	25.672028
2036.000000	25.837530
2035.000000	25.994378
2034.000000	26.139945
2033.000000	26.276956
2032.000000	26.413383
2031.000000	26.539892
2030.000000	26.643063
2029.000000	26.750026
2028.000000	26.874396
2027.000000	26.990597
2026.000000	27.087448
2025.000000	27.171074
2024.000000	27.253144
2023.000000	27.335798
2022.000000	27.426619
2021.000000	27.513260
2020.000000	27.571409
2019.000000	27.630434
2018.000000	27.689555
2017.000000	27.746829
2016.000000	27.798755
2015.000000	27.842513
2014.000000	27.880437
2013.000000	27.908733
2012.000000	27.936447
2011.000000	27.947824
2010.000000	27.971453
2009.000000	27.991095
2008.000000	27.993137
2007.000000	27.998583
2006.000000	27.980302
2005.000000	27.976996
2004.000000	27.957742
2003.000000	27.941114
2002.000000	27.911942
2001.000000	27.865656
2000.000000	27.818884
1999.000000	27.804687
1998.000000	27.740898
1997.000000	27.699085
1996.000000	27.652021
1995.000000	27.576077
1994.000000	27.512579
1993.000000	27.435468
1992.000000	27.366720
1991.000000	27.300403
1990.000000	27.225723
1989.000000	27.138401
1988.000000	27.063819
1987.000000	26.965412
1986.000000	26.871868
1985.000000	26.800688
1984.000000	26.732426
1983.000000	26.627991
1982.000000	26.537655
1981.000000	26.448292
1980.000000	26.352608
1979.000000	26.270635
1978.000000	26.180008
1977.000000	26.099688
1976.000000	26.019757
1975.000000	25.926115
1974.000000	25.839669
1973.000000	25.772477
1972.000000	25.708979
1971.000000	25.599779
1970.000000	25.542797
1969.000000	25.446433
1968.000000	25.383130
1967.000000	25.289585
1966.000000	25.217433
1965.000000	25.164632
1964.000000	25.079548
1963.000000	25.012355
1962.000000	24.932327
1961.000000	24.838491
1960.000000	24.784134
1959.000000	24.664821
1958.000000	24.621841
1957.000000	24.519934
1956.000000	24.438836
1955.000000	24.347820
1954.000000	24.265555
1953.000000	24.201571
1952.000000	24.118723
1951.000000	24.054351
1950.000000	23.987255
1949.000000	23.917146
1948.000000	23.873485
1947.000000	23.822337
1946.000000	23.749505
1945.000000	23.708956
1944.000000	23.671227
1943.000000	23.621635
1942.000000	23.621148
1941.000000	23.597811
1940.000000	23.599269
1939.000000	23.606076
1938.000000	23.591004
1937.000000	23.607049
1936.000000	23.619301
1935.000000	23.627858
1934.000000	23.680367
1933.000000	23.741142
1932.000000	23.828560
1931.000000	23.909755
1930.000000	23.984144
1929.000000	24.101706
1928.000000	24.204197
1927.000000	24.319815
1926.000000	24.445934
1925.000000	24.594711
1924.000000	24.753601
1923.000000	24.895765
1922.000000	25.081590
1921.000000	25.287057
1920.000000	25.484064
1919.000000	25.668722
1918.000000	25.887803
1917.000000	26.098424
1916.000000	26.326645
1915.000000	26.592498
1914.000000	26.890051
1913.000000	27.161933
1912.000000	27.438969
1911.000000	27.709100
1910.000000	27.994790
1909.000000	28.275327
1908.000000	28.606719
1907.000000	28.966797
1906.000000	29.356145
1905.000000	29.750743
1904.000000	30.135714
1903.000000	30.489666
1902.000000	30.834089
1901.000000	31.236564
1900.000000	31.653916
1899.000000	32.034414
1898.000000	32.437959
1897.000000	32.849088
1896.000000	33.202456
1895.000000	33.587233
1894.000000	33.999043
1893.000000	34.432829
1892.000000	34.893842
1891.000000	35.318390
1890.000000	35.733311
1889.000000	36.126256
1888.000000	36.508505
1887.000000	36.889490
1886.000000	37.290895
1885.000000	37.728959
1884.000000	38.145728
1883.000000	38.521656
1882.000000	38.865106
1881.000000	39.235881
1880.000000	39.564551
1879.000000	39.890303
1878.000000	40.204679
1877.000000	40.506802
1876.000000	40.794145
1875.000000	41.057567
1874.000000	41.304653
1873.000000	41.534916
1872.000000	41.733869
1871.000000	41.877103
1870.000000	41.976968
1869.000000	42.087432
1868.000000	42.142567
1867.000000	42.174558
1866.000000	42.222400
1865.000000	42.272381
1864.000000	42.339282
1863.000000	42.434383
1862.000000	42.527635
1861.000000	42.603482
1860.000000	42.662701
1859.000000	42.676509
1858.000000	42.694985
1857.000000	42.708598
1856.000000	42.720559
1855.000000	42.726879
1854.000000	42.692845
1853.000000	42.642475
1852.000000	42.649768
1851.000000	42.706264
1850.000000	42.789502
1849.000000	42.803699
1848.000000	42.718808
1847.000000	42.601635
1846.000000	42.511299
1845.000000	42.486697
1844.000000	42.508090
1843.000000	42.542707
1842.000000	42.529775
1841.000000	42.490295
1840.000000	42.448093
1839.000000	42.395390
1838.000000	42.353479
1837.000000	42.289593
1836.000000	42.195659
1835.000000	42.095405
1834.000000	42.022281
1833.000000	41.983774
1832.000000	41.947893
1831.000000	41.907441
1830.000000	41.858141
1829.000000	41.786961
1828.000000	41.707614
1827.000000	41.650632
1826.000000	41.599872
1825.000000	41.557865
1824.000000	41.559518
1823.000000	41.617084
1822.000000	41.645770
1821.000000	41.618445
1820.000000	41.569048
1819.000000	41.517705
1818.000000	41.488630
1817.000000	41.491937
1816.000000	41.496118
1815.000000	41.471516
1814.000000	41.460917
1813.000000	41.455180
1812.000000	41.442442
1811.000000	41.387890
1810.000000	41.329935
1809.000000	41.308154
1808.000000	41.285400
1807.000000	41.257686
1806.000000	41.214220
1805.000000	41.164920
1804.000000	41.136331
1803.000000	41.122426
1802.000000	41.110466
1801.000000	41.071667
1800.000000	41.000390
1799.000000	40.955368
1798.000000	40.928530
1797.000000	40.903151
1796.000000	40.891871
1795.000000	40.853753
1794.000000	40.808342
1793.000000	40.770613
1792.000000	40.741928
1791.000000	40.713825
1790.000000	40.677361
1789.000000	40.648091
1788.000000	40.642743
1787.000000	40.610168
1786.000000	40.574578
1785.000000	40.547740
1784.000000	40.489494
1783.000000	40.446514
1782.000000	40.412480
1781.000000	40.362790
1780.000000	40.308336
1779.000000	40.237838
1778.000000	40.163838
1777.000000	40.096451
1776.000000	39.992891
1775.000000	39.909265
1774.000000	39.835752
1773.000000	39.764573
1772.000000	39.663249
1771.000000	39.550743
1770.000000	39.467214
1769.000000	39.362584
1768.000000	39.293350
1767.000000	39.223434
1766.000000	39.155464
1765.000000	39.083993
1764.000000	39.051515
1763.000000	39.037707
1762.000000	39.026913
1761.000000	39.022246
1760.000000	39.031289
1759.000000	39.022440
1758.000000	39.029052
1757.000000	39.024093
1756.000000	39.013883
1755.000000	38.991518
1754.000000	38.969444
1753.000000	38.931715
1752.000000	38.895348
1751.000000	38.848089
1750.000000	38.800053
1749.000000	38.729165
1748.000000	38.633482
1747.000000	38.542174
1746.000000	38.426361
1745.000000	38.311619
1744.000000	38.168288
1743.000000	38.025540
1742.000000	37.875791
1741.000000	37.725167
1740.000000	37.558790
1739.000000	37.416431
1738.000000	37.293326
1737.000000	37.189377
1736.000000	37.111390
1735.000000	37.045462
1734.000000	37.034085
1733.000000	37.026695
1732.000000	37.025139
1731.000000	37.020180
1730.000000	37.050713
1729.000000	37.078718
1728.000000	37.109154
1727.000000	37.124810
1726.000000	37.130449
1725.000000	37.166525
1724.000000	37.179361
1723.000000	37.215729
1722.000000	37.272127
1721.000000	37.355851
1720.000000	37.461939
1719.000000	37.572890
1718.000000	37.696384
1717.000000	37.842827
1716.000000	37.971377
1715.000000	38.107318
1714.000000	38.228479
1713.000000	38.337582
1712.000000	38.420235
1711.000000	38.488011
1710.000000	38.536048
1709.000000	38.571443
1708.000000	38.587682
1707.000000	38.608199
1706.000000	38.588363
1705.000000	38.567456
1704.000000	38.535172
1703.000000	38.455144
1702.000000	38.387660
1701.000000	38.299561
1700.000000	38.184915
1699.000000	38.110624
1698.000000	38.016010
1697.000000	37.957861
1696.000000	37.946970
1695.000000	37.946290
1694.000000	37.941914
1693.000000	37.962042
1692.000000	37.993062
1691.000000	38.031958
1690.000000	38.071631
1689.000000	38.104596
1688.000000	38.161675
1687.000000	38.230910
1686.000000	38.334470
1685.000000	38.496568
1684.000000	38.689200
1683.000000	38.958845
1682.000000	39.283042
1681.000000	39.622019
1680.000000	39.966247
1679.000000	40.334105
1678.000000	40.664428
1677.000000	40.992903
1676.000000	41.292012
1675.000000	41.563019
1674.000000	41.802131
1673.000000	42.036284
1672.000000	42.257504
1671.000000	42.474543
1670.000000	42.650838
1669.000000	42.849985
1668.000000	43.007999
1667.000000	43.162804
1666.000000	43.289994
1665.000000	43.415238
1664.000000	43.530953
1663.000000	43.646571
1662.000000	43.753340
1661.000000	43.854858
1660.000000	43.914758
1659.000000	43.995078
1658.000000	44.050991
1657.000000	44.099319
1656.000000	44.149300
1655.000000	44.147841
1654.000000	44.183042
1653.000000	44.190238
1652.000000	44.206574
1651.000000	44.204046
1650.000000	44.185668
1649.000000	44.172346
1648.000000	44.156204
1647.000000	44.131019
1646.000000	44.104278
1645.000000	44.069563
1644.000000	44.034265
1643.000000	44.006844
1642.000000	43.972227
1641.000000	43.956766
1640.000000	43.938096
1639.000000	43.899880
1638.000000	43.874501
1637.000000	43.833952
1636.000000	43.793792
1635.000000	43.762773
1634.000000	43.716973
1633.000000	43.659699
1632.000000	43.606703
1631.000000	43.563529
1630.000000	43.501004
1629.000000	43.438576
1628.000000	43.400069
1627.000000	43.339489
1626.000000	43.277839
1625.000000	43.206270
