PE UV       SUBTECH     SPECTRUM    ASCII       PEDS        4.00        
   -1
CICIMAUCR0012-2.Sample.ASC
24/04/04
15:16:23.00
24/04/04
15:16:23.00
Vinicio Soto Monge
C. cupreomarginata
250,000000
1
Lambda 1050
1050L1511233
PerkinElmer UV WinLab 6.3.2.0749 / 2.02.05 Lambda 900 UV/VIS/NIR, Aug  7 2015 09:38:08

0
0
3350/servo 860,8/2
0
0
UV/VIS
1
1
1
DoubleDePol,CommonBeamDepol,RBeamAtt,SBeamAtt,60mm sphere, WB InGaAs Detector
0
0
0
0
Program
Program
3350/servo 860,8/2
3350/0,2 860,8/0,2
3350/0,2 860,8/0,2
0
15.00
 
 
 
0
 
860,8
319,2
860,8
Front
100
on
S:100 R:100
0
0
0
0
 
0
 
 
 
0
 
 
0
0
0
0
0
 
 
 
 
0
0


0
0
#HDR
-1
-1
#GR
nm
%R
1.0
0.0
2500,000000
-1,000000
2251
8
58,712100
5,302800
#DATA
2500.000000	7.338551
2499.000000	7.365038
2498.000000	7.319019
2497.000000	7.369231
2496.000000	7.256637
2495.000000	7.373219
2494.000000	7.360232
2493.000000	7.406864
2492.000000	7.326586
2491.000000	7.282510
2490.000000	7.360947
2489.000000	7.330370
2488.000000	7.348778
2487.000000	7.401956
2486.000000	7.265943
2485.000000	7.361254
2484.000000	7.271874
2483.000000	7.278931
2482.000000	7.343971
2481.000000	7.362379
2480.000000	7.373833
2479.000000	7.356755
2478.000000	7.389582
2477.000000	7.356141
2476.000000	7.457179
2475.000000	7.453191
2474.000000	7.468735
2473.000000	7.427420
2472.000000	7.477734
2471.000000	7.516902
2470.000000	7.486631
2469.000000	7.451452
2468.000000	7.514141
2467.000000	7.562921
2466.000000	7.521913
2465.000000	7.573864
2464.000000	7.606486
2463.000000	7.641665
2462.000000	7.698832
2461.000000	7.710285
2460.000000	7.773894
2459.000000	7.817153
2458.000000	7.881989
2457.000000	7.924429
2456.000000	7.970244
2455.000000	8.025160
2454.000000	8.080588
2453.000000	8.177740
2452.000000	8.248507
2451.000000	8.302196
2450.000000	8.355681
2449.000000	8.438414
2448.000000	8.525339
2447.000000	8.576369
2446.000000	8.658386
2445.000000	8.747050
2444.000000	8.817920
2443.000000	8.887460
2442.000000	8.970806
2441.000000	9.037688
2440.000000	9.099967
2439.000000	9.184234
2438.000000	9.261546
2437.000000	9.303782
2436.000000	9.376083
2435.000000	9.451657
2434.000000	9.492972
2433.000000	9.577648
2432.000000	9.637166
2431.000000	9.667948
2430.000000	9.752010
2429.000000	9.796700
2428.000000	9.850798
2427.000000	9.904488
2426.000000	9.956336
2425.000000	9.992743
2424.000000	10.041523
2423.000000	10.096337
2422.000000	10.140209
2421.000000	10.186637
2420.000000	10.249428
2419.000000	10.295550
2418.000000	10.351693
2417.000000	10.404155
2416.000000	10.418166
2415.000000	10.456004
2414.000000	10.504375
2413.000000	10.536487
2412.000000	10.563382
2411.000000	10.599687
2410.000000	10.644581
2409.000000	10.669125
2408.000000	10.712894
2407.000000	10.737540
2406.000000	10.777833
2405.000000	10.797774
2404.000000	10.839703
2403.000000	10.874575
2402.000000	10.904539
2401.000000	10.946161
2400.000000	10.974182
2399.000000	11.008236
2398.000000	11.033598
2397.000000	11.061312
2396.000000	11.099252
2395.000000	11.137908
2394.000000	11.167463
2393.000000	11.187098
2392.000000	11.208880
2391.000000	11.231072
2390.000000	11.260831
2389.000000	11.281386
2388.000000	11.293658
2387.000000	11.303476
2386.000000	11.306441
2385.000000	11.316361
2384.000000	11.325770
2383.000000	11.330678
2382.000000	11.316463
2381.000000	11.311964
2380.000000	11.310123
2379.000000	11.294988
2378.000000	11.281796
2377.000000	11.262161
2376.000000	11.247230
2375.000000	11.240071
2374.000000	11.222175
2373.000000	11.189143
2372.000000	11.159180
2371.000000	11.122160
2370.000000	11.104365
2369.000000	11.088514
2368.000000	11.040450
2367.000000	10.993305
2366.000000	10.947900
2365.000000	10.898608
2364.000000	10.843998
2363.000000	10.782537
2362.000000	10.729052
2361.000000	10.685589
2360.000000	10.625560
2359.000000	10.559701
2358.000000	10.501410
2357.000000	10.461219
2356.000000	10.420211
2355.000000	10.377260
2354.000000	10.357216
2353.000000	10.331547
2352.000000	10.309662
2351.000000	10.311094
2350.000000	10.310583
2349.000000	10.327968
2348.000000	10.363454
2347.000000	10.385134
2346.000000	10.397815
2345.000000	10.441380
2344.000000	10.474309
2343.000000	10.504375
2342.000000	10.532498
2341.000000	10.559803
2340.000000	10.575757
2339.000000	10.581381
2338.000000	10.586290
2337.000000	10.591812
2336.000000	10.581074
2335.000000	10.559087
2334.000000	10.537816
2333.000000	10.518590
2332.000000	10.467560
2331.000000	10.427267
2330.000000	10.372146
2329.000000	10.314264
2328.000000	10.262007
2327.000000	10.195841
2326.000000	10.132335
2325.000000	10.062896
2324.000000	9.990902
2323.000000	9.909805
2322.000000	9.807540
2321.000000	9.715911
2320.000000	9.619270
2319.000000	9.512403
2318.000000	9.425887
2317.000000	9.319531
2316.000000	9.216038
2315.000000	9.111932
2314.000000	9.008133
2313.000000	8.911390
2312.000000	8.822010
2311.000000	8.742141
2310.000000	8.639774
2309.000000	8.589664
2308.000000	8.542111
2307.000000	8.492921
2306.000000	8.468480
2305.000000	8.459276
2304.000000	8.460707
2303.000000	8.484126
2302.000000	8.520430
2301.000000	8.538429
2300.000000	8.585164
2299.000000	8.632615
2298.000000	8.688861
2297.000000	8.730483
2296.000000	8.781820
2295.000000	8.831930
2294.000000	8.868337
2293.000000	8.887767
2292.000000	8.910163
2291.000000	8.928469
2290.000000	8.923355
2289.000000	8.906584
2288.000000	8.886847
2287.000000	8.862303
2286.000000	8.822215
2285.000000	8.782638
2284.000000	8.728949
2283.000000	8.667079
2282.000000	8.601731
2281.000000	8.551519
2280.000000	8.483717
2279.000000	8.433914
2278.000000	8.346886
2277.000000	8.281846
2276.000000	8.218543
2275.000000	8.160048
2274.000000	8.112392
2273.000000	8.078951
2272.000000	8.051238
2271.000000	7.997344
2270.000000	7.985788
2269.000000	7.985992
2268.000000	8.015342
2267.000000	8.034977
2266.000000	8.069032
2265.000000	8.104722
2264.000000	8.179683
2263.000000	8.253518
2262.000000	8.338603
2261.000000	8.431051
2260.000000	8.561745
2259.000000	8.680169
2258.000000	8.825897
2257.000000	8.964466
2256.000000	9.095774
2255.000000	9.287419
2254.000000	9.398479
2253.000000	9.518334
2252.000000	9.684924
2251.000000	9.791178
2250.000000	9.934758
2249.000000	10.045409
2248.000000	10.142970
2247.000000	10.277040
2246.000000	10.378385
2245.000000	10.476662
2244.000000	10.548452
2243.000000	10.622492
2242.000000	10.712281
2241.000000	10.767197
2240.000000	10.847680
2239.000000	10.899324
2238.000000	10.922742
2237.000000	10.980318
2236.000000	11.027973
2235.000000	11.051801
2234.000000	11.069493
2233.000000	11.092400
2232.000000	11.097105
2231.000000	11.090355
2230.000000	11.083299
2229.000000	11.104161
2228.000000	11.055994
2227.000000	11.022451
2226.000000	11.006395
2225.000000	10.932560
2224.000000	10.878462
2223.000000	10.788775
2222.000000	10.752778
2221.000000	10.663398
2220.000000	10.592426
2219.000000	10.520636
2218.000000	10.437085
2217.000000	10.360591
2216.000000	10.309356
2215.000000	10.267734
2214.000000	10.215374
2213.000000	10.177843
2212.000000	10.146140
2211.000000	10.147777
2210.000000	10.133153
2209.000000	10.134482
2208.000000	10.179888
2207.000000	10.234702
2206.000000	10.295039
2205.000000	10.394952
2204.000000	10.489956
2203.000000	10.617174
2202.000000	10.755436
2201.000000	10.896460
2200.000000	11.044949
2199.000000	11.198858
2198.000000	11.383754
2197.000000	11.557196
2196.000000	11.694129
2195.000000	11.866650
2194.000000	12.015753
2193.000000	12.160254
2192.000000	12.281949
2191.000000	12.430541
2190.000000	12.535465
2189.000000	12.625049
2188.000000	12.732325
2187.000000	12.835818
2186.000000	12.906483
2185.000000	12.979807
2184.000000	13.034723
2183.000000	13.080129
2182.000000	13.124512
2181.000000	13.178406
2180.000000	13.215426
2179.000000	13.243651
2178.000000	13.288443
2177.000000	13.293966
2176.000000	13.329350
2175.000000	13.372403
2174.000000	13.424252
2173.000000	13.432535
2172.000000	13.478759
2171.000000	13.517517
2170.000000	13.539402
2169.000000	13.576115
2168.000000	13.617328
2167.000000	13.657928
2166.000000	13.692596
2165.000000	13.727366
2164.000000	13.775328
2163.000000	13.818893
2162.000000	13.848039
2161.000000	13.899989
2160.000000	13.963496
2159.000000	14.019640
2158.000000	14.068216
2157.000000	14.101247
2156.000000	14.162913
2155.000000	14.211591
2154.000000	14.268655
2153.000000	14.339525
2152.000000	14.401805
2151.000000	14.471243
2150.000000	14.541499
2149.000000	14.592529
2148.000000	14.644889
2147.000000	14.712589
2146.000000	14.767607
2145.000000	14.818535
2144.000000	14.883372
2143.000000	14.937879
2142.000000	14.974490
2141.000000	15.031452
2140.000000	15.086266
2139.000000	15.133512
2138.000000	15.172373
2137.000000	15.214915
2136.000000	15.253060
2135.000000	15.295398
2134.000000	15.313295
2133.000000	15.352258
2132.000000	15.383039
2131.000000	15.400629
2130.000000	15.436422
2129.000000	15.465363
2128.000000	15.471090
2127.000000	15.476203
2126.000000	15.482441
2125.000000	15.484589
2124.000000	15.482953
2123.000000	15.477430
2122.000000	15.484486
2121.000000	15.473442
2120.000000	15.456261
2119.000000	15.447569
2118.000000	15.439081
2117.000000	15.436831
2116.000000	15.417401
2115.000000	15.383653
2114.000000	15.372404
2113.000000	15.359416
2112.000000	15.321578
2111.000000	15.296216
2110.000000	15.275865
2109.000000	15.260117
2108.000000	15.233630
2107.000000	15.214609
2106.000000	15.203462
2105.000000	15.187917
2104.000000	15.158260
2103.000000	15.133410
2102.000000	15.118582
2101.000000	15.094652
2100.000000	15.059984
2099.000000	15.024395
2098.000000	14.996681
2097.000000	15.000772
2096.000000	14.996170
2095.000000	14.974694
2094.000000	14.960173
2093.000000	14.939720
2092.000000	14.916710
2091.000000	14.902700
2090.000000	14.903518
2089.000000	14.892064
2088.000000	14.876315
2087.000000	14.866191
2086.000000	14.851976
2085.000000	14.826410
2084.000000	14.807798
2083.000000	14.792560
2082.000000	14.772414
2081.000000	14.764233
2080.000000	14.737541
2079.000000	14.710748
2078.000000	14.697044
2077.000000	14.666978
2076.000000	14.625050
2075.000000	14.592018
2074.000000	14.555100
2073.000000	14.535465
2072.000000	14.514808
2071.000000	14.479833
2070.000000	14.454062
2069.000000	14.415713
2068.000000	14.380534
2067.000000	14.359774
2066.000000	14.322651
2065.000000	14.300255
2064.000000	14.269269
2063.000000	14.216807
2062.000000	14.216602
2061.000000	14.204433
2060.000000	14.181935
2059.000000	14.169254
2058.000000	14.172833
2057.000000	14.178458
2056.000000	14.192775
2055.000000	14.218239
2054.000000	14.238385
2053.000000	14.291461
2052.000000	14.349649
2051.000000	14.403952
2050.000000	14.485458
2049.000000	14.561645
2048.000000	14.650002
2047.000000	14.749404
2046.000000	14.831421
2045.000000	14.958434
2044.000000	15.101196
2043.000000	15.214813
2042.000000	15.324953
2041.000000	15.441024
2040.000000	15.554129
2039.000000	15.678484
2038.000000	15.802634
2037.000000	15.911239
2036.000000	16.005323
2035.000000	16.097873
2034.000000	16.206990
2033.000000	16.318152
2032.000000	16.415816
2031.000000	16.502537
2030.000000	16.599280
2029.000000	16.661866
2028.000000	16.732838
2027.000000	16.802378
2026.000000	16.878464
2025.000000	16.949231
2024.000000	17.015294
2023.000000	17.057121
2022.000000	17.111424
2021.000000	17.179123
2020.000000	17.238948
2019.000000	17.286195
2018.000000	17.337634
2017.000000	17.391426
2016.000000	17.414436
2015.000000	17.436320
2014.000000	17.483362
2013.000000	17.509644
2012.000000	17.524166
2011.000000	17.554437
2010.000000	17.570697
2009.000000	17.564970
2008.000000	17.572742
2007.000000	17.576219
2006.000000	17.551982
2005.000000	17.539813
2004.000000	17.540222
2003.000000	17.507599
2002.000000	17.492259
2001.000000	17.490214
2000.000000	17.468636
1999.000000	17.415254
1998.000000	17.365041
1997.000000	17.356758
1996.000000	17.291717
1995.000000	17.236290
1994.000000	17.203156
1993.000000	17.128400
1992.000000	17.079517
1991.000000	17.021533
1990.000000	16.957924
1989.000000	16.904848
1988.000000	16.830092
1987.000000	16.756154
1986.000000	16.678535
1985.000000	16.604700
1984.000000	16.546102
1983.000000	16.466948
1982.000000	16.394545
1981.000000	16.317641
1980.000000	16.254748
1979.000000	16.163937
1978.000000	16.091431
1977.000000	15.996426
1976.000000	15.926784
1975.000000	15.850903
1974.000000	15.771852
1973.000000	15.686869
1972.000000	15.629703
1971.000000	15.525699
1970.000000	15.456568
1969.000000	15.413719
1968.000000	15.350212
1967.000000	15.260014
1966.000000	15.197121
1965.000000	15.137194
1964.000000	15.055791
1963.000000	14.981546
1962.000000	14.907711
1961.000000	14.833262
1960.000000	14.762392
1959.000000	14.689886
1958.000000	14.645196
1957.000000	14.565225
1956.000000	14.513478
1955.000000	14.407327
1954.000000	14.364273
1953.000000	14.285938
1952.000000	14.221920
1951.000000	14.164140
1950.000000	14.097975
1949.000000	14.054205
1948.000000	13.986710
1947.000000	13.958894
1946.000000	13.902955
1945.000000	13.845687
1944.000000	13.804780
1943.000000	13.770726
1942.000000	13.765613
1941.000000	13.730331
1940.000000	13.727263
1939.000000	13.722048
1938.000000	13.703436
1937.000000	13.719798
1936.000000	13.718469
1935.000000	13.735547
1934.000000	13.781771
1933.000000	13.803042
1932.000000	13.829324
1931.000000	13.891706
1930.000000	13.935578
1929.000000	14.027616
1928.000000	14.098588
1927.000000	14.179685
1926.000000	14.276734
1925.000000	14.386976
1924.000000	14.494662
1923.000000	14.599177
1922.000000	14.722917
1921.000000	14.872429
1920.000000	15.038406
1919.000000	15.165930
1918.000000	15.294682
1917.000000	15.480805
1916.000000	15.633691
1915.000000	15.799463
1914.000000	16.006550
1913.000000	16.230409
1912.000000	16.446495
1911.000000	16.623823
1910.000000	16.841648
1909.000000	17.014374
1908.000000	17.228620
1907.000000	17.460864
1906.000000	17.739434
1905.000000	17.990393
1904.000000	18.252703
1903.000000	18.495174
1902.000000	18.748587
1901.000000	19.000773
1900.000000	19.283639
1899.000000	19.566914
1898.000000	19.839246
1897.000000	20.133565
1896.000000	20.409681
1895.000000	20.656652
1894.000000	20.914258
1893.000000	21.215838
1892.000000	21.523247
1891.000000	21.826361
1890.000000	22.126714
1889.000000	22.383911
1888.000000	22.709012
1887.000000	23.025932
1886.000000	23.361669
1885.000000	23.722869
1884.000000	24.149520
1883.000000	24.561137
1882.000000	24.981447
1881.000000	25.441845
1880.000000	25.867882
1879.000000	26.286760
1878.000000	26.685697
1877.000000	27.076759
1876.000000	27.443380
1875.000000	27.776253
1874.000000	28.095525
1873.000000	28.368676
1872.000000	28.628634
1871.000000	28.838789
1870.000000	28.976233
1869.000000	29.121450
1868.000000	29.245088
1867.000000	29.330889
1866.000000	29.413519
1865.000000	29.489502
1864.000000	29.553418
1863.000000	29.619379
1862.000000	29.685954
1861.000000	29.734530
1860.000000	29.777072
1859.000000	29.788935
1858.000000	29.761834
1857.000000	29.750074
1856.000000	29.737598
1855.000000	29.707532
1854.000000	29.667035
1853.000000	29.599642
1852.000000	29.529897
1851.000000	29.516398
1850.000000	29.528261
1849.000000	29.521511
1848.000000	29.442767
1847.000000	29.305834
1846.000000	29.185570
1845.000000	29.124722
1844.000000	29.116848
1843.000000	29.146198
1842.000000	29.145278
1841.000000	29.097213
1840.000000	29.028797
1839.000000	28.967234
1838.000000	28.937475
1837.000000	28.888899
1836.000000	28.803303
1835.000000	28.710548
1834.000000	28.631702
1833.000000	28.571774
1832.000000	28.518494
1831.000000	28.468691
1830.000000	28.388924
1829.000000	28.312123
1828.000000	28.236651
1827.000000	28.160464
1826.000000	28.082742
1825.000000	28.010134
1824.000000	27.970353
1823.000000	27.984056
1822.000000	28.029257
1821.000000	28.002259
1820.000000	27.921061
1819.000000	27.880155
1818.000000	27.863894
1817.000000	27.859497
1816.000000	27.870030
1815.000000	27.887722
1814.000000	27.862565
1813.000000	27.849986
1812.000000	27.856634
1811.000000	27.819000
1810.000000	27.766743
1809.000000	27.741790
1808.000000	27.725836
1807.000000	27.706202
1806.000000	27.658341
1805.000000	27.589619
1804.000000	27.536646
1803.000000	27.520386
1802.000000	27.506989
1801.000000	27.456265
1800.000000	27.395315
1799.000000	27.344080
1798.000000	27.309106
1797.000000	27.273722
1796.000000	27.240895
1795.000000	27.207454
1794.000000	27.151413
1793.000000	27.097621
1792.000000	27.057124
1791.000000	27.007526
1790.000000	26.955064
1789.000000	26.908431
1788.000000	26.841447
1787.000000	26.780906
1786.000000	26.728648
1785.000000	26.653688
1784.000000	26.583330
1783.000000	26.500392
1782.000000	26.419910
1781.000000	26.361516
1780.000000	26.284920
1779.000000	26.197483
1778.000000	26.138271
1777.000000	26.037847
1776.000000	25.935991
1775.000000	25.824010
1774.000000	25.691475
1773.000000	25.579290
1772.000000	25.450436
1771.000000	25.321172
1770.000000	25.190989
1769.000000	25.060396
1768.000000	24.948007
1767.000000	24.842776
1766.000000	24.732841
1765.000000	24.666675
1764.000000	24.618610
1763.000000	24.587829
1762.000000	24.607668
1761.000000	24.636302
1760.000000	24.656960
1759.000000	24.722410
1758.000000	24.783155
1757.000000	24.845741
1756.000000	24.871819
1755.000000	24.905055
1754.000000	24.915691
1753.000000	24.909146
1752.000000	24.901680
1751.000000	24.870694
1750.000000	24.810460
1749.000000	24.748589
1748.000000	24.658596
1747.000000	24.577909
1746.000000	24.455702
1745.000000	24.318360
1744.000000	24.178052
1743.000000	23.991316
1742.000000	23.792001
1741.000000	23.575710
1740.000000	23.357476
1739.000000	23.137708
1738.000000	22.913236
1737.000000	22.722818
1736.000000	22.599793
1735.000000	22.494562
1734.000000	22.450997
1733.000000	22.406307
1732.000000	22.460099
1731.000000	22.521969
1730.000000	22.569829
1729.000000	22.697252
1728.000000	22.812607
1727.000000	22.888794
1726.000000	22.985026
1725.000000	23.029102
1724.000000	23.082178
1723.000000	23.120221
1722.000000	23.130243
1721.000000	23.151514
1720.000000	23.158161
1719.000000	23.179432
1718.000000	23.208884
1717.000000	23.255517
1716.000000	23.306139
1715.000000	23.362998
1714.000000	23.438368
1713.000000	23.497988
1712.000000	23.557302
1711.000000	23.578573
1710.000000	23.609969
1709.000000	23.590231
1708.000000	23.571721
1707.000000	23.569676
1706.000000	23.535213
1705.000000	23.482751
1704.000000	23.411165
1703.000000	23.344181
1702.000000	23.248154
1701.000000	23.114494
1700.000000	22.969584
1699.000000	22.798187
1698.000000	22.664834
1697.000000	22.535366
1696.000000	22.454985
1695.000000	22.432078
1694.000000	22.448747
1693.000000	22.522174
1692.000000	22.650925
1691.000000	22.788063
1690.000000	22.924894
1689.000000	23.034829
1688.000000	23.090870
1687.000000	23.126356
1686.000000	23.124618
1685.000000	23.127788
1684.000000	23.208680
1683.000000	23.365759
1682.000000	23.636967
1681.000000	24.032835
1680.000000	24.532196
1679.000000	25.015195
1678.000000	25.527544
1677.000000	26.029257
1676.000000	26.435965
1675.000000	26.843185
1674.000000	27.163173
1673.000000	27.460356
1672.000000	27.727779
1671.000000	27.932617
1670.000000	28.128046
1669.000000	28.303635
1668.000000	28.454783
1667.000000	28.563491
1666.000000	28.657882
1665.000000	28.777021
1664.000000	28.856481
1663.000000	28.936452
1662.000000	29.014071
1661.000000	29.050989
1660.000000	29.076146
1659.000000	29.110507
1658.000000	29.162560
1657.000000	29.195183
1656.000000	29.196206
1655.000000	29.191195
1654.000000	29.203160
1653.000000	29.190786
1652.000000	29.164503
1651.000000	29.156527
1650.000000	29.113780
1649.000000	29.074612
1648.000000	29.030945
1647.000000	29.009674
1646.000000	28.959462
1645.000000	28.902193
1644.000000	28.845129
1643.000000	28.802791
1642.000000	28.755443
1641.000000	28.704821
1640.000000	28.648473
1639.000000	28.584966
1638.000000	28.532607
1637.000000	28.453453
1636.000000	28.407332
1635.000000	28.341882
1634.000000	28.275205
1633.000000	28.196768
1632.000000	28.143590
1631.000000	28.057789
1630.000000	27.980272
1629.000000	27.911346
1628.000000	27.827488
1627.000000	27.752425
1626.000000	27.696180
1625.000000	27.626537
1624.000000	27.532964
1623.000000	27.466696
1622.000000	27.401451
1621.000000	27.320866
1620.000000	27.254803
1619.000000	27.182297
1618.000000	27.117358
