PE UV       SUBTECH     SPECTRUM    ASCII       PEDS        4.00        
   -1
CICIMAUCR0141-3.Sample.ASC
24/04/04
11:43:11.00
24/04/04
11:43:11.00
Vinicio Soto Monge
C. kalinini
250,000000
1
Lambda 1050
1050L1511233
PerkinElmer UV WinLab 6.3.2.0749 / 2.02.05 Lambda 900 UV/VIS/NIR, Aug  7 2015 09:38:08

0
0
3350/servo 860,8/2
0
0
UV/VIS
1
1
1
DoubleDePol,CommonBeamDepol,RBeamAtt,SBeamAtt,60mm sphere, WB InGaAs Detector
0
0
0
0
Program
Program
3350/servo 860,8/2
3350/0,2 860,8/0,2
3350/0,2 860,8/0,2
0
15.00
 
 
 
0
 
860,8
319,2
860,8
Front
100
on
S:100 R:100
0
0
0
0
 
0
 
 
 
0
 
 
0
0
0
0
0
 
 
 
 
0
0


0
0
#HDR
-1
-1
#GR
nm
%R
1.0
0.0
2500,000000
-1,000000
2251
8
77,545500
5,529700
#DATA
2500.000000	6.755171
2499.000000	6.606725
2498.000000	6.661149
2497.000000	6.574787
2496.000000	6.618565
2495.000000	6.541954
2494.000000	6.551804
2493.000000	6.585035
2492.000000	6.625530
2491.000000	6.535189
2490.000000	6.587324
2489.000000	6.612595
2488.000000	6.597771
2487.000000	6.569813
2486.000000	6.586528
2485.000000	6.663039
2484.000000	6.569415
2483.000000	6.606327
2482.000000	6.605233
2481.000000	6.695872
2480.000000	6.667118
2479.000000	6.646423
2478.000000	6.696469
2477.000000	6.696768
2476.000000	6.726118
2475.000000	6.718756
2474.000000	6.714876
2473.000000	6.737361
2472.000000	6.792083
2471.000000	6.798849
2470.000000	6.863918
2469.000000	6.912969
2468.000000	6.849690
2467.000000	6.890185
2466.000000	6.957045
2465.000000	6.953563
2464.000000	6.981719
2463.000000	7.049475
2462.000000	7.070667
2461.000000	7.085194
2460.000000	7.143298
2459.000000	7.202000
2458.000000	7.229361
2457.000000	7.272940
2456.000000	7.320199
2455.000000	7.362584
2454.000000	7.417007
2453.000000	7.479589
2452.000000	7.520780
2451.000000	7.564558
2450.000000	7.612414
2449.000000	7.685145
2448.000000	7.757179
2447.000000	7.791405
2446.000000	7.878562
2445.000000	7.943233
2444.000000	8.009894
2443.000000	8.077252
2442.000000	8.143117
2441.000000	8.208386
2440.000000	8.285892
2439.000000	8.340713
2438.000000	8.422299
2437.000000	8.473041
2436.000000	8.536717
2435.000000	8.620292
2434.000000	8.672029
2433.000000	8.736104
2432.000000	8.813411
2431.000000	8.878779
2430.000000	8.944545
2429.000000	8.991207
2428.000000	9.068614
2427.000000	9.127913
2426.000000	9.193082
2425.000000	9.259345
2424.000000	9.306107
2423.000000	9.352869
2422.000000	9.400030
2421.000000	9.452065
2420.000000	9.509175
2419.000000	9.559619
2418.000000	9.581408
2417.000000	9.624688
2416.000000	9.671550
2415.000000	9.730451
2414.000000	9.773731
2413.000000	9.816911
2412.000000	9.842780
2411.000000	9.861982
2410.000000	9.903571
2409.000000	9.944165
2408.000000	9.963168
2407.000000	9.991325
2406.000000	10.012318
2405.000000	10.035301
2404.000000	10.051320
2403.000000	10.081865
2402.000000	10.101963
2401.000000	10.135990
2400.000000	10.156784
2399.000000	10.170017
2398.000000	10.202850
2397.000000	10.226629
2396.000000	10.238767
2395.000000	10.246627
2394.000000	10.252896
2393.000000	10.264138
2392.000000	10.277172
2391.000000	10.290007
2390.000000	10.295977
2389.000000	10.304533
2388.000000	10.314284
2387.000000	10.326024
2386.000000	10.330402
2385.000000	10.341943
2384.000000	10.341844
2383.000000	10.331496
2382.000000	10.328710
2381.000000	10.326720
2380.000000	10.312692
2379.000000	10.312294
2378.000000	10.313886
2377.000000	10.301150
2376.000000	10.294882
2375.000000	10.295678
2374.000000	10.280157
2373.000000	10.275381
2372.000000	10.257174
2371.000000	10.241852
2370.000000	10.249115
2369.000000	10.242747
2368.000000	10.234688
2367.000000	10.234390
2366.000000	10.228420
2365.000000	10.228917
2364.000000	10.221057
2363.000000	10.218471
2362.000000	10.217376
2361.000000	10.213595
2360.000000	10.220659
2359.000000	10.204641
2358.000000	10.175489
2357.000000	10.173300
2356.000000	10.181558
2355.000000	10.163152
2354.000000	10.132905
2353.000000	10.122956
2352.000000	10.118280
2351.000000	10.111216
2350.000000	10.096490
2349.000000	10.072413
2348.000000	10.050723
2347.000000	10.038087
2346.000000	10.031720
2345.000000	10.002866
2344.000000	9.999384
2343.000000	9.988937
2342.000000	9.959288
2341.000000	9.950333
2340.000000	9.959785
2339.000000	9.957298
2338.000000	9.928643
2337.000000	9.916306
2336.000000	9.924664
2335.000000	9.909640
2334.000000	9.901879
2333.000000	9.906655
2332.000000	9.906257
2331.000000	9.892925
2330.000000	9.903471
2329.000000	9.914117
2328.000000	9.918097
2327.000000	9.926455
2326.000000	9.932922
2325.000000	9.944762
2324.000000	9.959487
2323.000000	9.936702
2322.000000	9.917799
2321.000000	9.919788
2320.000000	9.928146
2319.000000	9.910336
2318.000000	9.888647
2317.000000	9.860589
2316.000000	9.850142
2315.000000	9.822184
2314.000000	9.769850
2313.000000	9.746370
2312.000000	9.712243
2311.000000	9.674833
2310.000000	9.641204
2309.000000	9.598422
2308.000000	9.544695
2307.000000	9.514448
2306.000000	9.475944
2305.000000	9.458234
2304.000000	9.432564
2303.000000	9.393264
2302.000000	9.368789
2301.000000	9.339836
2300.000000	9.317350
2299.000000	9.290686
2298.000000	9.270986
2297.000000	9.247704
2296.000000	9.244520
2295.000000	9.223925
2294.000000	9.197658
2293.000000	9.199648
2292.000000	9.170795
2291.000000	9.170198
2290.000000	9.174178
2289.000000	9.148906
2288.000000	9.141344
2287.000000	9.140548
2286.000000	9.114978
2285.000000	9.107019
2284.000000	9.101945
2283.000000	9.077668
2282.000000	9.061749
2281.000000	9.058167
2280.000000	9.045631
2279.000000	9.020956
2278.000000	9.016479
2277.000000	8.988820
2276.000000	8.973099
2275.000000	8.945838
2274.000000	8.926636
2273.000000	8.912408
2272.000000	8.881664
2271.000000	8.860969
2270.000000	8.835399
2269.000000	8.803064
2268.000000	8.782269
2267.000000	8.801372
2266.000000	8.787940
2265.000000	8.759684
2264.000000	8.763067
2263.000000	8.762470
2262.000000	8.771325
2261.000000	8.795601
2260.000000	8.825748
2259.000000	8.828335
2258.000000	8.893006
2257.000000	8.921462
2256.000000	8.971707
2255.000000	9.007823
2254.000000	9.036975
2253.000000	9.096771
2252.000000	9.146021
2251.000000	9.198852
2250.000000	9.268598
2249.000000	9.311281
2248.000000	9.345507
2247.000000	9.416844
2246.000000	9.463408
2245.000000	9.476442
2244.000000	9.502211
2243.000000	9.575339
2242.000000	9.601705
2241.000000	9.626678
2240.000000	9.624688
2239.000000	9.649562
2238.000000	9.663391
2237.000000	9.662496
2236.000000	9.670456
2235.000000	9.661402
2234.000000	9.638020
2233.000000	9.619017
2232.000000	9.598919
2231.000000	9.551659
2230.000000	9.513951
2229.000000	9.468183
2228.000000	9.396150
2227.000000	9.356252
2226.000000	9.275164
2225.000000	9.198454
2224.000000	9.122540
2223.000000	9.032398
2222.000000	8.962354
2221.000000	8.872411
2220.000000	8.782568
2219.000000	8.679392
2218.000000	8.619397
2217.000000	8.535324
2216.000000	8.460504
2215.000000	8.383396
2214.000000	8.322108
2213.000000	8.283802
2212.000000	8.260620
2211.000000	8.249178
2210.000000	8.207291
2209.000000	8.210475
2208.000000	8.241020
2207.000000	8.255049
2206.000000	8.281813
2205.000000	8.359816
2204.000000	8.448565
2203.000000	8.527066
2202.000000	8.628749
2201.000000	8.723866
2200.000000	8.846642
2199.000000	8.961160
2198.000000	9.050108
2197.000000	9.172685
2196.000000	9.297551
2195.000000	9.426794
2194.000000	9.527681
2193.000000	9.628071
2192.000000	9.713537
2191.000000	9.815220
2190.000000	9.897800
2189.000000	9.972719
2188.000000	10.037291
2187.000000	10.101465
2186.000000	10.148626
2185.000000	10.202153
2184.000000	10.255283
2183.000000	10.285530
2182.000000	10.323139
2181.000000	10.346420
2180.000000	10.374378
2179.000000	10.403829
2178.000000	10.419748
2177.000000	10.449795
2176.000000	10.461734
2175.000000	10.481434
2174.000000	10.527600
2173.000000	10.551080
2172.000000	10.586301
2171.000000	10.610777
2170.000000	10.646993
2169.000000	10.678234
2168.000000	10.715843
2167.000000	10.754049
2166.000000	10.785788
2165.000000	10.829267
2164.000000	10.882198
2163.000000	10.905877
2162.000000	10.954132
2161.000000	11.013829
2160.000000	11.074520
2159.000000	11.117004
2158.000000	11.194809
2157.000000	11.264853
2156.000000	11.322261
2155.000000	11.407130
2154.000000	11.479661
2153.000000	11.556371
2152.000000	11.639947
2151.000000	11.738944
2150.000000	11.820629
2149.000000	11.891767
2148.000000	11.974347
2147.000000	12.061504
2146.000000	12.153338
2145.000000	12.232834
2144.000000	12.320886
2143.000000	12.401079
2142.000000	12.470327
2141.000000	12.555196
2140.000000	12.643845
2139.000000	12.704835
2138.000000	12.783137
2137.000000	12.863628
2136.000000	12.932677
2135.000000	12.996553
2134.000000	13.068686
2133.000000	13.131566
2132.000000	13.182607
2131.000000	13.242901
2130.000000	13.304488
2129.000000	13.344285
2128.000000	13.392341
2127.000000	13.444775
2126.000000	13.480394
2125.000000	13.519794
2124.000000	13.564268
2123.000000	13.604563
2122.000000	13.635605
2121.000000	13.660081
2120.000000	13.699480
2119.000000	13.717190
2118.000000	13.727836
2117.000000	13.758182
2116.000000	13.774400
2115.000000	13.785543
2114.000000	13.797980
2113.000000	13.802159
2112.000000	13.825241
2111.000000	13.835987
2110.000000	13.827430
2109.000000	13.834693
2108.000000	13.849020
2107.000000	13.852503
2106.000000	13.850811
2105.000000	13.840066
2104.000000	13.833798
2103.000000	13.836882
2102.000000	13.840464
2101.000000	13.852304
2100.000000	13.853398
2099.000000	13.849916
2098.000000	13.848523
2097.000000	13.856781
2096.000000	13.872302
2095.000000	13.879466
2094.000000	13.883346
2093.000000	13.903245
2092.000000	13.918269
2091.000000	13.920358
2090.000000	13.929710
2089.000000	13.937371
2088.000000	13.946326
2087.000000	13.955181
2086.000000	13.953589
2085.000000	13.950306
2084.000000	13.942545
2083.000000	13.929810
2082.000000	13.900161
2081.000000	13.874690
2080.000000	13.852602
2079.000000	13.812705
2078.000000	13.784648
2077.000000	13.746541
2076.000000	13.691421
2075.000000	13.633317
2074.000000	13.572028
2073.000000	13.512630
2072.000000	13.437412
2071.000000	13.366970
2070.000000	13.313641
2069.000000	13.239020
2068.000000	13.131566
2067.000000	13.044409
2066.000000	12.961431
2065.000000	12.885019
2064.000000	12.802937
2063.000000	12.716874
2062.000000	12.643447
2061.000000	12.569025
2060.000000	12.497887
2059.000000	12.439683
2058.000000	12.391527
2057.000000	12.354416
2056.000000	12.291038
2055.000000	12.255518
2054.000000	12.248554
2053.000000	12.252036
2052.000000	12.272333
2051.000000	12.296311
2050.000000	12.325861
2049.000000	12.373817
2048.000000	12.455104
2047.000000	12.527039
2046.000000	12.603649
2045.000000	12.674290
2044.000000	12.770302
2043.000000	12.884522
2042.000000	12.981429
2041.000000	13.061522
2040.000000	13.155346
2039.000000	13.256432
2038.000000	13.358513
2037.000000	13.432139
2036.000000	13.535414
2035.000000	13.607249
2034.000000	13.694804
2033.000000	13.776091
2032.000000	13.848622
2031.000000	13.924636
2030.000000	13.984134
2029.000000	14.041244
2028.000000	14.103030
2027.000000	14.175063
2026.000000	14.236750
2025.000000	14.283711
2024.000000	14.336145
2023.000000	14.371266
2022.000000	14.433251
2021.000000	14.468373
2020.000000	14.515334
2019.000000	14.554436
2018.000000	14.576125
2017.000000	14.621594
2016.000000	14.659004
2015.000000	14.695618
2014.000000	14.703080
2013.000000	14.726362
2012.000000	14.738500
2011.000000	14.785760
2010.000000	14.764170
2009.000000	14.762478
2008.000000	14.768846
2007.000000	14.767553
2006.000000	14.766259
2005.000000	14.746659
2004.000000	14.720193
2003.000000	14.725566
2002.000000	14.699299
2001.000000	14.682485
2000.000000	14.625574
1999.000000	14.599407
1998.000000	14.565479
1997.000000	14.525881
1996.000000	14.503992
1995.000000	14.446982
1994.000000	14.394847
1993.000000	14.358432
1992.000000	14.317937
1991.000000	14.252470
1990.000000	14.203718
1989.000000	14.153772
1988.000000	14.096463
1987.000000	14.047611
1986.000000	13.982442
1985.000000	13.915383
1984.000000	13.856483
1983.000000	13.788130
1982.000000	13.732612
1981.000000	13.687442
1980.000000	13.627446
1979.000000	13.540190
1978.000000	13.514421
1977.000000	13.433432
1976.000000	13.379009
1975.000000	13.323591
1974.000000	13.244095
1973.000000	13.214545
1972.000000	13.137636
1971.000000	13.081023
1970.000000	13.026003
1969.000000	12.976654
1968.000000	12.916559
1967.000000	12.851888
1966.000000	12.806717
1965.000000	12.738663
1964.000000	12.701552
1963.000000	12.629020
1962.000000	12.558976
1961.000000	12.511219
1960.000000	12.438091
1959.000000	12.388940
1958.000000	12.312429
1957.000000	12.272731
1956.000000	12.193533
1955.000000	12.137220
1954.000000	12.078418
1953.000000	12.031855
1952.000000	11.951663
1951.000000	11.874554
1950.000000	11.832170
1949.000000	11.788293
1948.000000	11.738944
1947.000000	11.683028
1946.000000	11.637857
1945.000000	11.578957
1944.000000	11.551894
1943.000000	11.524732
1942.000000	11.494784
1941.000000	11.454688
1940.000000	11.428720
1939.000000	11.419467
1938.000000	11.409020
1937.000000	11.392106
1936.000000	11.379769
1935.000000	11.372904
1934.000000	11.371013
1933.000000	11.388325
1932.000000	11.406632
1931.000000	11.437774
1930.000000	11.462946
1929.000000	11.511798
1928.000000	11.561346
1927.000000	11.602437
1926.000000	11.673874
1925.000000	11.732377
1924.000000	11.794661
1923.000000	11.866097
1922.000000	11.968378
1921.000000	12.107172
1920.000000	12.219402
1919.000000	12.326856
1918.000000	12.453910
1917.000000	12.572209
1916.000000	12.688518
1915.000000	12.828706
1914.000000	13.039335
1913.000000	13.260511
1912.000000	13.481289
1911.000000	13.690924
1910.000000	13.891306
1909.000000	14.060744
1908.000000	14.298735
1907.000000	14.594830
1906.000000	14.917192
1905.000000	15.299350
1904.000000	15.654047
1903.000000	15.972330
1902.000000	16.327525
1901.000000	16.699733
1900.000000	17.132235
1899.000000	17.594785
1898.000000	18.053653
1897.000000	18.520281
1896.000000	18.893684
1895.000000	19.285095
1894.000000	19.730830
1893.000000	20.195568
1892.000000	20.733633
1891.000000	21.262347
1890.000000	21.749769
1889.000000	22.192121
1888.000000	22.636762
1887.000000	23.069463
1886.000000	23.479081
1885.000000	23.916757
1884.000000	24.365178
1883.000000	24.739775
1882.000000	25.095367
1881.000000	25.440911
1880.000000	25.727455
1879.000000	26.024346
1878.000000	26.322730
1877.000000	26.622308
1876.000000	26.885868
1875.000000	27.144454
1874.000000	27.401349
1873.000000	27.636354
1872.000000	27.866883
1871.000000	28.066767
1870.000000	28.251031
1869.000000	28.433006
1868.000000	28.574288
1867.000000	28.667315
1866.000000	28.744125
1865.000000	28.825611
1864.000000	28.911574
1863.000000	29.003208
1862.000000	29.097827
1861.000000	29.210355
1860.000000	29.318406
1859.000000	29.402977
1858.000000	29.477000
1857.000000	29.536199
1856.000000	29.585648
1855.000000	29.640072
1854.000000	29.682257
1853.000000	29.691013
1852.000000	29.724443
1851.000000	29.757077
1850.000000	29.783642
1849.000000	29.838264
1848.000000	29.882141
1847.000000	29.888111
1846.000000	29.871396
1845.000000	29.826325
1844.000000	29.789313
1843.000000	29.802247
1842.000000	29.827718
1841.000000	29.842344
1840.000000	29.831797
1839.000000	29.794885
1838.000000	29.775284
1837.000000	29.757773
1836.000000	29.737875
1835.000000	29.701659
1834.000000	29.640967
1833.000000	29.597389
1832.000000	29.579878
1831.000000	29.579281
1830.000000	29.568734
1829.000000	29.550626
1828.000000	29.514211
1827.000000	29.491725
1826.000000	29.494113
1825.000000	29.472324
1824.000000	29.455112
1823.000000	29.459489
1822.000000	29.508242
1821.000000	29.558685
1820.000000	29.565849
1819.000000	29.538587
1818.000000	29.520380
1817.000000	29.511923
1816.000000	29.518788
1815.000000	29.524758
1814.000000	29.505456
1813.000000	29.482373
1812.000000	29.479289
1811.000000	29.465857
1810.000000	29.421482
1809.000000	29.393724
1808.000000	29.374322
1807.000000	29.359895
1806.000000	29.342086
1805.000000	29.308059
1804.000000	29.286469
1803.000000	29.264182
1802.000000	29.246870
1801.000000	29.238512
1800.000000	29.207072
1799.000000	29.183591
1798.000000	29.154141
1797.000000	29.124193
1796.000000	29.106981
1795.000000	29.077829
1794.000000	29.060716
1793.000000	29.027684
1792.000000	28.996044
1791.000000	28.977141
1790.000000	28.957043
1789.000000	28.943810
1788.000000	28.947591
1787.000000	28.946496
1786.000000	28.941323
1785.000000	28.927194
1784.000000	28.925702
1783.000000	28.909086
1782.000000	28.875457
1781.000000	28.852773
1780.000000	28.826506
1779.000000	28.782828
1778.000000	28.735071
1777.000000	28.702337
1776.000000	28.649008
1775.000000	28.587819
1774.000000	28.547225
1773.000000	28.493598
1772.000000	28.436488
1771.000000	28.367837
1770.000000	28.321075
1769.000000	28.272521
1768.000000	28.208845
1767.000000	28.169445
1766.000000	28.132533
1765.000000	28.077015
1764.000000	28.046172
1763.000000	28.031049
1762.000000	27.993838
1761.000000	27.979709
1760.000000	27.961999
1759.000000	27.948468
1758.000000	27.952249
1757.000000	27.925883
1756.000000	27.901805
1755.000000	27.918620
1754.000000	27.914342
1753.000000	27.890562
1752.000000	27.872554
1751.000000	27.862505
1750.000000	27.812559
1749.000000	27.779825
1748.000000	27.758434
1747.000000	27.708786
1746.000000	27.646702
1745.000000	27.574270
1744.000000	27.501539
1743.000000	27.424929
1742.000000	27.350308
1741.000000	27.265340
1740.000000	27.200469
1739.000000	27.115700
1738.000000	27.035707
1737.000000	26.985462
1736.000000	26.933924
1735.000000	26.887460
1734.000000	26.824978
1733.000000	26.788961
1732.000000	26.727971
1731.000000	26.680810
1730.000000	26.640217
1729.000000	26.579525
1728.000000	26.540921
1727.000000	26.504307
1726.000000	26.465504
1725.000000	26.432472
1724.000000	26.460331
1723.000000	26.502914
1722.000000	26.581415
1721.000000	26.709763
1720.000000	26.868855
1719.000000	27.068440
1718.000000	27.268424
1717.000000	27.504922
1716.000000	27.727790
1715.000000	27.934042
1714.000000	28.136513
1713.000000	28.310926
1712.000000	28.484842
1711.000000	28.649804
1710.000000	28.764024
1709.000000	28.887198
1708.000000	28.989378
1707.000000	29.105986
1706.000000	29.177124
1705.000000	29.241298
1704.000000	29.287862
1703.000000	29.344673
1702.000000	29.366860
1701.000000	29.406459
1700.000000	29.423870
1699.000000	29.439391
1698.000000	29.440088
1697.000000	29.442376
1696.000000	29.421383
1695.000000	29.390042
1694.000000	29.343280
1693.000000	29.274927
1692.000000	29.197819
1691.000000	29.126581
1690.000000	29.050965
1689.000000	29.024898
1688.000000	29.040319
1687.000000	29.112751
1686.000000	29.202197
1685.000000	29.348056
1684.000000	29.541174
1683.000000	29.730810
1682.000000	29.951986
1681.000000	30.142021
1680.000000	30.361804
1679.000000	30.550445
1678.000000	30.719486
1677.000000	30.898775
1676.000000	31.039261
1675.000000	31.178255
1674.000000	31.331675
1673.000000	31.474051
1672.000000	31.639710
1671.000000	31.776116
1670.000000	31.939188
1669.000000	32.100070
1668.000000	32.240556
1667.000000	32.382933
1666.000000	32.527000
1665.000000	32.653955
1664.000000	32.789765
1663.000000	32.920700
1662.000000	33.029447
1661.000000	33.151427
1660.000000	33.227839
1659.000000	33.311812
1658.000000	33.394392
1657.000000	33.460855
1656.000000	33.492394
1655.000000	33.552191
1654.000000	33.581044
1653.000000	33.605420
1652.000000	33.629299
1651.000000	33.633875
1650.000000	33.639049
1649.000000	33.635169
1648.000000	33.624622
1647.000000	33.605918
1646.000000	33.597560
1645.000000	33.578059
1644.000000	33.566617
1643.000000	33.550798
1642.000000	33.528610
1641.000000	33.527317
1640.000000	33.529307
1639.000000	33.500354
1638.000000	33.475480
1637.000000	33.449114
1636.000000	33.411307
1635.000000	33.400760
1634.000000	33.364644
1633.000000	33.319573
1632.000000	33.292908
1631.000000	33.253409
1630.000000	33.209233
1629.000000	33.177097
1628.000000	33.141876
1627.000000	33.101978
1626.000000	33.067255
1625.000000	33.028054
1624.000000	32.990545
1623.000000	32.965771
1622.000000	32.932042
1621.000000	32.901895
1620.000000	32.868863
1619.000000	32.855929
1618.000000	32.825782
1617.000000	32.787377
1616.000000	32.768573
1615.000000	32.732357
1614.000000	32.698031
1613.000000	32.656940
