PE UV       SUBTECH     SPECTRUM    ASCII       PEDS        4.00        
   -1
CICIMAUCR0001-2.Sample.ASC
24/04/04
14:58:11.00
24/04/04
14:58:11.00
Vinicio Soto Monge
C. kalinini
250,000000
1
Lambda 1050
1050L1511233
PerkinElmer UV WinLab 6.3.2.0749 / 2.02.05 Lambda 900 UV/VIS/NIR, Aug  7 2015 09:38:08

0
0
3350/servo 860,8/2
0
0
UV/VIS
1
1
1
DoubleDePol,CommonBeamDepol,RBeamAtt,SBeamAtt,60mm sphere, WB InGaAs Detector
0
0
0
0
Program
Program
3350/servo 860,8/2
3350/0,2 860,8/0,2
3350/0,2 860,8/0,2
0
15.00
 
 
 
0
 
860,8
319,2
860,8
Front
100
on
S:100 R:100
0
0
0
0
 
0
 
 
 
0
 
 
0
0
0
0
0
 
 
 
 
0
0


0
0
#HDR
-1
-1
#GR
nm
%R
1.0
0.0
2500,000000
-1,000000
2251
8
78,942500
5,296700
#DATA
2500.000000	9.418671
2499.000000	9.352645
2498.000000	9.322298
2497.000000	9.396936
2496.000000	9.430462
2495.000000	9.389554
2494.000000	9.392835
2493.000000	9.368947
2492.000000	9.390067
2491.000000	9.423798
2490.000000	9.435075
2489.000000	9.486953
2488.000000	9.514532
2487.000000	9.455683
2486.000000	9.508688
2485.000000	9.527040
2484.000000	9.545495
2483.000000	9.550416
2482.000000	9.574612
2481.000000	9.587223
2480.000000	9.625362
2479.000000	9.668525
2478.000000	9.667705
2477.000000	9.754544
2476.000000	9.808164
2475.000000	9.787147
2474.000000	9.770537
2473.000000	9.832155
2472.000000	9.895003
2471.000000	9.941754
2470.000000	9.994555
2469.000000	9.980509
2468.000000	10.028285
2467.000000	10.063657
2466.000000	10.145574
2465.000000	10.178895
2464.000000	10.246869
2463.000000	10.259787
2462.000000	10.303770
2461.000000	10.370719
2460.000000	10.442794
2459.000000	10.464837
2458.000000	10.547267
2457.000000	10.573411
2456.000000	10.664249
2455.000000	10.726994
2454.000000	10.779794
2453.000000	10.853305
2452.000000	10.941476
2451.000000	11.010988
2450.000000	11.092086
2449.000000	11.182513
2448.000000	11.238594
2447.000000	11.322255
2446.000000	11.448463
2445.000000	11.503211
2444.000000	11.580105
2443.000000	11.677401
2442.000000	11.764753
2441.000000	11.850361
2440.000000	11.932586
2439.000000	12.040648
2438.000000	12.118567
2437.000000	12.205508
2436.000000	12.282402
2435.000000	12.364627
2434.000000	12.442546
2433.000000	12.537792
2432.000000	12.625861
2431.000000	12.709726
2430.000000	12.785390
2429.000000	12.879610
2428.000000	12.951378
2427.000000	13.029092
2426.000000	13.116136
2425.000000	13.187698
2424.000000	13.239063
2423.000000	13.341076
2422.000000	13.402591
2421.000000	13.467182
2420.000000	13.547049
2419.000000	13.627838
2418.000000	13.703502
2417.000000	13.769221
2416.000000	13.831966
2415.000000	13.871233
2414.000000	13.909680
2413.000000	13.997954
2412.000000	14.068389
2411.000000	14.111142
2410.000000	14.161071
2409.000000	14.205055
2408.000000	14.255805
2407.000000	14.304299
2406.000000	14.338235
2405.000000	14.376169
2404.000000	14.405901
2403.000000	14.452550
2402.000000	14.500634
2401.000000	14.528624
2400.000000	14.554563
2399.000000	14.592907
2398.000000	14.633815
2397.000000	14.655857
2396.000000	14.685077
2395.000000	14.717988
2394.000000	14.733571
2393.000000	14.754076
2392.000000	14.783501
2391.000000	14.790268
2390.000000	14.805647
2389.000000	14.824614
2388.000000	14.838044
2387.000000	14.849425
2386.000000	14.859165
2385.000000	14.866854
2384.000000	14.873416
2383.000000	14.889205
2382.000000	14.898227
2381.000000	14.901918
2380.000000	14.884488
2379.000000	14.871468
2378.000000	14.878849
2377.000000	14.884488
2376.000000	14.874646
2375.000000	14.857832
2374.000000	14.845119
2373.000000	14.851988
2372.000000	14.856704
2371.000000	14.832406
2370.000000	14.827279
2369.000000	14.822358
2368.000000	14.823999
2367.000000	14.816822
2366.000000	14.823281
2365.000000	14.845221
2364.000000	14.840608
2363.000000	14.827382
2362.000000	14.821538
2361.000000	14.813233
2360.000000	14.814156
2359.000000	14.795497
2358.000000	14.786782
2357.000000	14.783091
2356.000000	14.771198
2355.000000	14.771916
2354.000000	14.761971
2353.000000	14.747310
2352.000000	14.730496
2351.000000	14.718193
2350.000000	14.708043
2349.000000	14.693279
2348.000000	14.688050
2347.000000	14.666930
2346.000000	14.638941
2345.000000	14.628893
2344.000000	14.625920
2343.000000	14.614027
2342.000000	14.595368
2341.000000	14.588191
2340.000000	14.595265
2339.000000	14.596290
2338.000000	14.578861
2337.000000	14.558151
2336.000000	14.547591
2335.000000	14.556408
2334.000000	14.562765
2333.000000	14.566558
2332.000000	14.553127
2331.000000	14.555075
2330.000000	14.555075
2329.000000	14.571172
2328.000000	14.578759
2327.000000	14.589524
2326.000000	14.597931
2325.000000	14.596803
2324.000000	14.592907
2323.000000	14.603570
2322.000000	14.610439
2321.000000	14.616180
2320.000000	14.607773
2319.000000	14.587678
2318.000000	14.585525
2317.000000	14.554563
2316.000000	14.535596
2315.000000	14.524625
2314.000000	14.492843
2313.000000	14.454703
2312.000000	14.408464
2311.000000	14.380783
2310.000000	14.327470
2309.000000	14.294662
2308.000000	14.256522
2307.000000	14.207823
2306.000000	14.167838
2305.000000	14.118113
2304.000000	14.080487
2303.000000	14.057008
2302.000000	14.025021
2301.000000	13.984626
2300.000000	13.962890
2299.000000	13.923931
2298.000000	13.896249
2297.000000	13.852163
2296.000000	13.833709
2295.000000	13.813409
2294.000000	13.796902
2293.000000	13.772911
2292.000000	13.754149
2291.000000	13.751586
2290.000000	13.726365
2289.000000	13.700836
2288.000000	13.690174
2287.000000	13.677666
2286.000000	13.670694
2285.000000	13.659621
2284.000000	13.646088
2283.000000	13.633477
2282.000000	13.632555
2281.000000	13.607539
2280.000000	13.589699
2279.000000	13.552483
2278.000000	13.551457
2277.000000	13.528492
2276.000000	13.508397
2275.000000	13.500810
2274.000000	13.470565
2273.000000	13.437347
2272.000000	13.405564
2271.000000	13.373679
2270.000000	13.342409
2269.000000	13.323442
2268.000000	13.286430
2267.000000	13.267155
2266.000000	13.269308
2265.000000	13.259978
2264.000000	13.243574
2263.000000	13.251059
2262.000000	13.260184
2261.000000	13.285712
2260.000000	13.290941
2259.000000	13.306627
2258.000000	13.375422
2257.000000	13.408435
2256.000000	13.447702
2255.000000	13.504398
2254.000000	13.560377
2253.000000	13.614203
2252.000000	13.678998
2251.000000	13.737540
2250.000000	13.795877
2249.000000	13.891738
2248.000000	13.927314
2247.000000	13.989034
2246.000000	14.059264
2245.000000	14.115243
2244.000000	14.142309
2243.000000	14.213769
2242.000000	14.254779
2241.000000	14.280821
2240.000000	14.316704
2239.000000	14.347359
2238.000000	14.334544
2237.000000	14.370120
2236.000000	14.362943
2235.000000	14.350128
2234.000000	14.355254
2233.000000	14.317115
2232.000000	14.282564
2231.000000	14.247500
2230.000000	14.204952
2229.000000	14.142514
2228.000000	14.066236
2227.000000	13.984011
2226.000000	13.919932
2225.000000	13.791674
2224.000000	13.700016
2223.000000	13.598311
2222.000000	13.490352
2221.000000	13.387930
2220.000000	13.252802
2219.000000	13.142177
2218.000000	13.023761
2217.000000	12.943381
2216.000000	12.816455
2215.000000	12.720902
2214.000000	12.655696
2213.000000	12.571728
2212.000000	12.506214
2211.000000	12.468382
2210.000000	12.447775
2209.000000	12.450748
2208.000000	12.502933
2207.000000	12.517697
2206.000000	12.599409
2205.000000	12.687581
2204.000000	12.839933
2203.000000	12.938460
2202.000000	13.112855
2201.000000	13.251264
2200.000000	13.413766
2199.000000	13.602412
2198.000000	13.811666
2197.000000	13.996211
2196.000000	14.170196
2195.000000	14.348590
2194.000000	14.541132
2193.000000	14.703224
2192.000000	14.840403
2191.000000	15.004648
2190.000000	15.142852
2189.000000	15.257475
2188.000000	15.364818
2187.000000	15.460064
2186.000000	15.563409
2185.000000	15.630358
2184.000000	15.707252
2183.000000	15.749185
2182.000000	15.819312
2181.000000	15.843918
2180.000000	15.871702
2179.000000	15.944803
2178.000000	15.968281
2177.000000	15.990836
2176.000000	16.019236
2175.000000	16.060041
2174.000000	16.084749
2173.000000	16.117352
2172.000000	16.147700
2171.000000	16.185532
2170.000000	16.197630
2169.000000	16.247252
2168.000000	16.284673
2167.000000	16.330605
2166.000000	16.358696
2165.000000	16.404320
2164.000000	16.462452
2163.000000	16.518225
2162.000000	16.545907
2161.000000	16.605679
2160.000000	16.679190
2159.000000	16.738142
2158.000000	16.814318
2157.000000	16.890904
2156.000000	16.952624
2155.000000	17.040283
2154.000000	17.120048
2153.000000	17.201658
2152.000000	17.300594
2151.000000	17.400966
2150.000000	17.502261
2149.000000	17.587665
2148.000000	17.675734
2147.000000	17.790562
2146.000000	17.892574
2145.000000	17.984949
2144.000000	18.073223
2143.000000	18.167239
2142.000000	18.257768
2141.000000	18.338251
2140.000000	18.424884
2139.000000	18.529562
2138.000000	18.606866
2137.000000	18.694730
2136.000000	18.779109
2135.000000	18.860308
2134.000000	18.932384
2133.000000	19.003023
2132.000000	19.073868
2131.000000	19.139074
2130.000000	19.203460
2129.000000	19.247135
2128.000000	19.307010
2127.000000	19.359606
2126.000000	19.417430
2125.000000	19.464591
2124.000000	19.495349
2123.000000	19.545996
2122.000000	19.586186
2121.000000	19.617456
2120.000000	19.653750
2119.000000	19.682457
2118.000000	19.697118
2117.000000	19.729208
2116.000000	19.757300
2115.000000	19.773089
2114.000000	19.787443
2113.000000	19.793697
2112.000000	19.813484
2111.000000	19.830708
2110.000000	19.840448
2109.000000	19.845267
2108.000000	19.855417
2107.000000	19.875512
2106.000000	19.861363
2105.000000	19.849573
2104.000000	19.860235
2103.000000	19.866489
2102.000000	19.869258
2101.000000	19.877152
2100.000000	19.878177
2099.000000	19.878177
2098.000000	19.888635
2097.000000	19.898477
2096.000000	19.889763
2095.000000	19.885252
2094.000000	19.900220
2093.000000	19.926159
2092.000000	19.941743
2091.000000	19.946254
2090.000000	19.949227
2089.000000	19.965529
2088.000000	19.971065
2087.000000	19.974756
2086.000000	19.973423
2085.000000	19.965734
2084.000000	19.960300
2083.000000	19.949842
2082.000000	19.915189
2081.000000	19.886379
2080.000000	19.878485
2079.000000	19.854494
2078.000000	19.793184
2077.000000	19.742127
2076.000000	19.688916
2075.000000	19.630887
2074.000000	19.577164
2073.000000	19.507652
2072.000000	19.430143
2071.000000	19.368730
2070.000000	19.270716
2069.000000	19.184903
2068.000000	19.099909
2067.000000	19.018607
2066.000000	18.934229
2065.000000	18.845647
2064.000000	18.750504
2063.000000	18.667664
2062.000000	18.584721
2061.000000	18.513364
2060.000000	18.419451
2059.000000	18.352912
2058.000000	18.308929
2057.000000	18.270174
2056.000000	18.219014
2055.000000	18.199944
2054.000000	18.197791
2053.000000	18.198714
2052.000000	18.218399
2051.000000	18.244338
2050.000000	18.293960
2049.000000	18.357423
2048.000000	18.443441
2047.000000	18.528230
2046.000000	18.600407
2045.000000	18.706008
2044.000000	18.810994
2043.000000	18.882864
2042.000000	18.993694
2041.000000	19.089042
2040.000000	19.201102
2039.000000	19.285993
2038.000000	19.381033
2037.000000	19.482841
2036.000000	19.566911
2035.000000	19.626581
2034.000000	19.696708
2033.000000	19.775652
2032.000000	19.839833
2031.000000	19.891301
2030.000000	19.944819
2029.000000	19.996696
2028.000000	20.052675
2027.000000	20.080869
2026.000000	20.123212
2025.000000	20.153047
2024.000000	20.171092
2023.000000	20.189546
2022.000000	20.227378
2021.000000	20.237938
2020.000000	20.251471
2019.000000	20.251266
2018.000000	20.248088
2017.000000	20.255675
2016.000000	20.237425
2015.000000	20.229428
2014.000000	20.215792
2013.000000	20.196415
2012.000000	20.175090
2011.000000	20.140642
2010.000000	20.094505
2009.000000	20.052675
2008.000000	20.004591
2007.000000	19.965221
2006.000000	19.909037
2005.000000	19.856545
2004.000000	19.792159
2003.000000	19.720494
2002.000000	19.640627
2001.000000	19.583213
2000.000000	19.494016
1999.000000	19.430450
1998.000000	19.346892
1997.000000	19.255030
1996.000000	19.175676
1995.000000	19.081660
1994.000000	18.978315
1993.000000	18.890553
1992.000000	18.789566
1991.000000	18.714005
1990.000000	18.608507
1989.000000	18.504956
1988.000000	18.409916
1987.000000	18.315798
1986.000000	18.214913
1985.000000	18.115874
1984.000000	17.985975
1983.000000	17.898008
1982.000000	17.783693
1981.000000	17.697571
1980.000000	17.596584
1979.000000	17.498673
1978.000000	17.375130
1977.000000	17.288496
1976.000000	17.197762
1975.000000	17.109078
1974.000000	16.995685
1973.000000	16.904027
1972.000000	16.815651
1971.000000	16.718457
1970.000000	16.626389
1969.000000	16.573281
1968.000000	16.463375
1967.000000	16.373460
1966.000000	16.311227
1965.000000	16.217314
1964.000000	16.127297
1963.000000	16.069268
1962.000000	15.965718
1961.000000	15.872112
1960.000000	15.814186
1959.000000	15.726527
1958.000000	15.630256
1957.000000	15.555002
1956.000000	15.506508
1955.000000	15.412595
1954.000000	15.309352
1953.000000	15.260858
1952.000000	15.183964
1951.000000	15.109018
1950.000000	15.048016
1949.000000	14.984245
1948.000000	14.931547
1947.000000	14.864291
1946.000000	14.805544
1945.000000	14.758280
1944.000000	14.716347
1943.000000	14.677080
1942.000000	14.662932
1941.000000	14.638326
1940.000000	14.613617
1939.000000	14.594650
1938.000000	14.566763
1937.000000	14.578964
1936.000000	14.555280
1935.000000	14.570454
1934.000000	14.593625
1933.000000	14.605518
1932.000000	14.653602
1931.000000	14.672877
1930.000000	14.727933
1929.000000	14.800418
1928.000000	14.883771
1927.000000	14.944055
1926.000000	15.013567
1925.000000	15.119783
1924.000000	15.220361
1923.000000	15.313351
1922.000000	15.451965
1921.000000	15.601241
1920.000000	15.731756
1919.000000	15.885338
1918.000000	16.054402
1917.000000	16.234436
1916.000000	16.410369
1915.000000	16.592556
1914.000000	16.827544
1913.000000	17.091956
1912.000000	17.348679
1911.000000	17.586229
1910.000000	17.850846
1909.000000	18.112798
1908.000000	18.384079
1907.000000	18.710007
1906.000000	19.086069
1905.000000	19.497912
1904.000000	19.909960
1903.000000	20.300478
1902.000000	20.731699
1901.000000	21.153487
1900.000000	21.633817
1899.000000	22.137625
1898.000000	22.658247
1897.000000	23.209422
1896.000000	23.710872
1895.000000	24.187819
1894.000000	24.710594
1893.000000	25.266383
1892.000000	25.870153
1891.000000	26.473206
1890.000000	27.056573
1889.000000	27.592984
1888.000000	28.172661
1887.000000	28.702203
1886.000000	29.226824
1885.000000	29.746114
1884.000000	30.295956
1883.000000	30.796381
1882.000000	31.267278
1881.000000	31.706496
1880.000000	32.121312
1879.000000	32.535513
1878.000000	32.922341
1877.000000	33.315524
1876.000000	33.694764
1875.000000	34.031252
1874.000000	34.362305
1873.000000	34.686490
1872.000000	34.980839
1871.000000	35.250480
1870.000000	35.460041
1869.000000	35.661708
1868.000000	35.865118
1867.000000	36.007833
1866.000000	36.131786
1865.000000	36.272040
1864.000000	36.417318
1863.000000	36.545372
1862.000000	36.687574
1861.000000	36.822087
1860.000000	36.948398
1859.000000	37.050308
1858.000000	37.126689
1857.000000	37.199482
1856.000000	37.267763
1855.000000	37.327946
1854.000000	37.366393
1853.000000	37.385052
1852.000000	37.408735
1851.000000	37.460613
1850.000000	37.546222
1849.000000	37.625986
1848.000000	37.627011
1847.000000	37.583131
1846.000000	37.506134
1845.000000	37.472506
1844.000000	37.505724
1843.000000	37.531355
1842.000000	37.576364
1841.000000	37.569802
1840.000000	37.508185
1839.000000	37.461126
1838.000000	37.435084
1837.000000	37.393664
1836.000000	37.329176
1835.000000	37.252487
1834.000000	37.177849
1833.000000	37.152320
1832.000000	37.137044
1831.000000	37.113463
1830.000000	37.097264
1829.000000	37.056459
1828.000000	36.989613
1827.000000	36.957523
1826.000000	36.934454
1825.000000	36.885550
1824.000000	36.854895
1823.000000	36.882269
1822.000000	36.933634
1821.000000	36.945835
1820.000000	36.912822
1819.000000	36.851717
1818.000000	36.817473
1817.000000	36.826906
1816.000000	36.822292
1815.000000	36.803530
1814.000000	36.785588
1813.000000	36.778616
1812.000000	36.755036
1811.000000	36.717409
1810.000000	36.681935
1809.000000	36.658970
1808.000000	36.643078
1807.000000	36.621855
1806.000000	36.586587
1805.000000	36.547115
1804.000000	36.522304
1803.000000	36.527532
1802.000000	36.527943
1801.000000	36.491751
1800.000000	36.442744
1799.000000	36.416908
1798.000000	36.398453
1797.000000	36.382664
1796.000000	36.367798
1795.000000	36.356521
1794.000000	36.339399
1793.000000	36.319099
1792.000000	36.301055
1791.000000	36.283113
1790.000000	36.275013
1789.000000	36.279627
1788.000000	36.287726
1787.000000	36.309769
1786.000000	36.308231
1785.000000	36.313460
1784.000000	36.307103
1783.000000	36.313973
1782.000000	36.313665
1781.000000	36.315306
1780.000000	36.314485
1779.000000	36.294083
1778.000000	36.266093
1777.000000	36.262710
1776.000000	36.234823
1775.000000	36.210935
1774.000000	36.189097
1773.000000	36.151675
1772.000000	36.129940
1771.000000	36.100721
1770.000000	36.080215
1769.000000	36.045357
1768.000000	36.029055
1767.000000	36.000759
1766.000000	35.981279
1765.000000	35.948573
1764.000000	35.929914
1763.000000	35.918738
1762.000000	35.916175
1761.000000	35.899669
1760.000000	35.894132
1759.000000	35.892902
1758.000000	35.908178
1757.000000	35.916175
1756.000000	35.913920
1755.000000	35.915253
1754.000000	35.928991
1753.000000	35.913715
1752.000000	35.907768
1751.000000	35.897106
1750.000000	35.873217
1749.000000	35.852917
1748.000000	35.805243
1747.000000	35.772128
1746.000000	35.727427
1745.000000	35.686622
1744.000000	35.596605
1743.000000	35.530886
1742.000000	35.478393
1741.000000	35.405806
1740.000000	35.359157
1739.000000	35.276009
1738.000000	35.212956
1737.000000	35.132064
1736.000000	35.075265
1735.000000	35.042354
1734.000000	34.993245
1733.000000	34.939829
1732.000000	34.887234
1731.000000	34.845096
1730.000000	34.805521
1729.000000	34.750158
1728.000000	34.715812
1727.000000	34.674289
1726.000000	34.646607
1725.000000	34.607955
1724.000000	34.619131
1723.000000	34.633177
1722.000000	34.701458
1721.000000	34.780198
1720.000000	34.914095
1719.000000	35.076905
1718.000000	35.247302
1717.000000	35.435845
1716.000000	35.634642
1715.000000	35.821135
1714.000000	35.997170
1713.000000	36.170438
1712.000000	36.337656
1711.000000	36.440796
1710.000000	36.567620
1709.000000	36.660712
1708.000000	36.759239
1707.000000	36.835210
1706.000000	36.901031
1705.000000	36.947168
1704.000000	36.980693
1703.000000	37.011656
1702.000000	37.005607
1701.000000	37.037595
1700.000000	37.027547
1699.000000	37.026419
1698.000000	37.021191
1697.000000	36.995149
1696.000000	36.976285
1695.000000	36.945937
1694.000000	36.906670
1693.000000	36.830391
1692.000000	36.760572
1691.000000	36.692598
1690.000000	36.635799
1689.000000	36.595199
1688.000000	36.590790
1687.000000	36.660302
1686.000000	36.735351
1685.000000	36.857151
1684.000000	37.006837
1683.000000	37.200507
1682.000000	37.396022
1681.000000	37.609069
1680.000000	37.809301
1679.000000	38.009430
1678.000000	38.215813
1677.000000	38.396360
1676.000000	38.545739
1675.000000	38.711932
1674.000000	38.868180
1673.000000	39.056621
1672.000000	39.219021
1671.000000	39.378242
1670.000000	39.557456
1669.000000	39.717600
1668.000000	39.871593
1667.000000	40.020664
1666.000000	40.150769
1665.000000	40.313373
1664.000000	40.447989
1663.000000	40.591216
1662.000000	40.704917
1661.000000	40.817387
1660.000000	40.939289
1659.000000	41.006751
1658.000000	41.105482
1657.000000	41.177557
1656.000000	41.247377
1655.000000	41.304688
1654.000000	41.344468
1653.000000	41.390297
1652.000000	41.420747
1651.000000	41.436536
1650.000000	41.440944
1649.000000	41.442790
1648.000000	41.456528
1647.000000	41.452632
1646.000000	41.442277
1645.000000	41.441764
1644.000000	41.429974
1643.000000	41.416851
1642.000000	41.405471
1641.000000	41.395936
1640.000000	41.385581
1639.000000	41.373585
1638.000000	41.361180
1637.000000	41.318324
1636.000000	41.294641
1635.000000	41.272906
1634.000000	41.240713
1633.000000	41.210981
1632.000000	41.169765
1631.000000	41.126500
1630.000000	41.085797
1629.000000	41.033817
1628.000000	40.997933
1627.000000	40.949849
1626.000000	40.900124
1625.000000	40.839840
1624.000000	40.803546
1623.000000	40.744491
