PE UV       SUBTECH     SPECTRUM    ASCII       PEDS        4.00        
   -1
CICIMAUCR0014-3.Sample.ASC
24/04/04
11:17:51.00
24/04/04
11:17:51.00
Vinicio Soto Monge
C. cupreomarginata
250,000000
1
Lambda 1050
1050L1511233
PerkinElmer UV WinLab 6.3.2.0749 / 2.02.05 Lambda 900 UV/VIS/NIR, Aug  7 2015 09:38:08

0
0
3350/servo 860,8/2
0
0
UV/VIS
1
1
1
DoubleDePol,CommonBeamDepol,RBeamAtt,SBeamAtt,60mm sphere, WB InGaAs Detector
0
0
0
0
Program
Program
3350/servo 860,8/2
3350/0,2 860,8/0,2
3350/0,2 860,8/0,2
0
15.00
 
 
 
0
 
860,8
319,2
860,8
Front
100
on
S:100 R:100
0
0
0
0
 
0
 
 
 
0
 
 
0
0
0
0
0
 
 
 
 
0
0


0
0
#HDR
-1
-1
#GR
nm
%R
1.0
0.0
2500,000000
-1,000000
2251
8
67,923300
5,031600
#DATA
2500.000000	11.672790
2499.000000	11.591488
2498.000000	11.561365
2497.000000	11.588566
2496.000000	11.615969
2495.000000	11.563279
2494.000000	11.611738
2493.000000	11.671078
2492.000000	11.592193
2491.000000	11.677122
2490.000000	11.585342
2489.000000	11.587055
2488.000000	11.588868
2487.000000	11.704626
2486.000000	11.672488
2485.000000	11.707447
2484.000000	11.742708
2483.000000	11.733137
2482.000000	11.760440
2481.000000	11.739283
2480.000000	11.800839
2479.000000	11.836302
2478.000000	11.890100
2477.000000	11.884660
2476.000000	11.934127
2475.000000	11.941884
2474.000000	12.013918
2473.000000	12.044242
2472.000000	12.104590
2471.000000	12.141866
2470.000000	12.198989
2469.000000	12.246138
2468.000000	12.236568
2467.000000	12.305377
2466.000000	12.387486
2465.000000	12.463146
2464.000000	12.510396
2463.000000	12.570744
2462.000000	12.636531
2461.000000	12.718136
2460.000000	12.803871
2459.000000	12.903912
2458.000000	12.944211
2457.000000	13.055838
2456.000000	13.164644
2455.000000	13.278085
2454.000000	13.360798
2453.000000	13.473331
2452.000000	13.580022
2451.000000	13.700918
2450.000000	13.815366
2449.000000	13.943415
2448.000000	14.062295
2447.000000	14.178557
2446.000000	14.285147
2445.000000	14.411382
2444.000000	14.530162
2443.000000	14.649043
2442.000000	14.772558
2441.000000	14.884790
2440.000000	15.009917
2439.000000	15.142801
2438.000000	15.261682
2437.000000	15.390134
2436.000000	15.506597
2435.000000	15.602911
2434.000000	15.713430
2433.000000	15.827777
2432.000000	15.930840
2431.000000	16.038236
2430.000000	16.148957
2429.000000	16.252826
2428.000000	16.341886
2427.000000	16.450894
2426.000000	16.534110
2425.000000	16.617931
2424.000000	16.722809
2423.000000	16.811768
2422.000000	16.904857
2421.000000	16.996940
2420.000000	17.079451
2419.000000	17.164179
2418.000000	17.251828
2417.000000	17.325172
2416.000000	17.396097
2415.000000	17.447075
2414.000000	17.526363
2413.000000	17.586810
2412.000000	17.650381
2411.000000	17.707706
2410.000000	17.755158
2409.000000	17.827192
2408.000000	17.880285
2407.000000	17.909602
2406.000000	17.960177
2405.000000	18.018106
2404.000000	18.068076
2403.000000	18.109181
2402.000000	18.139203
2401.000000	18.176480
2400.000000	18.225745
2399.000000	18.268763
2398.000000	18.295360
2397.000000	18.318734
2396.000000	18.343316
2395.000000	18.378779
2394.000000	18.416962
2393.000000	18.442753
2392.000000	18.457865
2391.000000	18.477006
2390.000000	18.479324
2389.000000	18.493428
2388.000000	18.501085
2387.000000	18.495947
2386.000000	18.516701
2385.000000	18.511663
2384.000000	18.495040
2383.000000	18.492018
2382.000000	18.480835
2381.000000	18.466529
2380.000000	18.455346
2379.000000	18.442249
2378.000000	18.408902
2377.000000	18.381398
2376.000000	18.361349
2375.000000	18.351476
2374.000000	18.307954
2373.000000	18.267655
2372.000000	18.236323
2371.000000	18.204386
2370.000000	18.177487
2369.000000	18.145147
2368.000000	18.104748
2367.000000	18.066464
2366.000000	18.017099
2365.000000	17.980830
2364.000000	17.958565
2363.000000	17.919274
2362.000000	17.860337
2361.000000	17.814800
2360.000000	17.773292
2359.000000	17.731583
2358.000000	17.679699
2357.000000	17.634464
2356.000000	17.613911
2355.000000	17.580161
2354.000000	17.551751
2353.000000	17.507019
2352.000000	17.489993
2351.000000	17.489590
2350.000000	17.475586
2349.000000	17.448586
2348.000000	17.437101
2347.000000	17.450903
2346.000000	17.458862
2345.000000	17.457956
2344.000000	17.455538
2343.000000	17.458862
2342.000000	17.449896
2341.000000	17.446672
2340.000000	17.439318
2339.000000	17.439721
2338.000000	17.424407
2337.000000	17.402646
2336.000000	17.396097
2335.000000	17.377862
2334.000000	17.337261
2333.000000	17.306534
2332.000000	17.290414
2331.000000	17.270164
2330.000000	17.225131
2329.000000	17.198634
2328.000000	17.166798
2327.000000	17.126198
2326.000000	17.073809
2325.000000	17.027164
2324.000000	16.976186
2323.000000	16.916443
2322.000000	16.857607
2321.000000	16.787387
2320.000000	16.727947
2319.000000	16.639491
2318.000000	16.555066
2317.000000	16.457845
2316.000000	16.360826
2315.000000	16.264815
2314.000000	16.148453
2313.000000	16.042165
2312.000000	15.941217
2311.000000	15.843493
2310.000000	15.750706
2309.000000	15.681997
2308.000000	15.612683
2307.000000	15.554452
2306.000000	15.501056
2305.000000	15.460556
2304.000000	15.447560
2303.000000	15.437787
2302.000000	15.425798
2301.000000	15.437586
2300.000000	15.454410
2299.000000	15.452295
2298.000000	15.472847
2297.000000	15.494004
2296.000000	15.504280
2295.000000	15.505489
2294.000000	15.527250
2293.000000	15.539440
2292.000000	15.509116
2291.000000	15.512944
2290.000000	15.518284
2289.000000	15.475668
2288.000000	15.460254
2287.000000	15.414515
2286.000000	15.412903
2285.000000	15.369985
2284.000000	15.317597
2283.000000	15.252817
2282.000000	15.200932
2281.000000	15.147839
2280.000000	15.085275
2279.000000	15.041148
2278.000000	14.963573
2277.000000	14.890834
2276.000000	14.840461
2275.000000	14.789081
2274.000000	14.732763
2273.000000	14.682793
2272.000000	14.650353
2271.000000	14.604412
2270.000000	14.586882
2269.000000	14.565826
2268.000000	14.565524
2267.000000	14.581039
2266.000000	14.613882
2265.000000	14.648942
2264.000000	14.724603
2263.000000	14.772357
2262.000000	14.870484
2261.000000	14.976368
2260.000000	15.079230
2259.000000	15.189145
2258.000000	15.312559
2257.000000	15.445041
2256.000000	15.575911
2255.000000	15.719172
2254.000000	15.848128
2253.000000	15.976781
2252.000000	16.116919
2251.000000	16.235397
2250.000000	16.371002
2249.000000	16.465502
2248.000000	16.585894
2247.000000	16.695809
2246.000000	16.786883
2245.000000	16.869395
2244.000000	16.960873
2243.000000	17.021320
2242.000000	17.101918
2241.000000	17.162366
2240.000000	17.200145
2239.000000	17.227851
2238.000000	17.280239
2237.000000	17.265530
2236.000000	17.295049
2235.000000	17.286687
2234.000000	17.291321
2233.000000	17.253037
2232.000000	17.217071
2231.000000	17.175664
2230.000000	17.095671
2229.000000	17.050638
2228.000000	16.963593
2227.000000	16.867078
2226.000000	16.763006
2225.000000	16.662260
2224.000000	16.553957
2223.000000	16.417647
2222.000000	16.290405
2221.000000	16.153289
2220.000000	16.011639
2219.000000	15.876941
2218.000000	15.753325
2217.000000	15.614295
2216.000000	15.483224
2215.000000	15.397388
2214.000000	15.298455
2213.000000	15.203552
2212.000000	15.178667
2211.000000	15.142096
2210.000000	15.133734
2209.000000	15.149350
2208.000000	15.194686
2207.000000	15.264906
2206.000000	15.357996
2205.000000	15.493399
2204.000000	15.671217
2203.000000	15.824452
2202.000000	16.014359
2201.000000	16.227438
2200.000000	16.446763
2199.000000	16.685835
2198.000000	16.922387
2197.000000	17.162466
2196.000000	17.409194
2195.000000	17.630232
2194.000000	17.825076
2193.000000	18.048229
2192.000000	18.238741
2191.000000	18.426532
2190.000000	18.594880
2189.000000	18.751641
2188.000000	18.891578
2187.000000	19.030407
2186.000000	19.159262
2185.000000	19.250739
2184.000000	19.330329
2183.000000	19.409113
2182.000000	19.492330
2181.000000	19.549352
2180.000000	19.602647
2179.000000	19.658763
2178.000000	19.715281
2177.000000	19.761020
2176.000000	19.806155
2175.000000	19.847058
2174.000000	19.882218
2173.000000	19.943069
2172.000000	20.001502
2171.000000	20.053084
2170.000000	20.089051
2169.000000	20.170152
2168.000000	20.229290
2167.000000	20.280570
2166.000000	20.330540
2165.000000	20.414261
2164.000000	20.475212
2163.000000	20.537776
2162.000000	20.616560
2161.000000	20.701791
2160.000000	20.777149
2159.000000	20.872959
2158.000000	20.965646
2157.000000	21.065788
2156.000000	21.160893
2155.000000	21.279975
2154.000000	21.393013
2153.000000	21.503028
2152.000000	21.617778
2151.000000	21.745222
2150.000000	21.865715
2149.000000	21.991648
2148.000000	22.099447
2147.000000	22.222660
2146.000000	22.336302
2145.000000	22.459314
2144.000000	22.570336
2143.000000	22.687303
2142.000000	22.805881
2141.000000	22.939371
2140.000000	23.047371
2139.000000	23.133207
2138.000000	23.240804
2137.000000	23.339636
2136.000000	23.437159
2135.000000	23.539316
2134.000000	23.620014
2133.000000	23.710283
2132.000000	23.791484
2131.000000	23.865432
2130.000000	23.933638
2129.000000	23.997007
2128.000000	24.059470
2127.000000	24.116291
2126.000000	24.167067
2125.000000	24.218448
2124.000000	24.262676
2123.000000	24.296526
2122.000000	24.330277
2121.000000	24.367049
2120.000000	24.396971
2119.000000	24.419135
2118.000000	24.451676
2117.000000	24.465881
2116.000000	24.472934
2115.000000	24.485124
2114.000000	24.494393
2113.000000	24.505978
2112.000000	24.504971
2111.000000	24.500740
2110.000000	24.516557
2109.000000	24.514643
2108.000000	24.499833
2107.000000	24.501747
2106.000000	24.500337
2105.000000	24.495803
2104.000000	24.485930
2103.000000	24.473135
2102.000000	24.477266
2101.000000	24.474445
2100.000000	24.460642
2099.000000	24.454598
2098.000000	24.447948
2097.000000	24.441702
2096.000000	24.440392
2095.000000	24.450669
2094.000000	24.453590
2093.000000	24.448150
2092.000000	24.451978
2091.000000	24.471422
2090.000000	24.475150
2089.000000	24.475351
2088.000000	24.474445
2087.000000	24.476762
2086.000000	24.476359
2085.000000	24.468299
2084.000000	24.442105
2083.000000	24.400497
2082.000000	24.373799
2081.000000	24.333198
2080.000000	24.287560
2079.000000	24.241620
2078.000000	24.187418
2077.000000	24.120623
2076.000000	24.044761
2075.000000	23.986328
2074.000000	23.920641
2073.000000	23.830675
2072.000000	23.746048
2071.000000	23.654771
2070.000000	23.569439
2069.000000	23.487734
2068.000000	23.381849
2067.000000	23.279390
2066.000000	23.201110
2065.000000	23.114669
2064.000000	23.012512
2063.000000	22.919423
2062.000000	22.837717
2061.000000	22.775859
2060.000000	22.717628
2059.000000	22.663627
2058.000000	22.629877
2057.000000	22.612750
2056.000000	22.606202
2055.000000	22.606101
2054.000000	22.634008
2053.000000	22.683474
2052.000000	22.740195
2051.000000	22.830967
2050.000000	22.935945
2049.000000	23.056740
2048.000000	23.197685
2047.000000	23.348301
2046.000000	23.519066
2045.000000	23.695271
2044.000000	23.864425
2043.000000	24.035392
2042.000000	24.243836
2041.000000	24.414299
2040.000000	24.591613
2039.000000	24.765904
2038.000000	24.930323
2037.000000	25.094942
2036.000000	25.257749
2035.000000	25.423980
2034.000000	25.552130
2033.000000	25.684007
2032.000000	25.818806
2031.000000	25.962672
2030.000000	26.068657
2029.000000	26.179680
2028.000000	26.275691
2027.000000	26.362333
2026.000000	26.479703
2025.000000	26.577326
2024.000000	26.659636
2023.000000	26.725323
2022.000000	26.806021
2021.000000	26.887625
2020.000000	26.958652
2019.000000	27.014062
2018.000000	27.067962
2017.000000	27.114003
2016.000000	27.175156
2015.000000	27.217772
2014.000000	27.247391
2013.000000	27.283861
2012.000000	27.292525
2011.000000	27.327686
2010.000000	27.355794
2009.000000	27.345518
2008.000000	27.344813
2007.000000	27.365164
2006.000000	27.334537
2005.000000	27.331615
2004.000000	27.310861
2003.000000	27.293835
2002.000000	27.263208
2001.000000	27.203566
2000.000000	27.162764
1999.000000	27.127603
1998.000000	27.084182
1997.000000	27.017085
1996.000000	26.962279
1995.000000	26.919663
1994.000000	26.857401
1993.000000	26.765319
1992.000000	26.686838
1991.000000	26.622763
1990.000000	26.557479
1989.000000	26.478695
1988.000000	26.375632
1987.000000	26.291307
1986.000000	26.219575
1985.000000	26.124471
1984.000000	26.013247
1983.000000	25.937888
1982.000000	25.852959
1981.000000	25.748082
1980.000000	25.666376
1979.000000	25.570365
1978.000000	25.465387
1977.000000	25.396779
1976.000000	25.300264
1975.000000	25.220573
1974.000000	25.164558
1973.000000	25.048800
1972.000000	24.979688
1971.000000	24.890830
1970.000000	24.822625
1969.000000	24.740516
1968.000000	24.645009
1967.000000	24.575393
1966.000000	24.499027
1965.000000	24.451273
1964.000000	24.341359
1963.000000	24.280306
1962.000000	24.186914
1961.000000	24.098257
1960.000000	24.029951
1959.000000	23.936761
1958.000000	23.843067
1957.000000	23.786246
1956.000000	23.688018
1955.000000	23.607924
1954.000000	23.521685
1953.000000	23.433230
1952.000000	23.324827
1951.000000	23.270524
1950.000000	23.204334
1949.000000	23.165949
1948.000000	23.106509
1947.000000	23.031856
1946.000000	22.951863
1945.000000	22.909650
1944.000000	22.849908
1943.000000	22.821195
1942.000000	22.827945
1941.000000	22.793893
1940.000000	22.753292
1939.000000	22.747952
1938.000000	22.749463
1937.000000	22.739590
1936.000000	22.763165
1935.000000	22.793389
1934.000000	22.839531
1933.000000	22.893934
1932.000000	22.953475
1931.000000	23.022285
1930.000000	23.107113
1929.000000	23.202621
1928.000000	23.307901
1927.000000	23.407036
1926.000000	23.522290
1925.000000	23.689730
1924.000000	23.818484
1923.000000	23.984918
1922.000000	24.152358
1921.000000	24.365236
1920.000000	24.531568
1919.000000	24.730643
1918.000000	24.955408
1917.000000	25.186319
1916.000000	25.421764
1915.000000	25.692772
1914.000000	25.975064
1913.000000	26.245266
1912.000000	26.522419
1911.000000	26.814080
1910.000000	27.123070
1909.000000	27.418559
1908.000000	27.735508
1907.000000	28.136680
1906.000000	28.526972
1905.000000	28.923510
1904.000000	29.322366
1903.000000	29.715881
1902.000000	30.111714
1901.000000	30.513995
1900.000000	30.980754
1899.000000	31.392202
1898.000000	31.820979
1897.000000	32.297006
1896.000000	32.726187
1895.000000	33.157079
1894.000000	33.584043
1893.000000	34.045865
1892.000000	34.548993
1891.000000	35.032274
1890.000000	35.468002
1889.000000	35.877436
1888.000000	36.348325
1887.000000	36.761789
1886.000000	37.189054
1885.000000	37.632037
1884.000000	38.058597
1883.000000	38.461785
1882.000000	38.839786
1881.000000	39.211036
1880.000000	39.543097
1879.000000	39.895004
1878.000000	40.228072
1877.000000	40.506435
1876.000000	40.782782
1875.000000	41.062858
1874.000000	41.322481
1873.000000	41.541504
1872.000000	41.745818
1871.000000	41.911042
1870.000000	41.996173
1869.000000	42.096718
1868.000000	42.202401
1867.000000	42.263151
1866.000000	42.318662
1865.000000	42.398655
1864.000000	42.495473
1863.000000	42.582417
1862.000000	42.681249
1861.000000	42.753988
1860.000000	42.811817
1859.000000	42.856649
1858.000000	42.881029
1857.000000	42.908332
1856.000000	42.937044
1855.000000	42.967772
1854.000000	42.951350
1853.000000	42.907123
1852.000000	42.915888
1851.000000	42.970996
1850.000000	43.017339
1849.000000	43.044239
1848.000000	43.007970
1847.000000	42.910750
1846.000000	42.835794
1845.000000	42.800734
1844.000000	42.801641
1843.000000	42.848690
1842.000000	42.866119
1841.000000	42.824309
1840.000000	42.770108
1839.000000	42.728600
1838.000000	42.690417
1837.000000	42.620297
1836.000000	42.544335
1835.000000	42.460413
1834.000000	42.386465
1833.000000	42.349491
1832.000000	42.336495
1831.000000	42.300327
1830.000000	42.238468
1829.000000	42.193636
1828.000000	42.125834
1827.000000	42.051080
1826.000000	42.006852
1825.000000	41.971591
1824.000000	41.977233
1823.000000	42.023475
1822.000000	42.058334
1821.000000	42.048561
1820.000000	41.996979
1819.000000	41.952046
1818.000000	41.938546
1817.000000	41.932803
1816.000000	41.931292
1815.000000	41.915072
1814.000000	41.905602
1813.000000	41.901371
1812.000000	41.890087
1811.000000	41.841124
1810.000000	41.791859
1809.000000	41.774430
1808.000000	41.752568
1807.000000	41.720833
1806.000000	41.678721
1805.000000	41.633989
1804.000000	41.608501
1803.000000	41.606284
1802.000000	41.591273
1801.000000	41.530422
1800.000000	41.471082
1799.000000	41.440858
1798.000000	41.424437
1797.000000	41.391090
1796.000000	41.367515
1795.000000	41.329533
1794.000000	41.295582
1793.000000	41.277448
1792.000000	41.242388
1791.000000	41.195440
1790.000000	41.165820
1789.000000	41.152119
1788.000000	41.143354
1787.000000	41.110914
1786.000000	41.083108
1785.000000	41.056511
1784.000000	41.016010
1783.000000	40.991126
1782.000000	40.941962
1781.000000	40.895014
1780.000000	40.854413
1779.000000	40.798398
1778.000000	40.732510
1777.000000	40.651711
1776.000000	40.573431
1775.000000	40.491826
1774.000000	40.400852
1773.000000	40.314110
1772.000000	40.228374
1771.000000	40.138408
1770.000000	40.046426
1769.000000	39.965728
1768.000000	39.891478
1767.000000	39.812191
1766.000000	39.745093
1765.000000	39.673765
1764.000000	39.639310
1763.000000	39.614828
1762.000000	39.579970
1761.000000	39.563448
1760.000000	39.545414
1759.000000	39.551157
1758.000000	39.547328
1757.000000	39.540679
1756.000000	39.522746
1755.000000	39.497660
1754.000000	39.486477
1753.000000	39.445977
1752.000000	39.407694
1751.000000	39.358025
1750.000000	39.285891
1749.000000	39.219398
1748.000000	39.139607
1747.000000	39.036745
1746.000000	38.937308
1745.000000	38.835151
1744.000000	38.700453
1743.000000	38.558501
1742.000000	38.430755
1741.000000	38.272784
1740.000000	38.125795
1739.000000	38.007015
1738.000000	37.889545
1737.000000	37.774492
1736.000000	37.703063
1735.000000	37.646343
1734.000000	37.619141
1733.000000	37.597380
1732.000000	37.593048
1731.000000	37.594156
1730.000000	37.609167
1729.000000	37.619846
1728.000000	37.613096
1727.000000	37.628208
1726.000000	37.641809
1725.000000	37.640701
1724.000000	37.659037
1723.000000	37.694197
1722.000000	37.740339
1721.000000	37.829097
1720.000000	37.930246
1719.000000	38.060008
1718.000000	38.218583
1717.000000	38.350964
1716.000000	38.516087
1715.000000	38.682823
1714.000000	38.795860
1713.000000	38.932069
1712.000000	39.004909
1711.000000	39.079764
1710.000000	39.153913
1709.000000	39.196428
1708.000000	39.235216
1707.000000	39.263122
1706.000000	39.276219
1705.000000	39.244081
1704.000000	39.230279
1703.000000	39.164391
1702.000000	39.103036
1701.000000	39.029390
1700.000000	38.964711
1699.000000	38.894189
1698.000000	38.822659
1697.000000	38.783368
1696.000000	38.745991
1695.000000	38.743270
1694.000000	38.723222
1693.000000	38.711535
1692.000000	38.734002
1691.000000	38.757778
1690.000000	38.763420
1689.000000	38.820341
1688.000000	38.855301
1687.000000	38.944360
1686.000000	39.062032
1685.000000	39.221313
1684.000000	39.425727
1683.000000	39.681724
1682.000000	39.967139
1681.000000	40.306151
1680.000000	40.636700
1679.000000	40.970977
1678.000000	41.278153
1677.000000	41.583717
1676.000000	41.865606
1675.000000	42.126740
1674.000000	42.344151
1673.000000	42.591685
1672.000000	42.806981
1671.000000	43.012504
1670.000000	43.226691
1669.000000	43.429292
1668.000000	43.614665
1667.000000	43.755408
1666.000000	43.893431
1665.000000	44.022789
1664.000000	44.144088
1663.000000	44.273144
1662.000000	44.399883
1661.000000	44.511108
1660.000000	44.612257
1659.000000	44.703433
1658.000000	44.770832
1657.000000	44.821104
1656.000000	44.868858
1655.000000	44.898075
1654.000000	44.940388
1653.000000	44.955198
1652.000000	44.959933
1651.000000	44.971821
1650.000000	44.973534
1649.000000	44.975247
1648.000000	44.953284
1647.000000	44.928702
1646.000000	44.904623
1645.000000	44.899183
1644.000000	44.875608
1643.000000	44.838735
1642.000000	44.819291
1641.000000	44.808209
1640.000000	44.787959
1639.000000	44.761261
1638.000000	44.739298
1637.000000	44.706556
1636.000000	44.677944
1635.000000	44.663235
1634.000000	44.621929
1633.000000	44.575283
1632.000000	44.527731
1631.000000	44.478768
1630.000000	44.432223
1629.000000	44.386283
1628.000000	44.338428
1627.000000	44.281506
1626.000000	44.232241
1625.000000	44.185696
