PE UV       SUBTECH     SPECTRUM    ASCII       PEDS        4.00        
   -1
CICIMAUCR0013-2.Sample.ASC
24/04/04
13:54:25.00
24/04/04
13:54:25.00
Vinicio Soto Monge
C. resplendens
250,000000
1
Lambda 1050
1050L1511233
PerkinElmer UV WinLab 6.3.2.0749 / 2.02.05 Lambda 900 UV/VIS/NIR, Aug  7 2015 09:38:08

0
0
3350/servo 860,8/2
0
0
UV/VIS
1
1
1
DoubleDePol,CommonBeamDepol,RBeamAtt,SBeamAtt,60mm sphere, WB InGaAs Detector
0
0
0
0
Program
Program
3350/servo 860,8/2
3350/0,2 860,8/0,2
3350/0,2 860,8/0,2
0
15.00
 
 
 
0
 
860,8
319,2
860,8
Front
100
on
S:100 R:100
0
0
0
0
 
0
 
 
 
0
 
 
0
0
0
0
0
 
 
 
 
0
0


0
0
#HDR
-1
-1
#GR
nm
%R
1.0
0.0
2500,000000
-1,000000
2251
8
70,639000
5,101100
#DATA
2500.000000	6.663371
2499.000000	6.551632
2498.000000	6.642451
2497.000000	6.592566
2496.000000	6.530109
2495.000000	6.438084
2494.000000	6.507882
2493.000000	6.483946
2492.000000	6.435268
2491.000000	6.468759
2490.000000	6.403888
2489.000000	6.470670
2488.000000	6.459506
2487.000000	6.455986
2486.000000	6.468055
2485.000000	6.406805
2484.000000	6.477911
2483.000000	6.471273
2482.000000	6.466546
2481.000000	6.513213
2480.000000	6.452667
2479.000000	6.457293
2478.000000	6.435569
2477.000000	6.464233
2476.000000	6.466144
2475.000000	6.485153
2474.000000	6.488572
2473.000000	6.486058
2472.000000	6.511101
2471.000000	6.505469
2470.000000	6.490181
2469.000000	6.504262
2468.000000	6.541575
2467.000000	6.527595
2466.000000	6.539463
2465.000000	6.566216
2464.000000	6.591862
2463.000000	6.633299
2462.000000	6.667092
2461.000000	6.694448
2460.000000	6.728242
2459.000000	6.760828
2458.000000	6.799649
2457.000000	6.849635
2456.000000	6.910382
2455.000000	6.964190
2454.000000	6.998988
2453.000000	7.044649
2452.000000	7.094333
2451.000000	7.149649
2450.000000	7.221359
2449.000000	7.290051
2448.000000	7.363773
2447.000000	7.407120
2446.000000	7.469577
2445.000000	7.516847
2444.000000	7.596402
2443.000000	7.664290
2442.000000	7.719002
2441.000000	7.776229
2440.000000	7.828528
2439.000000	7.896014
2438.000000	7.954950
2437.000000	8.000008
2436.000000	8.072824
2435.000000	8.137795
2434.000000	8.159418
2433.000000	8.208398
2432.000000	8.265122
2431.000000	8.314404
2430.000000	8.359864
2429.000000	8.384102
2428.000000	8.414275
2427.000000	8.465769
2426.000000	8.502076
2425.000000	8.528628
2424.000000	8.557795
2423.000000	8.597119
2422.000000	8.628901
2421.000000	8.658470
2420.000000	8.688340
2419.000000	8.762464
2418.000000	8.801789
2417.000000	8.819791
2416.000000	8.855697
2415.000000	8.875812
2414.000000	8.910208
2413.000000	8.926903
2412.000000	8.947722
2411.000000	8.991674
2410.000000	9.016113
2409.000000	9.029288
2408.000000	9.062679
2407.000000	9.092550
2406.000000	9.114877
2405.000000	9.144346
2404.000000	9.191113
2403.000000	9.207104
2402.000000	9.228124
2401.000000	9.247234
2400.000000	9.282435
2399.000000	9.322966
2398.000000	9.329504
2397.000000	9.349518
2396.000000	9.386932
2395.000000	9.428067
2394.000000	9.441443
2393.000000	9.453613
2392.000000	9.479259
2391.000000	9.492334
2390.000000	9.511845
2389.000000	9.543627
2388.000000	9.551673
2387.000000	9.559116
2386.000000	9.575208
2385.000000	9.576515
2384.000000	9.568167
2383.000000	9.586271
2382.000000	9.580236
2381.000000	9.567564
2380.000000	9.560624
2379.000000	9.564044
2378.000000	9.552478
2377.000000	9.524920
2376.000000	9.506716
2375.000000	9.487104
2374.000000	9.471817
2373.000000	9.453613
2372.000000	9.438828
2371.000000	9.411472
2370.000000	9.376371
2369.000000	9.331917
2368.000000	9.294805
2367.000000	9.263024
2366.000000	9.201271
2365.000000	9.139116
2364.000000	9.092952
2363.000000	9.042765
2362.000000	8.989964
2361.000000	8.928714
2360.000000	8.881243
2359.000000	8.831358
2358.000000	8.759547
2357.000000	8.723642
2356.000000	8.698700
2355.000000	8.669231
2354.000000	8.634634
2353.000000	8.607579
2352.000000	8.603355
2351.000000	8.606875
2350.000000	8.619547
2349.000000	8.641473
2348.000000	8.662694
2347.000000	8.696085
2346.000000	8.746473
2345.000000	8.776846
2344.000000	8.818786
2343.000000	8.853283
2342.000000	8.867967
2341.000000	8.906889
2340.000000	8.932133
2339.000000	8.919360
2338.000000	8.927909
2337.000000	8.936357
2336.000000	8.927004
2335.000000	8.913929
2334.000000	8.881041
2333.000000	8.857507
2332.000000	8.824518
2331.000000	8.793541
2330.000000	8.736214
2329.000000	8.665409
2328.000000	8.597119
2327.000000	8.549849
2326.000000	8.497852
2325.000000	8.424231
2324.000000	8.343671
2323.000000	8.255467
2322.000000	8.174002
2321.000000	8.078556
2320.000000	7.989246
2319.000000	7.882134
2318.000000	7.786387
2317.000000	7.694764
2316.000000	7.591876
2315.000000	7.478629
2314.000000	7.389922
2313.000000	7.301316
2312.000000	7.212810
2311.000000	7.135669
2310.000000	7.063557
2309.000000	7.014779
2308.000000	6.980684
2307.000000	6.952422
2306.000000	6.942566
2305.000000	6.941963
2304.000000	6.954233
2303.000000	6.985109
2302.000000	7.017796
2301.000000	7.062049
2300.000000	7.129836
2299.000000	7.174491
2298.000000	7.227796
2297.000000	7.279491
2296.000000	7.336014
2295.000000	7.374132
2294.000000	7.422005
2293.000000	7.447451
2292.000000	7.454591
2291.000000	7.454089
2290.000000	7.464448
2289.000000	7.445439
2288.000000	7.432063
2287.000000	7.406517
2286.000000	7.359850
2285.000000	7.320727
2284.000000	7.274261
2283.000000	7.208888
2282.000000	7.136072
2281.000000	7.098054
2280.000000	7.038213
2279.000000	6.964089
2278.000000	6.917121
2277.000000	6.871460
2276.000000	6.816546
2275.000000	6.784664
2274.000000	6.719894
2273.000000	6.683788
2272.000000	6.647078
2271.000000	6.643256
2270.000000	6.651905
2269.000000	6.660857
2268.000000	6.639535
2267.000000	6.668802
2266.000000	6.704506
2265.000000	6.778428
2264.000000	6.840684
2263.000000	6.901934
2262.000000	7.007336
2261.000000	7.107911
2260.000000	7.203557
2259.000000	7.315798
2258.000000	7.437796
2257.000000	7.589160
2256.000000	7.705626
2255.000000	7.846531
2254.000000	7.966315
2253.000000	8.111143
2252.000000	8.218757
2251.000000	8.320338
2250.000000	8.437809
2249.000000	8.566746
2248.000000	8.644691
2247.000000	8.737521
2246.000000	8.818786
2245.000000	8.885366
2244.000000	8.980007
2243.000000	9.021041
2242.000000	9.083498
2241.000000	9.128958
2240.000000	9.176530
2239.000000	9.244619
2238.000000	9.298326
2237.000000	9.329604
2236.000000	9.354949
2235.000000	9.381300
2234.000000	9.415193
2233.000000	9.428469
2232.000000	9.438024
2231.000000	9.442348
2230.000000	9.426961
2229.000000	9.424044
2228.000000	9.390452
2227.000000	9.375869
2226.000000	9.348009
2225.000000	9.332722
2224.000000	9.251055
2223.000000	9.213038
2222.000000	9.153800
2221.000000	9.090639
2220.000000	9.046990
2219.000000	8.959892
2218.000000	8.912924
2217.000000	8.868872
2216.000000	8.828843
2215.000000	8.777952
2214.000000	8.747679
2213.000000	8.711573
2212.000000	8.683513
2211.000000	8.676372
2210.000000	8.697996
2209.000000	8.704432
2208.000000	8.745970
2207.000000	8.793240
2206.000000	8.841616
2205.000000	8.923987
2204.000000	9.020740
2203.000000	9.132780
2202.000000	9.257995
2201.000000	9.384216
2200.000000	9.516170
2199.000000	9.643900
2198.000000	9.790437
2197.000000	9.933454
2196.000000	10.100308
2195.000000	10.232262
2194.000000	10.367836
2193.000000	10.476054
2192.000000	10.617563
2191.000000	10.713008
2190.000000	10.820120
2189.000000	10.917074
2188.000000	10.985264
2187.000000	11.065925
2186.000000	11.123152
2185.000000	11.200393
2184.000000	11.251284
2183.000000	11.293827
2182.000000	11.327720
2181.000000	11.384143
2180.000000	11.407476
2179.000000	11.442275
2178.000000	11.480896
2177.000000	11.510364
2176.000000	11.531485
2175.000000	11.575838
2174.000000	11.607720
2173.000000	11.643927
2172.000000	11.669372
2171.000000	11.672088
2170.000000	11.721370
2169.000000	11.764214
2168.000000	11.780206
2167.000000	11.814099
2166.000000	11.854229
2165.000000	11.883999
2164.000000	11.899688
2163.000000	11.944042
2162.000000	11.975220
2161.000000	12.026513
2160.000000	12.065536
2159.000000	12.108682
2158.000000	12.169228
2157.000000	12.196283
2156.000000	12.227662
2155.000000	12.286498
2154.000000	12.324113
2153.000000	12.376010
2152.000000	12.422274
2151.000000	12.472360
2150.000000	12.503538
2149.000000	12.563984
2148.000000	12.608840
2147.000000	12.650176
2146.000000	12.698854
2145.000000	12.746124
2144.000000	12.793998
2143.000000	12.834228
2142.000000	12.863294
2141.000000	12.903121
2140.000000	12.935708
2139.000000	12.963265
2138.000000	13.010233
2137.000000	13.041914
2136.000000	13.052475
2135.000000	13.073897
2134.000000	13.120564
2133.000000	13.133638
2132.000000	13.146009
2131.000000	13.174673
2130.000000	13.198811
2129.000000	13.200621
2128.000000	13.217317
2127.000000	13.227173
2126.000000	13.225564
2125.000000	13.241052
2124.000000	13.248495
2123.000000	13.245779
2122.000000	13.220736
2121.000000	13.201225
2120.000000	13.194687
2119.000000	13.192475
2118.000000	13.181613
2117.000000	13.163710
2116.000000	13.140276
2115.000000	13.122776
2114.000000	13.108294
2113.000000	13.092403
2112.000000	13.092503
2111.000000	13.071182
2110.000000	13.047949
2109.000000	13.031555
2108.000000	13.013753
2107.000000	12.997863
2106.000000	12.973624
2105.000000	12.956024
2104.000000	12.951598
2103.000000	12.933998
2102.000000	12.908251
2101.000000	12.884917
2100.000000	12.868825
2099.000000	12.847101
2098.000000	12.826484
2097.000000	12.818940
2096.000000	12.807777
2095.000000	12.790076
2094.000000	12.777202
2093.000000	12.767144
2092.000000	12.749242
2091.000000	12.741096
2090.000000	12.735262
2089.000000	12.716254
2088.000000	12.712935
2087.000000	12.708007
2086.000000	12.689400
2085.000000	12.685176
2084.000000	12.661943
2083.000000	12.649874
2082.000000	12.640622
2081.000000	12.616785
2080.000000	12.611857
2079.000000	12.595665
2078.000000	12.574041
2077.000000	12.557949
2076.000000	12.558854
2075.000000	12.532806
2074.000000	12.518323
2073.000000	12.512288
2072.000000	12.487648
2071.000000	12.464113
2070.000000	12.452547
2069.000000	12.430320
2068.000000	12.413424
2067.000000	12.394314
2066.000000	12.378625
2065.000000	12.365248
2064.000000	12.360018
2063.000000	12.350363
2062.000000	12.357906
2061.000000	12.343625
2060.000000	12.323812
2059.000000	12.320191
2058.000000	12.351268
2057.000000	12.373194
2056.000000	12.397231
2055.000000	12.418452
2054.000000	12.462504
2053.000000	12.514501
2052.000000	12.564487
2051.000000	12.632777
2050.000000	12.698854
2049.000000	12.763826
2048.000000	12.853639
2047.000000	12.946670
2046.000000	13.036685
2045.000000	13.124084
2044.000000	13.244874
2043.000000	13.364558
2042.000000	13.484443
2041.000000	13.601109
2040.000000	13.700879
2039.000000	13.813121
2038.000000	13.946885
2037.000000	14.036396
2036.000000	14.128824
2035.000000	14.230304
2034.000000	14.315994
2033.000000	14.422100
2032.000000	14.520663
2031.000000	14.587746
2030.000000	14.679672
2029.000000	14.758120
2028.000000	14.844011
2027.000000	14.913508
2026.000000	14.986324
2025.000000	15.059743
2024.000000	15.130950
2023.000000	15.179528
2022.000000	15.244499
2021.000000	15.328277
2020.000000	15.398981
2019.000000	15.443234
2018.000000	15.487085
2017.000000	15.542200
2016.000000	15.614613
2015.000000	15.659872
2014.000000	15.698593
2013.000000	15.750389
2012.000000	15.788205
2011.000000	15.809024
2010.000000	15.841007
2009.000000	15.878823
2008.000000	15.889283
2007.000000	15.900849
2006.000000	15.920360
2005.000000	15.948421
2004.000000	15.952846
2003.000000	15.955763
2002.000000	15.934038
2001.000000	15.956869
2000.000000	15.959283
1999.000000	15.936754
1998.000000	15.922171
1997.000000	15.891696
1996.000000	15.891898
1995.000000	15.871783
1994.000000	15.850662
1993.000000	15.821998
1992.000000	15.790016
1991.000000	15.761251
1990.000000	15.731984
1989.000000	15.696079
1988.000000	15.656352
1987.000000	15.592990
1986.000000	15.542904
1985.000000	15.507803
1984.000000	15.456711
1983.000000	15.434484
1982.000000	15.371826
1981.000000	15.324053
1980.000000	15.279096
1979.000000	15.242789
1978.000000	15.173191
1977.000000	15.104097
1976.000000	15.077143
1975.000000	15.017602
1974.000000	14.971740
1973.000000	14.926683
1972.000000	14.885548
1971.000000	14.832243
1970.000000	14.792114
1969.000000	14.761942
1968.000000	14.680275
1967.000000	14.653925
1966.000000	14.635017
1965.000000	14.581008
1964.000000	14.558278
1963.000000	14.503264
1962.000000	14.454183
1961.000000	14.415965
1960.000000	14.373824
1959.000000	14.330074
1958.000000	14.285721
1957.000000	14.264399
1956.000000	14.203551
1955.000000	14.163120
1954.000000	14.115247
1953.000000	14.060434
1952.000000	14.037201
1951.000000	14.008135
1950.000000	13.971928
1949.000000	13.936928
1948.000000	13.895190
1947.000000	13.883523
1946.000000	13.854256
1945.000000	13.832632
1944.000000	13.850333
1943.000000	13.823882
1942.000000	13.828207
1941.000000	13.815937
1940.000000	13.843394
1939.000000	13.854256
1938.000000	13.868135
1937.000000	13.886138
1936.000000	13.935419
1935.000000	13.937934
1934.000000	13.993149
1933.000000	14.052388
1932.000000	14.094227
1931.000000	14.165434
1930.000000	14.219140
1929.000000	14.303422
1928.000000	14.390520
1927.000000	14.494212
1926.000000	14.578494
1925.000000	14.683996
1924.000000	14.776626
1923.000000	14.879715
1922.000000	15.006640
1921.000000	15.167861
1920.000000	15.298910
1919.000000	15.417990
1918.000000	15.575993
1917.000000	15.710461
1916.000000	15.852875
1915.000000	16.021840
1914.000000	16.195231
1913.000000	16.367515
1912.000000	16.569972
1911.000000	16.731796
1910.000000	16.911724
1909.000000	17.058865
1908.000000	17.232055
1907.000000	17.444669
1906.000000	17.672773
1905.000000	17.882772
1904.000000	18.080904
1903.000000	18.274108
1902.000000	18.489439
1901.000000	18.678418
1900.000000	18.898978
1899.000000	19.109079
1898.000000	19.326521
1897.000000	19.545170
1896.000000	19.733949
1895.000000	19.897383
1894.000000	20.094308
1893.000000	20.290529
1892.000000	20.498718
1891.000000	20.711937
1890.000000	20.911577
1889.000000	21.087181
1888.000000	21.309953
1887.000000	21.540269
1886.000000	21.768574
1885.000000	22.053904
1884.000000	22.377453
1883.000000	22.709550
1882.000000	23.073932
1881.000000	23.428659
1880.000000	23.783084
1879.000000	24.112264
1878.000000	24.466086
1877.000000	24.782494
1876.000000	25.070137
1875.000000	25.347924
1874.000000	25.591214
1873.000000	25.815496
1872.000000	26.011817
1871.000000	26.188527
1870.000000	26.317866
1869.000000	26.424173
1868.000000	26.514892
1867.000000	26.563369
1866.000000	26.578757
1865.000000	26.606917
1864.000000	26.627535
1863.000000	26.639001
1862.000000	26.647851
1861.000000	26.668771
1860.000000	26.654389
1859.000000	26.622406
1858.000000	26.590423
1857.000000	26.547981
1856.000000	26.486127
1855.000000	26.430510
1854.000000	26.364633
1853.000000	26.276429
1852.000000	26.189130
1851.000000	26.123958
1850.000000	26.063010
1849.000000	26.011616
1848.000000	25.944131
1847.000000	25.846171
1846.000000	25.745093
1845.000000	25.647838
1844.000000	25.574418
1843.000000	25.539921
1842.000000	25.530970
1841.000000	25.514174
1840.000000	25.454533
1839.000000	25.394993
1838.000000	25.350539
1837.000000	25.288887
1836.000000	25.220898
1835.000000	25.136416
1834.000000	25.037350
1833.000000	24.944419
1832.000000	24.870798
1831.000000	24.795870
1830.000000	24.705956
1829.000000	24.628112
1828.000000	24.539706
1827.000000	24.449089
1826.000000	24.394778
1825.000000	24.326086
1824.000000	24.265138
1823.000000	24.244419
1822.000000	24.233155
1821.000000	24.230440
1820.000000	24.212236
1819.000000	24.163759
1818.000000	24.133888
1817.000000	24.144649
1816.000000	24.147968
1815.000000	24.135497
1814.000000	24.124635
1813.000000	24.127652
1812.000000	24.124736
1811.000000	24.104420
1810.000000	24.059764
1809.000000	24.019434
1808.000000	23.988155
1807.000000	23.961704
1806.000000	23.924894
1805.000000	23.879233
1804.000000	23.837997
1803.000000	23.805713
1802.000000	23.778960
1801.000000	23.731288
1800.000000	23.675670
1799.000000	23.621862
1798.000000	23.582135
1797.000000	23.548342
1796.000000	23.513745
1795.000000	23.480656
1794.000000	23.439822
1793.000000	23.393256
1792.000000	23.342667
1791.000000	23.298012
1790.000000	23.240785
1789.000000	23.179837
1788.000000	23.130656
1787.000000	23.077553
1786.000000	22.995886
1785.000000	22.919148
1784.000000	22.841001
1783.000000	22.765872
1782.000000	22.683199
1781.000000	22.618530
1780.000000	22.538271
1779.000000	22.459421
1778.000000	22.384795
1777.000000	22.301720
1776.000000	22.201346
1775.000000	22.075528
1774.000000	21.949709
1773.000000	21.805384
1772.000000	21.686505
1771.000000	21.549220
1770.000000	21.431146
1769.000000	21.304020
1768.000000	21.195701
1767.000000	21.084767
1766.000000	20.991132
1765.000000	20.925356
1764.000000	20.881003
1763.000000	20.861793
1762.000000	20.875370
1761.000000	20.907353
1760.000000	20.954020
1759.000000	21.015672
1758.000000	21.069882
1757.000000	21.126706
1756.000000	21.161807
1755.000000	21.165729
1754.000000	21.162209
1753.000000	21.155471
1752.000000	21.150643
1751.000000	21.102770
1750.000000	21.056807
1749.000000	20.997468
1748.000000	20.894781
1747.000000	20.787770
1746.000000	20.676836
1745.000000	20.534724
1744.000000	20.371994
1743.000000	20.181204
1742.000000	20.002584
1741.000000	19.792282
1740.000000	19.538935
1739.000000	19.336378
1738.000000	19.133418
1737.000000	18.969984
1736.000000	18.853318
1735.000000	18.740573
1734.000000	18.720056
1733.000000	18.710803
1732.000000	18.734438
1731.000000	18.806450
1730.000000	18.885300
1729.000000	19.003878
1728.000000	19.095904
1727.000000	19.194970
1726.000000	19.265472
1725.000000	19.316464
1724.000000	19.386564
1723.000000	19.410099
1722.000000	19.407484
1721.000000	19.408188
1720.000000	19.403159
1719.000000	19.400846
1718.000000	19.439265
1717.000000	19.428906
1716.000000	19.460185
1715.000000	19.515803
1714.000000	19.547785
1713.000000	19.601392
1712.000000	19.644035
1711.000000	19.638705
1710.000000	19.653288
1709.000000	19.650170
1708.000000	19.665055
1707.000000	19.602900
1706.000000	19.586808
1705.000000	19.537527
1704.000000	19.479193
1703.000000	19.420357
1702.000000	19.308820
1701.000000	19.199093
1700.000000	19.071263
1699.000000	18.927139
1698.000000	18.788548
1697.000000	18.683346
1696.000000	18.621694
1695.000000	18.616967
1694.000000	18.636579
1693.000000	18.750631
1692.000000	18.902297
1691.000000	19.066133
1690.000000	19.182197
1689.000000	19.295544
1688.000000	19.359912
1687.000000	19.377211
1686.000000	19.364337
1685.000000	19.389682
1684.000000	19.456966
1683.000000	19.640012
1682.000000	19.911765
1681.000000	20.307224
1680.000000	20.808891
1679.000000	21.333186
1678.000000	21.866533
1677.000000	22.331691
1676.000000	22.775326
1675.000000	23.150167
1674.000000	23.484679
1673.000000	23.802595
1672.000000	24.023960
1671.000000	24.279017
1670.000000	24.453011
1669.000000	24.622178
1668.000000	24.768514
1667.000000	24.864563
1666.000000	24.976804
1665.000000	25.082910
1664.000000	25.162666
1663.000000	25.244232
1662.000000	25.320367
1661.000000	25.367134
1660.000000	25.407967
1659.000000	25.435424
1658.000000	25.468010
1657.000000	25.506732
1656.000000	25.521415
1655.000000	25.523628
1654.000000	25.517594
1653.000000	25.504016
1652.000000	25.503413
1651.000000	25.480984
1650.000000	25.468211
1649.000000	25.448298
1648.000000	25.416214
1647.000000	25.371559
1646.000000	25.320970
1645.000000	25.289792
1644.000000	25.237896
1643.000000	25.184993
1642.000000	25.126459
1641.000000	25.086832
1640.000000	25.031014
1639.000000	24.975597
1638.000000	24.916962
1637.000000	24.850281
1636.000000	24.784103
1635.000000	24.714807
1634.000000	24.647321
1633.000000	24.576517
1632.000000	24.510741
1631.000000	24.419822
1630.000000	24.355756
1629.000000	24.282235
1628.000000	24.204089
1627.000000	24.125138
1626.000000	24.042968
1625.000000	23.964017
1624.000000	23.882049
1623.000000	23.804908
1622.000000	23.723644
1621.000000	23.650727
1620.000000	23.582035
1619.000000	23.504492
1618.000000	23.415483
1617.000000	23.331906
1616.000000	23.269650
1615.000000	23.195024
1614.000000	23.118989
1613.000000	23.054722
1612.000000	22.976676
1611.000000	22.902251
