PE UV       SUBTECH     SPECTRUM    ASCII       PEDS        4.00        
   -1
CICIMAUCR0098-1.ASC
24/04/03
14:55:53.00
24/04/03
14:55:53.00
Vinicio Soto Monge
C. cupreomarginata
250,000000
1
Lambda 1050
1050L1511233
PerkinElmer UV WinLab 6.3.2.0749 / 2.02.05 Lambda 900 UV/VIS/NIR, Aug  7 2015 09:38:08

0
0
3350/servo 860,8/2
0
0
UV/VIS
1
1
1
DoubleDePol,CommonBeamDepol,RBeamAtt,SBeamAtt,60mm sphere, WB InGaAs Detector
0
0
0
0
Program
Program
3350/servo 860,8/2
3350/0,2 860,8/0,2
3350/0,2 860,8/0,2
0
15.00
 
 
 
0
 
860,8
319,2
860,8
Front
100
on
S:100 R:100
0
0
0
0
 
0
 
 
 
0
 
 
0
0
0
0
0
 
 
 
 
0
0


0
0
#HDR
-1
-1
#GR
nm
%R
1.0
0.0
2500,000000
-1,000000
2251
8
55,162100
5,208800
#DATA
2500.000000	5.626012
2499.000000	5.778392
2498.000000	5.862842
2497.000000	5.869966
2496.000000	5.806886
2495.000000	5.996330
2494.000000	5.745253
2493.000000	5.778083
2492.000000	5.821133
2491.000000	5.748866
2490.000000	5.780870
2489.000000	5.960403
2488.000000	5.780251
2487.000000	5.762081
2486.000000	5.784690
2485.000000	5.902796
2484.000000	5.913945
2483.000000	5.831044
2482.000000	5.922927
2481.000000	5.781593
2480.000000	5.790781
2479.000000	5.902486
2478.000000	5.882457
2477.000000	5.899698
2476.000000	5.902899
2475.000000	5.927160
2474.000000	5.977644
2473.000000	5.928089
2472.000000	5.995194
2471.000000	5.983838
2470.000000	5.958854
2469.000000	5.980741
2468.000000	5.997259
2467.000000	5.998911
2466.000000	6.003867
2465.000000	6.054970
2464.000000	6.051357
2463.000000	6.102563
2462.000000	6.106486
2461.000000	6.143033
2460.000000	6.136735
2459.000000	6.146336
2458.000000	6.213958
2457.000000	6.220978
2456.000000	6.239252
2455.000000	6.257318
2454.000000	6.323908
2453.000000	6.336503
2452.000000	6.375527
2451.000000	6.404641
2450.000000	6.448724
2449.000000	6.459151
2448.000000	6.516139
2447.000000	6.536270
2446.000000	6.577359
2445.000000	6.586651
2444.000000	6.621855
2443.000000	6.657163
2442.000000	6.692471
2441.000000	6.709918
2440.000000	6.748530
2439.000000	6.788793
2438.000000	6.802937
2437.000000	6.837522
2436.000000	6.858479
2435.000000	6.901117
2434.000000	6.929198
2433.000000	6.945200
2432.000000	6.980508
2431.000000	6.969668
2430.000000	6.989180
2429.000000	7.021184
2428.000000	7.032747
2427.000000	7.049472
2426.000000	7.069293
2425.000000	7.084263
2424.000000	7.108834
2423.000000	7.120707
2422.000000	7.138360
2421.000000	7.157460
2420.000000	7.171707
2419.000000	7.188535
2418.000000	7.196071
2417.000000	7.202059
2416.000000	7.205259
2415.000000	7.233031
2414.000000	7.246865
2413.000000	7.267616
2412.000000	7.277836
2411.000000	7.275668
2410.000000	7.294045
2409.000000	7.300239
2408.000000	7.306434
2407.000000	7.317274
2406.000000	7.340090
2405.000000	7.342877
2404.000000	7.355575
2403.000000	7.361976
2402.000000	7.370752
2401.000000	7.391296
2400.000000	7.402033
2399.000000	7.415660
2398.000000	7.425984
2397.000000	7.440438
2396.000000	7.442193
2395.000000	7.455924
2394.000000	7.458505
2393.000000	7.467383
2392.000000	7.477604
2391.000000	7.475229
2390.000000	7.484005
2389.000000	7.506408
2388.000000	7.512602
2387.000000	7.501349
2386.000000	7.501659
2385.000000	7.506408
2384.000000	7.498045
2383.000000	7.480598
2382.000000	7.465731
2381.000000	7.458092
2380.000000	7.462325
2379.000000	7.448697
2378.000000	7.434553
2377.000000	7.445910
2376.000000	7.429907
2375.000000	7.422681
2374.000000	7.419997
2373.000000	7.396871
2372.000000	7.386237
2371.000000	7.379837
2370.000000	7.361357
2369.000000	7.347110
2368.000000	7.337818
2367.000000	7.306434
2366.000000	7.292703
2365.000000	7.275359
2364.000000	7.228901
2363.000000	7.199788
2362.000000	7.184508
2361.000000	7.154879
2360.000000	7.116783
2359.000000	7.081166
2358.000000	7.057834
2357.000000	7.047510
2356.000000	7.038941
2355.000000	7.012718
2354.000000	6.981644
2353.000000	6.983089
2352.000000	6.976378
2351.000000	6.983502
2350.000000	6.998575
2349.000000	6.996510
2348.000000	6.999710
2347.000000	7.001569
2346.000000	7.018087
2345.000000	7.047097
2344.000000	7.080237
2343.000000	7.099233
2342.000000	7.120707
2341.000000	7.137741
2340.000000	7.148168
2339.000000	7.170571
2338.000000	7.171397
2337.000000	7.177694
2336.000000	7.181618
2335.000000	7.191735
2334.000000	7.183992
2333.000000	7.176765
2332.000000	7.157150
2331.000000	7.139909
2330.000000	7.115648
2329.000000	7.096136
2328.000000	7.071255
2327.000000	7.045342
2326.000000	7.010654
2325.000000	6.959344
2324.000000	6.918977
2323.000000	6.881811
2322.000000	6.812332
2321.000000	6.756789
2320.000000	6.706202
2319.000000	6.646323
2318.000000	6.581179
2317.000000	6.498898
2316.000000	6.433857
2315.000000	6.369436
2314.000000	6.310177
2313.000000	6.236567
2312.000000	6.198059
2311.000000	6.142310
2310.000000	6.103286
2309.000000	6.066842
2308.000000	6.042271
2307.000000	6.026579
2306.000000	6.029573
2305.000000	6.032257
2304.000000	6.038348
2303.000000	6.061371
2302.000000	6.089658
2301.000000	6.121043
2300.000000	6.147266
2299.000000	6.154699
2298.000000	6.184948
2297.000000	6.221288
2296.000000	6.261448
2295.000000	6.270223
2294.000000	6.302021
2293.000000	6.327211
2292.000000	6.337948
2291.000000	6.342904
2290.000000	6.346207
2289.000000	6.346620
2288.000000	6.334025
2287.000000	6.333509
2286.000000	6.301608
2285.000000	6.279618
2284.000000	6.263822
2283.000000	6.255460
2282.000000	6.220565
2281.000000	6.192381
2280.000000	6.180405
2279.000000	6.173385
2278.000000	6.146749
2277.000000	6.127857
2276.000000	6.119288
2275.000000	6.097091
2274.000000	6.070249
2273.000000	6.085219
2272.000000	6.090794
2271.000000	6.066533
2270.000000	6.068288
2269.000000	6.080160
2268.000000	6.106383
2267.000000	6.116604
2266.000000	6.141794
2265.000000	6.186083
2264.000000	6.222011
2263.000000	6.265681
2262.000000	6.308731
2261.000000	6.354466
2260.000000	6.433135
2259.000000	6.482896
2258.000000	6.560635
2257.000000	6.622888
2256.000000	6.694536
2255.000000	6.767835
2254.000000	6.801698
2253.000000	6.852182
2252.000000	6.917222
2251.000000	6.972455
2250.000000	7.035947
2249.000000	7.084573
2248.000000	7.138980
2247.000000	7.191838
2246.000000	7.229520
2245.000000	7.279798
2244.000000	7.276701
2243.000000	7.315209
2242.000000	7.346594
2241.000000	7.397697
2240.000000	7.409260
2239.000000	7.444774
2238.000000	7.463254
2237.000000	7.493399
2236.000000	7.505375
2235.000000	7.504033
2234.000000	7.522823
2233.000000	7.511983
2232.000000	7.517454
2231.000000	7.536760
2230.000000	7.537792
2229.000000	7.512292
2228.000000	7.496393
2227.000000	7.450968
2226.000000	7.441573
2225.000000	7.414422
2224.000000	7.360428
2223.000000	7.352788
2222.000000	7.331830
2221.000000	7.279798
2220.000000	7.219403
2219.000000	7.191838
2218.000000	7.151575
2217.000000	7.114202
2216.000000	7.094690
2215.000000	7.054427
2214.000000	7.035121
2213.000000	7.022010
2212.000000	6.987218
2211.000000	6.988354
2210.000000	7.009312
2209.000000	7.040696
2208.000000	7.087360
2207.000000	7.119674
2206.000000	7.184818
2205.000000	7.246968
2204.000000	7.346490
2203.000000	7.427326
2202.000000	7.544090
2201.000000	7.655588
2200.000000	7.759859
2199.000000	7.864647
2198.000000	8.005568
2197.000000	8.122022
2196.000000	8.237650
2195.000000	8.342334
2194.000000	8.436488
2193.000000	8.554284
2192.000000	8.673938
2191.000000	8.749715
2190.000000	8.825906
2189.000000	8.919440
2188.000000	8.981487
2187.000000	9.058503
2186.000000	9.111775
2185.000000	9.150283
2184.000000	9.205000
2183.000000	9.258271
2182.000000	9.269627
2181.000000	9.324757
2180.000000	9.333945
2179.000000	9.375860
2178.000000	9.400844
2177.000000	9.419221
2176.000000	9.448334
2175.000000	9.482093
2174.000000	9.508316
2173.000000	9.537739
2172.000000	9.548579
2171.000000	9.567885
2170.000000	9.610006
2169.000000	9.634164
2168.000000	9.673705
2167.000000	9.698069
2166.000000	9.722640
2165.000000	9.748863
2164.000000	9.795217
2163.000000	9.824227
2162.000000	9.843946
2161.000000	9.879047
2160.000000	9.911877
2159.000000	9.941920
2158.000000	9.968143
2157.000000	9.983422
2156.000000	10.015013
2155.000000	10.047430
2154.000000	10.094094
2153.000000	10.129918
2152.000000	10.154799
2151.000000	10.189797
2150.000000	10.221904
2149.000000	10.247404
2148.000000	10.277240
2147.000000	10.293346
2146.000000	10.338358
2145.000000	10.371601
2144.000000	10.384196
2143.000000	10.401953
2142.000000	10.414548
2141.000000	10.447688
2140.000000	10.476905
2139.000000	10.495075
2138.000000	10.526872
2137.000000	10.549585
2136.000000	10.567136
2135.000000	10.582105
2134.000000	10.596352
2133.000000	10.612251
2132.000000	10.629802
2131.000000	10.631763
2130.000000	10.630834
2129.000000	10.650449
2128.000000	10.666658
2127.000000	10.656644
2126.000000	10.654682
2125.000000	10.655921
2124.000000	10.652308
2123.000000	10.651792
2122.000000	10.655818
2121.000000	10.656231
2120.000000	10.655405
2119.000000	10.640951
2118.000000	10.628769
2117.000000	10.628872
2116.000000	10.619684
2115.000000	10.620820
2114.000000	10.611838
2113.000000	10.606986
2112.000000	10.593668
2111.000000	10.579008
2110.000000	10.570233
2109.000000	10.555986
2108.000000	10.538951
2107.000000	10.538022
2106.000000	10.544423
2105.000000	10.529350
2104.000000	10.522227
2103.000000	10.533686
2102.000000	10.518303
2101.000000	10.498275
2100.000000	10.484338
2099.000000	10.470607
2098.000000	10.460283
2097.000000	10.449237
2096.000000	10.441700
2095.000000	10.442113
2094.000000	10.443145
2093.000000	10.436022
2092.000000	10.423736
2091.000000	10.419813
2090.000000	10.410832
2089.000000	10.415684
2088.000000	10.421878
2087.000000	10.413722
2086.000000	10.412277
2085.000000	10.415374
2084.000000	10.395965
2083.000000	10.379860
2082.000000	10.369846
2081.000000	10.371085
2080.000000	10.363445
2079.000000	10.359315
2078.000000	10.360244
2077.000000	10.342694
2076.000000	10.320188
2075.000000	10.300985
2074.000000	10.296546
2073.000000	10.271769
2072.000000	10.265471
2071.000000	10.247611
2070.000000	10.234293
2069.000000	10.216845
2068.000000	10.185874
2067.000000	10.171730
2066.000000	10.153457
2065.000000	10.114536
2064.000000	10.109890
2063.000000	10.072724
2062.000000	10.050321
2061.000000	10.033906
2060.000000	10.026266
2059.000000	10.000043
2058.000000	9.985590
2057.000000	9.977950
2056.000000	9.960709
2055.000000	9.943262
2054.000000	9.955444
2053.000000	9.962774
2052.000000	9.954618
2051.000000	9.963084
2050.000000	9.976815
2049.000000	10.012122
2048.000000	10.030602
2047.000000	10.083461
2046.000000	10.140242
2045.000000	10.185770
2044.000000	10.220975
2043.000000	10.289010
2042.000000	10.357664
2041.000000	10.430550
2040.000000	10.500030
2039.000000	10.556708
2038.000000	10.616277
2037.000000	10.683279
2036.000000	10.762980
2035.000000	10.818729
2034.000000	10.863019
2033.000000	10.923930
2032.000000	10.990003
2031.000000	11.033570
2030.000000	11.065161
2029.000000	11.109140
2028.000000	11.146307
2027.000000	11.198442
2026.000000	11.225904
2025.000000	11.258424
2024.000000	11.292906
2023.000000	11.325323
2022.000000	11.361457
2021.000000	11.400791
2020.000000	11.437957
2019.000000	11.468516
2018.000000	11.474916
2017.000000	11.505475
2016.000000	11.535931
2015.000000	11.538305
2014.000000	11.577020
2013.000000	11.607992
2012.000000	11.604275
2011.000000	11.627607
2010.000000	11.649184
2009.000000	11.676542
2008.000000	11.671380
2007.000000	11.700287
2006.000000	11.710508
2005.000000	11.739828
2004.000000	11.729194
2003.000000	11.730743
2002.000000	11.736524
2001.000000	11.753455
2000.000000	11.756346
1999.000000	11.733014
1998.000000	11.739415
1997.000000	11.724342
1996.000000	11.729504
1995.000000	11.706688
1994.000000	11.697913
1993.000000	11.675716
1992.000000	11.688931
1991.000000	11.672826
1990.000000	11.644641
1989.000000	11.629259
1988.000000	11.601797
1987.000000	11.574026
1986.000000	11.547493
1985.000000	11.521580
1984.000000	11.485653
1983.000000	11.472955
1982.000000	11.463767
1981.000000	11.431969
1980.000000	11.412973
1979.000000	11.386028
1978.000000	11.350100
1977.000000	11.321193
1976.000000	11.306947
1975.000000	11.285266
1974.000000	11.242319
1973.000000	11.228382
1972.000000	11.220019
1971.000000	11.189151
1970.000000	11.153224
1969.000000	11.143932
1968.000000	11.101501
1967.000000	11.121116
1966.000000	11.076827
1965.000000	11.043274
1964.000000	11.004559
1963.000000	11.013335
1962.000000	11.003527
1961.000000	10.986802
1960.000000	10.955211
1959.000000	10.912160
1958.000000	10.894403
1957.000000	10.872310
1956.000000	10.861677
1955.000000	10.863122
1954.000000	10.826369
1953.000000	10.809128
1952.000000	10.779705
1951.000000	10.782595
1950.000000	10.760193
1949.000000	10.766387
1948.000000	10.748630
1947.000000	10.733660
1946.000000	10.716213
1945.000000	10.740577
1944.000000	10.705373
1943.000000	10.709296
1942.000000	10.728085
1941.000000	10.713838
1940.000000	10.726950
1939.000000	10.730769
1938.000000	10.752140
1937.000000	10.742435
1936.000000	10.768039
1935.000000	10.780427
1934.000000	10.802211
1933.000000	10.858270
1932.000000	10.887177
1931.000000	10.930021
1930.000000	10.981021
1929.000000	11.022213
1928.000000	11.059276
1927.000000	11.087047
1926.000000	11.131234
1925.000000	11.188841
1924.000000	11.279072
1923.000000	11.339054
1922.000000	11.385718
1921.000000	11.461392
1920.000000	11.526226
1919.000000	11.585898
1918.000000	11.663018
1917.000000	11.762024
1916.000000	11.853700
1915.000000	11.947442
1914.000000	12.035711
1913.000000	12.130897
1912.000000	12.208946
1911.000000	12.293705
1910.000000	12.389924
1909.000000	12.483046
1908.000000	12.602080
1907.000000	12.706352
1906.000000	12.803706
1905.000000	12.927283
1904.000000	13.029903
1903.000000	13.153274
1902.000000	13.256409
1901.000000	13.376373
1900.000000	13.501809
1899.000000	13.626108
1898.000000	13.707977
1897.000000	13.844356
1896.000000	13.957712
1895.000000	14.055376
1894.000000	14.178334
1893.000000	14.307693
1892.000000	14.448820
1891.000000	14.579521
1890.000000	14.700724
1889.000000	14.826365
1888.000000	14.978540
1887.000000	15.136083
1886.000000	15.313447
1885.000000	15.526326
1884.000000	15.763879
1883.000000	16.008865
1882.000000	16.250961
1881.000000	16.498115
1880.000000	16.750638
1879.000000	17.003264
1878.000000	17.261362
1877.000000	17.494682
1876.000000	17.711071
1875.000000	17.921162
1874.000000	18.114839
1873.000000	18.287454
1872.000000	18.454598
1871.000000	18.589119
1870.000000	18.703714
1869.000000	18.809328
1868.000000	18.878704
1867.000000	18.915458
1866.000000	18.941474
1865.000000	18.982047
1864.000000	19.000114
1863.000000	19.021071
1862.000000	19.040893
1861.000000	19.048636
1860.000000	19.047810
1859.000000	19.026027
1858.000000	18.990925
1857.000000	18.965941
1856.000000	18.921342
1855.000000	18.880047
1854.000000	18.835241
1853.000000	18.767000
1852.000000	18.696488
1851.000000	18.631240
1850.000000	18.591597
1849.000000	18.566716
1848.000000	18.489803
1847.000000	18.414335
1846.000000	18.334944
1845.000000	18.252353
1844.000000	18.213019
1843.000000	18.197843
1842.000000	18.181531
1841.000000	18.142507
1840.000000	18.096359
1839.000000	18.050211
1838.000000	18.005199
1837.000000	17.958741
1836.000000	17.912284
1835.000000	17.844559
1834.000000	17.766717
1833.000000	17.708077
1832.000000	17.647166
1831.000000	17.589662
1830.000000	17.533809
1829.000000	17.469182
1828.000000	17.386797
1827.000000	17.310400
1826.000000	17.240817
1825.000000	17.192811
1824.000000	17.160497
1823.000000	17.139333
1822.000000	17.119821
1821.000000	17.103819
1820.000000	17.069337
1819.000000	17.014723
1818.000000	16.987262
1817.000000	16.977144
1816.000000	16.970847
1815.000000	16.956393
1814.000000	16.940804
1813.000000	16.935952
1812.000000	16.931410
1811.000000	16.910968
1810.000000	16.870912
1809.000000	16.840456
1808.000000	16.809691
1807.000000	16.767363
1806.000000	16.724415
1805.000000	16.698915
1804.000000	16.667737
1803.000000	16.638107
1802.000000	16.602387
1801.000000	16.560162
1800.000000	16.509368
1799.000000	16.479739
1798.000000	16.431423
1797.000000	16.386514
1796.000000	16.357504
1795.000000	16.328700
1794.000000	16.293599
1793.000000	16.259943
1792.000000	16.213072
1791.000000	16.167234
1790.000000	16.124390
1789.000000	16.091766
1788.000000	16.043554
1787.000000	15.996993
1786.000000	15.934533
1785.000000	15.889521
1784.000000	15.802491
1783.000000	15.744883
1782.000000	15.692128
1781.000000	15.637102
1780.000000	15.581146
1779.000000	15.503614
1778.000000	15.427939
1777.000000	15.357117
1776.000000	15.274526
1775.000000	15.188115
1774.000000	15.100155
1773.000000	15.015912
1772.000000	14.908028
1771.000000	14.813667
1770.000000	14.702582
1769.000000	14.601717
1768.000000	14.509628
1767.000000	14.432922
1766.000000	14.357557
1765.000000	14.286322
1764.000000	14.247091
1763.000000	14.229954
1762.000000	14.258551
1761.000000	14.280850
1760.000000	14.324211
1759.000000	14.348678
1758.000000	14.402156
1757.000000	14.445104
1756.000000	14.482889
1755.000000	14.520468
1754.000000	14.531825
1753.000000	14.521707
1752.000000	14.534509
1751.000000	14.518507
1750.000000	14.496104
1749.000000	14.469984
1748.000000	14.431270
1747.000000	14.378515
1746.000000	14.316261
1745.000000	14.241826
1744.000000	14.138484
1743.000000	14.032457
1742.000000	13.924779
1741.000000	13.802234
1740.000000	13.650060
1739.000000	13.508313
1738.000000	13.367804
1737.000000	13.259197
1736.000000	13.152448
1735.000000	13.067275
1734.000000	13.005126
1733.000000	12.999241
1732.000000	12.996350
1731.000000	13.003680
1730.000000	13.082348
1729.000000	13.144292
1728.000000	13.232045
1727.000000	13.306584
1726.000000	13.382567
1725.000000	13.435632
1724.000000	13.478477
1723.000000	13.508106
1722.000000	13.552602
1721.000000	13.564991
1720.000000	13.590904
1719.000000	13.622082
1718.000000	13.658629
1717.000000	13.693730
1716.000000	13.718714
1715.000000	13.768062
1714.000000	13.809564
1713.000000	13.854886
1712.000000	13.908054
1711.000000	13.938200
1710.000000	13.972372
1709.000000	14.001279
1708.000000	14.011706
1707.000000	14.029773
1706.000000	14.035967
1705.000000	14.040200
1704.000000	14.051969
1703.000000	14.045569
1702.000000	14.011087
1701.000000	14.017797
1700.000000	13.939336
1699.000000	13.907332
1698.000000	13.836613
1697.000000	13.831864
1696.000000	13.839813
1695.000000	13.855093
1694.000000	13.888336
1693.000000	13.989303
1692.000000	14.102040
1691.000000	14.186387
1690.000000	14.297988
1689.000000	14.370255
1688.000000	14.415371
1687.000000	14.460796
1686.000000	14.450782
1685.000000	14.455737
1684.000000	14.538948
1683.000000	14.646626
1682.000000	14.805305
1681.000000	15.062783
1680.000000	15.338225
1679.000000	15.654136
1678.000000	15.976242
1677.000000	16.261698
1676.000000	16.542302
1675.000000	16.800606
1674.000000	17.016788
1673.000000	17.223576
1672.000000	17.368524
1671.000000	17.529370
1670.000000	17.634984
1669.000000	17.746998
1668.000000	17.841978
1667.000000	17.934893
1666.000000	17.991158
1665.000000	18.053205
1664.000000	18.091094
1663.000000	18.136622
1662.000000	18.178228
1661.000000	18.206102
1660.000000	18.239448
1659.000000	18.243062
1658.000000	18.260922
1657.000000	18.254418
1656.000000	18.278266
1655.000000	18.260199
1654.000000	18.264845
1653.000000	18.259064
1652.000000	18.223756
1651.000000	18.215703
1650.000000	18.197223
1649.000000	18.166045
1648.000000	18.127124
1647.000000	18.111122
1646.000000	18.061361
1645.000000	18.029254
1644.000000	17.986409
1643.000000	17.952960
1642.000000	17.924569
1641.000000	17.890913
1640.000000	17.840636
1639.000000	17.777350
1638.000000	17.726866
1637.000000	17.697237
1636.000000	17.648818
1635.000000	17.578305
1634.000000	17.526583
1633.000000	17.478267
1632.000000	17.411884
1631.000000	17.350870
1630.000000	17.308335
1629.000000	17.271892
1628.000000	17.209639
1627.000000	17.145837
1626.000000	17.078938
1625.000000	17.023396
1624.000000	16.979829
1623.000000	16.919640
1622.000000	16.883610
1621.000000	16.822079
1620.000000	16.770047
1619.000000	16.705419
1618.000000	16.671867
1617.000000	16.623551
1616.000000	16.556032
1615.000000	16.509059
1614.000000	16.446186
1613.000000	16.383520
1612.000000	16.347903
1611.000000	16.306297
1610.000000	16.265208
1609.000000	16.219576
1608.000000	16.180139
