PE UV       SUBTECH     SPECTRUM    ASCII       PEDS        4.00        
   -1
CICIMAUCR0001-1.Sample.ASC
24/03/08
10:42:50.00
24/03/08
10:42:50.00
Vinicio Soto Monge
C. kalinini
250,000000
1
Lambda 1050
1050L1511233
PerkinElmer UV WinLab 6.3.2.0749 / 2.02.05 Lambda 900 UV/VIS/NIR, Aug  7 2015 09:38:08

0
0
3350/servo 860,8/2
0
0
UV/VIS
1
1
1
DoubleDePol,CommonBeamDepol,RBeamAtt,SBeamAtt,60mm sphere, WB InGaAs Detector
0
0
0
0
Program
Program
3350/servo 860,8/2
3350/0,2 860,8/0,2
3350/0,2 860,8/0,2
0
15.00
 
 
 
0
 
860,8
319,2
860,8
Front
100
on
S:100 R:100
0
0
0
0
 
0
 
 
 
0
 
 
0
0
0
0
0
 
 
 
 
0
0


0
0
#HDR
-1
-1
#GR
nm
%R
1.0
0.0
2500,000000
-1,000000
2251
8
36,425100
2,679800
#DATA
2500.000000	3.521613
2499.000000	3.473520
2498.000000	3.583230
2497.000000	3.456641
2496.000000	3.474740
2495.000000	3.577129
2494.000000	3.558522
2493.000000	3.578350
2492.000000	3.563403
2491.000000	3.523138
2490.000000	3.550591
2489.000000	3.513174
2488.000000	3.544694
2487.000000	3.511140
2486.000000	3.563911
2485.000000	3.577434
2484.000000	3.509107
2483.000000	3.566962
2482.000000	3.508090
2481.000000	3.540322
2480.000000	3.559539
2479.000000	3.566148
2478.000000	3.598482
2477.000000	3.595228
2476.000000	3.606514
2475.000000	3.614649
2474.000000	3.644338
2473.000000	3.668233
2472.000000	3.620953
2471.000000	3.623494
2470.000000	3.632340
2469.000000	3.648812
2468.000000	3.691212
2467.000000	3.698634
2466.000000	3.728121
2465.000000	3.737679
2464.000000	3.775300
2463.000000	3.814649
2462.000000	3.825732
2461.000000	3.836205
2460.000000	3.884197
2459.000000	3.871690
2458.000000	3.902194
2457.000000	3.916022
2456.000000	3.972351
2455.000000	4.000719
2454.000000	4.009870
2453.000000	4.050542
2452.000000	4.056337
2451.000000	4.092128
2450.000000	4.111345
2449.000000	4.166353
2448.000000	4.196653
2447.000000	4.225733
2446.000000	4.265590
2445.000000	4.297619
2444.000000	4.343476
2443.000000	4.367675
2442.000000	4.395230
2441.000000	4.440476
2440.000000	4.472606
2439.000000	4.520903
2438.000000	4.537477
2437.000000	4.579267
2436.000000	4.619938
2435.000000	4.643934
2434.000000	4.693654
2433.000000	4.718972
2432.000000	4.762185
2431.000000	4.792688
2430.000000	4.826344
2429.000000	4.862439
2428.000000	4.905958
2427.000000	4.968693
2426.000000	5.041087
2425.000000	5.111550
2424.000000	5.181403
2423.000000	5.231632
2422.000000	5.258678
2421.000000	5.284911
2420.000000	5.313991
2419.000000	5.368389
2418.000000	5.402959
2417.000000	5.436309
2416.000000	5.461119
2415.000000	5.496503
2414.000000	5.557103
2413.000000	5.573880
2412.000000	5.601333
2411.000000	5.653087
2410.000000	5.675659
2409.000000	5.692944
2408.000000	5.713280
2407.000000	5.744190
2406.000000	5.782523
2405.000000	5.810484
2404.000000	5.849223
2403.000000	5.859493
2402.000000	5.879625
2401.000000	5.920703
2400.000000	5.933819
2399.000000	5.942767
2398.000000	5.983946
2397.000000	5.993707
2396.000000	6.020449
2395.000000	6.039462
2394.000000	6.053799
2393.000000	6.082777
2392.000000	6.103113
2391.000000	6.116534
2390.000000	6.137785
2389.000000	6.166153
2388.000000	6.182218
2387.000000	6.192183
2386.000000	6.182523
2385.000000	6.204282
2384.000000	6.221161
2383.000000	6.227567
2382.000000	6.241496
2381.000000	6.252376
2380.000000	6.247902
2379.000000	6.254104
2378.000000	6.283998
2377.000000	6.292132
2376.000000	6.274745
2375.000000	6.282574
2374.000000	6.303927
2373.000000	6.312366
2372.000000	6.311451
2371.000000	6.321212
2370.000000	6.323754
2369.000000	6.321924
2368.000000	6.323652
2367.000000	6.342056
2366.000000	6.362493
2365.000000	6.367170
2364.000000	6.389946
2363.000000	6.393403
2362.000000	6.383744
2361.000000	6.391573
2360.000000	6.402656
2359.000000	6.403774
2358.000000	6.415264
2357.000000	6.412417
2356.000000	6.422381
2355.000000	6.439260
2354.000000	6.446377
2353.000000	6.442005
2352.000000	6.440175
2351.000000	6.438752
2350.000000	6.439158
2349.000000	6.439463
2348.000000	6.444751
2347.000000	6.431634
2346.000000	6.414857
2345.000000	6.416586
2344.000000	6.420958
2343.000000	6.438040
2342.000000	6.442005
2341.000000	6.456240
2340.000000	6.449733
2339.000000	6.429194
2338.000000	6.445869
2337.000000	6.438040
2336.000000	6.449733
2335.000000	6.468543
2334.000000	6.456037
2333.000000	6.450444
2332.000000	6.457664
2331.000000	6.486133
2330.000000	6.494471
2329.000000	6.503114
2328.000000	6.512366
2327.000000	6.506062
2326.000000	6.522432
2325.000000	6.524466
2324.000000	6.541446
2323.000000	6.554258
2322.000000	6.556291
2321.000000	6.570628
2320.000000	6.566662
2319.000000	6.562290
2318.000000	6.570424
2317.000000	6.549885
2316.000000	6.530872
2315.000000	6.507791
2314.000000	6.503419
2313.000000	6.494878
2312.000000	6.490912
2311.000000	6.472712
2310.000000	6.468950
2309.000000	6.441598
2308.000000	6.421161
2307.000000	6.394827
2306.000000	6.367780
2305.000000	6.350088
2304.000000	6.340836
2303.000000	6.336057
2302.000000	6.313993
2301.000000	6.282473
2300.000000	6.277795
2299.000000	6.280642
2298.000000	6.247699
2297.000000	6.236718
2296.000000	6.218416
2295.000000	6.216484
2294.000000	6.208044
2293.000000	6.200622
2292.000000	6.187099
2291.000000	6.172355
2290.000000	6.171745
2289.000000	6.166153
2288.000000	6.164323
2287.000000	6.132599
2286.000000	6.151715
2285.000000	6.125889
2284.000000	6.112569
2283.000000	6.119686
2282.000000	6.122127
2281.000000	6.117144
2280.000000	6.116534
2279.000000	6.080845
2278.000000	6.067322
2277.000000	6.064780
2276.000000	6.046682
2275.000000	6.045360
2274.000000	6.026651
2273.000000	6.027871
2272.000000	5.989437
2271.000000	5.980184
2270.000000	5.964933
2269.000000	5.977337
2268.000000	5.959035
2267.000000	5.927820
2266.000000	5.929854
2265.000000	5.908298
2264.000000	5.910738
2263.000000	5.927719
2262.000000	5.925482
2261.000000	5.939310
2260.000000	5.932091
2259.000000	5.962594
2258.000000	5.971440
2257.000000	5.984658
2256.000000	5.992284
2255.000000	6.013331
2254.000000	6.059900
2253.000000	6.082066
2252.000000	6.121313
2251.000000	6.119076
2250.000000	6.152427
2249.000000	6.179981
2248.000000	6.228888
2247.000000	6.251156
2246.000000	6.243428
2245.000000	6.280744
2244.000000	6.323144
2243.000000	6.329753
2242.000000	6.361680
2241.000000	6.355071
2240.000000	6.367780
2239.000000	6.399097
2238.000000	6.382524
2237.000000	6.386387
2236.000000	6.389133
2235.000000	6.373474
2234.000000	6.376220
2233.000000	6.358426
2232.000000	6.355986
2231.000000	6.321924
2230.000000	6.293556
2229.000000	6.263459
2228.000000	6.233972
2227.000000	6.192894
2226.000000	6.176219
2225.000000	6.131888
2224.000000	6.061628
2223.000000	6.027058
2222.000000	5.974999
2221.000000	5.943275
2220.000000	5.874439
2219.000000	5.822787
2218.000000	5.779879
2217.000000	5.741445
2216.000000	5.692843
2215.000000	5.647494
2214.000000	5.618414
2213.000000	5.603976
2212.000000	5.561576
2211.000000	5.574693
2210.000000	5.542359
2209.000000	5.564627
2208.000000	5.579065
2207.000000	5.601231
2206.000000	5.656950
2205.000000	5.693554
2204.000000	5.746529
2203.000000	5.819940
2202.000000	5.884505
2201.000000	5.967576
2200.000000	6.044953
2199.000000	6.131684
2198.000000	6.238141
2197.000000	6.307485
2196.000000	6.386082
2195.000000	6.478203
2194.000000	6.541039
2193.000000	6.612722
2192.000000	6.695488
2191.000000	6.766256
2190.000000	6.844548
2189.000000	6.899352
2188.000000	6.940532
2187.000000	6.986795
2186.000000	7.032245
2185.000000	7.055733
2184.000000	7.086745
2183.000000	7.114401
2182.000000	7.151208
2181.000000	7.168290
2180.000000	7.197370
2179.000000	7.231839
2178.000000	7.245159
2177.000000	7.259089
2176.000000	7.273934
2175.000000	7.276171
2174.000000	7.305149
2173.000000	7.324366
2172.000000	7.349582
2171.000000	7.364630
2170.000000	7.383949
2169.000000	7.404081
2168.000000	7.429602
2167.000000	7.448413
2166.000000	7.471189
2165.000000	7.480746
2164.000000	7.504742
2163.000000	7.525078
2162.000000	7.546735
2161.000000	7.589847
2160.000000	7.611606
2159.000000	7.640279
2158.000000	7.666512
2157.000000	7.700167
2156.000000	7.747549
2155.000000	7.780391
2154.000000	7.826146
2153.000000	7.844855
2152.000000	7.877595
2151.000000	7.939517
2150.000000	7.984967
2149.000000	8.011912
2148.000000	8.049837
2147.000000	8.103930
2146.000000	8.159141
2145.000000	8.189340
2144.000000	8.229706
2143.000000	8.274749
2142.000000	8.324673
2141.000000	8.358837
2140.000000	8.389747
2139.000000	8.418623
2138.000000	8.466818
2137.000000	8.512370
2136.000000	8.541450
2135.000000	8.566463
2134.000000	8.601033
2133.000000	8.633265
2132.000000	8.641196
2131.000000	8.678308
2130.000000	8.711862
2129.000000	8.721318
2128.000000	8.756092
2127.000000	8.768293
2126.000000	8.780901
2125.000000	8.806829
2124.000000	8.824216
2123.000000	8.837739
2122.000000	8.849432
2121.000000	8.863667
2120.000000	8.884206
2119.000000	8.891120
2118.000000	8.893967
2117.000000	8.898441
2116.000000	8.906677
2115.000000	8.913286
2114.000000	8.919997
2113.000000	8.923250
2112.000000	8.914608
2111.000000	8.914709
2110.000000	8.930063
2109.000000	8.935350
2108.000000	8.927216
2107.000000	8.929859
2106.000000	8.922437
2105.000000	8.919997
2104.000000	8.922437
2103.000000	8.916235
2102.000000	8.915320
2101.000000	8.916235
2100.000000	8.924674
2099.000000	8.915320
2098.000000	8.907795
2097.000000	8.910134
2096.000000	8.922335
2095.000000	8.913591
2094.000000	8.900373
2093.000000	8.903830
2092.000000	8.912778
2091.000000	8.930368
2090.000000	8.921115
2089.000000	8.915726
2088.000000	8.916641
2087.000000	8.917963
2086.000000	8.911456
2085.000000	8.891730
2084.000000	8.887561
2083.000000	8.874953
2082.000000	8.852178
2081.000000	8.836011
2080.000000	8.823098
2079.000000	8.806321
2078.000000	8.786799
2077.000000	8.768903
2076.000000	8.737078
2075.000000	8.716946
2074.000000	8.678715
2073.000000	8.636722
2072.000000	8.602558
2071.000000	8.573377
2070.000000	8.523148
2069.000000	8.482477
2068.000000	8.441602
2067.000000	8.406015
2066.000000	8.371140
2065.000000	8.316742
2064.000000	8.264581
2063.000000	8.223707
2062.000000	8.193915
2061.000000	8.162700
2060.000000	8.125282
2059.000000	8.097321
2058.000000	8.075460
2057.000000	8.043635
2056.000000	8.030519
2055.000000	8.023808
2054.000000	8.015979
2053.000000	8.018114
2052.000000	8.023503
2051.000000	8.039161
2050.000000	8.059599
2049.000000	8.073223
2048.000000	8.106675
2047.000000	8.135044
2046.000000	8.184256
2045.000000	8.231332
2044.000000	8.274342
2043.000000	8.309929
2042.000000	8.339213
2041.000000	8.388832
2040.000000	8.437942
2039.000000	8.477291
2038.000000	8.514404
2037.000000	8.554973
2036.000000	8.586900
2035.000000	8.628791
2034.000000	8.661328
2033.000000	8.674750
2032.000000	8.690408
2031.000000	8.716336
2030.000000	8.750398
2029.000000	8.771547
2028.000000	8.783952
2027.000000	8.809880
2026.000000	8.810795
2025.000000	8.843637
2024.000000	8.852686
2023.000000	8.863769
2022.000000	8.873022
2021.000000	8.880647
2020.000000	8.880647
2019.000000	8.891019
2018.000000	8.886646
2017.000000	8.903525
2016.000000	8.894984
2015.000000	8.890103
2014.000000	8.881257
2013.000000	8.904847
2012.000000	8.875665
2011.000000	8.858380
2010.000000	8.856245
2009.000000	8.839671
2008.000000	8.845874
2007.000000	8.820759
2006.000000	8.801847
2005.000000	8.778461
2004.000000	8.768090
2003.000000	8.762904
2002.000000	8.714201
2001.000000	8.677292
2000.000000	8.673021
1999.000000	8.626148
1998.000000	8.602762
1997.000000	8.559854
1996.000000	8.537586
1995.000000	8.514810
1994.000000	8.472817
1993.000000	8.436010
1992.000000	8.396966
1991.000000	8.352838
1990.000000	8.338704
1989.000000	8.301287
1988.000000	8.255939
1987.000000	8.211607
1986.000000	8.175816
1985.000000	8.145415
1984.000000	8.106269
1983.000000	8.074240
1982.000000	8.016996
1981.000000	7.984865
1980.000000	7.962700
1979.000000	7.901998
1978.000000	7.867732
1977.000000	7.849735
1976.000000	7.790864
1975.000000	7.754260
1974.000000	7.721926
1973.000000	7.668444
1972.000000	7.633162
1971.000000	7.599506
1970.000000	7.560258
1969.000000	7.515724
1968.000000	7.504437
1967.000000	7.486745
1966.000000	7.434686
1965.000000	7.396557
1964.000000	7.321417
1963.000000	7.320299
1962.000000	7.292134
1961.000000	7.247497
1960.000000	7.196150
1959.000000	7.174086
1958.000000	7.143176
1957.000000	7.096709
1956.000000	7.069256
1955.000000	7.035092
1954.000000	6.985372
1953.000000	6.940532
1952.000000	6.918569
1951.000000	6.890100
1950.000000	6.861121
1949.000000	6.851869
1948.000000	6.799708
1947.000000	6.772560
1946.000000	6.754563
1945.000000	6.724365
1944.000000	6.703216
1943.000000	6.693861
1942.000000	6.692133
1941.000000	6.655325
1940.000000	6.636108
1939.000000	6.608960
1938.000000	6.621162
1937.000000	6.611197
1936.000000	6.586591
1935.000000	6.593302
1934.000000	6.596149
1933.000000	6.624822
1932.000000	6.609265
1931.000000	6.624314
1930.000000	6.647903
1929.000000	6.671187
1928.000000	6.688167
1927.000000	6.728635
1926.000000	6.746429
1925.000000	6.796963
1924.000000	6.852682
1923.000000	6.899657
1922.000000	6.920806
1921.000000	6.974086
1920.000000	7.037736
1919.000000	7.100166
1918.000000	7.183644
1917.000000	7.237736
1916.000000	7.328230
1915.000000	7.412521
1914.000000	7.524570
1913.000000	7.605098
1912.000000	7.702201
1911.000000	7.790457
1910.000000	7.908607
1909.000000	8.059395
1908.000000	8.209675
1907.000000	8.371445
1906.000000	8.504948
1905.000000	8.652787
1904.000000	8.816794
1903.000000	9.010897
1902.000000	9.181004
1901.000000	9.375310
1900.000000	9.565346
1899.000000	9.764838
1898.000000	9.981920
1897.000000	10.197783
1896.000000	10.421677
1895.000000	10.666213
1894.000000	10.899665
1893.000000	11.132304
1892.000000	11.368603
1891.000000	11.571959
1890.000000	11.783449
1889.000000	12.041914
1888.000000	12.274248
1887.000000	12.500583
1886.000000	12.721733
1885.000000	12.947051
1884.000000	13.145018
1883.000000	13.306482
1882.000000	13.491942
1881.000000	13.695705
1880.000000	13.889198
1879.000000	14.066117
1878.000000	14.216804
1877.000000	14.372371
1876.000000	14.532616
1875.000000	14.659815
1874.000000	14.788742
1873.000000	14.908010
1872.000000	14.996368
1871.000000	15.056358
1870.000000	15.098250
1869.000000	15.171051
1868.000000	15.239073
1867.000000	15.309434
1866.000000	15.385083
1865.000000	15.475983
1864.000000	15.578576
1863.000000	15.658393
1862.000000	15.714621
1861.000000	15.767697
1860.000000	15.809995
1859.000000	15.830534
1858.000000	15.847209
1857.000000	15.899166
1856.000000	15.944006
1855.000000	15.965562
1854.000000	15.982949
1853.000000	15.990880
1852.000000	16.026874
1851.000000	16.093879
1850.000000	16.180102
1849.000000	16.165257
1848.000000	16.074154
1847.000000	16.003081
1846.000000	15.987524
1845.000000	16.065206
1844.000000	16.160885
1843.000000	16.200133
1842.000000	16.173493
1841.000000	16.122959
1840.000000	16.089100
1839.000000	16.095608
1838.000000	16.086457
1837.000000	16.044972
1836.000000	15.993422
1835.000000	15.979288
1834.000000	15.995150
1833.000000	16.007555
1832.000000	16.012334
1831.000000	15.989863
1830.000000	15.980508
1829.000000	15.960275
1828.000000	15.929059
1827.000000	15.903538
1826.000000	15.875882
1825.000000	15.883406
1824.000000	15.945328
1823.000000	15.991185
1822.000000	15.975221
1821.000000	15.922247
1820.000000	15.882491
1819.000000	15.875882
1818.000000	15.887880
1817.000000	15.891337
1816.000000	15.895099
1815.000000	15.887677
1814.000000	15.872222
1813.000000	15.864596
1812.000000	15.860834
1811.000000	15.840295
1810.000000	15.824128
1809.000000	15.815689
1808.000000	15.828398
1807.000000	15.815994
1806.000000	15.796675
1805.000000	15.775628
1804.000000	15.763731
1803.000000	15.784372
1802.000000	15.759867
1801.000000	15.731906
1800.000000	15.714722
1799.000000	15.701403
1798.000000	15.694895
1797.000000	15.687066
1796.000000	15.675983
1795.000000	15.667951
1794.000000	15.651784
1793.000000	15.641514
1792.000000	15.636939
1791.000000	15.620060
1790.000000	15.614061
1789.000000	15.630940
1788.000000	15.625246
1787.000000	15.620365
1786.000000	15.607249
1785.000000	15.598200
1784.000000	15.591591
1783.000000	15.584880
1782.000000	15.590370
1781.000000	15.588134
1780.000000	15.580813
1779.000000	15.562307
1778.000000	15.554376
1777.000000	15.534753
1776.000000	15.516247
1775.000000	15.498962
1774.000000	15.471204
1773.000000	15.455851
1772.000000	15.439989
1771.000000	15.440396
1770.000000	15.411926
1769.000000	15.400640
1768.000000	15.385490
1767.000000	15.372475
1766.000000	15.348479
1765.000000	15.354478
1764.000000	15.360477
1763.000000	15.358342
1762.000000	15.353258
1761.000000	15.328143
1760.000000	15.338514
1759.000000	15.355800
1758.000000	15.349292
1757.000000	15.319297
1756.000000	15.326720
1755.000000	15.327126
1754.000000	15.333125
1753.000000	15.332312
1752.000000	15.334549
1751.000000	15.343395
1750.000000	15.348377
1749.000000	15.320416
1748.000000	15.314010
1747.000000	15.300385
1746.000000	15.269577
1745.000000	15.264595
1744.000000	15.237650
1743.000000	15.204706
1742.000000	15.197792
1741.000000	15.173898
1740.000000	15.144310
1739.000000	15.117873
1738.000000	15.111163
1737.000000	15.081676
1736.000000	15.075677
1735.000000	15.058087
1734.000000	15.044869
1733.000000	15.049648
1732.000000	15.018839
1731.000000	14.997385
1730.000000	14.993928
1729.000000	14.972677
1728.000000	14.966475
1727.000000	14.934040
1726.000000	14.947868
1725.000000	14.953969
1724.000000	14.976846
1723.000000	14.979083
1722.000000	15.014467
1721.000000	15.070186
1720.000000	15.154884
1719.000000	15.210909
1718.000000	15.328855
1717.000000	15.382846
1716.000000	15.458799
1715.000000	15.535159
1714.000000	15.607147
1713.000000	15.672831
1712.000000	15.740447
1711.000000	15.778881
1710.000000	15.822908
1709.000000	15.884830
1708.000000	15.925806
1707.000000	15.951327
1706.000000	15.978272
1705.000000	15.986202
1704.000000	16.017824
1703.000000	15.999624
1702.000000	16.014774
1701.000000	16.042837
1700.000000	16.020468
1699.000000	16.033788
1698.000000	16.031144
1697.000000	16.006741
1696.000000	16.015994
1695.000000	15.992405
1694.000000	15.949090
1693.000000	15.941464
1692.000000	15.902013
1691.000000	15.882288
1690.000000	15.853614
1689.000000	15.875984
1688.000000	15.870290
1687.000000	15.914825
1686.000000	15.957224
1685.000000	16.007555
1684.000000	16.098048
1683.000000	16.152242
1682.000000	16.230433
1681.000000	16.305471
1680.000000	16.370850
1679.000000	16.458700
1678.000000	16.516453
1677.000000	16.584983
1676.000000	16.646499
1675.000000	16.692660
1674.000000	16.764242
1673.000000	16.818639
1672.000000	16.871613
1671.000000	16.945126
1670.000000	16.996982
1669.000000	17.056870
1668.000000	17.128553
1667.000000	17.249347
1666.000000	17.293373
1665.000000	17.323877
1664.000000	17.376444
1663.000000	17.442026
1662.000000	17.452499
1661.000000	17.490628
1660.000000	17.513709
1659.000000	17.544111
1658.000000	17.591188
1657.000000	17.603389
1656.000000	17.626165
1655.000000	17.641823
1654.000000	17.648026
1653.000000	17.647721
1652.000000	17.667649
1651.000000	17.669683
1650.000000	17.645687
1649.000000	17.633791
1648.000000	17.642942
1647.000000	17.647212
1646.000000	17.627385
1645.000000	17.606643
1644.000000	17.607049
1643.000000	17.605728
1642.000000	17.605728
1641.000000	17.581122
1640.000000	17.589358
1639.000000	17.570649
1638.000000	17.569022
1637.000000	17.559973
1636.000000	17.548178
1635.000000	17.535773
1634.000000	17.528452
1633.000000	17.530181
1632.000000	17.515946
1631.000000	17.494187
1630.000000	17.485239
1629.000000	17.460125
1628.000000	17.445890
1627.000000	17.423826
1626.000000	17.422911
1625.000000	17.421386
1624.000000	17.390069
1623.000000	17.365870
1622.000000	17.367496
1621.000000	17.346754
1620.000000	17.332214
1619.000000	17.326419
1618.000000	17.312590
1617.000000	17.301406
1616.000000	17.293780
1615.000000	17.272529
1614.000000	17.250872
1613.000000	17.227689
1612.000000	17.228401
1611.000000	17.209896
1610.000000	17.198813
1609.000000	17.161904
1608.000000	17.124283
1607.000000	17.108014
1606.000000	17.091136
1605.000000	17.059921
1604.000000	17.033891
1603.000000	17.012742
1602.000000	16.988543
1601.000000	16.966174
1600.000000	16.941568
1599.000000	16.909031
1598.000000	16.873749
1597.000000	16.838365
