PE UV       SUBTECH     SPECTRUM    ASCII       PEDS        4.00        
   -1
CICIMAUCR0158-1.ASC
24/04/03
16:46:49.00
24/04/03
16:46:49.00
Vinicio Soto Monge
C. cupreomarginata
250,000000
1
Lambda 1050
1050L1511233
PerkinElmer UV WinLab 6.3.2.0749 / 2.02.05 Lambda 900 UV/VIS/NIR, Aug  7 2015 09:38:08

0
0
3350/servo 860,8/2
0
0
UV/VIS
1
1
1
DoubleDePol,CommonBeamDepol,RBeamAtt,SBeamAtt,60mm sphere, WB InGaAs Detector
0
0
0
0
Program
Program
3350/servo 860,8/2
3350/0,2 860,8/0,2
3350/0,2 860,8/0,2
0
15.00
 
 
 
0
 
860,8
319,2
860,8
Front
100
on
S:100 R:100
0
0
0
0
 
0
 
 
 
0
 
 
0
0
0
0
0
 
 
 
 
0
0


0
0
#HDR
-1
-1
#GR
nm
%R
1.0
0.0
2500,000000
-1,000000
2251
8
61,268000
5,280400
#DATA
2500.000000	11.343608
2499.000000	11.367128
2498.000000	11.285406
2497.000000	11.371613
2496.000000	11.215046
2495.000000	11.397625
2494.000000	11.290888
2493.000000	11.321882
2492.000000	11.340918
2491.000000	11.407391
2490.000000	11.434001
2489.000000	11.431310
2488.000000	11.367826
2487.000000	11.431908
2486.000000	11.501272
2485.000000	11.462006
2484.000000	11.516919
2483.000000	11.595252
2482.000000	11.601830
2481.000000	11.554292
2480.000000	11.607212
2479.000000	11.671294
2478.000000	11.687638
2477.000000	11.741555
2476.000000	11.798262
2475.000000	11.837528
2474.000000	11.906992
2473.000000	11.891146
2472.000000	11.974363
2471.000000	11.964396
2470.000000	12.017117
2469.000000	12.100832
2468.000000	12.126744
2467.000000	12.176674
2466.000000	12.221920
2465.000000	12.268661
2464.000000	12.320684
2463.000000	12.412472
2462.000000	12.480042
2461.000000	12.562761
2460.000000	12.624252
2459.000000	12.684546
2458.000000	12.763578
2457.000000	12.826165
2456.000000	12.901608
2455.000000	12.971271
2454.000000	13.071032
2453.000000	13.158933
2452.000000	13.254607
2451.000000	13.364932
2450.000000	13.426522
2449.000000	13.533458
2448.000000	13.627538
2447.000000	13.732282
2446.000000	13.820881
2445.000000	13.922834
2444.000000	14.018508
2443.000000	14.129032
2442.000000	14.255502
2441.000000	14.352472
2440.000000	14.454226
2439.000000	14.551096
2438.000000	14.663813
2437.000000	14.752412
2436.000000	14.849681
2435.000000	14.955022
2434.000000	15.056078
2433.000000	15.165107
2432.000000	15.262975
2431.000000	15.358450
2430.000000	15.462695
2429.000000	15.554084
2428.000000	15.650257
2427.000000	15.726298
2426.000000	15.824066
2425.000000	15.920537
2424.000000	16.005847
2423.000000	16.095143
2422.000000	16.186732
2421.000000	16.290977
2420.000000	16.385854
2419.000000	16.460700
2418.000000	16.542322
2417.000000	16.626735
2416.000000	16.695700
2415.000000	16.755298
2414.000000	16.834628
2413.000000	16.902198
2412.000000	16.959503
2411.000000	17.005148
2410.000000	17.075110
2409.000000	17.131916
2408.000000	17.177661
2407.000000	17.232076
2406.000000	17.283600
2405.000000	17.327750
2404.000000	17.376185
2403.000000	17.411366
2402.000000	17.457708
2401.000000	17.492988
2400.000000	17.532653
2399.000000	17.580889
2398.000000	17.610289
2397.000000	17.646864
2396.000000	17.665003
2395.000000	17.693904
2394.000000	17.728586
2393.000000	17.744632
2392.000000	17.788383
2391.000000	17.822168
2390.000000	17.827350
2389.000000	17.834426
2388.000000	17.861036
2387.000000	17.869507
2386.000000	17.880370
2385.000000	17.894622
2384.000000	17.892828
2383.000000	17.901299
2382.000000	17.909969
2381.000000	17.909371
2380.000000	17.912660
2379.000000	17.919337
2378.000000	17.917544
2377.000000	17.909272
2376.000000	17.886250
2375.000000	17.887147
2374.000000	17.900502
2373.000000	17.883559
2372.000000	17.866916
2371.000000	17.865321
2370.000000	17.861135
2369.000000	17.843794
2368.000000	17.839708
2367.000000	17.839210
2366.000000	17.831835
2365.000000	17.833629
2364.000000	17.824560
2363.000000	17.822866
2362.000000	17.828546
2361.000000	17.827849
2360.000000	17.831935
2359.000000	17.817484
2358.000000	17.803930
2357.000000	17.799645
2356.000000	17.788283
2355.000000	17.777819
2354.000000	17.759880
2353.000000	17.747522
2352.000000	17.736260
2351.000000	17.711843
2350.000000	17.688423
2349.000000	17.674271
2348.000000	17.670384
2347.000000	17.652346
2346.000000	17.631018
2345.000000	17.612880
2344.000000	17.607199
2343.000000	17.595539
2342.000000	17.575208
2341.000000	17.551888
2340.000000	17.546008
2339.000000	17.534347
2338.000000	17.520494
2337.000000	17.504250
2336.000000	17.507937
2335.000000	17.504150
2334.000000	17.496476
2333.000000	17.484118
2332.000000	17.486111
2331.000000	17.489201
2330.000000	17.479833
2329.000000	17.487407
2328.000000	17.487706
2327.000000	17.481627
2326.000000	17.496974
2325.000000	17.499964
2324.000000	17.506741
2323.000000	17.509831
2322.000000	17.501060
2321.000000	17.492191
2320.000000	17.473454
2319.000000	17.455117
2318.000000	17.424222
2317.000000	17.386450
2316.000000	17.363728
2315.000000	17.319977
2314.000000	17.284896
2313.000000	17.228587
2312.000000	17.195799
2311.000000	17.132415
2310.000000	17.069628
2309.000000	17.018602
2308.000000	16.959503
2307.000000	16.894524
2306.000000	16.837119
2305.000000	16.800245
2304.000000	16.744335
2303.000000	16.684638
2302.000000	16.642182
2301.000000	16.575310
2300.000000	16.532655
2299.000000	16.486512
2298.000000	16.441366
2297.000000	16.416949
2296.000000	16.365922
2295.000000	16.336622
2294.000000	16.309016
2293.000000	16.263770
2292.000000	16.262674
2291.000000	16.229088
2290.000000	16.198592
2289.000000	16.154541
2288.000000	16.144575
2287.000000	16.115873
2286.000000	16.087071
2285.000000	16.079098
2284.000000	16.045413
2283.000000	16.014617
2282.000000	16.020996
2281.000000	15.983822
2280.000000	15.970268
2279.000000	15.932596
2278.000000	15.902300
2277.000000	15.875690
2276.000000	15.824863
2275.000000	15.791975
2274.000000	15.766262
2273.000000	15.709356
2272.000000	15.661917
2271.000000	15.624744
2270.000000	15.578102
2269.000000	15.554682
2268.000000	15.505051
2267.000000	15.473558
2266.000000	15.453227
2265.000000	15.435687
2264.000000	15.423130
2263.000000	15.406785
2262.000000	15.416353
2261.000000	15.423728
2260.000000	15.432099
2259.000000	15.445753
2258.000000	15.473159
2257.000000	15.524385
2256.000000	15.550197
2255.000000	15.595942
2254.000000	15.645972
2253.000000	15.712645
2252.000000	15.760582
2251.000000	15.827952
2250.000000	15.859844
2249.000000	15.915255
2248.000000	15.987809
2247.000000	16.046808
2246.000000	16.071524
2245.000000	16.131221
2244.000000	16.173078
2243.000000	16.218922
2242.000000	16.246429
2241.000000	16.272241
2240.000000	16.311607
2239.000000	16.316490
2238.000000	16.330343
2237.000000	16.331440
2236.000000	16.327154
2235.000000	16.326357
2234.000000	16.298252
2233.000000	16.250515
2232.000000	16.208657
2231.000000	16.172680
2230.000000	16.092154
2229.000000	16.016810
2228.000000	15.958807
2227.000000	15.861439
2226.000000	15.763970
2225.000000	15.657034
2224.000000	15.540829
2223.000000	15.424724
2222.000000	15.314998
2221.000000	15.169592
2220.000000	15.051693
2219.000000	14.931104
2218.000000	14.780715
2217.000000	14.673978
2216.000000	14.540134
2215.000000	14.464092
2214.000000	14.372604
2213.000000	14.283706
2212.000000	14.243144
2211.000000	14.201486
2210.000000	14.200689
2209.000000	14.205572
2208.000000	14.239257
2207.000000	14.291380
2206.000000	14.403798
2205.000000	14.520202
2204.000000	14.657335
2203.000000	14.786695
2202.000000	14.977944
2201.000000	15.169891
2200.000000	15.368615
2199.000000	15.583484
2198.000000	15.783902
2197.000000	16.027872
2196.000000	16.224902
2195.000000	16.426117
2194.000000	16.627233
2193.000000	16.834329
2192.000000	17.009034
2191.000000	17.166499
2190.000000	17.317684
2189.000000	17.477740
2188.000000	17.618660
2187.000000	17.711843
2186.000000	17.819975
2185.000000	17.922028
2184.000000	18.021590
2183.000000	18.070722
2182.000000	18.142080
2181.000000	18.211344
2180.000000	18.254398
2179.000000	18.297152
2178.000000	18.363327
2177.000000	18.408872
2176.000000	18.451726
2175.000000	18.487405
2174.000000	18.519097
2173.000000	18.554975
2172.000000	18.612878
2171.000000	18.647460
2170.000000	18.687923
2169.000000	18.740643
2168.000000	18.820472
2167.000000	18.872395
2166.000000	18.911462
2165.000000	18.980029
2164.000000	19.043214
2163.000000	19.088859
2162.000000	19.159219
2161.000000	19.235759
2160.000000	19.315587
2159.000000	19.392027
2158.000000	19.494279
2157.000000	19.575503
2156.000000	19.657723
2155.000000	19.757185
2154.000000	19.855351
2153.000000	19.964978
2152.000000	20.067430
2151.000000	20.182139
2150.000000	20.282000
2149.000000	20.375980
2148.000000	20.507831
2147.000000	20.617957
2146.000000	20.707352
2145.000000	20.827344
2144.000000	20.934181
2143.000000	21.041316
2142.000000	21.156425
2141.000000	21.268344
2140.000000	21.356245
2139.000000	21.439860
2138.000000	21.542013
2137.000000	21.641574
2136.000000	21.725090
2135.000000	21.815782
2134.000000	21.901590
2133.000000	21.962084
2132.000000	22.031448
2131.000000	22.095032
2130.000000	22.164495
2129.000000	22.228079
2128.000000	22.286181
2127.000000	22.341094
2126.000000	22.403881
2125.000000	22.440556
2124.000000	22.469856
2123.000000	22.504439
2122.000000	22.553173
2121.000000	22.601708
2120.000000	22.631706
2119.000000	22.646057
2118.000000	22.669477
2117.000000	22.695090
2116.000000	22.701568
2115.000000	22.718211
2114.000000	22.748708
2113.000000	22.753292
2112.000000	22.757179
2111.000000	22.770633
2110.000000	22.777510
2109.000000	22.766547
2108.000000	22.766148
2107.000000	22.765550
2106.000000	22.770434
2105.000000	22.770633
2104.000000	22.759272
2103.000000	22.766447
2102.000000	22.755086
2101.000000	22.746515
2100.000000	22.755684
2099.000000	22.754388
2098.000000	22.753790
2097.000000	22.741731
2096.000000	22.736649
2095.000000	22.744422
2094.000000	22.746116
2093.000000	22.738443
2092.000000	22.737047
2091.000000	22.746515
2090.000000	22.737346
2089.000000	22.730071
2088.000000	22.745319
2087.000000	22.754089
2086.000000	22.734357
2085.000000	22.715521
2084.000000	22.690306
2083.000000	22.667085
2082.000000	22.637785
2081.000000	22.604797
2080.000000	22.565332
2079.000000	22.501050
2078.000000	22.447732
2077.000000	22.391124
2076.000000	22.330431
2075.000000	22.267345
2074.000000	22.198878
2073.000000	22.118751
2072.000000	22.017495
2071.000000	21.921422
2070.000000	21.834219
2069.000000	21.746517
2068.000000	21.641574
2067.000000	21.554172
2066.000000	21.445541
2065.000000	21.355647
2064.000000	21.251601
2063.000000	21.147655
2062.000000	21.052279
2061.000000	20.976038
2060.000000	20.905777
2059.000000	20.820667
2058.000000	20.765754
2057.000000	20.712635
2056.000000	20.670079
2055.000000	20.640480
2054.000000	20.618854
2053.000000	20.624833
2052.000000	20.632009
2051.000000	20.660811
2050.000000	20.698981
2049.000000	20.757382
2048.000000	20.825650
2047.000000	20.900994
2046.000000	20.993678
2045.000000	21.089951
2044.000000	21.178948
2043.000000	21.286383
2042.000000	21.395910
2041.000000	21.491684
2040.000000	21.582974
2039.000000	21.686023
2038.000000	21.766848
2037.000000	21.858237
2036.000000	21.947932
2035.000000	22.029554
2034.000000	22.104898
2033.000000	22.154130
2032.000000	22.228777
2031.000000	22.302127
2030.000000	22.350064
2029.000000	22.418930
2028.000000	22.457299
2027.000000	22.505037
2026.000000	22.533639
2025.000000	22.588453
2024.000000	22.612172
2023.000000	22.644761
2022.000000	22.673364
2021.000000	22.698578
2020.000000	22.720205
2019.000000	22.728576
2018.000000	22.742130
2017.000000	22.749007
2016.000000	22.762760
2015.000000	22.771032
2014.000000	22.751797
2013.000000	22.743924
2012.000000	22.726583
2011.000000	22.696884
2010.000000	22.673264
2009.000000	22.639479
2008.000000	22.632403
2007.000000	22.578985
2006.000000	22.558555
2005.000000	22.521580
2004.000000	22.477331
2003.000000	22.401090
2002.000000	22.356044
2001.000000	22.284985
2000.000000	22.236450
1999.000000	22.157918
1998.000000	22.093238
1997.000000	22.009522
1996.000000	21.944842
1995.000000	21.860330
1994.000000	21.781797
1993.000000	21.694594
1992.000000	21.614566
1991.000000	21.527761
1990.000000	21.444644
1989.000000	21.364118
1988.000000	21.269341
1987.000000	21.193299
1986.000000	21.058259
1985.000000	20.982018
1984.000000	20.905877
1983.000000	20.799439
1982.000000	20.702967
1981.000000	20.612176
1980.000000	20.521684
1979.000000	20.440959
1978.000000	20.330933
1977.000000	20.252002
1976.000000	20.150248
1975.000000	20.066533
1974.000000	19.979030
1973.000000	19.915247
1972.000000	19.793462
1971.000000	19.715726
1970.000000	19.635698
1969.000000	19.552880
1968.000000	19.476739
1967.000000	19.380965
1966.000000	19.321766
1965.000000	19.231274
1964.000000	19.166694
1963.000000	19.055173
1962.000000	18.964880
1961.000000	18.918040
1960.000000	18.818578
1959.000000	18.741441
1958.000000	18.644969
1957.000000	18.563048
1956.000000	18.501158
1955.000000	18.401995
1954.000000	18.306819
1953.000000	18.229183
1952.000000	18.142578
1951.000000	18.085971
1950.000000	18.039230
1949.000000	17.958903
1948.000000	17.884356
1947.000000	17.801339
1946.000000	17.756591
1945.000000	17.700681
1944.000000	17.641383
1943.000000	17.585075
1942.000000	17.548300
1941.000000	17.516109
1940.000000	17.493187
1939.000000	17.461993
1938.000000	17.425916
1937.000000	17.426315
1936.000000	17.410170
1935.000000	17.389939
1934.000000	17.422229
1933.000000	17.417545
1932.000000	17.471361
1931.000000	17.510728
1930.000000	17.526474
1929.000000	17.589559
1928.000000	17.658525
1927.000000	17.708754
1926.000000	17.778517
1925.000000	17.865521
1924.000000	17.988203
1923.000000	18.065042
1922.000000	18.190415
1921.000000	18.342797
1920.000000	18.493086
1919.000000	18.612579
1918.000000	18.778116
1917.000000	18.924019
1916.000000	19.092247
1915.000000	19.274627
1914.000000	19.499262
1913.000000	19.752999
1912.000000	19.992684
1911.000000	20.217519
1910.000000	20.467170
1909.000000	20.694197
1908.000000	20.961588
1907.000000	21.276715
1906.000000	21.633701
1905.000000	22.024372
1904.000000	22.410857
1903.000000	22.759969
1902.000000	23.132103
1901.000000	23.537524
1900.000000	23.986596
1899.000000	24.456896
1898.000000	24.892315
1897.000000	25.373976
1896.000000	25.798532
1895.000000	26.207640
1894.000000	26.692391
1893.000000	27.190098
1892.000000	27.721390
1891.000000	28.262848
1890.000000	28.773511
1889.000000	29.232649
1888.000000	29.731452
1887.000000	30.189793
1886.000000	30.652020
1885.000000	31.134180
1884.000000	31.597105
1883.000000	32.016080
1882.000000	32.406352
1881.000000	32.797720
1880.000000	33.154507
1879.000000	33.508702
1878.000000	33.853429
1877.000000	34.196063
1876.000000	34.527635
1875.000000	34.856217
1874.000000	35.162276
1873.000000	35.450695
1872.000000	35.715693
1871.000000	35.946010
1870.000000	36.131678
1869.000000	36.307978
1868.000000	36.467137
1867.000000	36.570884
1866.000000	36.669050
1865.000000	36.763728
1864.000000	36.860000
1863.000000	36.973215
1862.000000	37.116029
1861.000000	37.244193
1860.000000	37.363886
1859.000000	37.459062
1858.000000	37.533708
1857.000000	37.598488
1856.000000	37.655394
1855.000000	37.708414
1854.000000	37.753062
1853.000000	37.773692
1852.000000	37.801099
1851.000000	37.849534
1850.000000	37.911822
1849.000000	37.993544
1848.000000	38.026033
1847.000000	38.005005
1846.000000	37.956071
1845.000000	37.918400
1844.000000	37.917802
1843.000000	37.950291
1842.000000	37.984873
1841.000000	37.990554
1840.000000	37.978096
1839.000000	37.950291
1838.000000	37.921090
1837.000000	37.903949
1836.000000	37.857108
1835.000000	37.786648
1834.000000	37.729442
1833.000000	37.690375
1832.000000	37.672337
1831.000000	37.663666
1830.000000	37.632572
1829.000000	37.599385
1828.000000	37.550451
1827.000000	37.505006
1826.000000	37.479592
1825.000000	37.448997
1824.000000	37.432552
1823.000000	37.473114
1822.000000	37.516168
1821.000000	37.528327
1820.000000	37.509491
1819.000000	37.449395
1818.000000	37.413717
1817.000000	37.414713
1816.000000	37.426672
1815.000000	37.410428
1814.000000	37.377141
1813.000000	37.374151
1812.000000	37.362192
1811.000000	37.345847
1810.000000	37.291632
1809.000000	37.264723
1808.000000	37.260936
1807.000000	37.245290
1806.000000	37.221570
1805.000000	37.194562
1804.000000	37.167355
1803.000000	37.154498
1802.000000	37.161375
1801.000000	37.142738
1800.000000	37.102475
1799.000000	37.063508
1798.000000	37.038991
1797.000000	37.022149
1796.000000	37.000423
1795.000000	36.989958
1794.000000	36.972717
1793.000000	36.956073
1792.000000	36.937636
1791.000000	36.931457
1790.000000	36.926375
1789.000000	36.920096
1788.000000	36.913718
1787.000000	36.923983
1786.000000	36.941124
1785.000000	36.938234
1784.000000	36.915511
1783.000000	36.905745
1782.000000	36.893187
1781.000000	36.887208
1780.000000	36.885713
1779.000000	36.870963
1778.000000	36.842360
1777.000000	36.811565
1776.000000	36.787248
1775.000000	36.768711
1774.000000	36.743098
1773.000000	36.708316
1772.000000	36.679016
1771.000000	36.639152
1770.000000	36.602676
1769.000000	36.571382
1768.000000	36.537099
1767.000000	36.507400
1766.000000	36.483581
1765.000000	36.450194
1764.000000	36.410928
1763.000000	36.399766
1762.000000	36.389302
1761.000000	36.368772
1760.000000	36.353324
1759.000000	36.329904
1758.000000	36.346746
1757.000000	36.347145
1756.000000	36.320735
1755.000000	36.301102
1754.000000	36.289641
1753.000000	36.279675
1752.000000	36.283860
1751.000000	36.266519
1750.000000	36.245591
1749.000000	36.222868
1748.000000	36.176027
1747.000000	36.149617
1746.000000	36.104670
1745.000000	36.063311
1744.000000	36.011288
1743.000000	35.951292
1742.000000	35.909135
1741.000000	35.845352
1740.000000	35.796817
1739.000000	35.739811
1738.000000	35.700146
1737.000000	35.651512
1736.000000	35.620318
1735.000000	35.596698
1734.000000	35.562614
1733.000000	35.517268
1732.000000	35.511687
1731.000000	35.470129
1730.000000	35.446011
1729.000000	35.422192
1728.000000	35.386713
1727.000000	35.366581
1726.000000	35.358508
1725.000000	35.347247
1724.000000	35.345453
1723.000000	35.391397
1722.000000	35.450994
1721.000000	35.520557
1720.000000	35.642841
1719.000000	35.795223
1718.000000	35.949000
1717.000000	36.118324
1716.000000	36.265124
1715.000000	36.429365
1714.000000	36.595799
1713.000000	36.706522
1712.000000	36.831198
1711.000000	36.943118
1710.000000	37.018262
1709.000000	37.117823
1708.000000	37.196456
1707.000000	37.241702
1706.000000	37.293625
1705.000000	37.321032
1704.000000	37.358205
1703.000000	37.372756
1702.000000	37.386310
1701.000000	37.390994
1700.000000	37.402056
1699.000000	37.396575
1698.000000	37.389698
1697.000000	37.376742
1696.000000	37.360498
1695.000000	37.332991
1694.000000	37.309671
1693.000000	37.253761
1692.000000	37.205325
1691.000000	37.146924
1690.000000	37.123305
1689.000000	37.112342
1688.000000	37.149914
1687.000000	37.178218
1686.000000	37.276184
1685.000000	37.384516
1684.000000	37.550053
1683.000000	37.710607
1682.000000	37.876243
1681.000000	38.056031
1680.000000	38.227149
1679.000000	38.391390
1678.000000	38.554037
1677.000000	38.694061
1676.000000	38.840861
1675.000000	38.973311
1674.000000	39.124496
1673.000000	39.260534
1672.000000	39.392684
1671.000000	39.518356
1670.000000	39.660473
1669.000000	39.800397
1668.000000	39.945503
1667.000000	40.056326
1666.000000	40.172531
1665.000000	40.278869
1664.000000	40.385506
1663.000000	40.500714
1662.000000	40.605159
1661.000000	40.685286
1660.000000	40.761328
1659.000000	40.831190
1658.000000	40.917198
1657.000000	40.945302
1656.000000	41.016858
1655.000000	41.043667
1654.000000	41.060510
1653.000000	41.080243
1652.000000	41.089810
1651.000000	41.115622
1650.000000	41.109344
1649.000000	41.102866
1648.000000	41.082136
1647.000000	41.083631
1646.000000	41.064197
1645.000000	41.054431
1644.000000	41.036492
1643.000000	41.017855
1642.000000	41.008985
1641.000000	40.997425
1640.000000	40.986761
1639.000000	40.965433
1638.000000	40.947993
1637.000000	40.908926
1636.000000	40.890787
1635.000000	40.857102
1634.000000	40.851720
1633.000000	40.823716
1632.000000	40.779964
1631.000000	40.736014
1630.000000	40.704421
1629.000000	40.655986
1628.000000	40.619909
1627.000000	40.596389
1626.000000	40.544266
1625.000000	40.493340
1624.000000	40.467428
