PE UV       SUBTECH     SPECTRUM    ASCII       PEDS        4.00        
   -1
CICIMAUCR0006-1.Sample.ASC
24/03/08
11:34:28.00
24/03/08
11:34:28.00
Vinicio Soto Monge
C. kalinini
250,000000
1
Lambda 1050
1050L1511233
PerkinElmer UV WinLab 6.3.2.0749 / 2.02.05 Lambda 900 UV/VIS/NIR, Aug  7 2015 09:38:08

0
0
3350/servo 860,8/2
0
0
UV/VIS
1
1
1
DoubleDePol,CommonBeamDepol,RBeamAtt,SBeamAtt,60mm sphere, WB InGaAs Detector
0
0
0
0
Program
Program
3350/servo 860,8/2
3350/0,2 860,8/0,2
3350/0,2 860,8/0,2
0
15.00
 
 
 
0
 
860,8
319,2
860,8
Front
100
on
S:100 R:100
0
0
0
0
 
0
 
 
 
0
 
 
0
0
0
0
0
 
 
 
 
0
0


0
0
#HDR
-1
-1
#GR
nm
%R
1.0
0.0
2500,000000
-1,000000
2251
8
34,259900
1,836500
#DATA
2500.000000	2.626859
2499.000000	2.610143
2498.000000	2.360149
2497.000000	2.512324
2496.000000	2.317059
2495.000000	2.423173
2494.000000	2.403610
2493.000000	2.353215
2492.000000	2.313220
2491.000000	2.273969
2490.000000	2.360644
2489.000000	2.382560
2488.000000	2.381198
2487.000000	2.295390
2486.000000	2.310249
2485.000000	2.399771
2484.000000	2.354081
2483.000000	2.288580
2482.000000	2.307401
2481.000000	2.360025
2480.000000	2.325355
2479.000000	2.327831
2478.000000	2.279913
2477.000000	2.317802
2476.000000	2.322136
2475.000000	2.285361
2474.000000	2.323498
2473.000000	2.299848
2472.000000	2.285980
2471.000000	2.387884
2470.000000	2.355072
2469.000000	2.316316
2468.000000	2.299972
2467.000000	2.321145
2466.000000	2.319164
2465.000000	2.332537
2464.000000	2.349005
2463.000000	2.382436
2462.000000	2.391723
2461.000000	2.381322
2460.000000	2.362377
2459.000000	2.367330
2458.000000	2.395314
2457.000000	2.384789
2456.000000	2.425650
2455.000000	2.445585
2454.000000	2.441375
2453.000000	2.450290
2452.000000	2.495609
2451.000000	2.513934
2450.000000	2.538822
2449.000000	2.544765
2448.000000	2.558881
2447.000000	2.600609
2446.000000	2.602961
2445.000000	2.613610
2444.000000	2.650632
2443.000000	2.654594
2442.000000	2.702885
2441.000000	2.702018
2440.000000	2.712171
2439.000000	2.748698
2438.000000	2.754270
2437.000000	2.758852
2436.000000	2.783863
2435.000000	2.802313
2434.000000	2.819771
2433.000000	2.847631
2432.000000	2.845279
2431.000000	2.863728
2430.000000	2.895054
2429.000000	2.908303
2428.000000	2.907313
2427.000000	2.933439
2426.000000	2.949536
2425.000000	2.992873
2424.000000	3.008474
2423.000000	3.049831
2422.000000	3.083881
2421.000000	3.102826
2420.000000	3.140467
2419.000000	3.157926
2418.000000	3.166346
2417.000000	3.174642
2416.000000	3.179471
2415.000000	3.227266
2414.000000	3.254878
2413.000000	3.257602
2412.000000	3.272213
2411.000000	3.300568
2410.000000	3.337466
2409.000000	3.333380
2408.000000	3.350963
2407.000000	3.383032
2406.000000	3.378327
2405.000000	3.402967
2404.000000	3.439495
2403.000000	3.438504
2402.000000	3.435656
2401.000000	3.473917
2400.000000	3.512549
2399.000000	3.521464
2398.000000	3.533103
2397.000000	3.553657
2396.000000	3.566906
2395.000000	3.584613
2394.000000	3.592042
2393.000000	3.613215
2392.000000	3.638598
2391.000000	3.665468
2390.000000	3.681069
2389.000000	3.687508
2388.000000	3.696423
2387.000000	3.692956
2386.000000	3.710910
2385.000000	3.725149
2384.000000	3.745332
2383.000000	3.742856
2382.000000	3.744094
2381.000000	3.756600
2380.000000	3.761553
2379.000000	3.767620
2378.000000	3.772696
2377.000000	3.775049
2376.000000	3.770963
2375.000000	3.764648
2374.000000	3.777649
2373.000000	3.795108
2372.000000	3.779754
2371.000000	3.786812
2370.000000	3.792879
2369.000000	3.771582
2368.000000	3.757343
2367.000000	3.746570
2366.000000	3.763286
2365.000000	3.771954
2364.000000	3.753628
2363.000000	3.746570
2362.000000	3.736293
2361.000000	3.727130
2360.000000	3.694813
2359.000000	3.683050
2358.000000	3.690727
2357.000000	3.668687
2356.000000	3.652466
2355.000000	3.653952
2354.000000	3.649866
2353.000000	3.633646
2352.000000	3.635751
2351.000000	3.659896
2350.000000	3.670668
2349.000000	3.666706
2348.000000	3.691099
2347.000000	3.717349
2346.000000	3.723168
2345.000000	3.733445
2344.000000	3.755238
2343.000000	3.803280
2342.000000	3.808233
2341.000000	3.813433
2340.000000	3.820739
2339.000000	3.815291
2338.000000	3.832007
2337.000000	3.855037
2336.000000	3.859742
2335.000000	3.854666
2334.000000	3.866924
2333.000000	3.869896
2332.000000	3.870515
2331.000000	3.863829
2330.000000	3.842531
2329.000000	3.832254
2328.000000	3.822349
2327.000000	3.805757
2326.000000	3.794489
2325.000000	3.750409
2324.000000	3.748923
2323.000000	3.729483
2322.000000	3.683669
2321.000000	3.666582
2320.000000	3.632160
2319.000000	3.618168
2318.000000	3.594394
2317.000000	3.546104
2316.000000	3.505491
2315.000000	3.475526
2314.000000	3.430208
2313.000000	3.382661
2312.000000	3.365078
2311.000000	3.348610
2310.000000	3.339447
2309.000000	3.306635
2308.000000	3.303044
2307.000000	3.278280
2306.000000	3.266145
2305.000000	3.264660
2304.000000	3.272832
2303.000000	3.270727
2302.000000	3.297720
2301.000000	3.301558
2300.000000	3.327437
2299.000000	3.347496
2298.000000	3.361240
2297.000000	3.389471
2296.000000	3.412625
2295.000000	3.403834
2294.000000	3.435409
2293.000000	3.461039
2292.000000	3.478870
2291.000000	3.483203
2290.000000	3.498557
2289.000000	3.491871
2288.000000	3.480108
2287.000000	3.465992
2286.000000	3.479489
2285.000000	3.464383
2284.000000	3.438009
2283.000000	3.395414
2282.000000	3.388604
2281.000000	3.364954
2280.000000	3.346877
2279.000000	3.333380
2278.000000	3.277289
2277.000000	3.286947
2276.000000	3.264907
2275.000000	3.241134
2274.000000	3.212160
2273.000000	3.206216
2272.000000	3.205473
2271.000000	3.184176
2270.000000	3.200273
2269.000000	3.176375
2268.000000	3.184919
2267.000000	3.201263
2266.000000	3.218103
2265.000000	3.259088
2264.000000	3.273451
2263.000000	3.290910
2262.000000	3.318026
2261.000000	3.366812
2260.000000	3.412873
2259.000000	3.475403
2258.000000	3.506729
2257.000000	3.590432
2256.000000	3.645161
2255.000000	3.679707
2254.000000	3.735426
2253.000000	3.781983
2252.000000	3.853428
2251.000000	3.881040
2250.000000	3.923139
2249.000000	3.956447
2248.000000	4.014518
2247.000000	4.064294
2246.000000	4.113699
2245.000000	4.153198
2244.000000	4.163227
2243.000000	4.180810
2242.000000	4.237520
2241.000000	4.240615
2240.000000	4.259560
2239.000000	4.328900
2238.000000	4.351806
2237.000000	4.336081
2236.000000	4.346482
2235.000000	4.382514
2234.000000	4.377313
2233.000000	4.393534
2232.000000	4.411612
2231.000000	4.416936
2230.000000	4.413345
2229.000000	4.378552
2228.000000	4.380904
2227.000000	4.372113
2226.000000	4.372237
2225.000000	4.360721
2224.000000	4.347225
2223.000000	4.322337
2222.000000	4.293239
2221.000000	4.290515
2220.000000	4.241606
2219.000000	4.206936
2218.000000	4.219566
2217.000000	4.200869
2216.000000	4.169542
2215.000000	4.141682
2214.000000	4.122366
2213.000000	4.121004
2212.000000	4.116547
2211.000000	4.094754
2210.000000	4.098469
2209.000000	4.121128
2208.000000	4.174619
2207.000000	4.186629
2206.000000	4.214489
2205.000000	4.219937
2204.000000	4.306117
2203.000000	4.361588
2202.000000	4.427461
2201.000000	4.491476
2200.000000	4.533452
2199.000000	4.614802
2198.000000	4.676960
2197.000000	4.755958
2196.000000	4.820963
2195.000000	4.889808
2194.000000	4.966701
2193.000000	5.009171
2192.000000	5.069472
2191.000000	5.140545
2190.000000	5.189083
2189.000000	5.208151
2188.000000	5.214342
2187.000000	5.277491
2186.000000	5.308446
2185.000000	5.348935
2184.000000	5.366270
2183.000000	5.375185
2182.000000	5.382243
2181.000000	5.394006
2180.000000	5.397597
2179.000000	5.428305
2178.000000	5.430905
2177.000000	5.451211
2176.000000	5.437220
2175.000000	5.471270
2174.000000	5.467556
2173.000000	5.452573
2172.000000	5.471642
2171.000000	5.479814
2170.000000	5.488729
2169.000000	5.505569
2168.000000	5.537515
2167.000000	5.541724
2166.000000	5.556459
2165.000000	5.568965
2164.000000	5.554849
2163.000000	5.547668
2162.000000	5.548287
2161.000000	5.560050
2160.000000	5.554354
2159.000000	5.581347
2158.000000	5.583576
2157.000000	5.580357
2156.000000	5.593358
2155.000000	5.582709
2154.000000	5.606730
2153.000000	5.636695
2152.000000	5.653535
2151.000000	5.661212
2150.000000	5.671117
2149.000000	5.673470
2148.000000	5.687833
2147.000000	5.718788
2146.000000	5.717179
2145.000000	5.717550
2144.000000	5.736247
2143.000000	5.753829
2142.000000	5.756925
2141.000000	5.778841
2140.000000	5.802120
2139.000000	5.798157
2138.000000	5.811159
2137.000000	5.798529
2136.000000	5.803358
2135.000000	5.825893
2134.000000	5.836789
2133.000000	5.848057
2132.000000	5.853258
2131.000000	5.855115
2130.000000	5.843476
2129.000000	5.848676
2128.000000	5.864154
2127.000000	5.871707
2126.000000	5.884584
2125.000000	5.885946
2124.000000	5.883098
2123.000000	5.878269
2122.000000	5.885451
2121.000000	5.886813
2120.000000	5.890156
2119.000000	5.888670
2118.000000	5.877031
2117.000000	5.847933
2116.000000	5.841866
2115.000000	5.867249
2114.000000	5.859944
2113.000000	5.840628
2112.000000	5.853010
2111.000000	5.865144
2110.000000	5.851029
2109.000000	5.829732
2108.000000	5.827874
2107.000000	5.839266
2106.000000	5.850657
2105.000000	5.849914
2104.000000	5.827751
2103.000000	5.813883
2102.000000	5.817473
2101.000000	5.819950
2100.000000	5.822055
2099.000000	5.819578
2098.000000	5.808682
2097.000000	5.809920
2096.000000	5.809673
2095.000000	5.803605
2094.000000	5.800510
2093.000000	5.796052
2092.000000	5.807815
2091.000000	5.823912
2090.000000	5.820445
2089.000000	5.807320
2088.000000	5.799891
2087.000000	5.809673
2086.000000	5.797291
2085.000000	5.789366
2084.000000	5.797786
2083.000000	5.806577
2082.000000	5.810416
2081.000000	5.799891
2080.000000	5.801253
2079.000000	5.794567
2078.000000	5.784166
2077.000000	5.787756
2076.000000	5.808063
2075.000000	5.804596
2074.000000	5.784537
2073.000000	5.779584
2072.000000	5.777975
2071.000000	5.764973
2070.000000	5.772650
2069.000000	5.764726
2068.000000	5.755192
2067.000000	5.770050
2066.000000	5.752839
2065.000000	5.748010
2064.000000	5.738847
2063.000000	5.749867
2062.000000	5.760763
2061.000000	5.760268
2060.000000	5.751601
2059.000000	5.756058
2058.000000	5.774879
2057.000000	5.763611
2056.000000	5.790852
2055.000000	5.805215
2054.000000	5.815740
2053.000000	5.828617
2052.000000	5.865516
2051.000000	5.891890
2050.000000	5.916778
2049.000000	5.928664
2048.000000	5.973488
2047.000000	5.989089
2046.000000	6.043199
2045.000000	6.066601
2044.000000	6.112910
2043.000000	6.165038
2042.000000	6.195994
2041.000000	6.227320
2040.000000	6.274867
2039.000000	6.309909
2038.000000	6.341978
2037.000000	6.381477
2036.000000	6.402031
2035.000000	6.419985
2034.000000	6.451436
2033.000000	6.476200
2032.000000	6.495145
2031.000000	6.541082
2030.000000	6.565599
2029.000000	6.584543
2028.000000	6.608936
2027.000000	6.657845
2026.000000	6.658217
2025.000000	6.644844
2024.000000	6.671466
2023.000000	6.694249
2022.000000	6.696354
2021.000000	6.722851
2020.000000	6.753559
2019.000000	6.755788
2018.000000	6.743529
2017.000000	6.767427
2016.000000	6.782161
2015.000000	6.787733
2014.000000	6.782161
2013.000000	6.786743
2012.000000	6.780799
2011.000000	6.801354
2010.000000	6.797639
2009.000000	6.797020
2008.000000	6.806430
2007.000000	6.782161
2006.000000	6.775227
2005.000000	6.761855
2004.000000	6.737586
2003.000000	6.743158
2002.000000	6.736595
2001.000000	6.698830
2000.000000	6.668494
1999.000000	6.688553
1998.000000	6.668865
1997.000000	6.653759
1996.000000	6.646330
1995.000000	6.627262
1994.000000	6.598164
1993.000000	6.572904
1992.000000	6.544302
1991.000000	6.544673
1990.000000	6.486477
1989.000000	6.462208
1988.000000	6.445988
1987.000000	6.412928
1986.000000	6.409832
1985.000000	6.369343
1984.000000	6.320805
1983.000000	6.310033
1982.000000	6.263600
1981.000000	6.261495
1980.000000	6.209242
1979.000000	6.183735
1978.000000	6.155504
1977.000000	6.111300
1976.000000	6.090746
1975.000000	6.050133
1974.000000	6.004195
1973.000000	5.998623
1972.000000	5.991813
1971.000000	5.957886
1970.000000	5.906996
1969.000000	5.884213
1968.000000	5.859077
1967.000000	5.839637
1966.000000	5.808311
1965.000000	5.767326
1964.000000	5.734018
1963.000000	5.710492
1962.000000	5.679413
1961.000000	5.642019
1960.000000	5.638057
1959.000000	5.605368
1958.000000	5.575280
1957.000000	5.565498
1956.000000	5.508664
1955.000000	5.478700
1954.000000	5.468299
1953.000000	5.433010
1952.000000	5.443658
1951.000000	5.388310
1950.000000	5.368128
1949.000000	5.371223
1948.000000	5.331724
1947.000000	5.314018
1946.000000	5.286901
1945.000000	5.282444
1944.000000	5.269442
1943.000000	5.247031
1942.000000	5.225115
1941.000000	5.226353
1940.000000	5.217314
1939.000000	5.204932
1938.000000	5.198245
1937.000000	5.209637
1936.000000	5.243440
1935.000000	5.228334
1934.000000	5.230315
1933.000000	5.225362
1932.000000	5.285168
1931.000000	5.306217
1930.000000	5.300521
1929.000000	5.339896
1928.000000	5.360203
1927.000000	5.379767
1926.000000	5.399578
1925.000000	5.432267
1924.000000	5.479938
1923.000000	5.522285
1922.000000	5.563765
1921.000000	5.596206
1920.000000	5.654525
1919.000000	5.724484
1918.000000	5.774879
1917.000000	5.823417
1916.000000	5.876164
1915.000000	5.940675
1914.000000	6.016825
1913.000000	6.070935
1912.000000	6.133093
1911.000000	6.225834
1910.000000	6.278458
1909.000000	6.359932
1908.000000	6.452550
1907.000000	6.547892
1906.000000	6.637910
1905.000000	6.725080
1904.000000	6.789838
1903.000000	6.895334
1902.000000	7.005039
1901.000000	7.102733
1900.000000	7.185074
1899.000000	7.265682
1898.000000	7.377120
1897.000000	7.489054
1896.000000	7.588359
1895.000000	7.722333
1894.000000	7.835505
1893.000000	7.967869
1892.000000	8.072746
1891.000000	8.180594
1890.000000	8.293642
1889.000000	8.432321
1888.000000	8.568648
1887.000000	8.722062
1886.000000	8.878076
1885.000000	9.043625
1884.000000	9.218584
1883.000000	9.397257
1882.000000	9.585217
1881.000000	9.807723
1880.000000	10.015990
1879.000000	10.196768
1878.000000	10.390548
1877.000000	10.580860
1876.000000	10.732293
1875.000000	10.873077
1874.000000	11.019433
1873.000000	11.130501
1872.000000	11.239835
1871.000000	11.333938
1870.000000	11.408850
1869.000000	11.486857
1868.000000	11.593219
1867.000000	11.704534
1866.000000	11.776969
1865.000000	11.844080
1864.000000	11.938432
1863.000000	12.039717
1862.000000	12.101132
1861.000000	12.119705
1860.000000	12.122801
1859.000000	12.118343
1858.000000	12.128744
1857.000000	12.168862
1856.000000	12.213685
1855.000000	12.228915
1854.000000	12.205018
1853.000000	12.175053
1852.000000	12.183721
1851.000000	12.231763
1850.000000	12.270148
1849.000000	12.243650
1848.000000	12.159576
1847.000000	12.053585
1846.000000	12.024859
1845.000000	12.070920
1844.000000	12.125896
1843.000000	12.160690
1842.000000	12.139517
1841.000000	12.064481
1840.000000	12.020401
1839.000000	12.008267
1838.000000	11.984245
1837.000000	11.952176
1836.000000	11.922954
1835.000000	11.896952
1834.000000	11.887789
1833.000000	11.872187
1832.000000	11.872807
1831.000000	11.863520
1830.000000	11.813249
1829.000000	11.764959
1828.000000	11.716916
1827.000000	11.667883
1826.000000	11.632099
1825.000000	11.613773
1824.000000	11.621450
1823.000000	11.669369
1822.000000	11.667883
1821.000000	11.585171
1820.000000	11.505802
1819.000000	11.477570
1818.000000	11.484752
1817.000000	11.498868
1816.000000	11.490324
1815.000000	11.463703
1814.000000	11.468655
1813.000000	11.473732
1812.000000	11.455902
1811.000000	11.428785
1810.000000	11.419870
1809.000000	11.427918
1808.000000	11.408355
1807.000000	11.365513
1806.000000	11.333815
1805.000000	11.300383
1804.000000	11.279457
1803.000000	11.264103
1802.000000	11.229186
1801.000000	11.201202
1800.000000	11.174333
1799.000000	11.149693
1798.000000	11.145235
1797.000000	11.135825
1796.000000	11.103384
1795.000000	11.084935
1794.000000	11.074534
1793.000000	11.042712
1792.000000	11.029463
1791.000000	11.002099
1790.000000	10.969534
1789.000000	10.937340
1788.000000	10.930530
1787.000000	10.919634
1786.000000	10.886450
1785.000000	10.832836
1784.000000	10.810672
1783.000000	10.803490
1782.000000	10.758048
1781.000000	10.738360
1780.000000	10.730560
1779.000000	10.698985
1778.000000	10.665554
1777.000000	10.605500
1776.000000	10.570088
1775.000000	10.529722
1774.000000	10.502234
1773.000000	10.470783
1772.000000	10.433018
1771.000000	10.391167
1770.000000	10.344239
1769.000000	10.307092
1768.000000	10.290005
1767.000000	10.234905
1766.000000	10.209893
1765.000000	10.197263
1764.000000	10.189834
1763.000000	10.202340
1762.000000	10.206426
1761.000000	10.219551
1760.000000	10.276509
1759.000000	10.329380
1758.000000	10.329628
1757.000000	10.371232
1756.000000	10.421007
1755.000000	10.471650
1754.000000	10.488242
1753.000000	10.479203
1752.000000	10.511397
1751.000000	10.495795
1750.000000	10.519816
1749.000000	10.520064
1748.000000	10.483042
1747.000000	10.467812
1746.000000	10.427570
1745.000000	10.365288
1744.000000	10.330247
1743.000000	10.287405
1742.000000	10.246172
1741.000000	10.155288
1740.000000	10.067623
1739.000000	10.001998
1738.000000	9.919533
1737.000000	9.854775
1736.000000	9.808218
1735.000000	9.761785
1734.000000	9.731821
1733.000000	9.743831
1732.000000	9.765995
1731.000000	9.803018
1730.000000	9.822086
1729.000000	9.900712
1728.000000	9.920028
1727.000000	9.997664
1726.000000	10.032210
1725.000000	10.035553
1724.000000	10.070099
1723.000000	10.109598
1722.000000	10.111084
1721.000000	10.116656
1720.000000	10.145506
1719.000000	10.155536
1718.000000	10.151821
1717.000000	10.168289
1716.000000	10.200111
1715.000000	10.228590
1714.000000	10.263755
1713.000000	10.267470
1712.000000	10.300777
1711.000000	10.279109
1710.000000	10.283690
1709.000000	10.300282
1708.000000	10.268336
1707.000000	10.269946
1706.000000	10.251992
1705.000000	10.241096
1704.000000	10.218808
1703.000000	10.154917
1702.000000	10.117523
1701.000000	10.060565
1700.000000	10.008437
1699.000000	9.946526
1698.000000	9.852670
1697.000000	9.778377
1696.000000	9.765005
1695.000000	9.777263
1694.000000	9.773920
1693.000000	9.806237
1692.000000	9.869881
1691.000000	9.905046
1690.000000	9.963118
1689.000000	10.017723
1688.000000	10.056108
1687.000000	10.057841
1686.000000	10.040382
1685.000000	10.047316
1684.000000	10.090158
1683.000000	10.142782
1682.000000	10.274651
1681.000000	10.417045
1680.000000	10.617016
1679.000000	10.817853
1678.000000	11.022158
1677.000000	11.230177
1676.000000	11.386686
1675.000000	11.529204
1674.000000	11.655872
1673.000000	11.793809
1672.000000	11.883950
1671.000000	11.979045
1670.000000	12.040955
1669.000000	12.101751
1668.000000	12.167376
1667.000000	12.232877
1666.000000	12.255784
1665.000000	12.304446
1664.000000	12.322276
1663.000000	12.341840
1662.000000	12.367471
1661.000000	12.407712
1660.000000	12.417742
1659.000000	12.412541
1658.000000	12.426657
1657.000000	12.434582
1656.000000	12.442258
1655.000000	12.446097
1654.000000	12.442506
1653.000000	12.431238
1652.000000	12.442382
1651.000000	12.432724
1650.000000	12.435077
1649.000000	12.416751
1648.000000	12.388396
1647.000000	12.385549
1646.000000	12.393845
1645.000000	12.360661
1644.000000	12.343078
1643.000000	12.326610
1642.000000	12.309770
1641.000000	12.284015
1640.000000	12.275719
1639.000000	12.277701
1638.000000	12.269033
1637.000000	12.250708
1636.000000	12.223591
1635.000000	12.216781
1634.000000	12.189664
1633.000000	12.158956
1632.000000	12.143355
1631.000000	12.127630
1630.000000	12.114629
1629.000000	12.104723
1628.000000	12.088502
1627.000000	12.067453
1626.000000	12.040831
1625.000000	12.011238
1624.000000	12.015077
1623.000000	11.996132
1622.000000	11.975702
1621.000000	11.954157
1620.000000	11.924440
1619.000000	11.896209
1618.000000	11.877512
1617.000000	11.860177
1616.000000	11.837394
1615.000000	11.811639
1614.000000	11.789970
1613.000000	11.780931
1612.000000	11.763101
1611.000000	11.751214
1610.000000	11.739575
1609.000000	11.722364
1608.000000	11.686456
1607.000000	11.672464
1606.000000	11.657854
1605.000000	11.632718
1604.000000	11.598048
1603.000000	11.566598
1602.000000	11.547158
1601.000000	11.540595
1600.000000	11.513850
1599.000000	11.489953
1598.000000	11.467789
1597.000000	11.440796
1596.000000	11.407736
1595.000000	11.370094
