PE UV       SUBTECH     SPECTRUM    ASCII       PEDS        4.00        
   -1
CICIMAUCR0071-1.ASC
24/04/03
15:28:35.00
24/04/03
15:28:35.00
Vinicio Soto Monge
C. resplendens
250,000000
1
Lambda 1050
1050L1511233
PerkinElmer UV WinLab 6.3.2.0749 / 2.02.05 Lambda 900 UV/VIS/NIR, Aug  7 2015 09:38:08

0
0
3350/servo 860,8/2
0
0
UV/VIS
1
1
1
DoubleDePol,CommonBeamDepol,RBeamAtt,SBeamAtt,60mm sphere, WB InGaAs Detector
0
0
0
0
Program
Program
3350/servo 860,8/2
3350/0,2 860,8/0,2
3350/0,2 860,8/0,2
0
15.00
 
 
 
0
 
860,8
319,2
860,8
Front
100
on
S:100 R:100
0
0
0
0
 
0
 
 
 
0
 
 
0
0
0
0
0
 
 
 
 
0
0


0
0
#HDR
-1
-1
#GR
nm
%R
1.0
0.0
2500,000000
-1,000000
2251
8
72,736100
5,101300
#DATA
2500.000000	8.004423
2499.000000	7.784653
2498.000000	7.952195
2497.000000	7.849912
2496.000000	7.930969
2495.000000	7.987639
2494.000000	8.005114
2493.000000	7.892859
2492.000000	7.902041
2491.000000	7.923564
2490.000000	7.946864
2489.000000	7.986750
2488.000000	7.969769
2487.000000	7.942717
2486.000000	7.948838
2485.000000	7.965524
2484.000000	7.985763
2483.000000	7.990502
2482.000000	7.957428
2481.000000	8.030290
2480.000000	8.038879
2479.000000	8.047765
2478.000000	8.080641
2477.000000	8.064746
2476.000000	8.120528
2475.000000	8.129709
2474.000000	8.100091
2473.000000	8.190526
2472.000000	8.175421
2471.000000	8.209482
2470.000000	8.281159
2469.000000	8.300609
2468.000000	8.309692
2467.000000	8.351651
2466.000000	8.387588
2465.000000	8.415726
2464.000000	8.405853
2463.000000	8.472396
2462.000000	8.474766
2461.000000	8.540519
2460.000000	8.596992
2459.000000	8.628684
2458.000000	8.660672
2457.000000	8.717441
2456.000000	8.768483
2455.000000	8.816959
2454.000000	8.878467
2453.000000	8.907296
2452.000000	8.945701
2451.000000	9.055586
2450.000000	9.102186
2449.000000	9.127066
2448.000000	9.200816
2447.000000	9.277331
2446.000000	9.337062
2445.000000	9.417130
2444.000000	9.499273
2443.000000	9.535407
2442.000000	9.610737
2441.000000	9.685376
2440.000000	9.752512
2439.000000	9.818364
2438.000000	9.902678
2437.000000	9.954905
2436.000000	10.003282
2435.000000	10.081377
2434.000000	10.148315
2433.000000	10.232333
2432.000000	10.289398
2431.000000	10.368479
2430.000000	10.431666
2429.000000	10.485769
2428.000000	10.557841
2427.000000	10.616486
2426.000000	10.659433
2425.000000	10.736342
2424.000000	10.810290
2423.000000	10.875451
2422.000000	10.936860
2421.000000	10.978820
2420.000000	11.009821
2419.000000	11.018114
2418.000000	11.021865
2417.000000	11.042204
2416.000000	11.064319
2415.000000	11.106575
2414.000000	11.164035
2413.000000	11.195924
2412.000000	11.217644
2411.000000	11.256741
2410.000000	11.294356
2409.000000	11.325061
2408.000000	11.350138
2407.000000	11.377683
2406.000000	11.401181
2405.000000	11.398515
2404.000000	11.414904
2403.000000	11.456074
2402.000000	11.489839
2401.000000	11.502081
2400.000000	11.491517
2399.000000	11.517582
2398.000000	11.547398
2397.000000	11.577313
2396.000000	11.597749
2395.000000	11.585408
2394.000000	11.603969
2393.000000	11.626282
2392.000000	11.640993
2391.000000	11.662121
2390.000000	11.670710
2389.000000	11.676140
2388.000000	11.702698
2387.000000	11.714644
2386.000000	11.705462
2385.000000	11.713657
2384.000000	11.726492
2383.000000	11.728269
2382.000000	11.716125
2381.000000	11.716717
2380.000000	11.720074
2379.000000	11.718297
2378.000000	11.719975
2377.000000	11.720667
2376.000000	11.710892
2375.000000	11.705956
2374.000000	11.708720
2373.000000	11.701513
2372.000000	11.705166
2371.000000	11.697564
2370.000000	11.696083
2369.000000	11.689172
2368.000000	11.668044
2367.000000	11.667551
2366.000000	11.671598
2365.000000	11.667946
2364.000000	11.667649
2363.000000	11.667649
2362.000000	11.662318
2361.000000	11.652643
2360.000000	11.638327
2359.000000	11.634674
2358.000000	11.620260
2357.000000	11.586593
2356.000000	11.580867
2355.000000	11.589851
2354.000000	11.570105
2353.000000	11.542363
2352.000000	11.530120
2351.000000	11.511856
2350.000000	11.487667
2349.000000	11.470390
2348.000000	11.459727
2347.000000	11.437908
2346.000000	11.432675
2345.000000	11.419347
2344.000000	11.389926
2343.000000	11.378276
2342.000000	11.360307
2341.000000	11.343918
2340.000000	11.335329
2339.000000	11.325752
2338.000000	11.316077
2337.000000	11.294653
2336.000000	11.269477
2335.000000	11.254668
2334.000000	11.254371
2333.000000	11.250718
2332.000000	11.259209
2331.000000	11.235909
2330.000000	11.218533
2329.000000	11.222087
2328.000000	11.217151
2327.000000	11.190988
2326.000000	11.175487
2325.000000	11.183188
2324.000000	11.167589
2323.000000	11.153174
2322.000000	11.157815
2321.000000	11.133725
2320.000000	11.116941
2319.000000	11.080806
2318.000000	11.052669
2317.000000	11.033417
2316.000000	11.004094
2315.000000	10.952163
2314.000000	10.911882
2313.000000	10.865381
2312.000000	10.830727
2311.000000	10.805057
2310.000000	10.765270
2309.000000	10.713832
2308.000000	10.673255
2307.000000	10.631887
2306.000000	10.596740
2305.000000	10.571762
2304.000000	10.532665
2303.000000	10.485473
2302.000000	10.471355
2301.000000	10.449733
2300.000000	10.417350
2299.000000	10.387337
2298.000000	10.368282
2297.000000	10.329185
2296.000000	10.309045
2295.000000	10.280117
2294.000000	10.271725
2293.000000	10.250499
2292.000000	10.230654
2291.000000	10.210810
2290.000000	10.194520
2289.000000	10.165691
2288.000000	10.149598
2287.000000	10.145155
2286.000000	10.131333
2285.000000	10.110896
2284.000000	10.095988
2283.000000	10.096482
2282.000000	10.044946
2281.000000	10.043070
2280.000000	10.023522
2279.000000	9.983833
2278.000000	9.961816
2277.000000	9.949771
2276.000000	9.916697
2275.000000	9.874441
2274.000000	9.858349
2273.000000	9.819845
2272.000000	9.797236
2271.000000	9.769394
2270.000000	9.714995
2269.000000	9.710749
2268.000000	9.696138
2267.000000	9.663063
2266.000000	9.622190
2265.000000	9.637098
2264.000000	9.618142
2263.000000	9.628311
2262.000000	9.627324
2261.000000	9.643416
2260.000000	9.667506
2259.000000	9.682316
2258.000000	9.689029
2257.000000	9.721116
2256.000000	9.763470
2255.000000	9.788054
2254.000000	9.842157
2253.000000	9.882438
2252.000000	9.913341
2251.000000	9.980970
2250.000000	10.017894
2249.000000	10.073775
2248.000000	10.097963
2247.000000	10.149894
2246.000000	10.202220
2245.000000	10.223348
2244.000000	10.264716
2243.000000	10.290188
2242.000000	10.338565
2241.000000	10.361766
2240.000000	10.390891
2239.000000	10.402442
2238.000000	10.414586
2237.000000	10.435319
2236.000000	10.439564
2235.000000	10.434628
2234.000000	10.424656
2233.000000	10.405009
2232.000000	10.382598
2231.000000	10.364728
2230.000000	10.309440
2229.000000	10.252769
2228.000000	10.211501
2227.000000	10.142391
2226.000000	10.083154
2225.000000	10.041392
2224.000000	9.981562
2223.000000	9.885894
2222.000000	9.792102
2221.000000	9.697322
2220.000000	9.627422
2219.000000	9.557226
2218.000000	9.463434
2217.000000	9.403703
2216.000000	9.323733
2215.000000	9.285426
2214.000000	9.219377
2213.000000	9.181761
2212.000000	9.127066
2211.000000	9.124992
2210.000000	9.113540
2209.000000	9.122820
2208.000000	9.123413
2207.000000	9.190548
2206.000000	9.254919
2205.000000	9.336765
2204.000000	9.420981
2203.000000	9.534716
2202.000000	9.639270
2201.000000	9.753400
2200.000000	9.904060
2199.000000	10.035073
2198.000000	10.159372
2197.000000	10.309538
2196.000000	10.441242
2195.000000	10.567418
2194.000000	10.722027
2193.000000	10.836058
2192.000000	10.960160
2191.000000	11.054545
2190.000000	11.134120
2189.000000	11.231466
2188.000000	11.331083
2187.000000	11.400490
2186.000000	11.462689
2185.000000	11.544239
2184.000000	11.601797
2183.000000	11.650865
2182.000000	11.691344
2181.000000	11.707634
2180.000000	11.770623
2179.000000	11.799057
2178.000000	11.816433
2177.000000	11.860071
2176.000000	11.885247
2175.000000	11.924640
2174.000000	11.957813
2173.000000	11.991677
2172.000000	12.026725
2171.000000	12.057529
2170.000000	12.086061
2169.000000	12.125454
2168.000000	12.161687
2167.000000	12.199895
2166.000000	12.233660
2165.000000	12.283815
2164.000000	12.320245
2163.000000	12.373065
2162.000000	12.431019
2161.000000	12.468733
2160.000000	12.525107
2159.000000	12.609520
2158.000000	12.666388
2157.000000	12.730562
2156.000000	12.798586
2155.000000	12.869275
2154.000000	12.919429
2153.000000	13.011642
2152.000000	13.086380
2151.000000	13.163684
2150.000000	13.239508
2149.000000	13.315331
2148.000000	13.388687
2147.000000	13.493141
2146.000000	13.560178
2145.000000	13.645381
2144.000000	13.722784
2143.000000	13.801767
2142.000000	13.877393
2141.000000	13.940974
2140.000000	14.022426
2139.000000	14.087981
2138.000000	14.147416
2137.000000	14.206554
2136.000000	14.267569
2135.000000	14.315946
2134.000000	14.373505
2133.000000	14.415563
2132.000000	14.468975
2131.000000	14.514588
2130.000000	14.550920
2129.000000	14.591991
2128.000000	14.619536
2127.000000	14.646193
2126.000000	14.685191
2125.000000	14.715204
2124.000000	14.738109
2123.000000	14.761113
2122.000000	14.776219
2121.000000	14.793002
2120.000000	14.805344
2119.000000	14.812156
2118.000000	14.824596
2117.000000	14.826570
2116.000000	14.837628
2115.000000	14.843157
2114.000000	14.830717
2113.000000	14.820943
2112.000000	14.809885
2111.000000	14.803665
2110.000000	14.791522
2109.000000	14.795569
2108.000000	14.795174
2107.000000	14.776613
2106.000000	14.760817
2105.000000	14.745415
2104.000000	14.736727
2103.000000	14.718857
2102.000000	14.702172
2101.000000	14.687659
2100.000000	14.680551
2099.000000	14.663865
2098.000000	14.652907
2097.000000	14.649254
2096.000000	14.629804
2095.000000	14.606010
2094.000000	14.606405
2093.000000	14.608281
2092.000000	14.608084
2091.000000	14.602061
2090.000000	14.595743
2089.000000	14.590016
2088.000000	14.591596
2087.000000	14.590214
2086.000000	14.566025
2085.000000	14.547563
2084.000000	14.540948
2083.000000	14.517056
2082.000000	14.486253
2081.000000	14.454363
2080.000000	14.419413
2079.000000	14.383180
2078.000000	14.341516
2077.000000	14.295114
2076.000000	14.248317
2075.000000	14.179898
2074.000000	14.117600
2073.000000	14.054414
2072.000000	13.996460
2071.000000	13.930904
2070.000000	13.858240
2069.000000	13.780442
2068.000000	13.701558
2067.000000	13.631559
2066.000000	13.536286
2065.000000	13.461943
2064.000000	13.378814
2063.000000	13.299041
2062.000000	13.221736
2061.000000	13.156674
2060.000000	13.093192
2059.000000	13.031388
2058.000000	12.985281
2057.000000	12.935226
2056.000000	12.884183
2055.000000	12.855651
2054.000000	12.838768
2053.000000	12.829389
2052.000000	12.838867
2051.000000	12.868189
2050.000000	12.884480
2049.000000	12.911827
2048.000000	12.958822
2047.000000	13.009766
2046.000000	13.078383
2045.000000	13.141470
2044.000000	13.221440
2043.000000	13.284429
2042.000000	13.367262
2041.000000	13.444370
2040.000000	13.503212
2039.000000	13.564226
2038.000000	13.641136
2037.000000	13.709950
2036.000000	13.758327
2035.000000	13.809764
2034.000000	13.868211
2033.000000	13.923796
2032.000000	13.958055
2031.000000	14.001989
2030.000000	14.032891
2029.000000	14.066755
2028.000000	14.105753
2027.000000	14.145639
2026.000000	14.165385
2025.000000	14.203099
2024.000000	14.211392
2023.000000	14.223240
2022.000000	14.252266
2021.000000	14.265594
2020.000000	14.269445
2019.000000	14.289289
2018.000000	14.296891
2017.000000	14.274381
2016.000000	14.276158
2015.000000	14.284155
2014.000000	14.289980
2013.000000	14.264113
2012.000000	14.241801
2011.000000	14.214749
2010.000000	14.206851
2009.000000	14.190067
2008.000000	14.157980
2007.000000	14.130632
2006.000000	14.094399
2005.000000	14.069519
2004.000000	14.034174
2003.000000	13.979874
2002.000000	13.951440
2001.000000	13.895954
2000.000000	13.851230
1999.000000	13.784786
1998.000000	13.755167
1997.000000	13.677961
1996.000000	13.645875
1995.000000	13.593548
1994.000000	13.524735
1993.000000	13.460364
1992.000000	13.409420
1991.000000	13.341494
1990.000000	13.284824
1989.000000	13.237434
1988.000000	13.182541
1987.000000	13.111555
1986.000000	13.030499
1985.000000	12.986565
1984.000000	12.926439
1983.000000	12.835609
1982.000000	12.753664
1981.000000	12.716641
1980.000000	12.627983
1979.000000	12.575064
1978.000000	12.494699
1977.000000	12.447408
1976.000000	12.394687
1975.000000	12.320542
1974.000000	12.253801
1973.000000	12.191010
1972.000000	12.137499
1971.000000	12.084185
1970.000000	11.997699
1969.000000	11.967389
1968.000000	11.908942
1967.000000	11.848718
1966.000000	11.796786
1965.000000	11.738833
1964.000000	11.668439
1963.000000	11.600613
1962.000000	11.569118
1961.000000	11.516792
1960.000000	11.440870
1959.000000	11.387754
1958.000000	11.348657
1957.000000	11.294356
1956.000000	11.230380
1955.000000	11.148436
1954.000000	11.107661
1953.000000	11.054347
1952.000000	11.005970
1951.000000	10.951867
1950.000000	10.903490
1949.000000	10.873871
1948.000000	10.821150
1947.000000	10.774155
1946.000000	10.742365
1945.000000	10.706329
1944.000000	10.664764
1943.000000	10.626753
1942.000000	10.597332
1941.000000	10.579166
1940.000000	10.532468
1939.000000	10.547672
1938.000000	10.549548
1937.000000	10.530098
1936.000000	10.512130
1935.000000	10.503540
1934.000000	10.491298
1933.000000	10.521805
1932.000000	10.538885
1931.000000	10.569195
1930.000000	10.575118
1929.000000	10.617374
1928.000000	10.648869
1927.000000	10.709883
1926.000000	10.752929
1925.000000	10.802096
1924.000000	10.880684
1923.000000	10.929061
1922.000000	10.995604
1921.000000	11.119705
1920.000000	11.222285
1919.000000	11.325061
1918.000000	11.443535
1917.000000	11.524197
1916.000000	11.616113
1915.000000	11.734192
1914.000000	11.904401
1913.000000	12.090899
1912.000000	12.285789
1911.000000	12.479495
1910.000000	12.637658
1909.000000	12.767289
1908.000000	12.956650
1907.000000	13.190045
1906.000000	13.461746
1905.000000	13.802359
1904.000000	14.109998
1903.000000	14.381995
1902.000000	14.673442
1901.000000	14.985030
1900.000000	15.373527
1899.000000	15.769823
1898.000000	16.171254
1897.000000	16.572191
1896.000000	16.931563
1895.000000	17.265661
1894.000000	17.659390
1893.000000	18.093796
1892.000000	18.584872
1891.000000	19.081872
1890.000000	19.555276
1889.000000	19.981882
1888.000000	20.431591
1887.000000	20.834207
1886.000000	21.253013
1885.000000	21.681298
1884.000000	22.149963
1883.000000	22.561266
1882.000000	22.940582
1881.000000	23.323747
1880.000000	23.654883
1879.000000	23.977726
1878.000000	24.306295
1877.000000	24.635357
1876.000000	24.955139
1875.000000	25.282128
1874.000000	25.589865
1873.000000	25.895924
1872.000000	26.187766
1871.000000	26.450483
1870.000000	26.691578
1869.000000	26.920332
1868.000000	27.132303
1867.000000	27.292045
1866.000000	27.406373
1865.000000	27.523169
1864.000000	27.640360
1863.000000	27.753898
1862.000000	27.890045
1861.000000	28.023427
1860.000000	28.161252
1859.000000	28.286243
1858.000000	28.401755
1857.000000	28.484194
1856.000000	28.543431
1855.000000	28.621821
1854.000000	28.700607
1853.000000	28.747799
1852.000000	28.792720
1851.000000	28.835371
1850.000000	28.879700
1849.000000	28.939629
1848.000000	29.004790
1847.000000	29.056523
1846.000000	29.045959
1845.000000	29.007949
1844.000000	28.971123
1843.000000	28.974875
1842.000000	29.021968
1841.000000	29.060176
1840.000000	29.060769
1839.000000	29.040825
1838.000000	29.016637
1837.000000	28.999754
1836.000000	28.981391
1835.000000	28.960164
1834.000000	28.922252
1833.000000	28.879009
1832.000000	28.847614
1831.000000	28.846231
1830.000000	28.848305
1829.000000	28.822339
1828.000000	28.795781
1827.000000	28.792523
1826.000000	28.791437
1825.000000	28.772876
1824.000000	28.746219
1823.000000	28.743652
1822.000000	28.761029
1821.000000	28.796176
1820.000000	28.806444
1819.000000	28.769717
1818.000000	28.756586
1817.000000	28.748885
1816.000000	28.747503
1815.000000	28.742171
1814.000000	28.726375
1813.000000	28.705346
1812.000000	28.692017
1811.000000	28.689055
1810.000000	28.653908
1809.000000	28.617082
1808.000000	28.596152
1807.000000	28.586871
1806.000000	28.560116
1805.000000	28.514997
1804.000000	28.492585
1803.000000	28.484983
1802.000000	28.469483
1801.000000	28.439667
1800.000000	28.401854
1799.000000	28.357031
1798.000000	28.333830
1797.000000	28.316355
1796.000000	28.294042
1795.000000	28.265115
1794.000000	28.227993
1793.000000	28.212492
1792.000000	28.198868
1791.000000	28.182775
1790.000000	28.168854
1789.000000	28.159673
1788.000000	28.151281
1787.000000	28.149800
1786.000000	28.152860
1785.000000	28.148220
1784.000000	28.130943
1783.000000	28.116034
1782.000000	28.082171
1781.000000	28.072594
1780.000000	28.047319
1779.000000	28.037644
1778.000000	28.002793
1777.000000	27.967250
1776.000000	27.922033
1775.000000	27.887182
1774.000000	27.836632
1773.000000	27.794772
1772.000000	27.765350
1771.000000	27.736522
1770.000000	27.691600
1769.000000	27.662278
1768.000000	27.606792
1767.000000	27.572731
1766.000000	27.536695
1765.000000	27.492761
1764.000000	27.464821
1763.000000	27.449320
1762.000000	27.438954
1761.000000	27.424539
1760.000000	27.417431
1759.000000	27.433129
1758.000000	27.417036
1757.000000	27.432141
1756.000000	27.444779
1755.000000	27.442903
1754.000000	27.458897
1753.000000	27.453269
1752.000000	27.453960
1751.000000	27.450900
1750.000000	27.436387
1749.000000	27.409434
1748.000000	27.377347
1747.000000	27.350986
1746.000000	27.312186
1745.000000	27.264599
1744.000000	27.209311
1743.000000	27.136153
1742.000000	27.044730
1741.000000	26.981840
1740.000000	26.913816
1739.000000	26.829206
1738.000000	26.764440
1737.000000	26.706980
1736.000000	26.632440
1735.000000	26.588012
1734.000000	26.501032
1733.000000	26.459270
1732.000000	26.381965
1731.000000	26.329441
1730.000000	26.293899
1729.000000	26.223901
1728.000000	26.193492
1727.000000	26.158937
1726.000000	26.137118
1725.000000	26.114805
1724.000000	26.125863
1723.000000	26.159332
1722.000000	26.217977
1721.000000	26.312658
1720.000000	26.440807
1719.000000	26.585247
1718.000000	26.765131
1717.000000	26.958935
1716.000000	27.152739
1715.000000	27.319393
1714.000000	27.509742
1713.000000	27.664055
1712.000000	27.796450
1711.000000	27.924304
1710.000000	28.056304
1709.000000	28.190278
1708.000000	28.284860
1707.000000	28.376184
1706.000000	28.455957
1705.000000	28.537309
1704.000000	28.582231
1703.000000	28.647886
1702.000000	28.703075
1701.000000	28.723018
1700.000000	28.797163
1699.000000	28.806345
1698.000000	28.819377
1697.000000	28.842480
1696.000000	28.834088
1695.000000	28.831422
1694.000000	28.786106
1693.000000	28.724005
1692.000000	28.680861
1691.000000	28.636630
1690.000000	28.579170
1689.000000	28.565052
1688.000000	28.558339
1687.000000	28.609579
1686.000000	28.681157
1685.000000	28.790548
1684.000000	28.922943
1683.000000	29.103123
1682.000000	29.260694
1681.000000	29.450549
1680.000000	29.648105
1679.000000	29.806565
1678.000000	29.947944
1677.000000	30.097518
1676.000000	30.231986
1675.000000	30.363295
1674.000000	30.490951
1673.000000	30.614658
1672.000000	30.745671
1671.000000	30.878659
1670.000000	31.010363
1669.000000	31.132490
1668.000000	31.263404
1667.000000	31.403599
1666.000000	31.494034
1665.000000	31.623467
1664.000000	31.727231
1663.000000	31.839189
1662.000000	31.946310
1661.000000	32.045730
1660.000000	32.133993
1659.000000	32.216925
1658.000000	32.285147
1657.000000	32.343594
1656.000000	32.381308
1655.000000	32.415962
1654.000000	32.445975
1653.000000	32.479741
1652.000000	32.484480
1651.000000	32.492279
1650.000000	32.496327
1649.000000	32.484480
1648.000000	32.478062
1647.000000	32.472040
1646.000000	32.444988
1645.000000	32.424749
1644.000000	32.399968
1643.000000	32.378248
1642.000000	32.363043
1641.000000	32.324737
1640.000000	32.304794
1639.000000	32.261945
1638.000000	32.241212
1637.000000	32.217419
1636.000000	32.175064
1635.000000	32.138337
1634.000000	32.108620
1633.000000	32.074164
1632.000000	32.035758
1631.000000	31.987085
1630.000000	31.927255
1629.000000	31.886283
1628.000000	31.839288
1627.000000	31.768796
1626.000000	31.721110
1625.000000	31.659503
1624.000000	31.624652
1623.000000	31.565810
1622.000000	31.513582
1621.000000	31.468760
1620.000000	31.422752
1619.000000	31.361935
