PE UV       SUBTECH     SPECTRUM    ASCII       PEDS        4.00        
   -1
CICIMAUCR0141-1.Sample.ASC
24/04/04
12:21:23.00
24/04/04
12:21:23.00
Vinicio Soto Monge
C. kalinini
250,000000
1
Lambda 1050
1050L1511233
PerkinElmer UV WinLab 6.3.2.0749 / 2.02.05 Lambda 900 UV/VIS/NIR, Aug  7 2015 09:38:08

0
0
3350/servo 860,8/2
0
0
UV/VIS
1
1
1
DoubleDePol,CommonBeamDepol,RBeamAtt,SBeamAtt,60mm sphere, WB InGaAs Detector
0
0
0
0
Program
Program
3350/servo 860,8/2
3350/0,2 860,8/0,2
3350/0,2 860,8/0,2
0
15.00
 
 
 
0
 
860,8
319,2
860,8
Front
100
on
S:100 R:100
0
0
0
0
 
0
 
 
 
0
 
 
0
0
0
0
0
 
 
 
 
0
0


0
0
#HDR
-1
-1
#GR
nm
%R
1.0
0.0
2500,000000
-1,000000
2251
8
80,492200
5,685100
#DATA
2500.000000	6.875715
2499.000000	6.907215
2498.000000	6.878409
2497.000000	6.869705
2496.000000	6.860690
2495.000000	6.738625
2494.000000	6.784943
2493.000000	6.728263
2492.000000	6.810330
2491.000000	6.823801
2490.000000	6.811884
2489.000000	6.819760
2488.000000	6.865871
2487.000000	6.794684
2486.000000	6.759349
2485.000000	6.836132
2484.000000	6.906075
2483.000000	6.909080
2482.000000	6.871570
2481.000000	6.844628
2480.000000	6.855301
2479.000000	6.935711
2478.000000	6.964310
2477.000000	6.931773
2476.000000	6.983790
2475.000000	6.972288
2474.000000	7.012597
2473.000000	6.987003
2472.000000	7.097047
2471.000000	7.037673
2470.000000	7.034357
2469.000000	7.118393
2468.000000	7.145749
2467.000000	7.163571
2466.000000	7.194243
2465.000000	7.217039
2464.000000	7.232168
2463.000000	7.286879
2462.000000	7.352367
2461.000000	7.402934
2460.000000	7.423036
2459.000000	7.457231
2458.000000	7.504067
2457.000000	7.570695
2456.000000	7.574425
2455.000000	7.659912
2454.000000	7.711307
2453.000000	7.764568
2452.000000	7.819176
2451.000000	7.878550
2450.000000	7.958234
2449.000000	8.018437
2448.000000	8.092837
2447.000000	8.158325
2446.000000	8.224849
2445.000000	8.276555
2444.000000	8.335930
2443.000000	8.410640
2442.000000	8.482863
2441.000000	8.539232
2440.000000	8.626584
2439.000000	8.692486
2438.000000	8.765331
2437.000000	8.841389
2436.000000	8.927082
2435.000000	8.994125
2434.000000	9.078161
2433.000000	9.143130
2432.000000	9.189967
2431.000000	9.267682
2430.000000	9.326745
2429.000000	9.398140
2428.000000	9.481450
2427.000000	9.548285
2426.000000	9.602271
2425.000000	9.674287
2424.000000	9.735941
2423.000000	9.793554
2422.000000	9.863187
2421.000000	9.926291
2420.000000	9.984215
2419.000000	10.047527
2418.000000	10.090529
2417.000000	10.148349
2416.000000	10.203993
2415.000000	10.261606
2414.000000	10.299635
2413.000000	10.346264
2412.000000	10.396831
2411.000000	10.434237
2410.000000	10.446775
2409.000000	10.492368
2408.000000	10.549463
2407.000000	10.576715
2406.000000	10.614847
2405.000000	10.639405
2404.000000	10.677641
2403.000000	10.704272
2402.000000	10.719296
2401.000000	10.752973
2400.000000	10.784681
2399.000000	10.803021
2398.000000	10.830999
2397.000000	10.852137
2396.000000	10.873587
2395.000000	10.890062
2394.000000	10.914517
2393.000000	10.934308
2392.000000	10.944670
2391.000000	10.958452
2390.000000	10.973787
2389.000000	10.985600
2388.000000	10.995755
2387.000000	11.011091
2386.000000	11.009951
2385.000000	11.007568
2384.000000	11.013267
2383.000000	11.012541
2382.000000	11.008604
2381.000000	11.011712
2380.000000	11.013474
2379.000000	11.010573
2378.000000	10.998967
2377.000000	10.990781
2376.000000	10.988398
2375.000000	10.974409
2374.000000	10.959592
2373.000000	10.947157
2372.000000	10.945085
2371.000000	10.946535
2370.000000	10.947364
2369.000000	10.937520
2368.000000	10.924361
2367.000000	10.921770
2366.000000	10.918869
2365.000000	10.911097
2364.000000	10.913170
2363.000000	10.913481
2362.000000	10.909854
2361.000000	10.903429
2360.000000	10.905916
2359.000000	10.901150
2358.000000	10.882913
2357.000000	10.870685
2356.000000	10.866852
2355.000000	10.860738
2354.000000	10.849236
2353.000000	10.827372
2352.000000	10.802711
2351.000000	10.792349
2350.000000	10.773490
2349.000000	10.757843
2348.000000	10.746030
2347.000000	10.728104
2346.000000	10.722509
2345.000000	10.725306
2344.000000	10.711732
2343.000000	10.689557
2342.000000	10.676501
2341.000000	10.679610
2340.000000	10.666657
2339.000000	10.657539
2338.000000	10.641996
2337.000000	10.627178
2336.000000	10.636608
2335.000000	10.620132
2334.000000	10.630598
2333.000000	10.637540
2332.000000	10.633603
2331.000000	10.635260
2330.000000	10.639716
2329.000000	10.653083
2328.000000	10.651840
2327.000000	10.645623
2326.000000	10.663860
2325.000000	10.668626
2324.000000	10.682200
2323.000000	10.684273
2322.000000	10.679506
2321.000000	10.670077
2320.000000	10.657539
2319.000000	10.658264
2318.000000	10.633499
2317.000000	10.611946
2316.000000	10.571845
2315.000000	10.558167
2314.000000	10.526252
2313.000000	10.491228
2312.000000	10.466774
2311.000000	10.442423
2310.000000	10.401597
2309.000000	10.351652
2308.000000	10.315489
2307.000000	10.287511
2306.000000	10.240053
2305.000000	10.204719
2304.000000	10.154463
2303.000000	10.120786
2302.000000	10.105347
2301.000000	10.081100
2300.000000	10.055091
2299.000000	10.031673
2298.000000	10.004525
2297.000000	9.986184
2296.000000	9.955201
2295.000000	9.951057
2294.000000	9.924841
2293.000000	9.910748
2292.000000	9.908572
2291.000000	9.899661
2290.000000	9.874792
2289.000000	9.857591
2288.000000	9.872720
2287.000000	9.852721
2286.000000	9.845571
2285.000000	9.839665
2284.000000	9.809615
2283.000000	9.816661
2282.000000	9.807232
2281.000000	9.788995
2280.000000	9.757702
2279.000000	9.744542
2278.000000	9.736977
2277.000000	9.727341
2276.000000	9.704648
2275.000000	9.679986
2274.000000	9.641854
2273.000000	9.619058
2272.000000	9.592324
2271.000000	9.571082
2270.000000	9.557611
2269.000000	9.542586
2268.000000	9.508288
2267.000000	9.494506
2266.000000	9.467047
2265.000000	9.461037
2264.000000	9.472435
2263.000000	9.477409
2262.000000	9.482176
2261.000000	9.515127
2260.000000	9.506630
2259.000000	9.540825
2258.000000	9.581444
2257.000000	9.603411
2256.000000	9.635430
2255.000000	9.694908
2254.000000	9.736252
2253.000000	9.801326
2252.000000	9.833344
2251.000000	9.902044
2250.000000	9.940280
2249.000000	10.010638
2248.000000	10.043900
2247.000000	10.098197
2246.000000	10.125035
2245.000000	10.174565
2244.000000	10.237048
2243.000000	10.247410
2242.000000	10.294557
2241.000000	10.321602
2240.000000	10.336938
2239.000000	10.359320
2238.000000	10.369786
2237.000000	10.375899
2236.000000	10.378593
2235.000000	10.349476
2234.000000	10.340772
2233.000000	10.349580
2232.000000	10.285232
2231.000000	10.265026
2230.000000	10.213319
2229.000000	10.161924
2228.000000	10.127625
2227.000000	10.056956
2226.000000	9.963906
2225.000000	9.900386
2224.000000	9.840390
2223.000000	9.747029
2222.000000	9.623928
2221.000000	9.567351
2220.000000	9.483937
2219.000000	9.394202
2218.000000	9.303742
2217.000000	9.230379
2216.000000	9.144063
2215.000000	9.066244
2214.000000	8.984902
2213.000000	8.961899
2212.000000	8.906669
2211.000000	8.870506
2210.000000	8.859004
2209.000000	8.858693
2208.000000	8.855170
2207.000000	8.918275
2206.000000	8.955267
2205.000000	9.019304
2204.000000	9.113806
2203.000000	9.171730
2202.000000	9.293587
2201.000000	9.408709
2200.000000	9.519168
2199.000000	9.658123
2198.000000	9.783296
2197.000000	9.893548
2196.000000	10.016959
2195.000000	10.162545
2194.000000	10.292485
2193.000000	10.376521
2192.000000	10.470297
2191.000000	10.600755
2190.000000	10.702821
2189.000000	10.778256
2188.000000	10.842190
2187.000000	10.925501
2186.000000	10.991403
2185.000000	11.041555
2184.000000	11.076371
2183.000000	11.119477
2182.000000	11.164863
2181.000000	11.196156
2180.000000	11.233252
2179.000000	11.246930
2178.000000	11.276047
2177.000000	11.292109
2176.000000	11.315423
2175.000000	11.347856
2174.000000	11.384849
2173.000000	11.405055
2172.000000	11.438627
2171.000000	11.478314
2170.000000	11.506809
2169.000000	11.539450
2168.000000	11.555718
2167.000000	11.597166
2166.000000	11.655297
2165.000000	11.682446
2164.000000	11.737675
2163.000000	11.791765
2162.000000	11.856631
2161.000000	11.902846
2160.000000	11.949475
2159.000000	12.014963
2158.000000	12.082109
2157.000000	12.146249
2156.000000	12.216193
2155.000000	12.291836
2154.000000	12.371001
2153.000000	12.464156
2152.000000	12.551093
2151.000000	12.623420
2150.000000	12.713362
2149.000000	12.786518
2148.000000	12.885475
2147.000000	12.976143
2146.000000	13.067225
2145.000000	13.133646
2144.000000	13.224624
2143.000000	13.331249
2142.000000	13.408964
2141.000000	13.477975
2140.000000	13.555380
2139.000000	13.634545
2138.000000	13.722726
2137.000000	13.802617
2136.000000	13.872975
2135.000000	13.957322
2134.000000	14.020220
2133.000000	14.078247
2132.000000	14.146947
2131.000000	14.206632
2130.000000	14.271602
2129.000000	14.327557
2128.000000	14.370352
2127.000000	14.423302
2126.000000	14.469517
2125.000000	14.517389
2124.000000	14.556454
2123.000000	14.598316
2122.000000	14.643495
2121.000000	14.671369
2120.000000	14.697274
2119.000000	14.727220
2118.000000	14.757270
2117.000000	14.775610
2116.000000	14.795506
2115.000000	14.825348
2114.000000	14.841824
2113.000000	14.858610
2112.000000	14.870112
2111.000000	14.882546
2110.000000	14.887831
2109.000000	14.893427
2108.000000	14.902856
2107.000000	14.907623
2106.000000	14.913114
2105.000000	14.907830
2104.000000	14.909591
2103.000000	14.921508
2102.000000	14.933528
2101.000000	14.922958
2100.000000	14.923476
2099.000000	14.935704
2098.000000	14.943682
2097.000000	14.950210
2096.000000	14.943786
2095.000000	14.939330
2094.000000	14.949692
2093.000000	14.958396
2092.000000	14.969484
2091.000000	14.982436
2090.000000	14.992280
2089.000000	14.994560
2088.000000	14.992384
2087.000000	14.996839
2086.000000	14.993213
2085.000000	14.985959
2084.000000	14.985338
2083.000000	14.963474
2082.000000	14.937051
2081.000000	14.927725
2080.000000	14.904410
2079.000000	14.870527
2078.000000	14.819545
2077.000000	14.772087
2076.000000	14.721935
2075.000000	14.668571
2074.000000	14.601114
2073.000000	14.528476
2072.000000	14.470242
2071.000000	14.406412
2070.000000	14.316470
2069.000000	14.235128
2068.000000	14.141973
2067.000000	14.070890
2066.000000	13.996076
2065.000000	13.896083
2064.000000	13.805208
2063.000000	13.726353
2062.000000	13.648327
2061.000000	13.562322
2060.000000	13.501083
2059.000000	13.424611
2058.000000	13.366687
2057.000000	13.329488
2056.000000	13.294879
2055.000000	13.261098
2054.000000	13.235090
2053.000000	13.220169
2052.000000	13.243379
2051.000000	13.272497
2050.000000	13.300785
2049.000000	13.354978
2048.000000	13.421295
2047.000000	13.492068
2046.000000	13.577140
2045.000000	13.652990
2044.000000	13.758164
2043.000000	13.858987
2042.000000	13.957840
2041.000000	14.046436
2040.000000	14.156066
2039.000000	14.251189
2038.000000	14.340302
2037.000000	14.441332
2036.000000	14.539564
2035.000000	14.630231
2034.000000	14.691678
2033.000000	14.767943
2032.000000	14.865035
2031.000000	14.922233
2030.000000	15.000881
2029.000000	15.033728
2028.000000	15.114656
2027.000000	15.194547
2026.000000	15.250916
2025.000000	15.291017
2024.000000	15.334434
2023.000000	15.393394
2022.000000	15.448105
2021.000000	15.498568
2020.000000	15.503438
2019.000000	15.561051
2018.000000	15.594417
2017.000000	15.629648
2016.000000	15.682390
2015.000000	15.713891
2014.000000	15.723735
2013.000000	15.727983
2012.000000	15.768706
2011.000000	15.771296
2010.000000	15.783213
2009.000000	15.775027
2008.000000	15.780311
2007.000000	15.774509
2006.000000	15.768188
2005.000000	15.765494
2004.000000	15.755028
2003.000000	15.761763
2002.000000	15.723838
2001.000000	15.700213
2000.000000	15.677002
1999.000000	15.652341
1998.000000	15.621669
1997.000000	15.564885
1996.000000	15.533074
1995.000000	15.487481
1994.000000	15.457535
1993.000000	15.404688
1992.000000	15.368939
1991.000000	15.323139
1990.000000	15.261278
1989.000000	15.215582
1988.000000	15.181698
1987.000000	15.110304
1986.000000	15.061188
1985.000000	15.000673
1984.000000	14.948760
1983.000000	14.889696
1982.000000	14.839648
1981.000000	14.779755
1980.000000	14.722557
1979.000000	14.663597
1978.000000	14.618730
1977.000000	14.537284
1976.000000	14.463921
1975.000000	14.457600
1974.000000	14.371181
1973.000000	14.332531
1972.000000	14.296575
1971.000000	14.243210
1970.000000	14.177204
1969.000000	14.139072
1968.000000	14.079387
1967.000000	14.021774
1966.000000	13.957944
1965.000000	13.913284
1964.000000	13.836916
1963.000000	13.798680
1962.000000	13.736508
1961.000000	13.669776
1960.000000	13.612993
1959.000000	13.547815
1958.000000	13.477250
1957.000000	13.422331
1956.000000	13.383888
1955.000000	13.300992
1954.000000	13.249908
1953.000000	13.199445
1952.000000	13.132299
1951.000000	13.089918
1950.000000	13.039869
1949.000000	12.965677
1948.000000	12.933659
1947.000000	12.878015
1946.000000	12.837499
1945.000000	12.790559
1944.000000	12.741340
1943.000000	12.690048
1942.000000	12.663936
1941.000000	12.654506
1940.000000	12.619379
1939.000000	12.606737
1938.000000	12.587049
1937.000000	12.551093
1936.000000	12.557518
1935.000000	12.544254
1934.000000	12.562284
1933.000000	12.565600
1932.000000	12.584252
1931.000000	12.604354
1930.000000	12.644662
1929.000000	12.684556
1928.000000	12.731807
1927.000000	12.779368
1926.000000	12.849312
1925.000000	12.917494
1924.000000	12.984951
1923.000000	13.068054
1922.000000	13.163488
1921.000000	13.293117
1920.000000	13.425129
1919.000000	13.527091
1918.000000	13.648638
1917.000000	13.778163
1916.000000	13.927065
1915.000000	14.084775
1914.000000	14.265074
1913.000000	14.500188
1912.000000	14.714060
1911.000000	14.921093
1910.000000	15.150301
1909.000000	15.360443
1908.000000	15.586024
1907.000000	15.880719
1906.000000	16.215723
1905.000000	16.570000
1904.000000	16.933604
1903.000000	17.263841
1902.000000	17.628998
1901.000000	18.000995
1900.000000	18.415164
1899.000000	18.879901
1898.000000	19.327540
1897.000000	19.778184
1896.000000	20.181888
1895.000000	20.581551
1894.000000	21.034371
1893.000000	21.507707
1892.000000	21.997520
1891.000000	22.517589
1890.000000	22.995589
1889.000000	23.440327
1888.000000	23.907032
1887.000000	24.323274
1886.000000	24.751225
1885.000000	25.172545
1884.000000	25.586300
1883.000000	25.975394
1882.000000	26.343349
1881.000000	26.688507
1880.000000	27.011699
1879.000000	27.324735
1878.000000	27.644818
1877.000000	27.930291
1876.000000	28.209237
1875.000000	28.497611
1874.000000	28.747750
1873.000000	28.995299
1872.000000	29.220880
1871.000000	29.404184
1870.000000	29.569976
1869.000000	29.723438
1868.000000	29.866537
1867.000000	29.961971
1866.000000	30.044556
1865.000000	30.138747
1864.000000	30.229104
1863.000000	30.327543
1862.000000	30.451266
1861.000000	30.566077
1860.000000	30.665345
1859.000000	30.737568
1858.000000	30.811242
1857.000000	30.865435
1856.000000	30.929576
1855.000000	30.982940
1854.000000	31.017446
1853.000000	31.034958
1852.000000	31.064179
1851.000000	31.120755
1850.000000	31.185932
1849.000000	31.245410
1848.000000	31.248933
1847.000000	31.233390
1846.000000	31.210387
1845.000000	31.195155
1844.000000	31.189455
1843.000000	31.214739
1842.000000	31.248830
1841.000000	31.252767
1840.000000	31.236188
1839.000000	31.212874
1838.000000	31.193082
1837.000000	31.167695
1836.000000	31.128527
1835.000000	31.080136
1834.000000	31.041797
1833.000000	31.009364
1832.000000	30.976827
1831.000000	30.980972
1830.000000	30.979625
1829.000000	30.965740
1828.000000	30.923359
1827.000000	30.890615
1826.000000	30.885745
1825.000000	30.874347
1824.000000	30.869891
1823.000000	30.888646
1822.000000	30.942321
1821.000000	30.964082
1820.000000	30.954859
1819.000000	30.917971
1818.000000	30.904500
1817.000000	30.918178
1816.000000	30.925431
1815.000000	30.909992
1814.000000	30.887403
1813.000000	30.891444
1812.000000	30.899526
1811.000000	30.860254
1810.000000	30.816941
1809.000000	30.801709
1808.000000	30.803885
1807.000000	30.794352
1806.000000	30.768032
1805.000000	30.718502
1804.000000	30.703581
1803.000000	30.704099
1802.000000	30.704617
1801.000000	30.680266
1800.000000	30.630528
1799.000000	30.596541
1798.000000	30.582138
1797.000000	30.566077
1796.000000	30.545560
1795.000000	30.517790
1794.000000	30.493543
1793.000000	30.462353
1792.000000	30.442769
1791.000000	30.428780
1790.000000	30.408263
1789.000000	30.394274
1788.000000	30.388886
1787.000000	30.387746
1786.000000	30.377902
1785.000000	30.368991
1784.000000	30.346609
1783.000000	30.324020
1782.000000	30.299980
1781.000000	30.274800
1780.000000	30.245890
1779.000000	30.218949
1778.000000	30.161026
1777.000000	30.111288
1776.000000	30.071290
1775.000000	30.020102
1774.000000	29.956272
1773.000000	29.907882
1772.000000	29.857315
1771.000000	29.797941
1770.000000	29.734214
1769.000000	29.669244
1768.000000	29.608834
1767.000000	29.549667
1766.000000	29.495059
1765.000000	29.432680
1764.000000	29.397552
1763.000000	29.364912
1762.000000	29.327816
1761.000000	29.289787
1760.000000	29.273519
1759.000000	29.270928
1758.000000	29.232589
1757.000000	29.209482
1756.000000	29.198394
1755.000000	29.179432
1754.000000	29.156221
1753.000000	29.142543
1752.000000	29.130834
1751.000000	29.081200
1750.000000	29.053119
1749.000000	29.010946
1748.000000	28.976336
1747.000000	28.920278
1746.000000	28.872405
1745.000000	28.793551
1744.000000	28.730964
1743.000000	28.674076
1742.000000	28.588279
1741.000000	28.522584
1740.000000	28.447148
1739.000000	28.364667
1738.000000	28.327882
1737.000000	28.270683
1736.000000	28.214107
1735.000000	28.162297
1734.000000	28.121574
1733.000000	28.084271
1732.000000	28.050180
1731.000000	27.988629
1730.000000	27.944902
1729.000000	27.937441
1728.000000	27.901485
1727.000000	27.871124
1726.000000	27.855995
1725.000000	27.857135
1724.000000	27.877238
1723.000000	27.899620
1722.000000	28.000131
1721.000000	28.099088
1720.000000	28.245296
1719.000000	28.447563
1718.000000	28.646928
1717.000000	28.844324
1716.000000	29.041306
1715.000000	29.247199
1714.000000	29.445736
1713.000000	29.613911
1712.000000	29.787682
1711.000000	29.943734
1710.000000	30.056576
1709.000000	30.182268
1708.000000	30.307855
1707.000000	30.386192
1706.000000	30.477171
1705.000000	30.528255
1704.000000	30.586283
1703.000000	30.637575
1702.000000	30.668453
1701.000000	30.701301
1700.000000	30.724615
1699.000000	30.750728
1698.000000	30.771866
1697.000000	30.785544
1696.000000	30.785026
1695.000000	30.764924
1694.000000	30.736843
1693.000000	30.684100
1692.000000	30.646175
1691.000000	30.592189
1690.000000	30.574366
1689.000000	30.555404
1688.000000	30.565869
1687.000000	30.628145
1686.000000	30.748552
1685.000000	30.907194
1684.000000	31.081380
1683.000000	31.282921
1682.000000	31.503943
1681.000000	31.713670
1680.000000	31.916143
1679.000000	32.122244
1678.000000	32.284409
1677.000000	32.469475
1676.000000	32.659411
1675.000000	32.798573
1674.000000	32.947268
1673.000000	33.113163
1672.000000	33.263931
1671.000000	33.424542
1670.000000	33.576449
1669.000000	33.746904
1668.000000	33.888760
1667.000000	34.031238
1666.000000	34.150194
1665.000000	34.280962
1664.000000	34.391629
1663.000000	34.532034
1662.000000	34.626432
1661.000000	34.740518
1660.000000	34.835434
1659.000000	34.923304
1658.000000	34.989931
1657.000000	35.050653
1656.000000	35.111167
1655.000000	35.156760
1654.000000	35.185152
1653.000000	35.174686
1652.000000	35.201316
1651.000000	35.203182
1650.000000	35.208881
1649.000000	35.200177
1648.000000	35.194996
1647.000000	35.177691
1646.000000	35.161630
1645.000000	35.134274
1644.000000	35.103188
1643.000000	35.091168
1642.000000	35.069201
1641.000000	35.061740
1640.000000	35.041949
1639.000000	35.019670
1638.000000	35.006200
1637.000000	34.981227
1636.000000	34.948172
1635.000000	34.931697
1634.000000	34.898746
1633.000000	34.873670
1632.000000	34.824450
1631.000000	34.791913
1630.000000	34.759998
1629.000000	34.727358
1628.000000	34.702904
1627.000000	34.657518
1626.000000	34.616070
1625.000000	34.567990
1624.000000	34.539702
1623.000000	34.511621
1622.000000	34.480431
1621.000000	34.477737
1620.000000	34.439605
1619.000000	34.420642
1618.000000	34.394737
1617.000000	34.379920
