PE UV       SUBTECH     SPECTRUM    ASCII       PEDS        4.00        
   -1
CICIMAUCR0009-1 fail.Sample.ASC
24/03/08
13:57:38.00
24/03/08
13:57:38.00
Vinicio Soto Monge
C. kalinini
250,000000
1
Lambda 1050
1050L1511233
PerkinElmer UV WinLab 6.3.2.0749 / 2.02.05 Lambda 900 UV/VIS/NIR, Aug  7 2015 09:38:08

0
0
3350/servo 860,8/2
0
0
UV/VIS
1
1
1
DoubleDePol,CommonBeamDepol,RBeamAtt,SBeamAtt,60mm sphere, WB InGaAs Detector
0
0
0
0
Program
Program
3350/servo 860,8/2
3350/0,2 860,8/0,2
3350/0,2 860,8/0,2
0
15.00
 
 
 
0
 
860,8
319,2
860,8
Front
100
on
S:100 R:100
0
0
0
0
 
0
 
 
 
0
 
 
0
0
0
0
0
 
 
 
 
0
0


0
0
#HDR
-1
-1
#GR
nm
%R
1.0
0.0
2500,000000
-1,000000
2251
8
24,370700
1,836500
#DATA
2500.000000	1.996069
2499.000000	2.085037
2498.000000	1.977519
2497.000000	2.028421
2496.000000	1.949650
2495.000000	2.032640
2494.000000	1.909562
2493.000000	1.956332
2492.000000	1.879584
2491.000000	2.002926
2490.000000	1.983585
2489.000000	1.903144
2488.000000	1.970486
2487.000000	1.923189
2486.000000	1.894089
2485.000000	1.922837
2484.000000	1.894705
2483.000000	1.883100
2482.000000	1.901826
2481.000000	1.923101
2480.000000	1.875540
2479.000000	1.883188
2478.000000	1.924507
2477.000000	1.899892
2476.000000	1.921958
2475.000000	1.906133
2474.000000	1.926529
2473.000000	1.929958
2472.000000	1.926617
2471.000000	1.949650
2470.000000	1.925826
2469.000000	1.907628
2468.000000	1.938925
2467.000000	1.952552
2466.000000	1.950354
2465.000000	1.955277
2464.000000	1.959057
2463.000000	1.978574
2462.000000	1.980156
2461.000000	1.978398
2460.000000	1.985871
2459.000000	1.985519
2458.000000	2.021651
2457.000000	2.011981
2456.000000	2.025080
2455.000000	2.050926
2454.000000	2.042487
2453.000000	2.072201
2452.000000	2.072377
2451.000000	2.082048
2450.000000	2.107015
2449.000000	2.126620
2448.000000	2.121521
2447.000000	2.137081
2446.000000	2.164686
2445.000000	2.176203
2444.000000	2.207676
2443.000000	2.203192
2442.000000	2.222445
2441.000000	2.241346
2440.000000	2.262709
2439.000000	2.271413
2438.000000	2.297523
2437.000000	2.309567
2436.000000	2.320644
2435.000000	2.349831
2434.000000	2.369084
2433.000000	2.369524
2432.000000	2.391766
2431.000000	2.395634
2430.000000	2.406799
2429.000000	2.423063
2428.000000	2.441788
2427.000000	2.448118
2426.000000	2.449437
2425.000000	2.469569
2424.000000	2.486009
2423.000000	2.517570
2422.000000	2.534185
2421.000000	2.556515
2420.000000	2.561614
2419.000000	2.576735
2418.000000	2.565043
2417.000000	2.589922
2416.000000	2.595197
2415.000000	2.603021
2414.000000	2.612340
2413.000000	2.610758
2412.000000	2.626318
2411.000000	2.634846
2410.000000	2.639681
2409.000000	2.641351
2408.000000	2.654187
2407.000000	2.651813
2406.000000	2.670978
2405.000000	2.695594
2404.000000	2.695418
2403.000000	2.696473
2402.000000	2.702099
2401.000000	2.700781
2400.000000	2.701132
2399.000000	2.712561
2398.000000	2.716957
2397.000000	2.721968
2396.000000	2.725748
2395.000000	2.741484
2394.000000	2.743594
2393.000000	2.758276
2392.000000	2.761704
2391.000000	2.758715
2390.000000	2.756078
2389.000000	2.760122
2388.000000	2.772869
2387.000000	2.778760
2386.000000	2.771727
2385.000000	2.771375
2384.000000	2.778056
2383.000000	2.773045
2382.000000	2.779199
2381.000000	2.778848
2380.000000	2.784298
2379.000000	2.773924
2378.000000	2.756957
2377.000000	2.760562
2376.000000	2.768562
2375.000000	2.769880
2374.000000	2.769441
2373.000000	2.761001
2372.000000	2.752561
2371.000000	2.741836
2370.000000	2.727506
2369.000000	2.727330
2368.000000	2.720473
2367.000000	2.722935
2366.000000	2.724517
2365.000000	2.711594
2364.000000	2.708517
2363.000000	2.699462
2362.000000	2.684165
2361.000000	2.670714
2360.000000	2.657352
2359.000000	2.644165
2358.000000	2.644077
2357.000000	2.632648
2356.000000	2.606714
2355.000000	2.596164
2354.000000	2.605395
2353.000000	2.593351
2352.000000	2.569878
2351.000000	2.569702
2350.000000	2.568647
2349.000000	2.571988
2348.000000	2.585614
2347.000000	2.579021
2346.000000	2.572076
2345.000000	2.581307
2344.000000	2.587373
2343.000000	2.601702
2342.000000	2.606889
2341.000000	2.609439
2340.000000	2.610318
2339.000000	2.606714
2338.000000	2.600296
2337.000000	2.614098
2336.000000	2.616120
2335.000000	2.610758
2334.000000	2.604516
2333.000000	2.601527
2332.000000	2.609351
2331.000000	2.597395
2330.000000	2.587109
2329.000000	2.586845
2328.000000	2.570493
2327.000000	2.565219
2326.000000	2.561087
2325.000000	2.527328
2324.000000	2.509042
2323.000000	2.490668
2322.000000	2.483899
2321.000000	2.470888
2320.000000	2.454184
2319.000000	2.439239
2318.000000	2.426052
2317.000000	2.414272
2316.000000	2.396689
2315.000000	2.374183
2314.000000	2.337611
2313.000000	2.328380
2312.000000	2.315281
2311.000000	2.290314
2310.000000	2.272907
2309.000000	2.247764
2308.000000	2.247588
2307.000000	2.220335
2306.000000	2.215588
2305.000000	2.215412
2304.000000	2.184994
2303.000000	2.185873
2302.000000	2.196335
2301.000000	2.210665
2300.000000	2.214533
2299.000000	2.223236
2298.000000	2.225434
2297.000000	2.230973
2296.000000	2.244423
2295.000000	2.259281
2294.000000	2.265083
2293.000000	2.273698
2292.000000	2.283369
2291.000000	2.292688
2290.000000	2.278534
2289.000000	2.285830
2288.000000	2.266841
2287.000000	2.279677
2286.000000	2.272380
2285.000000	2.279940
2284.000000	2.274578
2283.000000	2.253830
2282.000000	2.237742
2281.000000	2.241171
2280.000000	2.224995
2279.000000	2.203368
2278.000000	2.192642
2277.000000	2.198269
2276.000000	2.156598
2275.000000	2.153169
2274.000000	2.138840
2273.000000	2.150532
2272.000000	2.114224
2271.000000	2.132949
2270.000000	2.111850
2269.000000	2.099806
2268.000000	2.124861
2267.000000	2.113257
2266.000000	2.109037
2265.000000	2.125741
2264.000000	2.118180
2263.000000	2.136642
2262.000000	2.160906
2261.000000	2.177170
2260.000000	2.199324
2259.000000	2.209786
2258.000000	2.222357
2257.000000	2.268512
2256.000000	2.284775
2255.000000	2.301831
2254.000000	2.342886
2253.000000	2.380865
2252.000000	2.401348
2251.000000	2.441349
2250.000000	2.450052
2249.000000	2.497701
2248.000000	2.521262
2247.000000	2.536735
2246.000000	2.566537
2245.000000	2.584032
2244.000000	2.629571
2243.000000	2.645395
2242.000000	2.662802
2241.000000	2.685396
2240.000000	2.670363
2239.000000	2.687945
2238.000000	2.733221
2237.000000	2.731023
2236.000000	2.741309
2235.000000	2.754320
2234.000000	2.753880
2233.000000	2.758012
2232.000000	2.764606
2231.000000	2.762847
2230.000000	2.762759
2229.000000	2.755638
2228.000000	2.761265
2227.000000	2.731902
2226.000000	2.750979
2225.000000	2.710891
2224.000000	2.706143
2223.000000	2.695857
2222.000000	2.691989
2221.000000	2.671945
2220.000000	2.654626
2219.000000	2.638274
2218.000000	2.628164
2217.000000	2.607153
2216.000000	2.582801
2215.000000	2.575592
2214.000000	2.550537
2213.000000	2.539284
2212.000000	2.531724
2211.000000	2.533482
2210.000000	2.534976
2209.000000	2.527416
2208.000000	2.524778
2207.000000	2.550713
2206.000000	2.552207
2205.000000	2.589395
2204.000000	2.610582
2203.000000	2.642758
2202.000000	2.669659
2201.000000	2.693220
2200.000000	2.731902
2199.000000	2.775595
2198.000000	2.797397
2197.000000	2.843112
2196.000000	2.900695
2195.000000	2.932432
2194.000000	2.960212
2193.000000	2.999861
2192.000000	3.033708
2191.000000	3.067291
2190.000000	3.087247
2189.000000	3.115027
2188.000000	3.136127
2187.000000	3.178765
2186.000000	3.198809
2185.000000	3.185094
2184.000000	3.198897
2183.000000	3.218853
2182.000000	3.226326
2181.000000	3.242326
2180.000000	3.251205
2179.000000	3.257798
2178.000000	3.256831
2177.000000	3.264568
2176.000000	3.295513
2175.000000	3.280832
2174.000000	3.283117
2173.000000	3.277315
2172.000000	3.296304
2171.000000	3.301755
2170.000000	3.299821
2169.000000	3.319074
2168.000000	3.326195
2167.000000	3.318019
2166.000000	3.329887
2165.000000	3.327250
2164.000000	3.333492
2163.000000	3.338063
2162.000000	3.349580
2161.000000	3.376042
2160.000000	3.378855
2159.000000	3.371470
2158.000000	3.364437
2157.000000	3.377360
2156.000000	3.382899
2155.000000	3.390108
2154.000000	3.400482
2153.000000	3.414020
2152.000000	3.430020
2151.000000	3.440042
2150.000000	3.449273
2149.000000	3.461669
2148.000000	3.485494
2147.000000	3.493230
2146.000000	3.498065
2145.000000	3.511604
2144.000000	3.518109
2143.000000	3.528219
2142.000000	3.538945
2141.000000	3.534901
2140.000000	3.545978
2139.000000	3.555912
2138.000000	3.568747
2137.000000	3.572264
2136.000000	3.573671
2135.000000	3.580176
2134.000000	3.586682
2133.000000	3.592836
2132.000000	3.594946
2131.000000	3.599517
2130.000000	3.608308
2129.000000	3.598198
2128.000000	3.606023
2127.000000	3.612440
2126.000000	3.606110
2125.000000	3.597319
2124.000000	3.602506
2123.000000	3.607078
2122.000000	3.607165
2121.000000	3.605143
2120.000000	3.599341
2119.000000	3.604440
2118.000000	3.590110
2117.000000	3.590110
2116.000000	3.601275
2115.000000	3.594770
2114.000000	3.577715
2113.000000	3.582374
2112.000000	3.573846
2111.000000	3.568923
2110.000000	3.569978
2109.000000	3.563121
2108.000000	3.561802
2107.000000	3.556352
2106.000000	3.562154
2105.000000	3.562154
2104.000000	3.554593
2103.000000	3.549143
2102.000000	3.539648
2101.000000	3.526637
2100.000000	3.529099
2099.000000	3.527428
2098.000000	3.522505
2097.000000	3.526725
2096.000000	3.518197
2095.000000	3.513274
2094.000000	3.507736
2093.000000	3.504922
2092.000000	3.510461
2091.000000	3.516527
2090.000000	3.521802
2089.000000	3.523208
2088.000000	3.512219
2087.000000	3.494461
2086.000000	3.503252
2085.000000	3.518989
2084.000000	3.513362
2083.000000	3.512307
2082.000000	3.514945
2081.000000	3.515032
2080.000000	3.508087
2079.000000	3.505362
2078.000000	3.498768
2077.000000	3.489010
2076.000000	3.490241
2075.000000	3.484351
2074.000000	3.469757
2073.000000	3.480395
2072.000000	3.488834
2071.000000	3.470021
2070.000000	3.454548
2069.000000	3.440482
2068.000000	3.432306
2067.000000	3.424218
2066.000000	3.424834
2065.000000	3.429932
2064.000000	3.418504
2063.000000	3.395646
2062.000000	3.394855
2061.000000	3.405493
2060.000000	3.386767
2059.000000	3.373492
2058.000000	3.388789
2057.000000	3.387558
2056.000000	3.372789
2055.000000	3.383866
2054.000000	3.406460
2053.000000	3.411031
2052.000000	3.414899
2051.000000	3.417800
2050.000000	3.437141
2049.000000	3.450153
2048.000000	3.470812
2047.000000	3.503252
2046.000000	3.511076
2045.000000	3.525494
2044.000000	3.566637
2043.000000	3.603561
2042.000000	3.619210
2041.000000	3.655342
2040.000000	3.675122
2039.000000	3.707211
2038.000000	3.729277
2037.000000	3.752662
2036.000000	3.766640
2035.000000	3.779212
2034.000000	3.813849
2033.000000	3.844179
2032.000000	3.846905
2031.000000	3.872839
2030.000000	3.895433
2029.000000	3.904136
2028.000000	3.925147
2027.000000	3.955038
2026.000000	3.977807
2025.000000	3.973060
2024.000000	3.985368
2023.000000	4.003302
2022.000000	4.001896
2021.000000	4.011830
2020.000000	4.037061
2019.000000	4.038819
2018.000000	4.047698
2017.000000	4.048841
2016.000000	4.054907
2015.000000	4.064666
2014.000000	4.076710
2013.000000	4.041984
2012.000000	4.050863
2011.000000	4.069413
2010.000000	4.075391
2009.000000	4.062819
2008.000000	4.060006
2007.000000	4.058424
2006.000000	4.059391
2005.000000	4.037676
2004.000000	4.025896
2003.000000	4.040577
2002.000000	4.032050
2001.000000	4.032138
2000.000000	4.012181
1999.000000	4.001280
1998.000000	3.980796
1997.000000	3.978335
1996.000000	3.958027
1995.000000	3.933499
1994.000000	3.918554
1993.000000	3.907389
1992.000000	3.898158
1991.000000	3.881982
1990.000000	3.852707
1989.000000	3.826860
1988.000000	3.821146
1987.000000	3.796267
1986.000000	3.783080
1985.000000	3.777014
1984.000000	3.747211
1983.000000	3.724530
1982.000000	3.716266
1981.000000	3.687606
1980.000000	3.671342
1979.000000	3.633012
1978.000000	3.627913
1977.000000	3.594594
1976.000000	3.570594
1975.000000	3.575077
1974.000000	3.541231
1973.000000	3.525318
1972.000000	3.522593
1971.000000	3.499648
1970.000000	3.468438
1969.000000	3.457625
1968.000000	3.436966
1967.000000	3.422987
1966.000000	3.402767
1965.000000	3.390372
1964.000000	3.371206
1963.000000	3.329799
1962.000000	3.319250
1961.000000	3.305711
1960.000000	3.289271
1959.000000	3.256392
1958.000000	3.260436
1957.000000	3.240831
1956.000000	3.222985
1955.000000	3.199688
1954.000000	3.194061
1953.000000	3.177182
1952.000000	3.171731
1951.000000	3.135160
1950.000000	3.108610
1949.000000	3.105445
1948.000000	3.089972
1947.000000	3.063598
1946.000000	3.080126
1945.000000	3.063686
1944.000000	3.051466
1943.000000	3.055510
1942.000000	3.032213
1941.000000	3.032477
1940.000000	3.057708
1939.000000	3.019202
1938.000000	3.014543
1937.000000	3.014719
1936.000000	3.015334
1935.000000	3.015774
1934.000000	3.022982
1933.000000	3.020345
1932.000000	3.049356
1931.000000	3.064302
1930.000000	3.087862
1929.000000	3.086104
1928.000000	3.082939
1927.000000	3.105621
1926.000000	3.120214
1925.000000	3.148522
1924.000000	3.168215
1923.000000	3.190193
1922.000000	3.203732
1921.000000	3.248743
1920.000000	3.260700
1919.000000	3.283469
1918.000000	3.315294
1917.000000	3.350899
1916.000000	3.411910
1915.000000	3.464043
1914.000000	3.511076
1913.000000	3.526461
1912.000000	3.551428
1911.000000	3.576747
1910.000000	3.625012
1909.000000	3.691914
1908.000000	3.755739
1907.000000	3.811564
1906.000000	3.877059
1905.000000	3.906949
1904.000000	3.948796
1903.000000	4.002599
1902.000000	4.079083
1901.000000	4.162953
1900.000000	4.215349
1899.000000	4.238382
1898.000000	4.305724
1897.000000	4.382208
1896.000000	4.448055
1895.000000	4.550825
1894.000000	4.629684
1893.000000	4.725773
1892.000000	4.796191
1891.000000	4.875225
1890.000000	4.926127
1889.000000	5.009117
1888.000000	5.102217
1887.000000	5.208768
1886.000000	5.325604
1885.000000	5.425122
1884.000000	5.513563
1883.000000	5.633300
1882.000000	5.780731
1881.000000	5.920073
1880.000000	6.061965
1879.000000	6.212121
1878.000000	6.359903
1877.000000	6.498542
1876.000000	6.642016
1875.000000	6.754193
1874.000000	6.854854
1873.000000	6.941976
1872.000000	7.012922
1871.000000	7.057494
1870.000000	7.093362
1869.000000	7.144616
1868.000000	7.198682
1867.000000	7.240793
1866.000000	7.311299
1865.000000	7.369058
1864.000000	7.438246
1863.000000	7.517192
1862.000000	7.572577
1861.000000	7.593500
1860.000000	7.593588
1859.000000	7.596138
1858.000000	7.586028
1857.000000	7.602468
1856.000000	7.626819
1855.000000	7.631039
1854.000000	7.612050
1853.000000	7.588665
1852.000000	7.570467
1851.000000	7.592445
1850.000000	7.640886
1849.000000	7.643787
1848.000000	7.574863
1847.000000	7.473587
1846.000000	7.416531
1845.000000	7.441586
1844.000000	7.502071
1843.000000	7.548577
1842.000000	7.533368
1841.000000	7.471741
1840.000000	7.432971
1839.000000	7.414597
1838.000000	7.410641
1837.000000	7.385674
1836.000000	7.343651
1835.000000	7.296002
1834.000000	7.273672
1833.000000	7.280266
1832.000000	7.274200
1831.000000	7.271914
1830.000000	7.238067
1829.000000	7.194463
1828.000000	7.164132
1827.000000	7.119648
1826.000000	7.080615
1825.000000	7.065054
1824.000000	7.080087
1823.000000	7.101626
1822.000000	7.105934
1821.000000	7.069010
1820.000000	6.999647
1819.000000	6.962987
1818.000000	6.971691
1817.000000	6.992790
1816.000000	6.989801
1815.000000	6.971603
1814.000000	6.960086
1813.000000	6.967998
1812.000000	6.960262
1811.000000	6.933888
1810.000000	6.915514
1809.000000	6.896788
1808.000000	6.895821
1807.000000	6.876393
1806.000000	6.847821
1805.000000	6.836656
1804.000000	6.827337
1803.000000	6.815996
1802.000000	6.789447
1801.000000	6.756655
1800.000000	6.732918
1799.000000	6.717709
1798.000000	6.705314
1797.000000	6.689929
1796.000000	6.672434
1795.000000	6.663819
1794.000000	6.644654
1793.000000	6.627335
1792.000000	6.596301
1791.000000	6.580389
1790.000000	6.560960
1789.000000	6.543993
1788.000000	6.544696
1787.000000	6.527465
1786.000000	6.495377
1785.000000	6.479025
1784.000000	6.451948
1783.000000	6.430497
1782.000000	6.406673
1781.000000	6.385485
1780.000000	6.356562
1779.000000	6.330452
1778.000000	6.310583
1777.000000	6.292913
1776.000000	6.256781
1775.000000	6.219593
1774.000000	6.192868
1773.000000	6.150054
1772.000000	6.130098
1771.000000	6.106273
1770.000000	6.067152
1769.000000	6.020030
1768.000000	6.011854
1767.000000	5.971942
1766.000000	5.938447
1765.000000	5.939414
1764.000000	5.927106
1763.000000	5.917875
1762.000000	5.933172
1761.000000	5.929040
1760.000000	5.966667
1759.000000	5.967019
1758.000000	5.981788
1757.000000	6.027767
1756.000000	6.054580
1755.000000	6.054844
1754.000000	6.063723
1753.000000	6.085877
1752.000000	6.094845
1751.000000	6.087020
1750.000000	6.079636
1749.000000	6.064339
1748.000000	6.057833
1747.000000	6.041569
1746.000000	5.996206
1745.000000	5.977129
1744.000000	5.949700
1743.000000	5.905567
1742.000000	5.848160
1741.000000	5.797522
1740.000000	5.757346
1739.000000	5.687015
1738.000000	5.638048
1737.000000	5.573519
1736.000000	5.531321
1735.000000	5.513914
1734.000000	5.499584
1733.000000	5.494046
1732.000000	5.497299
1731.000000	5.520068
1730.000000	5.544508
1729.000000	5.569739
1728.000000	5.585212
1727.000000	5.627762
1726.000000	5.632333
1725.000000	5.650707
1724.000000	5.657389
1723.000000	5.682883
1722.000000	5.690092
1721.000000	5.688070
1720.000000	5.697741
1719.000000	5.723148
1718.000000	5.739587
1717.000000	5.753917
1716.000000	5.769917
1715.000000	5.801830
1714.000000	5.812907
1713.000000	5.835764
1712.000000	5.858182
1711.000000	5.862314
1710.000000	5.860908
1709.000000	5.878226
1708.000000	5.877963
1707.000000	5.854842
1706.000000	5.844028
1705.000000	5.871897
1704.000000	5.818533
1703.000000	5.804819
1702.000000	5.770884
1701.000000	5.741697
1700.000000	5.699147
1699.000000	5.650092
1698.000000	5.609036
1697.000000	5.566223
1696.000000	5.558750
1695.000000	5.544156
1694.000000	5.531321
1693.000000	5.548464
1692.000000	5.608948
1691.000000	5.615981
1690.000000	5.646048
1689.000000	5.672510
1688.000000	5.681477
1687.000000	5.684993
1686.000000	5.698180
1685.000000	5.694048
1684.000000	5.733082
1683.000000	5.753829
1682.000000	5.825830
1681.000000	5.940381
1680.000000	6.081570
1679.000000	6.235330
1678.000000	6.367639
1677.000000	6.509267
1676.000000	6.661621
1675.000000	6.778106
1674.000000	6.866722
1673.000000	6.949448
1672.000000	7.024526
1671.000000	7.094857
1670.000000	7.153847
1669.000000	7.215474
1668.000000	7.251870
1667.000000	7.305145
1666.000000	7.343387
1665.000000	7.390597
1664.000000	7.427081
1663.000000	7.450905
1662.000000	7.467521
1661.000000	7.488708
1660.000000	7.472532
1659.000000	7.502950
1658.000000	7.531697
1657.000000	7.528533
1656.000000	7.540840
1655.000000	7.545851
1654.000000	7.542599
1653.000000	7.548401
1652.000000	7.535302
1651.000000	7.526247
1650.000000	7.522027
1649.000000	7.519917
1648.000000	7.520796
1647.000000	7.498994
1646.000000	7.485719
1645.000000	7.473587
1644.000000	7.473147
1643.000000	7.445806
1642.000000	7.441235
1641.000000	7.427784
1640.000000	7.413542
1639.000000	7.403696
1638.000000	7.376355
1637.000000	7.370025
1636.000000	7.364311
1635.000000	7.343124
1634.000000	7.320706
1633.000000	7.286683
1632.000000	7.280881
1631.000000	7.262244
1630.000000	7.236661
1629.000000	7.223298
1628.000000	7.200177
1627.000000	7.178111
1626.000000	7.170990
1625.000000	7.132835
1624.000000	7.094241
1623.000000	7.096439
1622.000000	7.099077
1621.000000	7.076043
1620.000000	7.059780
1619.000000	7.038680
1618.000000	7.010988
1617.000000	6.995075
1616.000000	6.990240
1615.000000	6.977669
1614.000000	6.962723
1613.000000	6.915074
1612.000000	6.902503
1611.000000	6.902151
1610.000000	6.890898
1609.000000	6.859953
1608.000000	6.843249
1607.000000	6.832084
1606.000000	6.804655
1605.000000	6.775996
1604.000000	6.756040
1603.000000	6.740039
1602.000000	6.722105
1601.000000	6.708391
1600.000000	6.678588
1599.000000	6.664434
1598.000000	6.651599
1597.000000	6.630939
1596.000000	6.610016
1595.000000	6.587334
1594.000000	6.564125
1593.000000	6.553048
1592.000000	6.531949
1591.000000	6.516476
1590.000000	6.502146
1589.000000	6.469091
1588.000000	6.459508
1587.000000	6.460739
1586.000000	6.441310
1585.000000	6.420739
1584.000000	6.421266
1583.000000	6.419508
