PE UV       SUBTECH     SPECTRUM    ASCII       PEDS        4.00        
   -1
CICIMAUCR0108-3.Sample.ASC
24/04/04
14:31:49.00
24/04/04
14:31:49.00
Vinicio Soto Monge
C. resplendens
250,000000
1
Lambda 1050
1050L1511233
PerkinElmer UV WinLab 6.3.2.0749 / 2.02.05 Lambda 900 UV/VIS/NIR, Aug  7 2015 09:38:08

0
0
3350/servo 860,8/2
0
0
UV/VIS
1
1
1
DoubleDePol,CommonBeamDepol,RBeamAtt,SBeamAtt,60mm sphere, WB InGaAs Detector
0
0
0
0
Program
Program
3350/servo 860,8/2
3350/0,2 860,8/0,2
3350/0,2 860,8/0,2
0
15.00
 
 
 
0
 
860,8
319,2
860,8
Front
100
on
S:100 R:100
0
0
0
0
 
0
 
 
 
0
 
 
0
0
0
0
0
 
 
 
 
0
0


0
0
#HDR
-1
-1
#GR
nm
%R
1.0
0.0
2500,000000
-1,000000
2251
8
68,128600
5,096800
#DATA
2500.000000	5.363682
2499.000000	5.452701
2498.000000	5.373137
2497.000000	5.381787
2496.000000	5.297194
2495.000000	5.382391
2494.000000	5.387319
2493.000000	5.313891
2492.000000	5.371829
2491.000000	5.368309
2490.000000	5.346280
2489.000000	5.351611
2488.000000	5.345375
2487.000000	5.252634
2486.000000	5.257663
2485.000000	5.177496
2484.000000	5.232919
2483.000000	5.330689
2482.000000	5.315802
2481.000000	5.363078
2480.000000	5.238351
2479.000000	5.355936
2478.000000	5.273858
2477.000000	5.334310
2476.000000	5.291561
2475.000000	5.289449
2474.000000	5.282810
2473.000000	5.300815
2472.000000	5.314696
2471.000000	5.297294
2470.000000	5.312584
2469.000000	5.300111
2468.000000	5.290153
2467.000000	5.374344
2466.000000	5.337931
2465.000000	5.355735
2464.000000	5.372433
2463.000000	5.351712
2462.000000	5.382190
2461.000000	5.402106
2460.000000	5.450790
2459.000000	5.466984
2458.000000	5.476741
2457.000000	5.512952
2456.000000	5.546548
2455.000000	5.526431
2454.000000	5.573807
2453.000000	5.609012
2452.000000	5.645123
2451.000000	5.685659
2450.000000	5.700446
2449.000000	5.751242
2448.000000	5.786950
2447.000000	5.801032
2446.000000	5.855550
2445.000000	5.861988
2444.000000	5.894980
2443.000000	5.942859
2442.000000	5.973035
2441.000000	5.992952
2440.000000	6.034494
2439.000000	6.071208
2438.000000	6.098769
2437.000000	6.142122
2436.000000	6.144837
2435.000000	6.180143
2434.000000	6.207101
2433.000000	6.235466
2432.000000	6.279925
2431.000000	6.285357
2430.000000	6.306882
2429.000000	6.323781
2428.000000	6.345407
2427.000000	6.371761
2426.000000	6.403345
2425.000000	6.415717
2424.000000	6.442373
2423.000000	6.450218
2422.000000	6.464703
2421.000000	6.468626
2420.000000	6.513789
2419.000000	6.524049
2418.000000	6.522540
2417.000000	6.546782
2416.000000	6.554728
2415.000000	6.569816
2414.000000	6.582792
2413.000000	6.589632
2412.000000	6.602909
2411.000000	6.611258
2410.000000	6.623328
2409.000000	6.641735
2408.000000	6.657729
2407.000000	6.670805
2406.000000	6.679455
2405.000000	6.686698
2404.000000	6.694443
2403.000000	6.722607
2402.000000	6.742322
2401.000000	6.754795
2400.000000	6.765055
2399.000000	6.791710
2398.000000	6.806496
2397.000000	6.817963
2396.000000	6.828223
2395.000000	6.832548
2394.000000	6.849547
2393.000000	6.878416
2392.000000	6.871073
2391.000000	6.864434
2390.000000	6.885759
2389.000000	6.897628
2388.000000	6.895817
2387.000000	6.889983
2386.000000	6.890486
2385.000000	6.910201
2384.000000	6.912615
2383.000000	6.901551
2382.000000	6.891391
2381.000000	6.891693
2380.000000	6.888977
2379.000000	6.873085
2378.000000	6.859505
2377.000000	6.855180
2376.000000	6.869765
2375.000000	6.852163
2374.000000	6.830034
2373.000000	6.817661
2372.000000	6.796941
2371.000000	6.777125
2370.000000	6.753789
2369.000000	6.745239
2368.000000	6.725323
2367.000000	6.686496
2366.000000	6.655214
2365.000000	6.623429
2364.000000	6.586212
2363.000000	6.562976
2362.000000	6.528575
2361.000000	6.481903
2360.000000	6.435533
2359.000000	6.402540
2358.000000	6.379003
2357.000000	6.355969
2356.000000	6.324787
2355.000000	6.297327
2354.000000	6.265743
2353.000000	6.249448
2352.000000	6.256388
2351.000000	6.255784
2350.000000	6.269867
2349.000000	6.295114
2348.000000	6.306983
2347.000000	6.334343
2346.000000	6.352247
2345.000000	6.359992
2344.000000	6.397712
2343.000000	6.420445
2342.000000	6.447603
2341.000000	6.469129
2340.000000	6.484921
2339.000000	6.488341
2338.000000	6.482104
2337.000000	6.489850
2336.000000	6.487737
2335.000000	6.476371
2334.000000	6.457762
2333.000000	6.424167
2332.000000	6.403848
2331.000000	6.387251
2330.000000	6.356069
2329.000000	6.323479
2328.000000	6.281535
2327.000000	6.229230
2326.000000	6.188291
2325.000000	6.131359
2324.000000	6.078148
2323.000000	6.017696
2322.000000	5.958953
2321.000000	5.881803
2320.000000	5.809180
2319.000000	5.733740
2318.000000	5.665743
2317.000000	5.595534
2316.000000	5.545039
2315.000000	5.477244
2314.000000	5.405928
2313.000000	5.348895
2312.000000	5.294076
2311.000000	5.241368
2310.000000	5.208275
2309.000000	5.179105
2308.000000	5.163112
2307.000000	5.161301
2306.000000	5.142492
2305.000000	5.156071
2304.000000	5.162106
2303.000000	5.177596
2302.000000	5.192785
2301.000000	5.205459
2300.000000	5.244889
2299.000000	5.276875
2298.000000	5.293472
2297.000000	5.304939
2296.000000	5.343263
2295.000000	5.379775
2294.000000	5.384905
2293.000000	5.409348
2292.000000	5.403011
2291.000000	5.405827
2290.000000	5.416490
2289.000000	5.422122
2288.000000	5.390035
2287.000000	5.371226
2286.000000	5.375450
2285.000000	5.338937
2284.000000	5.327068
2283.000000	5.305442
2282.000000	5.299809
2281.000000	5.275970
2280.000000	5.244587
2279.000000	5.213707
2278.000000	5.186549
2277.000000	5.179910
2276.000000	5.170656
2275.000000	5.166230
2274.000000	5.144101
2273.000000	5.141586
2272.000000	5.127605
2271.000000	5.132433
2270.000000	5.126700
2269.000000	5.148225
2268.000000	5.143296
2267.000000	5.176490
2266.000000	5.194294
2265.000000	5.217127
2264.000000	5.260580
2263.000000	5.294076
2262.000000	5.358351
2261.000000	5.417093
2260.000000	5.514059
2259.000000	5.529951
2258.000000	5.631946
2257.000000	5.684754
2256.000000	5.774679
2255.000000	5.838652
2254.000000	5.919523
2253.000000	6.001401
2252.000000	6.058534
2251.000000	6.124921
2250.000000	6.188894
2249.000000	6.256287
2248.000000	6.307687
2247.000000	6.354259
2246.000000	6.422959
2245.000000	6.477075
2244.000000	6.507050
2243.000000	6.559657
2242.000000	6.592649
2241.000000	6.643244
2240.000000	6.697561
2239.000000	6.706211
2238.000000	6.748860
2237.000000	6.777628
2236.000000	6.790503
2235.000000	6.795029
2234.000000	6.834560
2233.000000	6.827720
2232.000000	6.840998
2231.000000	6.832045
2230.000000	6.843210
2229.000000	6.832246
2228.000000	6.816957
2227.000000	6.805692
2226.000000	6.770889
2225.000000	6.747854
2224.000000	6.731257
2223.000000	6.685289
2222.000000	6.651090
2221.000000	6.625239
2220.000000	6.572331
2219.000000	6.538534
2218.000000	6.507050
2217.000000	6.475466
2216.000000	6.461685
2215.000000	6.427586
2214.000000	6.398014
2213.000000	6.391275
2212.000000	6.391476
2211.000000	6.368140
2210.000000	6.392683
2209.000000	6.414108
2208.000000	6.439053
2207.000000	6.488643
2206.000000	6.546078
2205.000000	6.604317
2204.000000	6.702590
2203.000000	6.770386
2202.000000	6.871676
2201.000000	6.975784
2200.000000	7.078483
2199.000000	7.181182
2198.000000	7.283981
2197.000000	7.403478
2196.000000	7.500745
2195.000000	7.613603
2194.000000	7.724148
2193.000000	7.800996
2192.000000	7.873016
2191.000000	7.958917
2190.000000	8.050652
2189.000000	8.109496
2188.000000	8.176989
2187.000000	8.239554
2186.000000	8.272546
2185.000000	8.331792
2184.000000	8.364583
2183.000000	8.394256
2182.000000	8.445053
2181.000000	8.466779
2180.000000	8.508120
2179.000000	8.533971
2178.000000	8.563644
2177.000000	8.584767
2176.000000	8.611121
2175.000000	8.637374
2174.000000	8.678212
2173.000000	8.697424
2172.000000	8.725991
2171.000000	8.748623
2170.000000	8.786947
2169.000000	8.812395
2168.000000	8.848003
2167.000000	8.882001
2166.000000	8.913686
2165.000000	8.940442
2164.000000	8.977055
2163.000000	9.006225
2162.000000	9.038514
2161.000000	9.060341
2160.000000	9.099771
2159.000000	9.131355
2158.000000	9.146443
2157.000000	9.182856
2156.000000	9.234255
2155.000000	9.285655
2154.000000	9.320156
2153.000000	9.351338
2152.000000	9.375479
2151.000000	9.415412
2150.000000	9.446895
2149.000000	9.496988
2148.000000	9.527767
2147.000000	9.545370
2146.000000	9.586007
2145.000000	9.613165
2144.000000	9.627549
2143.000000	9.661748
2142.000000	9.691824
2141.000000	9.727934
2140.000000	9.755294
2139.000000	9.762737
2138.000000	9.788387
2137.000000	9.808001
2136.000000	9.819167
2135.000000	9.846224
2134.000000	9.860306
2133.000000	9.870063
2132.000000	9.882637
2131.000000	9.889577
2130.000000	9.891187
2129.000000	9.904464
2128.000000	9.909996
2127.000000	9.906576
2126.000000	9.912913
2125.000000	9.903458
2124.000000	9.881128
2123.000000	9.886258
2122.000000	9.889477
2121.000000	9.879519
2120.000000	9.870868
2119.000000	9.867951
2118.000000	9.844615
2117.000000	9.830231
2116.000000	9.824900
2115.000000	9.809208
2114.000000	9.799452
2113.000000	9.780340
2112.000000	9.765755
2111.000000	9.756602
2110.000000	9.739401
2109.000000	9.723911
2108.000000	9.713349
2107.000000	9.704297
2106.000000	9.686292
2105.000000	9.663157
2104.000000	9.653199
2103.000000	9.644749
2102.000000	9.626443
2101.000000	9.611254
2100.000000	9.596971
2099.000000	9.585604
2098.000000	9.587214
2097.000000	9.568907
2096.000000	9.554020
2095.000000	9.549594
2094.000000	9.530785
2093.000000	9.523542
2092.000000	9.515797
2091.000000	9.520122
2090.000000	9.523442
2089.000000	9.524749
2088.000000	9.526258
2087.000000	9.513484
2086.000000	9.494272
2085.000000	9.490047
2084.000000	9.493568
2083.000000	9.490550
2082.000000	9.472143
2081.000000	9.451724
2080.000000	9.440458
2079.000000	9.420240
2078.000000	9.418530
2077.000000	9.420441
2076.000000	9.405856
2075.000000	9.398614
2074.000000	9.385236
2073.000000	9.352847
2072.000000	9.330517
2071.000000	9.321062
2070.000000	9.304465
2069.000000	9.281028
2068.000000	9.257692
2067.000000	9.237575
2066.000000	9.211623
2065.000000	9.189192
2064.000000	9.163744
2063.000000	9.146443
2062.000000	9.130349
2061.000000	9.103694
2060.000000	9.080659
2059.000000	9.072914
2058.000000	9.047466
2057.000000	9.017491
2056.000000	9.013870
2055.000000	9.018899
2054.000000	9.034993
2053.000000	9.057323
2052.000000	9.048069
2051.000000	9.077038
2050.000000	9.109327
2049.000000	9.150165
2048.000000	9.199151
2047.000000	9.268153
2046.000000	9.330718
2045.000000	9.406359
2044.000000	9.496686
2043.000000	9.592847
2042.000000	9.675428
2041.000000	9.761933
2040.000000	9.864229
2039.000000	9.952243
2038.000000	10.055042
2037.000000	10.152812
2036.000000	10.226643
2035.000000	10.304698
2034.000000	10.395126
2033.000000	10.465737
2032.000000	10.532024
2031.000000	10.608570
2030.000000	10.669727
2029.000000	10.733901
2028.000000	10.794253
2027.000000	10.861445
2026.000000	10.923407
2025.000000	10.966458
2024.000000	11.025100
2023.000000	11.079416
2022.000000	11.127296
2021.000000	11.191369
2020.000000	11.235929
2019.000000	11.264999
2018.000000	11.299500
2017.000000	11.346977
2016.000000	11.397773
2015.000000	11.433582
2014.000000	11.450481
2013.000000	11.501880
2012.000000	11.537186
2011.000000	11.582450
2010.000000	11.605283
2009.000000	11.646624
2008.000000	11.666541
2007.000000	11.695107
2006.000000	11.718041
2005.000000	11.736046
2004.000000	11.759080
2003.000000	11.788049
2002.000000	11.795191
2001.000000	11.798309
2000.000000	11.823959
1999.000000	11.819231
1998.000000	11.835224
1997.000000	11.828988
1996.000000	11.808368
1995.000000	11.815107
1994.000000	11.806557
1993.000000	11.805350
1992.000000	11.775878
1991.000000	11.748921
1990.000000	11.739466
1989.000000	11.749525
1988.000000	11.734839
1987.000000	11.682534
1986.000000	11.651754
1985.000000	11.613129
1984.000000	11.594219
1983.000000	11.579734
1982.000000	11.542819
1981.000000	11.493230
1980.000000	11.461344
1979.000000	11.427446
1978.000000	11.404010
1977.000000	11.363473
1976.000000	11.301914
1975.000000	11.281093
1974.000000	11.241864
1973.000000	11.212191
1972.000000	11.192476
1971.000000	11.139668
1970.000000	11.122870
1969.000000	11.070665
1968.000000	11.047028
1967.000000	11.016852
1966.000000	10.984865
1965.000000	10.941613
1964.000000	10.907011
1963.000000	10.881261
1962.000000	10.858528
1961.000000	10.811454
1960.000000	10.768704
1959.000000	10.751303
1958.000000	10.710163
1957.000000	10.688537
1956.000000	10.631202
1955.000000	10.606860
1954.000000	10.564815
1953.000000	10.554455
1952.000000	10.514120
1951.000000	10.467548
1950.000000	10.437573
1949.000000	10.410817
1948.000000	10.372494
1947.000000	10.371890
1946.000000	10.350163
1945.000000	10.346844
1944.000000	10.314757
1943.000000	10.300876
1942.000000	10.299267
1941.000000	10.258730
1940.000000	10.267682
1939.000000	10.298361
1938.000000	10.294438
1937.000000	10.311236
1936.000000	10.304195
1935.000000	10.317171
1934.000000	10.324111
1933.000000	10.360423
1932.000000	10.388286
1931.000000	10.427112
1930.000000	10.462418
1929.000000	10.488369
1928.000000	10.569241
1927.000000	10.604748
1926.000000	10.667313
1925.000000	10.716299
1924.000000	10.756936
1923.000000	10.822619
1922.000000	10.904899
1921.000000	11.013633
1920.000000	11.116231
1919.000000	11.208570
1918.000000	11.277773
1917.000000	11.345468
1916.000000	11.414973
1915.000000	11.490413
1914.000000	11.630631
1913.000000	11.739768
1912.000000	11.868016
1911.000000	11.982383
1910.000000	12.071201
1909.000000	12.143020
1908.000000	12.215643
1907.000000	12.337152
1906.000000	12.494872
1905.000000	12.671301
1904.000000	12.815240
1903.000000	12.925282
1902.000000	13.019431
1901.000000	13.128668
1900.000000	13.256916
1899.000000	13.416145
1898.000000	13.560185
1897.000000	13.704225
1896.000000	13.775742
1895.000000	13.850377
1894.000000	13.973596
1893.000000	14.095406
1892.000000	14.249605
1891.000000	14.398775
1890.000000	14.541105
1889.000000	14.653762
1888.000000	14.793377
1887.000000	14.943351
1886.000000	15.104189
1885.000000	15.296813
1884.000000	15.517399
1883.000000	15.760316
1882.000000	15.978086
1881.000000	16.227139
1880.000000	16.477800
1879.000000	16.709753
1878.000000	16.952771
1877.000000	17.171245
1876.000000	17.389216
1875.000000	17.603365
1874.000000	17.775670
1873.000000	17.948779
1872.000000	18.117564
1871.000000	18.248226
1870.000000	18.369131
1869.000000	18.461771
1868.000000	18.515283
1867.000000	18.542241
1866.000000	18.550891
1865.000000	18.545158
1864.000000	18.522023
1863.000000	18.509248
1862.000000	18.522928
1861.000000	18.540229
1860.000000	18.534194
1859.000000	18.545862
1858.000000	18.541838
1857.000000	18.510254
1856.000000	18.451612
1855.000000	18.413188
1854.000000	18.385325
1853.000000	18.315619
1852.000000	18.233943
1851.000000	18.191495
1850.000000	18.139492
1849.000000	18.108209
1848.000000	18.085275
1847.000000	18.053289
1846.000000	17.983281
1845.000000	17.890942
1844.000000	17.811277
1843.000000	17.774060
1842.000000	17.778989
1841.000000	17.761387
1840.000000	17.714413
1839.000000	17.683834
1838.000000	17.655569
1837.000000	17.617849
1836.000000	17.566751
1835.000000	17.498855
1834.000000	17.421806
1833.000000	17.340130
1832.000000	17.287623
1831.000000	17.236727
1830.000000	17.182209
1829.000000	17.137548
1828.000000	17.071463
1827.000000	17.010105
1826.000000	16.948948
1825.000000	16.879745
1824.000000	16.826937
1823.000000	16.797062
1822.000000	16.795151
1821.000000	16.798471
1820.000000	16.782578
1819.000000	16.758337
1818.000000	16.713877
1817.000000	16.674850
1816.000000	16.679074
1815.000000	16.684506
1814.000000	16.673441
1813.000000	16.656342
1812.000000	16.626870
1811.000000	16.602830
1810.000000	16.575370
1809.000000	16.540466
1808.000000	16.501841
1807.000000	16.475889
1806.000000	16.453056
1805.000000	16.396225
1804.000000	16.348245
1803.000000	16.311028
1802.000000	16.285781
1801.000000	16.250676
1800.000000	16.201187
1799.000000	16.149586
1798.000000	16.115286
1797.000000	16.077868
1796.000000	16.053124
1795.000000	16.017717
1794.000000	15.988547
1793.000000	15.960383
1792.000000	15.926988
1791.000000	15.879712
1790.000000	15.824390
1789.000000	15.783250
1788.000000	15.724910
1787.000000	15.682462
1786.000000	15.622009
1785.000000	15.569201
1784.000000	15.502412
1783.000000	15.426570
1782.000000	15.366318
1781.000000	15.313812
1780.000000	15.254667
1779.000000	15.187173
1778.000000	15.094131
1777.000000	15.015874
1776.000000	14.930979
1775.000000	14.842362
1774.000000	14.742279
1773.000000	14.643301
1772.000000	14.534567
1771.000000	14.430963
1770.000000	14.313277
1769.000000	14.197703
1768.000000	14.086052
1767.000000	13.995021
1766.000000	13.899664
1765.000000	13.841123
1764.000000	13.801090
1763.000000	13.763269
1762.000000	13.770813
1761.000000	13.792640
1760.000000	13.831165
1759.000000	13.864962
1758.000000	13.930746
1757.000000	13.966957
1756.000000	14.013830
1755.000000	14.041190
1754.000000	14.066437
1753.000000	14.071869
1752.000000	14.066437
1751.000000	14.054668
1750.000000	14.035054
1749.000000	14.006990
1748.000000	13.966555
1747.000000	13.923101
1746.000000	13.847661
1745.000000	13.755624
1744.000000	13.660168
1743.000000	13.534736
1742.000000	13.391903
1741.000000	13.259330
1740.000000	13.098794
1739.000000	12.918844
1738.000000	12.770077
1737.000000	12.646757
1736.000000	12.495475
1735.000000	12.418225
1734.000000	12.323070
1733.000000	12.301745
1732.000000	12.301544
1731.000000	12.323271
1730.000000	12.392877
1729.000000	12.470027
1728.000000	12.561561
1727.000000	12.647059
1726.000000	12.750965
1725.000000	12.810512
1724.000000	12.843203
1723.000000	12.882935
1722.000000	12.930211
1721.000000	12.953446
1720.000000	12.973563
1719.000000	13.014603
1718.000000	13.047897
1717.000000	13.092859
1716.000000	13.149691
1715.000000	13.175240
1714.000000	13.238810
1713.000000	13.312440
1712.000000	13.368366
1711.000000	13.398844
1710.000000	13.445214
1709.000000	13.450143
1708.000000	13.488064
1707.000000	13.487460
1706.000000	13.513814
1705.000000	13.529305
1704.000000	13.539766
1703.000000	13.529506
1702.000000	13.517737
1701.000000	13.463722
1700.000000	13.428014
1699.000000	13.338190
1698.000000	13.331954
1697.000000	13.273915
1696.000000	13.284175
1695.000000	13.282163
1694.000000	13.349757
1693.000000	13.419363
1692.000000	13.508382
1691.000000	13.623856
1690.000000	13.732590
1689.000000	13.822917
1688.000000	13.882665
1687.000000	13.889405
1686.000000	13.889606
1685.000000	13.903587
1684.000000	13.938592
1683.000000	14.035054
1682.000000	14.197502
1681.000000	14.444241
1680.000000	14.758272
1679.000000	15.096847
1678.000000	15.402731
1677.000000	15.728430
1676.000000	15.983317
1675.000000	16.247759
1674.000000	16.473676
1673.000000	16.672134
1672.000000	16.812855
1671.000000	16.955688
1670.000000	17.062108
1669.000000	17.181907
1668.000000	17.251010
1667.000000	17.313474
1666.000000	17.378453
1665.000000	17.428445
1664.000000	17.459325
1663.000000	17.489601
1662.000000	17.545427
1661.000000	17.574798
1660.000000	17.599643
1659.000000	17.602057
1658.000000	17.624388
1657.000000	17.615536
1656.000000	17.630322
1655.000000	17.610708
1654.000000	17.592703
1653.000000	17.588277
1652.000000	17.575100
1651.000000	17.552367
1650.000000	17.508411
1649.000000	17.500465
1648.000000	17.464958
1647.000000	17.448461
1646.000000	17.392133
1645.000000	17.365578
1644.000000	17.327154
1643.000000	17.272234
1642.000000	17.230390
1641.000000	17.205746
1640.000000	17.151027
1639.000000	17.117632
1638.000000	17.067641
1637.000000	17.018655
1636.000000	16.958001
1635.000000	16.899963
1634.000000	16.867171
1633.000000	16.833475
1632.000000	16.777951
1631.000000	16.711061
1630.000000	16.657851
1629.000000	16.603131
1628.000000	16.551530
1627.000000	16.517331
1626.000000	16.465931
1625.000000	16.412419
1624.000000	16.346636
1623.000000	16.308010
1622.000000	16.262947
1621.000000	16.222512
1620.000000	16.160148
1619.000000	16.112570
1618.000000	16.080383
1617.000000	16.039142
1616.000000	15.975270
1615.000000	15.942981
1614.000000	15.917835
1613.000000	15.870660
1612.000000	15.824893
1611.000000	15.773895
1610.000000	15.753074
1609.000000	15.704893
1608.000000	15.662143
1607.000000	15.620601
1606.000000	15.579662
1605.000000	15.545664
1604.000000	15.521825
1603.000000	15.486821
