PE UV       SUBTECH     SPECTRUM    ASCII       PEDS        4.00        
   -1
CICIMAUCR0012-1.Sample.ASC
24/03/08
11:02:51.00
24/03/08
11:02:51.00
Vinicio Soto Monge
C. cupreomarginata
250,000000
1
Lambda 1050
1050L1511233
PerkinElmer UV WinLab 6.3.2.0749 / 2.02.05 Lambda 900 UV/VIS/NIR, Aug  7 2015 09:38:08

0
0
3350/servo 860,8/2
0
0
UV/VIS
1
1
1
DoubleDePol,CommonBeamDepol,RBeamAtt,SBeamAtt,60mm sphere, WB InGaAs Detector
0
0
0
0
Program
Program
3350/servo 860,8/2
3350/0,2 860,8/0,2
3350/0,2 860,8/0,2
0
15.00
 
 
 
0
 
860,8
319,2
860,8
Front
100
on
S:100 R:100
0
0
0
0
 
0
 
 
 
0
 
 
0
0
0
0
0
 
 
 
 
0
0


0
0
#HDR
-1
-1
#GR
nm
%R
1.0
0.0
2500,000000
-1,000000
2251
8
25,165700
2,391800
#DATA
2500.000000	3.142256
2499.000000	3.111419
2498.000000	3.051523
2497.000000	3.070401
2496.000000	3.039959
2495.000000	3.055773
2494.000000	3.006255
2493.000000	2.985202
2492.000000	3.012086
2491.000000	2.982237
2490.000000	2.970772
2489.000000	3.054488
2488.000000	3.000325
2487.000000	2.987673
2486.000000	2.941220
2485.000000	3.018807
2484.000000	2.984016
2483.000000	2.939144
2482.000000	2.995778
2481.000000	2.979865
2480.000000	2.986092
2479.000000	2.956638
2478.000000	2.968598
2477.000000	2.952685
2476.000000	3.029284
2475.000000	3.054587
2474.000000	3.021970
2473.000000	3.039860
2472.000000	3.029778
2471.000000	3.035610
2470.000000	3.025331
2469.000000	3.050436
2468.000000	3.028790
2467.000000	3.075145
2466.000000	3.056761
2465.000000	3.075145
2464.000000	3.074453
2463.000000	3.094122
2462.000000	3.119227
2461.000000	3.142355
2460.000000	3.147791
2459.000000	3.165088
2458.000000	3.203733
2457.000000	3.198890
2456.000000	3.246135
2455.000000	3.260268
2454.000000	3.293676
2453.000000	3.326095
2452.000000	3.343292
2451.000000	3.375612
2450.000000	3.415938
2449.000000	3.423450
2448.000000	3.472869
2447.000000	3.515567
2446.000000	3.542846
2445.000000	3.568445
2444.000000	3.609661
2443.000000	3.637335
2442.000000	3.656411
2441.000000	3.716900
2440.000000	3.747540
2439.000000	3.767406
2438.000000	3.805854
2437.000000	3.835505
2436.000000	3.875238
2435.000000	3.907756
2434.000000	3.933454
2433.000000	3.954506
2432.000000	3.970913
2431.000000	4.025373
2430.000000	4.068368
2429.000000	4.080722
2428.000000	4.094461
2427.000000	4.123124
2426.000000	4.186380
2425.000000	4.249735
2424.000000	4.295695
2423.000000	4.334538
2422.000000	4.358062
2421.000000	4.375259
2420.000000	4.408074
2419.000000	4.429818
2418.000000	4.462533
2417.000000	4.506318
2416.000000	4.521935
2415.000000	4.523516
2414.000000	4.563644
2413.000000	4.585290
2412.000000	4.587366
2411.000000	4.595470
2410.000000	4.617907
2409.000000	4.636883
2408.000000	4.668709
2407.000000	4.686500
2406.000000	4.717140
2405.000000	4.744617
2404.000000	4.764780
2403.000000	4.775257
2402.000000	4.801943
2401.000000	4.823094
2400.000000	4.835053
2399.000000	4.835745
2398.000000	4.861641
2397.000000	4.898310
2396.000000	4.910071
2395.000000	4.929048
2394.000000	4.959392
2393.000000	4.957613
2392.000000	4.972339
2391.000000	4.986770
2390.000000	5.006340
2389.000000	5.035299
2388.000000	5.056846
2387.000000	5.059317
2386.000000	5.064852
2385.000000	5.077799
2384.000000	5.102015
2383.000000	5.095986
2382.000000	5.083730
2381.000000	5.085410
2380.000000	5.105276
2379.000000	5.096084
2378.000000	5.081852
2377.000000	5.087881
2376.000000	5.077108
2375.000000	5.073549
2374.000000	5.091933
2373.000000	5.099148
2372.000000	5.074736
2371.000000	5.059613
2370.000000	5.064160
2369.000000	5.058328
2368.000000	5.048543
2367.000000	5.020473
2366.000000	5.018991
2365.000000	5.015630
2364.000000	4.984793
2363.000000	4.965618
2362.000000	4.948816
2361.000000	4.924897
2360.000000	4.887932
2359.000000	4.874193
2358.000000	4.865594
2357.000000	4.838315
2356.000000	4.796012
2355.000000	4.771204
2354.000000	4.771896
2353.000000	4.770611
2352.000000	4.776146
2351.000000	4.786129
2350.000000	4.783460
2349.000000	4.783065
2348.000000	4.783460
2347.000000	4.810838
2346.000000	4.833373
2345.000000	4.854920
2344.000000	4.882595
2343.000000	4.893467
2342.000000	4.910566
2341.000000	4.933891
2340.000000	4.935769
2339.000000	4.937845
2338.000000	4.955438
2337.000000	4.968781
2336.000000	4.960380
2335.000000	4.952176
2334.000000	4.959490
2333.000000	4.935275
2332.000000	4.907403
2331.000000	4.909380
2330.000000	4.898409
2329.000000	4.869943
2328.000000	4.857589
2327.000000	4.812420
2326.000000	4.791268
2325.000000	4.787117
2324.000000	4.746989
2323.000000	4.695494
2322.000000	4.671180
2321.000000	4.645482
2320.000000	4.610790
2319.000000	4.556924
2318.000000	4.510766
2317.000000	4.458679
2316.000000	4.414202
2315.000000	4.377335
2314.000000	4.311904
2313.000000	4.266735
2312.000000	4.236194
2311.000000	4.182427
2310.000000	4.144077
2309.000000	4.111856
2308.000000	4.088728
2307.000000	4.059373
2306.000000	4.037234
2305.000000	4.059472
2304.000000	4.051565
2303.000000	4.057693
2302.000000	4.080623
2301.000000	4.086751
2300.000000	4.123025
2299.000000	4.144275
2298.000000	4.167008
2297.000000	4.183909
2296.000000	4.210892
2295.000000	4.255764
2294.000000	4.260113
2293.000000	4.291544
2292.000000	4.295596
2291.000000	4.305381
2290.000000	4.283538
2289.000000	4.305776
2288.000000	4.300044
2287.000000	4.282253
2286.000000	4.262979
2285.000000	4.232043
2284.000000	4.205357
2283.000000	4.176496
2282.000000	4.146944
2281.000000	4.110670
2280.000000	4.087344
2279.000000	4.059176
2278.000000	4.045832
2277.000000	4.007780
2276.000000	3.973483
2275.000000	3.961524
2274.000000	3.921297
2273.000000	3.924855
2272.000000	3.905878
2271.000000	3.873558
2270.000000	3.876325
2269.000000	3.877215
2268.000000	3.888285
2267.000000	3.894907
2266.000000	3.903209
2265.000000	3.953913
2264.000000	3.969628
2263.000000	4.009658
2262.000000	4.050577
2261.000000	4.097129
2260.000000	4.176200
2259.000000	4.246375
2258.000000	4.314672
2257.000000	4.362608
2256.000000	4.445632
2255.000000	4.526778
2254.000000	4.570365
2253.000000	4.640837
2252.000000	4.696582
2251.000000	4.759640
2250.000000	4.823687
2249.000000	4.862432
2248.000000	4.915310
2247.000000	4.953363
2246.000000	5.010886
2245.000000	5.051212
2244.000000	5.097073
2243.000000	5.120102
2242.000000	5.160230
2241.000000	5.185039
2240.000000	5.202236
2239.000000	5.245725
2238.000000	5.273499
2237.000000	5.286051
2236.000000	5.303150
2235.000000	5.317976
2234.000000	5.326080
2233.000000	5.322127
2232.000000	5.328057
2231.000000	5.334877
2230.000000	5.331516
2229.000000	5.315307
2228.000000	5.309574
2227.000000	5.268952
2226.000000	5.273202
2225.000000	5.223091
2224.000000	5.201248
2223.000000	5.166259
2222.000000	5.122375
2221.000000	5.139573
2220.000000	5.095689
2219.000000	5.059811
2218.000000	5.007625
2217.000000	4.986276
2216.000000	4.967595
2215.000000	4.948816
2214.000000	4.929048
2213.000000	4.896333
2212.000000	4.882298
2211.000000	4.896630
2210.000000	4.883484
2209.000000	4.887141
2208.000000	4.907502
2207.000000	4.947235
2206.000000	4.966607
2205.000000	5.016026
2204.000000	5.077701
2203.000000	5.143527
2202.000000	5.216271
2201.000000	5.300284
2200.000000	5.362453
2199.000000	5.427883
2198.000000	5.497960
2197.000000	5.601937
2196.000000	5.685257
2195.000000	5.771642
2194.000000	5.851701
2193.000000	5.903195
2192.000000	5.967440
2191.000000	6.035539
2190.000000	6.091284
2189.000000	6.139418
2188.000000	6.171046
2187.000000	6.231436
2186.000000	6.261483
2185.000000	6.293111
2184.000000	6.331855
2183.000000	6.332350
2182.000000	6.359925
2181.000000	6.398373
2180.000000	6.413001
2179.000000	6.422885
2178.000000	6.439688
2177.000000	6.462223
2176.000000	6.483572
2175.000000	6.483868
2174.000000	6.487031
2173.000000	6.506502
2172.000000	6.517572
2171.000000	6.541589
2170.000000	6.561061
2169.000000	6.577468
2168.000000	6.596642
2167.000000	6.608898
2166.000000	6.628270
2165.000000	6.660393
2164.000000	6.670276
2163.000000	6.677195
2162.000000	6.693701
2161.000000	6.708230
2160.000000	6.731358
2159.000000	6.729283
2158.000000	6.760614
2157.000000	6.779492
2156.000000	6.802423
2155.000000	6.812702
2154.000000	6.850952
2153.000000	6.878923
2152.000000	6.891871
2151.000000	6.915988
2150.000000	6.953250
2149.000000	6.976575
2148.000000	6.987546
2147.000000	7.015320
2146.000000	7.057029
2145.000000	7.075710
2144.000000	7.096070
2143.000000	7.116925
2142.000000	7.150827
2141.000000	7.191745
2140.000000	7.195205
2139.000000	7.202123
2138.000000	7.217839
2137.000000	7.238199
2136.000000	7.266763
2135.000000	7.278822
2134.000000	7.294735
2133.000000	7.295624
2132.000000	7.303630
2131.000000	7.319345
2130.000000	7.325967
2129.000000	7.342968
2128.000000	7.355718
2127.000000	7.363032
2126.000000	7.367183
2125.000000	7.364712
2124.000000	7.370049
2123.000000	7.378450
2122.000000	7.379241
2121.000000	7.372817
2120.000000	7.369160
2119.000000	7.371532
2118.000000	7.372718
2117.000000	7.374003
2116.000000	7.360561
2115.000000	7.355718
2114.000000	7.365404
2113.000000	7.360264
2112.000000	7.357793
2111.000000	7.344252
2110.000000	7.326264
2109.000000	7.316380
2108.000000	7.320927
2107.000000	7.323299
2106.000000	7.310252
2105.000000	7.292362
2104.000000	7.289595
2103.000000	7.286432
2102.000000	7.280502
2101.000000	7.281688
2100.000000	7.269926
2099.000000	7.253223
2098.000000	7.251740
2097.000000	7.248083
2096.000000	7.240967
2095.000000	7.236519
2094.000000	7.232368
2093.000000	7.233653
2092.000000	7.218531
2091.000000	7.211711
2090.000000	7.224461
2089.000000	7.224659
2088.000000	7.212897
2087.000000	7.205089
2086.000000	7.217740
2085.000000	7.220310
2084.000000	7.190164
2083.000000	7.172571
2082.000000	7.168519
2081.000000	7.168716
2080.000000	7.144699
2079.000000	7.139559
2078.000000	7.147071
2077.000000	7.127105
2076.000000	7.103187
2075.000000	7.091227
2074.000000	7.086780
2073.000000	7.073239
2072.000000	7.060686
2071.000000	7.048430
2070.000000	7.031331
2069.000000	7.008599
2068.000000	7.002965
2067.000000	6.992982
2066.000000	6.990314
2065.000000	6.967087
2064.000000	6.938523
2063.000000	6.933778
2062.000000	6.934075
2061.000000	6.926464
2060.000000	6.917174
2059.000000	6.907883
2058.000000	6.912924
2057.000000	6.910255
2056.000000	6.926563
2055.000000	6.937040
2054.000000	6.942575
2053.000000	6.972029
2052.000000	6.999506
2051.000000	7.014134
2050.000000	7.060884
2049.000000	7.093402
2048.000000	7.123448
2047.000000	7.152803
2046.000000	7.213984
2045.000000	7.285048
2044.000000	7.342572
2043.000000	7.376869
2042.000000	7.437555
2041.000000	7.476794
2040.000000	7.512870
2039.000000	7.570789
2038.000000	7.621691
2037.000000	7.674272
2036.000000	7.722209
2035.000000	7.749785
2034.000000	7.794953
2033.000000	7.839233
2032.000000	7.870466
2031.000000	7.898239
2030.000000	7.940937
2029.000000	7.958135
2028.000000	7.986403
2027.000000	8.008345
2026.000000	8.067549
2025.000000	8.083363
2024.000000	8.127840
2023.000000	8.144346
2022.000000	8.161148
2021.000000	8.188922
2020.000000	8.200189
2019.000000	8.233399
2018.000000	8.240713
2017.000000	8.256527
2016.000000	8.269376
2015.000000	8.291614
2014.000000	8.314545
2013.000000	8.309010
2012.000000	8.314940
2011.000000	8.318399
2010.000000	8.315434
2009.000000	8.327986
2008.000000	8.338859
2007.000000	8.327097
2006.000000	8.330556
2005.000000	8.332138
2004.000000	8.303574
2003.000000	8.302783
2002.000000	8.307922
2001.000000	8.279457
2000.000000	8.268980
1999.000000	8.262160
1998.000000	8.262655
1997.000000	8.233992
1996.000000	8.194753
1995.000000	8.162038
1994.000000	8.158974
1993.000000	8.123392
1992.000000	8.122206
1991.000000	8.085339
1990.000000	8.067647
1989.000000	8.051141
1988.000000	8.023071
1987.000000	7.970687
1986.000000	7.952303
1985.000000	7.944298
1984.000000	7.896559
1983.000000	7.854652
1982.000000	7.846349
1981.000000	7.823419
1980.000000	7.772418
1979.000000	7.733377
1978.000000	7.705406
1977.000000	7.676348
1976.000000	7.655691
1975.000000	7.628708
1974.000000	7.601132
1973.000000	7.555864
1972.000000	7.514550
1971.000000	7.499922
1970.000000	7.484701
1969.000000	7.435084
1968.000000	7.403852
1967.000000	7.380625
1966.000000	7.363032
1965.000000	7.313909
1964.000000	7.304223
1963.000000	7.275857
1962.000000	7.247589
1961.000000	7.218333
1960.000000	7.192338
1959.000000	7.158141
1958.000000	7.127698
1957.000000	7.105361
1956.000000	7.087966
1955.000000	7.052779
1954.000000	7.004645
1953.000000	6.987744
1952.000000	6.947813
1951.000000	6.924290
1950.000000	6.914406
1949.000000	6.913319
1948.000000	6.865383
1947.000000	6.863999
1946.000000	6.828911
1945.000000	6.826539
1944.000000	6.787795
1943.000000	6.806080
1942.000000	6.787399
1941.000000	6.772475
1940.000000	6.768620
1939.000000	6.760713
1938.000000	6.755969
1937.000000	6.763184
1936.000000	6.770893
1935.000000	6.757946
1934.000000	6.796888
1933.000000	6.821499
1932.000000	6.852731
1931.000000	6.887325
1930.000000	6.894935
1929.000000	6.921819
1928.000000	6.940302
1927.000000	6.985273
1926.000000	7.022733
1925.000000	7.084605
1924.000000	7.138373
1923.000000	7.193821
1922.000000	7.231973
1921.000000	7.291473
1920.000000	7.335950
1919.000000	7.395945
1918.000000	7.482527
1917.000000	7.598068
1916.000000	7.686627
1915.000000	7.759569
1914.000000	7.830041
1913.000000	7.873826
1912.000000	7.941925
1911.000000	8.039380
1910.000000	8.139305
1909.000000	8.264928
1908.000000	8.366237
1907.000000	8.456179
1906.000000	8.532878
1905.000000	8.623018
1904.000000	8.715728
1903.000000	8.818124
1902.000000	8.930107
1901.000000	9.047626
1900.000000	9.146266
1899.000000	9.238679
1898.000000	9.350663
1897.000000	9.469664
1896.000000	9.584118
1895.000000	9.719822
1894.000000	9.844161
1893.000000	9.949225
1892.000000	10.041738
1891.000000	10.146901
1890.000000	10.247815
1889.000000	10.368298
1888.000000	10.500346
1887.000000	10.655324
1886.000000	10.802790
1885.000000	10.928413
1884.000000	11.080524
1883.000000	11.241531
1882.000000	11.430510
1881.000000	11.609703
1880.000000	11.794134
1879.000000	11.969473
1878.000000	12.117730
1877.000000	12.255016
1876.000000	12.385778
1875.000000	12.523262
1874.000000	12.627931
1873.000000	12.697217
1872.000000	12.773816
1871.000000	12.819578
1870.000000	12.839247
1869.000000	12.898945
1868.000000	12.952021
1867.000000	13.011917
1866.000000	13.075173
1865.000000	13.134278
1864.000000	13.185674
1863.000000	13.236575
1862.000000	13.272058
1861.000000	13.293111
1860.000000	13.290047
1859.000000	13.265238
1858.000000	13.253378
1857.000000	13.271762
1856.000000	13.285204
1855.000000	13.265733
1854.000000	13.238849
1853.000000	13.208505
1852.000000	13.214633
1851.000000	13.248634
1850.000000	13.276012
1849.000000	13.245273
1848.000000	13.140999
1847.000000	13.054911
1846.000000	13.032475
1845.000000	13.080411
1844.000000	13.126865
1843.000000	13.166499
1842.000000	13.136551
1841.000000	13.071615
1840.000000	13.038900
1839.000000	13.015376
1838.000000	13.003713
1837.000000	12.972085
1836.000000	12.916933
1835.000000	12.904776
1834.000000	12.914858
1833.000000	12.904678
1832.000000	12.891137
1831.000000	12.868404
1830.000000	12.833415
1829.000000	12.792497
1828.000000	12.756025
1827.000000	12.709374
1826.000000	12.667961
1825.000000	12.669246
1824.000000	12.705124
1823.000000	12.736554
1822.000000	12.729240
1821.000000	12.679722
1820.000000	12.625164
1819.000000	12.603716
1818.000000	12.625658
1817.000000	12.651949
1816.000000	12.652443
1815.000000	12.644141
1814.000000	12.641769
1813.000000	12.633071
1812.000000	12.619530
1811.000000	12.601739
1810.000000	12.575350
1809.000000	12.580588
1808.000000	12.573472
1807.000000	12.558646
1806.000000	12.529390
1805.000000	12.511303
1804.000000	12.508239
1803.000000	12.494698
1802.000000	12.469494
1801.000000	12.444686
1800.000000	12.427290
1799.000000	12.409203
1798.000000	12.391709
1797.000000	12.381133
1796.000000	12.368679
1795.000000	12.360081
1794.000000	12.342982
1793.000000	12.314516
1792.000000	12.284964
1791.000000	12.262923
1790.000000	12.241870
1789.000000	12.227934
1788.000000	12.198480
1787.000000	12.163393
1786.000000	12.142736
1785.000000	12.118125
1784.000000	12.078985
1783.000000	12.050915
1782.000000	12.019584
1781.000000	11.977775
1780.000000	11.939822
1779.000000	11.905920
1778.000000	11.877652
1777.000000	11.834559
1776.000000	11.785239
1775.000000	11.727518
1774.000000	11.692826
1773.000000	11.645680
1772.000000	11.620476
1771.000000	11.544470
1770.000000	11.487045
1769.000000	11.453144
1768.000000	11.406986
1767.000000	11.346003
1766.000000	11.312299
1765.000000	11.299648
1764.000000	11.295102
1763.000000	11.270590
1762.000000	11.282450
1761.000000	11.302218
1760.000000	11.350154
1759.000000	11.349759
1758.000000	11.377631
1757.000000	11.380695
1756.000000	11.400463
1755.000000	11.407184
1754.000000	11.400463
1753.000000	11.396312
1752.000000	11.402934
1751.000000	11.370317
1750.000000	11.355294
1749.000000	11.333648
1748.000000	11.297474
1747.000000	11.243607
1746.000000	11.203084
1745.000000	11.142397
1744.000000	11.065205
1743.000000	10.988506
1742.000000	10.910622
1741.000000	10.813069
1740.000000	10.728266
1739.000000	10.656114
1738.000000	10.567753
1737.000000	10.507759
1736.000000	10.457549
1735.000000	10.437979
1734.000000	10.421078
1733.000000	10.433136
1732.000000	10.449444
1731.000000	10.482555
1730.000000	10.518137
1729.000000	10.555695
1728.000000	10.596713
1727.000000	10.634568
1726.000000	10.669260
1725.000000	10.662045
1724.000000	10.664516
1723.000000	10.671731
1722.000000	10.700394
1721.000000	10.697231
1720.000000	10.731923
1719.000000	10.720754
1718.000000	10.738051
1717.000000	10.750702
1716.000000	10.781935
1715.000000	10.788063
1714.000000	10.841930
1713.000000	10.828488
1712.000000	10.874942
1711.000000	10.869802
1710.000000	10.885913
1709.000000	10.882157
1708.000000	10.862290
1707.000000	10.859424
1706.000000	10.837087
1705.000000	10.829278
1704.000000	10.806546
1703.000000	10.760191
1702.000000	10.719667
1701.000000	10.666196
1700.000000	10.616777
1699.000000	10.545416
1698.000000	10.506671
1697.000000	10.476822
1696.000000	10.431752
1695.000000	10.445392
1694.000000	10.467037
1693.000000	10.499753
1692.000000	10.584457
1691.000000	10.627155
1690.000000	10.678847
1689.000000	10.719469
1688.000000	10.722632
1687.000000	10.733999
1686.000000	10.733801
1685.000000	10.764935
1684.000000	10.795871
1683.000000	10.902320
1682.000000	11.032094
1681.000000	11.212374
1680.000000	11.412126
1679.000000	11.616028
1678.000000	11.792751
1677.000000	11.969769
1676.000000	12.140957
1675.000000	12.293661
1674.000000	12.409895
1673.000000	12.501715
1672.000000	12.586617
1671.000000	12.658868
1670.000000	12.735171
1669.000000	12.799613
1668.000000	12.867119
1667.000000	12.949649
1666.000000	12.977027
1665.000000	13.014882
1664.000000	13.056394
1663.000000	13.073789
1662.000000	13.100772
1661.000000	13.115795
1660.000000	13.135365
1659.000000	13.161459
1658.000000	13.153453
1657.000000	13.164819
1656.000000	13.166895
1655.000000	13.162150
1654.000000	13.161063
1653.000000	13.156517
1652.000000	13.161953
1651.000000	13.129732
1650.000000	13.128249
1649.000000	13.125679
1648.000000	13.116784
1647.000000	13.093952
1646.000000	13.074580
1645.000000	13.060249
1644.000000	13.049574
1643.000000	13.021010
1642.000000	12.994324
1641.000000	12.979004
1640.000000	12.985033
1639.000000	12.967341
1638.000000	12.936701
1637.000000	12.899538
1636.000000	12.862474
1635.000000	12.857631
1634.000000	12.829956
1633.000000	12.794967
1632.000000	12.777177
1631.000000	12.741496
1630.000000	12.706606
1629.000000	12.681106
1628.000000	12.675472
1627.000000	12.640385
1626.000000	12.622693
1625.000000	12.591361
1624.000000	12.563983
1623.000000	12.543820
1622.000000	12.512884
1621.000000	12.491337
1620.000000	12.464552
1619.000000	12.442116
1618.000000	12.427290
1617.000000	12.394377
1616.000000	12.358894
1615.000000	12.338732
1614.000000	12.314912
1613.000000	12.292871
1612.000000	12.274388
1611.000000	12.256301
1610.000000	12.220126
1609.000000	12.195120
1608.000000	12.176736
1607.000000	12.141747
1606.000000	12.117038
1605.000000	12.099346
1604.000000	12.070782
1603.000000	12.054869
1602.000000	12.041130
1601.000000	12.030159
1600.000000	11.994479
1599.000000	11.967694
1598.000000	11.949508
1597.000000	11.919659
