PE UV       SUBTECH     SPECTRUM    ASCII       PEDS        4.00        
   -1
CICIMAUCR0044-1.ASC
24/04/03
11:33:37.00
24/04/03
11:33:37.00
Vinicio Soto Monge
C optima #8 17
250,000000
1
Lambda 1050
1050L1511233
PerkinElmer UV WinLab 6.3.2.0749 / 2.02.05 Lambda 900 UV/VIS/NIR, Aug  7 2015 09:38:08

0
0
3350/servo 860,8/2
0
0
UV/VIS
1
1
1
DoubleDePol,CommonBeamDepol,RBeamAtt,SBeamAtt,60mm sphere, WB InGaAs Detector
0
0
0
0
Program
Program
3350/servo 860,8/2
3350/0,2 860,8/0,2
3350/0,2 860,8/0,2
0
15.00
 
 
 
0
 
860,8
319,2
860,8
Front
100
on
S:100 R:100
0
0
0
0
 
0
 
 
 
0
 
 
0
0
0
0
0
 
 
 
 
0
0


0
0
#HDR
-1
-1
#GR
nm
%R
1.0
0.0
2000,000000
-1,000000
1751
8
60,646000
5,166000
#DATA
2000.000000	26.674935
1999.000000	26.590147
1998.000000	26.507095
1997.000000	26.441387
1996.000000	26.359967
1995.000000	26.270180
1994.000000	26.167945
1993.000000	26.077751
1992.000000	25.974088
1991.000000	25.861956
1990.000000	25.765640
1989.000000	25.640652
1988.000000	25.539540
1987.000000	25.430674
1986.000000	25.317828
1985.000000	25.183148
1984.000000	25.070200
1983.000000	24.966027
1982.000000	24.850019
1981.000000	24.731051
1980.000000	24.603105
1979.000000	24.468833
1978.000000	24.370680
1977.000000	24.232939
1976.000000	24.120297
1975.000000	23.992759
1974.000000	23.868486
1973.000000	23.759517
1972.000000	23.639428
1971.000000	23.515767
1970.000000	23.431082
1969.000000	23.318848
1968.000000	23.202023
1967.000000	23.082852
1966.000000	22.980107
1965.000000	22.867874
1964.000000	22.744417
1963.000000	22.632387
1962.000000	22.503523
1961.000000	22.405166
1960.000000	22.277220
1959.000000	22.156211
1958.000000	22.059487
1957.000000	21.953987
1956.000000	21.842366
1955.000000	21.743804
1954.000000	21.648916
1953.000000	21.523113
1952.000000	21.419246
1951.000000	21.315889
1950.000000	21.238040
1949.000000	21.154885
1948.000000	21.063160
1947.000000	20.959089
1946.000000	20.862568
1945.000000	20.797064
1944.000000	20.728398
1943.000000	20.661772
1942.000000	20.595758
1941.000000	20.554946
1940.000000	20.510359
1939.000000	20.448018
1938.000000	20.417715
1937.000000	20.389963
1936.000000	20.378740
1935.000000	20.358946
1934.000000	20.379250
1933.000000	20.399656
1932.000000	20.443937
1931.000000	20.486382
1930.000000	20.526888
1929.000000	20.590861
1928.000000	20.664731
1927.000000	20.729418
1926.000000	20.840835
1925.000000	20.972659
1924.000000	21.075403
1923.000000	21.202635
1922.000000	21.359966
1921.000000	21.511175
1920.000000	21.674322
1919.000000	21.850834
1918.000000	22.064588
1917.000000	22.275485
1916.000000	22.495361
1915.000000	22.748294
1914.000000	23.037346
1913.000000	23.331296
1912.000000	23.607798
1911.000000	23.905523
1910.000000	24.231918
1909.000000	24.574536
1908.000000	24.944805
1907.000000	25.348335
1906.000000	25.823899
1905.000000	26.286403
1904.000000	26.724011
1903.000000	27.199269
1902.000000	27.688301
1901.000000	28.210084
1900.000000	28.749723
1899.000000	29.275792
1898.000000	29.833082
1897.000000	30.381190
1896.000000	30.881955
1895.000000	31.418227
1894.000000	31.963171
1893.000000	32.515462
1892.000000	33.076323
1891.000000	33.586475
1890.000000	34.078670
1889.000000	34.576680
1888.000000	35.031328
1887.000000	35.462610
1886.000000	35.875324
1885.000000	36.289261
1884.000000	36.663815
1883.000000	37.012350
1882.000000	37.370273
1881.000000	37.700138
1880.000000	38.015309
1879.000000	38.347419
1878.000000	38.642184
1877.000000	38.906545
1876.000000	39.156010
1875.000000	39.399250
1874.000000	39.611779
1873.000000	39.787374
1872.000000	39.935828
1871.000000	40.026125
1870.000000	40.101423
1869.000000	40.192945
1868.000000	40.249061
1867.000000	40.313239
1866.000000	40.383333
1865.000000	40.459550
1864.000000	40.564131
1863.000000	40.674426
1862.000000	40.766050
1861.000000	40.832573
1860.000000	40.851755
1859.000000	40.852061
1858.000000	40.883180
1857.000000	40.913279
1856.000000	40.942868
1855.000000	40.953275
1854.000000	40.910321
1853.000000	40.871957
1852.000000	40.901036
1851.000000	40.979803
1850.000000	41.065101
1849.000000	41.010821
1848.000000	40.848898
1847.000000	40.703913
1846.000000	40.641368
1845.000000	40.662999
1844.000000	40.728196
1843.000000	40.756867
1842.000000	40.680854
1841.000000	40.611882
1840.000000	40.561377
1839.000000	40.524544
1838.000000	40.476895
1837.000000	40.391700
1836.000000	40.306096
1835.000000	40.244878
1834.000000	40.209066
1833.000000	40.202434
1832.000000	40.202229
1831.000000	40.155500
1830.000000	40.112137
1829.000000	40.066835
1828.000000	40.023370
1827.000000	39.978885
1826.000000	39.917667
1825.000000	39.899811
1824.000000	39.948378
1823.000000	40.040919
1822.000000	40.026227
1821.000000	39.965009
1820.000000	39.898791
1819.000000	39.860019
1818.000000	39.884201
1817.000000	39.919809
1816.000000	39.899097
1815.000000	39.875324
1814.000000	39.876038
1813.000000	39.868896
1812.000000	39.850123
1811.000000	39.801148
1810.000000	39.757377
1809.000000	39.742378
1808.000000	39.731563
1807.000000	39.702791
1806.000000	39.653816
1805.000000	39.606372
1804.000000	39.572090
1803.000000	39.563927
1802.000000	39.549031
1801.000000	39.483527
1800.000000	39.420472
1799.000000	39.389353
1798.000000	39.370682
1797.000000	39.372212
1796.000000	39.358336
1795.000000	39.322523
1794.000000	39.291812
1793.000000	39.270998
1792.000000	39.239675
1791.000000	39.206004
1790.000000	39.171008
1789.000000	39.134481
1788.000000	39.109076
1787.000000	39.070304
1786.000000	38.996638
1785.000000	38.912361
1784.000000	38.834512
1783.000000	38.747378
1782.000000	38.655142
1781.000000	38.601984
1780.000000	38.513830
1779.000000	38.447102
1778.000000	38.361397
1777.000000	38.269671
1776.000000	38.168355
1775.000000	38.079079
1774.000000	37.974191
1773.000000	37.858897
1772.000000	37.715544
1771.000000	37.532400
1770.000000	37.333338
1769.000000	37.110300
1768.000000	36.873589
1767.000000	36.663406
1766.000000	36.528930
1765.000000	36.468732
1764.000000	36.500260
1763.000000	36.556785
1762.000000	36.636572
1761.000000	36.710851
1760.000000	36.791965
1759.000000	36.869814
1758.000000	36.922360
1757.000000	36.966845
1756.000000	37.054081
1755.000000	37.117442
1754.000000	37.179476
1753.000000	37.234165
1752.000000	37.269059
1751.000000	37.271202
1750.000000	37.277630
1749.000000	37.234471
1748.000000	37.136624
1747.000000	37.020003
1746.000000	36.895424
1745.000000	36.765641
1744.000000	36.639225
1743.000000	36.496587
1742.000000	36.331808
1741.000000	36.173558
1740.000000	35.975415
1739.000000	35.739929
1738.000000	35.507198
1737.000000	35.221513
1736.000000	34.908075
1735.000000	34.579843
1734.000000	34.270487
1733.000000	33.971028
1732.000000	33.787271
1731.000000	33.712585
1730.000000	33.728910
1729.000000	33.794107
1728.000000	33.862161
1727.000000	33.912768
1726.000000	33.935521
1725.000000	33.964906
1724.000000	34.019492
1723.000000	34.113666
1722.000000	34.232430
1721.000000	34.446081
1720.000000	34.633103
1719.000000	34.884710
1718.000000	35.139582
1717.000000	35.405269
1716.000000	35.672283
1715.000000	35.935011
1714.000000	36.176313
1713.000000	36.430981
1712.000000	36.689526
1711.000000	36.913585
1710.000000	37.175905
1709.000000	37.410371
1708.000000	37.657897
1707.000000	37.890220
1706.000000	38.114381
1705.000000	38.325686
1704.000000	38.518932
1703.000000	38.687180
1702.000000	38.833185
1701.000000	38.946745
1700.000000	39.064692
1699.000000	39.175089
1698.000000	39.263142
1697.000000	39.380579
1696.000000	39.478528
1695.000000	39.559642
1694.000000	39.620860
1693.000000	39.685037
1692.000000	39.767784
1691.000000	39.823697
1690.000000	39.921238
1689.000000	40.045715
1688.000000	40.191312
1687.000000	40.365886
1686.000000	40.598312
1685.000000	40.801352
1684.000000	41.056122
1683.000000	41.344154
1682.000000	41.593312
1681.000000	41.832472
1680.000000	42.091527
1679.000000	42.295792
1678.000000	42.513423
1677.000000	42.695853
1676.000000	42.850837
1675.000000	43.008576
1674.000000	43.185395
1673.000000	43.372417
1672.000000	43.568315
1671.000000	43.773600
1670.000000	43.973070
1669.000000	44.191517
1668.000000	44.411596
1667.000000	44.563520
1666.000000	44.741665
1665.000000	44.933176
1664.000000	45.128972
1663.000000	45.323646
1662.000000	45.472509
1661.000000	45.624942
1660.000000	45.753398
1659.000000	45.879304
1658.000000	45.997149
1657.000000	46.097037
1656.000000	46.191313
1655.000000	46.250287
1654.000000	46.302322
1653.000000	46.352929
1652.000000	46.382518
1651.000000	46.404148
1650.000000	46.410066
1649.000000	46.418433
1648.000000	46.414352
1647.000000	46.406801
1646.000000	46.393333
1645.000000	46.390170
1644.000000	46.386701
1643.000000	46.340992
1642.000000	46.302118
1641.000000	46.268754
1640.000000	46.249572
1639.000000	46.224881
1638.000000	46.210699
1637.000000	46.212637
1636.000000	46.212739
1635.000000	46.227432
1634.000000	46.258041
1633.000000	46.271917
1632.000000	46.280284
1631.000000	46.295180
1630.000000	46.297629
1629.000000	46.301914
1628.000000	46.307628
1627.000000	46.301710
1626.000000	46.280998
1625.000000	46.262836
1624.000000	46.252123
1623.000000	46.247532
1622.000000	46.222840
1621.000000	46.200190
1620.000000	46.174478
1619.000000	46.152133
1618.000000	46.114892
1617.000000	46.083467
1616.000000	46.050307
1615.000000	46.012964
1614.000000	45.975723
1613.000000	45.938482
1612.000000	45.903893
1611.000000	45.847573
1610.000000	45.799108
1609.000000	45.753398
1608.000000	45.699016
1607.000000	45.642389
1606.000000	45.575457
1605.000000	45.500771
1604.000000	45.435880
1603.000000	45.378029
1602.000000	45.310893
1601.000000	45.258653
1600.000000	45.200087
1599.000000	45.139277
1598.000000	45.080100
1597.000000	45.014188
1596.000000	44.967968
1595.000000	44.921749
1594.000000	44.870325
1593.000000	44.829207
1592.000000	44.791354
1591.000000	44.743603
1590.000000	44.692894
1589.000000	44.641471
1588.000000	44.609229
1587.000000	44.565050
1586.000000	44.516892
1585.000000	44.489038
1584.000000	44.447307
1583.000000	44.410678
1582.000000	44.377722
1581.000000	44.341195
1580.000000	44.309362
1579.000000	44.293241
1578.000000	44.274876
1577.000000	44.250694
1576.000000	44.231717
1575.000000	44.215902
1574.000000	44.210086
1573.000000	44.221004
1572.000000	44.221310
1571.000000	44.208862
1570.000000	44.208148
1569.000000	44.218045
1568.000000	44.237635
1567.000000	44.254470
1566.000000	44.260489
1565.000000	44.259265
1564.000000	44.265183
1563.000000	44.265489
1562.000000	44.262020
1561.000000	44.252837
1560.000000	44.224473
1559.000000	44.180702
1558.000000	44.153051
1557.000000	44.120606
1556.000000	44.085813
1555.000000	44.030411
1554.000000	43.972968
1553.000000	43.912260
1552.000000	43.862673
1551.000000	43.793088
1550.000000	43.708199
1549.000000	43.630554
1548.000000	43.541583
1547.000000	43.469550
1546.000000	43.388741
1545.000000	43.320993
1544.000000	43.267019
1543.000000	43.220493
1542.000000	43.183150
1541.000000	43.117137
1540.000000	43.100914
1539.000000	43.075406
1538.000000	43.032757
1537.000000	42.989088
1536.000000	42.957255
1535.000000	42.909811
1534.000000	42.847164
1533.000000	42.802985
1532.000000	42.745746
1531.000000	42.677998
1530.000000	42.623717
1529.000000	42.558622
1528.000000	42.508321
1527.000000	42.441389
1526.000000	42.376906
1525.000000	42.317524
1524.000000	42.236002
1523.000000	42.164172
1522.000000	42.086221
1521.000000	42.034288
1520.000000	41.947358
1519.000000	41.864713
1518.000000	41.799414
1517.000000	41.728400
1516.000000	41.642491
1515.000000	41.553010
1514.000000	41.472916
1513.000000	41.383436
1512.000000	41.291710
1511.000000	41.182130
1510.000000	41.100709
1509.000000	41.001434
1508.000000	40.921646
1507.000000	40.819616
1506.000000	40.720442
1505.000000	40.629125
1504.000000	40.556173
1503.000000	40.462611
1502.000000	40.393128
1501.000000	40.320279
1500.000000	40.247021
1499.000000	40.186721
1498.000000	40.136522
1497.000000	40.080507
1496.000000	40.040817
1495.000000	39.995414
1494.000000	39.952663
1493.000000	39.918279
1492.000000	39.903280
1491.000000	39.866651
1490.000000	39.835838
1489.000000	39.824207
1488.000000	39.799719
1487.000000	39.761152
1486.000000	39.738909
1485.000000	39.695444
1484.000000	39.675753
1483.000000	39.693302
1482.000000	39.670651
1481.000000	39.643511
1480.000000	39.650449
1479.000000	39.653204
1478.000000	39.654938
1477.000000	39.648000
1476.000000	39.673202
1475.000000	39.713912
1474.000000	39.762376
1473.000000	39.816657
1472.000000	39.852877
1471.000000	39.884609
1470.000000	39.893281
1469.000000	39.930931
1468.000000	40.007249
1467.000000	40.083160
1466.000000	40.099179
1465.000000	40.169376
1464.000000	40.221003
1463.000000	40.249776
1462.000000	40.331808
1461.000000	40.390986
1460.000000	40.436185
1459.000000	40.495465
1458.000000	40.571376
1457.000000	40.651980
1456.000000	40.692894
1455.000000	40.731665
1454.000000	40.801148
1453.000000	40.874508
1452.000000	40.939399
1451.000000	40.966131
1450.000000	40.965315
1449.000000	40.993781
1448.000000	41.091935
1447.000000	41.174375
1446.000000	41.221717
1445.000000	41.223248
1444.000000	41.267631
1443.000000	41.321605
1442.000000	41.363132
1441.000000	41.395781
1440.000000	41.457816
1439.000000	41.526686
1438.000000	41.575763
1437.000000	41.632696
1436.000000	41.710035
1435.000000	41.825533
1434.000000	41.912157
1433.000000	42.001842
1432.000000	42.078773
1431.000000	42.143970
1430.000000	42.233553
1429.000000	42.334869
1428.000000	42.423432
1427.000000	42.519748
1426.000000	42.653102
1425.000000	42.777783
1424.000000	42.898281
1423.000000	42.995924
1422.000000	43.107546
1421.000000	43.322524
1420.000000	43.470060
1419.000000	43.542705
1418.000000	43.611270
1417.000000	43.751766
1416.000000	43.990721
1415.000000	44.205903
1414.000000	44.317626
1413.000000	44.524442
1412.000000	44.764724
1411.000000	45.061734
1410.000000	45.288140
1409.000000	45.468019
1408.000000	45.680243
1407.000000	45.898282
1406.000000	46.106118
1405.000000	46.236819
1404.000000	46.352521
1403.000000	46.627901
1402.000000	46.884916
1401.000000	46.898894
1400.000000	46.790436
1399.000000	46.793395
1398.000000	46.909505
1397.000000	46.960826
1396.000000	46.780641
1395.000000	46.454041
1394.000000	46.147848
1393.000000	45.739624
1392.000000	45.537808
1391.000000	45.967254
1390.000000	46.570866
1389.000000	46.883793
1388.000000	46.904098
1387.000000	47.000312
1386.000000	47.146114
1385.000000	47.342522
1384.000000	47.491895
1383.000000	47.674121
1382.000000	47.862571
1381.000000	48.145196
1380.000000	48.499853
1379.000000	48.981131
1378.000000	49.485569
1377.000000	50.029595
1376.000000	50.579131
1375.000000	51.102037
1374.000000	51.669836
1373.000000	52.170398
1372.000000	52.569643
1371.000000	52.856450
1370.000000	53.140503
1369.000000	53.397007
1368.000000	53.529545
1367.000000	53.684529
1366.000000	53.863592
1365.000000	53.961031
1364.000000	54.086733
1363.000000	54.251920
1362.000000	54.239064
1361.000000	54.176928
1360.000000	54.198864
1359.000000	54.323341
1358.000000	54.410373
1357.000000	54.514342
1356.000000	54.603721
1355.000000	54.632085
1354.000000	54.662491
1353.000000	54.760236
1352.000000	54.909302
1351.000000	55.022250
1350.000000	55.162338
1349.000000	55.315179
1348.000000	55.413945
1347.000000	55.504650
1346.000000	55.626780
1345.000000	55.764827
1344.000000	55.863389
1343.000000	55.969602
1342.000000	56.088366
1341.000000	56.184682
1340.000000	56.278856
1339.000000	56.367623
1338.000000	56.448941
1337.000000	56.523627
1336.000000	56.589539
1335.000000	56.664633
1334.000000	56.748604
1333.000000	56.812986
1332.000000	56.875632
1331.000000	56.934300
1330.000000	56.992253
1329.000000	57.040309
1328.000000	57.082142
1327.000000	57.121730
1326.000000	57.159073
1325.000000	57.191416
1324.000000	57.222332
1323.000000	57.256716
1322.000000	57.279469
1321.000000	57.298140
1320.000000	57.315690
1319.000000	57.337626
1318.000000	57.361909
1317.000000	57.379356
1316.000000	57.390172
1315.000000	57.407211
1314.000000	57.416394
1313.000000	57.417312
1312.000000	57.431698
1311.000000	57.441289
1310.000000	57.452206
1309.000000	57.449655
1308.000000	57.450472
1307.000000	57.469755
1306.000000	57.479958
1305.000000	57.475469
1304.000000	57.465674
1303.000000	57.469653
1302.000000	57.474857
1301.000000	57.474653
1300.000000	57.468531
1299.000000	57.468939
1298.000000	57.462205
1297.000000	57.463226
1296.000000	57.473429
1295.000000	57.474347
1294.000000	57.472102
1293.000000	57.466184
1292.000000	57.456389
1291.000000	57.457002
1290.000000	57.450880
1289.000000	57.441085
1288.000000	57.424658
1287.000000	57.407721
1286.000000	57.408333
1285.000000	57.384968
1284.000000	57.374969
1283.000000	57.358236
1282.000000	57.331606
1281.000000	57.314567
1280.000000	57.302324
1279.000000	57.272837
1278.000000	57.238861
1277.000000	57.221413
1276.000000	57.197028
1275.000000	57.188151
1274.000000	57.175602
1273.000000	57.157338
1272.000000	57.130198
1271.000000	57.103976
1270.000000	57.080611
1269.000000	57.064695
1268.000000	57.042656
1267.000000	57.009598
1266.000000	56.976642
1265.000000	56.940728
1264.000000	56.908282
1263.000000	56.890121
1262.000000	56.867980
1261.000000	56.819210
1260.000000	56.796253
1259.000000	56.779010
1258.000000	56.739830
1257.000000	56.726566
1256.000000	56.682387
1255.000000	56.644840
1254.000000	56.630147
1253.000000	56.597191
1252.000000	56.577295
1251.000000	56.529851
1250.000000	56.481489
1249.000000	56.452512
1248.000000	56.437514
1247.000000	56.391702
1246.000000	56.349972
1245.000000	56.289059
1244.000000	56.250492
1243.000000	56.196008
1242.000000	56.137748
1241.000000	56.106323
1240.000000	56.074489
1239.000000	56.025923
1238.000000	55.975418
1237.000000	55.936136
1236.000000	55.878795
1235.000000	55.822372
1234.000000	55.772479
1233.000000	55.699222
1232.000000	55.604027
1231.000000	55.534545
1230.000000	55.435167
1229.000000	55.337932
1228.000000	55.224882
1227.000000	55.119995
1226.000000	54.998477
1225.000000	54.852165
1224.000000	54.711873
1223.000000	54.578519
1222.000000	54.429555
1221.000000	54.300181
1220.000000	54.195497
1219.000000	54.089590
1218.000000	54.008271
1217.000000	53.954195
1216.000000	53.914097
1215.000000	53.877979
1214.000000	53.861756
1213.000000	53.841860
1212.000000	53.863694
1211.000000	53.864205
1210.000000	53.901752
1209.000000	53.928892
1208.000000	53.944809
1207.000000	53.976438
1206.000000	54.007659
1205.000000	54.041942
1204.000000	54.058062
1203.000000	54.098466
1202.000000	54.112240
1201.000000	54.133463
1200.000000	54.147339
1199.000000	54.178764
1198.000000	54.182743
1197.000000	54.200905
1196.000000	54.212230
1195.000000	54.208863
1194.000000	54.233351
1193.000000	54.244370
1192.000000	54.215495
1191.000000	54.220495
1190.000000	54.213659
1189.000000	54.203864
1188.000000	54.189069
1187.000000	54.129892
1186.000000	54.182641
1185.000000	54.250594
1184.000000	54.336503
1183.000000	54.399660
1182.000000	54.492100
1181.000000	54.558726
1180.000000	54.640554
1179.000000	54.724627
1178.000000	54.817883
1177.000000	54.868184
1176.000000	54.938381
1175.000000	55.001027
1174.000000	55.062960
1173.000000	55.106833
1172.000000	55.163970
1171.000000	55.197028
1170.000000	55.249676
1169.000000	55.292324
1168.000000	55.381805
1167.000000	55.452002
1166.000000	55.563419
1165.000000	55.648615
1164.000000	55.756563
1163.000000	55.841554
1162.000000	55.957154
1161.000000	56.039493
1160.000000	56.103670
1159.000000	56.181928
1158.000000	56.249676
1157.000000	56.318750
1156.000000	56.392824
1155.000000	56.455879
1154.000000	56.532504
1153.000000	56.568725
1152.000000	56.620760
1151.000000	56.663715
1150.000000	56.700854
1149.000000	56.754420
1148.000000	56.805639
1147.000000	56.872673
1146.000000	56.860940
1145.000000	56.906650
1144.000000	56.949298
1143.000000	57.001028
1142.000000	57.050819
1141.000000	57.107649
1140.000000	57.150808
1139.000000	57.211618
1138.000000	57.277632
1137.000000	57.365480
1136.000000	57.424250
1135.000000	57.459042
1134.000000	57.456083
1133.000000	57.496691
1132.000000	57.573010
1131.000000	57.635453
1130.000000	57.678204
1129.000000	57.698610
1128.000000	57.719832
1127.000000	57.753808
1126.000000	57.768603
1125.000000	57.787478
1124.000000	57.806660
