PE UV       SUBTECH     SPECTRUM    ASCII       PEDS        4.00        
   -1
CICIMAUCR0141-2.Sample.ASC
24/04/04
11:05:18.00
24/04/04
11:05:18.00
Vinicio Soto Monge
C. kalinini
250,000000
1
Lambda 1050
1050L1511233
PerkinElmer UV WinLab 6.3.2.0749 / 2.02.05 Lambda 900 UV/VIS/NIR, Aug  7 2015 09:38:08

0
0
3350/servo 860,8/2
0
0
UV/VIS
1
1
1
DoubleDePol,CommonBeamDepol,RBeamAtt,SBeamAtt,60mm sphere, WB InGaAs Detector
0
0
0
0
Program
Program
3350/servo 860,8/2
3350/0,2 860,8/0,2
3350/0,2 860,8/0,2
0
15.00
 
 
 
0
 
860,8
319,2
860,8
Front
100
on
S:100 R:100
0
0
0
0
 
0
 
 
 
0
 
 
0
0
0
0
0
 
 
 
 
0
0


0
0
#HDR
-1
-1
#GR
nm
%R
1.0
0.0
2500,000000
-1,000000
2251
8
74,769100
5,495500
#DATA
2500.000000	6.855891
2499.000000	6.988428
2498.000000	6.883841
2497.000000	6.865508
2496.000000	6.931727
2495.000000	6.834953
2494.000000	6.881737
2493.000000	6.898767
2492.000000	6.917501
2491.000000	6.917501
2490.000000	6.887848
2489.000000	6.933530
2488.000000	6.857193
2487.000000	6.837458
2486.000000	6.945251
2485.000000	6.966890
2484.000000	6.926818
2483.000000	6.887748
2482.000000	6.885844
2481.000000	6.919104
2480.000000	6.977909
2479.000000	6.933029
2478.000000	7.007362
2477.000000	7.059756
2476.000000	7.033409
2475.000000	6.994339
2474.000000	6.990933
2473.000000	7.065366
2472.000000	7.109946
2471.000000	7.111849
2470.000000	7.129281
2469.000000	7.137796
2468.000000	7.189589
2467.000000	7.174161
2466.000000	7.221246
2465.000000	7.220544
2464.000000	7.285060
2463.000000	7.333647
2462.000000	7.376724
2461.000000	7.398764
2460.000000	7.416395
2459.000000	7.443043
2458.000000	7.513570
2457.000000	7.582994
2456.000000	7.597119
2455.000000	7.646608
2454.000000	7.732162
2453.000000	7.765922
2452.000000	7.820921
2451.000000	7.857987
2450.000000	7.935827
2449.000000	8.006253
2448.000000	8.062754
2447.000000	8.130275
2446.000000	8.178361
2445.000000	8.250691
2444.000000	8.333439
2443.000000	8.406170
2442.000000	8.462671
2441.000000	8.530994
2440.000000	8.599416
2439.000000	8.647202
2438.000000	8.718430
2437.000000	8.811096
2436.000000	8.872806
2435.000000	8.932113
2434.000000	9.010153
2433.000000	9.065452
2432.000000	9.127263
2431.000000	9.194583
2430.000000	9.276430
2429.000000	9.332030
2428.000000	9.381619
2427.000000	9.452746
2426.000000	9.514356
2425.000000	9.557334
2424.000000	9.623452
2423.000000	9.678350
2422.000000	9.727939
2421.000000	9.778129
2420.000000	9.819804
2419.000000	9.861779
2418.000000	9.914273
2417.000000	9.949637
2416.000000	9.999626
2415.000000	10.035791
2414.000000	10.076063
2413.000000	10.119842
2412.000000	10.149996
2411.000000	10.180751
2410.000000	10.216115
2409.000000	10.240458
2408.000000	10.271414
2407.000000	10.300466
2406.000000	10.319400
2405.000000	10.341640
2404.000000	10.363479
2403.000000	10.394835
2402.000000	10.419179
2401.000000	10.444424
2400.000000	10.441418
2399.000000	10.450936
2398.000000	10.474979
2397.000000	10.502127
2396.000000	10.531981
2395.000000	10.537390
2394.000000	10.540196
2393.000000	10.569248
2392.000000	10.569248
2391.000000	10.581369
2390.000000	10.607516
2389.000000	10.596296
2388.000000	10.586178
2387.000000	10.602407
2386.000000	10.613126
2385.000000	10.608518
2384.000000	10.608618
2383.000000	10.611022
2382.000000	10.602507
2381.000000	10.602908
2380.000000	10.594493
2379.000000	10.578464
2378.000000	10.571251
2377.000000	10.558328
2376.000000	10.553820
2375.000000	10.550614
2374.000000	10.531480
2373.000000	10.515050
2372.000000	10.509641
2371.000000	10.507036
2370.000000	10.495816
2369.000000	10.478785
2368.000000	10.469769
2367.000000	10.477082
2366.000000	10.473877
2365.000000	10.462556
2364.000000	10.454642
2363.000000	10.448932
2362.000000	10.430098
2361.000000	10.411465
2360.000000	10.410363
2359.000000	10.415672
2358.000000	10.417576
2357.000000	10.402849
2356.000000	10.376302
2355.000000	10.353260
2354.000000	10.339436
2353.000000	10.327414
2352.000000	10.302770
2351.000000	10.286140
2350.000000	10.282433
2349.000000	10.261095
2348.000000	10.221624
2347.000000	10.206998
2346.000000	10.187463
2345.000000	10.166826
2344.000000	10.159313
2343.000000	10.133166
2342.000000	10.118840
2341.000000	10.111828
2340.000000	10.097402
2339.000000	10.076865
2338.000000	10.051820
2337.000000	10.036092
2336.000000	10.029580
2335.000000	10.014453
2334.000000	10.002932
2333.000000	10.005838
2332.000000	9.994918
2331.000000	9.986603
2330.000000	9.962560
2329.000000	9.966768
2328.000000	9.980091
2327.000000	9.982095
2326.000000	9.973780
2325.000000	9.970274
2324.000000	9.970274
2323.000000	9.957351
2322.000000	9.943225
2321.000000	9.948936
2320.000000	9.930002
2319.000000	9.900649
2318.000000	9.882016
2317.000000	9.860176
2316.000000	9.819203
2315.000000	9.792555
2314.000000	9.764405
2313.000000	9.725635
2312.000000	9.684261
2311.000000	9.631867
2310.000000	9.599509
2309.000000	9.572360
2308.000000	9.528482
2307.000000	9.459759
2306.000000	9.441626
2305.000000	9.400653
2304.000000	9.358176
2303.000000	9.333933
2302.000000	9.292859
2301.000000	9.272823
2300.000000	9.249381
2299.000000	9.221932
2298.000000	9.186669
2297.000000	9.158118
2296.000000	9.156014
2295.000000	9.134676
2294.000000	9.113037
2293.000000	9.095606
2292.000000	9.085087
2291.000000	9.068357
2290.000000	9.057938
2289.000000	9.031791
2288.000000	9.020671
2287.000000	9.016965
2286.000000	9.002539
2285.000000	9.002940
2284.000000	8.982002
2283.000000	8.962367
2282.000000	8.954453
2281.000000	8.951748
2280.000000	8.930810
2279.000000	8.915683
2278.000000	8.904563
2277.000000	8.885830
2276.000000	8.868699
2275.000000	8.841550
2274.000000	8.789056
2273.000000	8.777235
2272.000000	8.757700
2271.000000	8.741671
2270.000000	8.712519
2269.000000	8.678458
2268.000000	8.671245
2267.000000	8.662730
2266.000000	8.636683
2265.000000	8.637485
2264.000000	8.652612
2263.000000	8.662730
2262.000000	8.658723
2261.000000	8.666737
2260.000000	8.693385
2259.000000	8.728648
2258.000000	8.751289
2257.000000	8.772527
2256.000000	8.824119
2255.000000	8.878216
2254.000000	8.913880
2253.000000	8.945637
2252.000000	9.000135
2251.000000	9.044214
2250.000000	9.092400
2249.000000	9.149703
2248.000000	9.204501
2247.000000	9.250684
2246.000000	9.284144
2245.000000	9.321911
2244.000000	9.355973
2243.000000	9.386628
2242.000000	9.432810
2241.000000	9.424195
2240.000000	9.460660
2239.000000	9.474585
2238.000000	9.503737
2237.000000	9.477190
2236.000000	9.496925
2235.000000	9.484102
2234.000000	9.463866
2233.000000	9.433311
2232.000000	9.418184
2231.000000	9.382721
2230.000000	9.336538
2229.000000	9.301074
2228.000000	9.242669
2227.000000	9.192780
2226.000000	9.101617
2225.000000	9.075570
2224.000000	8.967977
2223.000000	8.918088
2222.000000	8.851969
2221.000000	8.739768
2220.000000	8.663231
2219.000000	8.591702
2218.000000	8.496231
2217.000000	8.438127
2216.000000	8.363393
2215.000000	8.315207
2214.000000	8.233761
2213.000000	8.195292
2212.000000	8.169646
2211.000000	8.127871
2210.000000	8.134583
2209.000000	8.133180
2208.000000	8.151113
2207.000000	8.202605
2206.000000	8.242176
2205.000000	8.299879
2204.000000	8.378821
2203.000000	8.466278
2202.000000	8.566658
2201.000000	8.670544
2200.000000	8.762008
2199.000000	8.899454
2198.000000	9.005645
2197.000000	9.129066
2196.000000	9.256194
2195.000000	9.355872
2194.000000	9.455952
2193.000000	9.576869
2192.000000	9.686465
2191.000000	9.779332
2190.000000	9.883017
2189.000000	9.943025
2188.000000	9.997422
2187.000000	10.066947
2186.000000	10.130561
2185.000000	10.154204
2184.000000	10.219020
2183.000000	10.269110
2182.000000	10.295958
2181.000000	10.317596
2180.000000	10.354663
2179.000000	10.386219
2178.000000	10.403951
2177.000000	10.433304
2176.000000	10.457948
2175.000000	10.474277
2174.000000	10.494013
2173.000000	10.547308
2172.000000	10.572353
2171.000000	10.607516
2170.000000	10.628354
2169.000000	10.651896
2168.000000	10.693370
2167.000000	10.718515
2166.000000	10.764898
2165.000000	10.804870
2164.000000	10.856062
2163.000000	10.903547
2162.000000	10.930495
2161.000000	10.975676
2160.000000	11.039691
2159.000000	11.083770
2158.000000	11.160708
2157.000000	11.236143
2156.000000	11.272007
2155.000000	11.347342
2154.000000	11.405647
2153.000000	11.486292
2152.000000	11.577756
2151.000000	11.657198
2150.000000	11.717606
2149.000000	11.790437
2148.000000	11.882802
2147.000000	11.964048
2146.000000	12.034775
2145.000000	12.103298
2144.000000	12.184143
2143.000000	12.250962
2142.000000	12.324895
2141.000000	12.395722
2140.000000	12.463143
2139.000000	12.531365
2138.000000	12.607802
2137.000000	12.667008
2136.000000	12.726916
2135.000000	12.778508
2134.000000	12.839518
2133.000000	12.889006
2132.000000	12.939196
2131.000000	12.990588
2130.000000	13.042982
2129.000000	13.083054
2128.000000	13.114711
2127.000000	13.154182
2126.000000	13.199563
2125.000000	13.224408
2124.000000	13.240536
2123.000000	13.278204
2122.000000	13.309460
2121.000000	13.333503
2120.000000	13.355442
2119.000000	13.365961
2118.000000	13.373274
2117.000000	13.388402
2116.000000	13.411142
2115.000000	13.414448
2114.000000	13.416151
2113.000000	13.420158
2112.000000	13.435786
2111.000000	13.454520
2110.000000	13.450313
2109.000000	13.444202
2108.000000	13.437690
2107.000000	13.445504
2106.000000	13.455622
2105.000000	13.441597
2104.000000	13.427271
2103.000000	13.440595
2102.000000	13.442098
2101.000000	13.424166
2100.000000	13.432380
2099.000000	13.440395
2098.000000	13.425568
2097.000000	13.429475
2096.000000	13.441497
2095.000000	13.448409
2094.000000	13.463236
2093.000000	13.463837
2092.000000	13.466441
2091.000000	13.478263
2090.000000	13.484474
2089.000000	13.482470
2088.000000	13.487680
2087.000000	13.502306
2086.000000	13.496295
2085.000000	13.473955
2084.000000	13.461933
2083.000000	13.463636
2082.000000	13.436688
2081.000000	13.411042
2080.000000	13.384895
2079.000000	13.342419
2078.000000	13.299843
2077.000000	13.262075
2076.000000	13.223306
2075.000000	13.162997
2074.000000	13.112507
2073.000000	13.050696
2072.000000	12.984277
2071.000000	12.922466
2070.000000	12.845027
2069.000000	12.773199
2068.000000	12.699466
2067.000000	12.622428
2066.000000	12.548496
2065.000000	12.464746
2064.000000	12.401132
2063.000000	12.330806
2062.000000	12.254970
2061.000000	12.190554
2060.000000	12.123033
2059.000000	12.061823
2058.000000	12.023254
2057.000000	11.979776
2056.000000	11.960041
2055.000000	11.937300
2054.000000	11.916363
2053.000000	11.931390
2052.000000	11.951626
2051.000000	11.984785
2050.000000	12.042689
2049.000000	12.088972
2048.000000	12.139663
2047.000000	12.221610
2046.000000	12.301954
2045.000000	12.389411
2044.000000	12.466749
2043.000000	12.547995
2042.000000	12.666708
2041.000000	12.757571
2040.000000	12.837714
2039.000000	12.938595
2038.000000	13.031662
2037.000000	13.118918
2036.000000	13.195856
2035.000000	13.274197
2034.000000	13.342419
2033.000000	13.438992
2032.000000	13.505712
2031.000000	13.561412
2030.000000	13.624324
2029.000000	13.692547
2028.000000	13.758265
2027.000000	13.814365
2026.000000	13.863954
2025.000000	13.920656
2024.000000	13.963833
2023.000000	13.999898
2022.000000	14.051991
2021.000000	14.105788
2020.000000	14.154275
2019.000000	14.176013
2018.000000	14.223098
2017.000000	14.242933
2016.000000	14.277195
2015.000000	14.308251
2014.000000	14.306948
2013.000000	14.344115
2012.000000	14.342412
2011.000000	14.353532
2010.000000	14.357038
2009.000000	14.354433
2008.000000	14.351328
2007.000000	14.334397
2006.000000	14.324780
2005.000000	14.310354
2004.000000	14.304945
2003.000000	14.266075
2002.000000	14.239227
2001.000000	14.218189
2000.000000	14.180321
1999.000000	14.162389
1998.000000	14.104385
1997.000000	14.056399
1996.000000	14.037766
1995.000000	13.974452
1994.000000	13.952813
1993.000000	13.903124
1992.000000	13.837807
1991.000000	13.798437
1990.000000	13.760469
1989.000000	13.681427
1988.000000	13.634242
1987.000000	13.579143
1986.000000	13.520138
1985.000000	13.463737
1984.000000	13.405632
1983.000000	13.353539
1982.000000	13.282211
1981.000000	13.217996
1980.000000	13.146368
1979.000000	13.093072
1978.000000	13.017336
1977.000000	12.968348
1976.000000	12.925071
1975.000000	12.857249
1974.000000	12.802952
1973.000000	12.746250
1972.000000	12.684540
1971.000000	12.634851
1970.000000	12.574543
1969.000000	12.495200
1968.000000	12.459136
1967.000000	12.403536
1966.000000	12.343328
1965.000000	12.305761
1964.000000	12.250662
1963.000000	12.193960
1962.000000	12.136056
1961.000000	12.062525
1960.000000	12.006825
1959.000000	11.960041
1958.000000	11.888212
1957.000000	11.834917
1956.000000	11.781521
1955.000000	11.735939
1954.000000	11.651788
1953.000000	11.603001
1952.000000	11.552110
1951.000000	11.483587
1950.000000	11.432094
1949.000000	11.390921
1948.000000	11.343936
1947.000000	11.294748
1946.000000	11.237746
1945.000000	11.212601
1944.000000	11.163413
1943.000000	11.141774
1942.000000	11.125545
1941.000000	11.084872
1940.000000	11.077859
1939.000000	11.064135
1938.000000	11.064135
1937.000000	11.046002
1936.000000	11.022160
1935.000000	11.044900
1934.000000	11.020156
1933.000000	11.050611
1932.000000	11.075455
1931.000000	11.103105
1930.000000	11.149688
1929.000000	11.174833
1928.000000	11.221116
1927.000000	11.272308
1926.000000	11.339128
1925.000000	11.400638
1924.000000	11.476474
1923.000000	11.567237
1922.000000	11.656797
1921.000000	11.769700
1920.000000	11.878094
1919.000000	11.987891
1918.000000	12.098589
1917.000000	12.218104
1916.000000	12.342026
1915.000000	12.513733
1914.000000	12.677126
1913.000000	12.897021
1912.000000	13.090067
1911.000000	13.267084
1910.000000	13.470950
1909.000000	13.655380
1908.000000	13.900119
1907.000000	14.180021
1906.000000	14.489976
1905.000000	14.848319
1904.000000	15.180314
1903.000000	15.480252
1902.000000	15.828476
1901.000000	16.205051
1900.000000	16.610277
1899.000000	17.041350
1898.000000	17.466011
1897.000000	17.891074
1896.000000	18.251920
1895.000000	18.633504
1894.000000	19.065880
1893.000000	19.531615
1892.000000	20.047640
1891.000000	20.550241
1890.000000	21.022487
1889.000000	21.458669
1888.000000	21.905671
1887.000000	22.304586
1886.000000	22.714320
1885.000000	23.134073
1884.000000	23.559936
1883.000000	23.946429
1882.000000	24.290846
1881.000000	24.636266
1880.000000	24.917069
1879.000000	25.209994
1878.000000	25.516043
1877.000000	25.794041
1876.000000	26.070537
1875.000000	26.357752
1874.000000	26.607800
1873.000000	26.854643
1872.000000	27.090265
1871.000000	27.287719
1870.000000	27.453416
1869.000000	27.621016
1868.000000	27.732617
1867.000000	27.821776
1866.000000	27.893004
1865.000000	27.957219
1864.000000	28.033756
1863.000000	28.113800
1862.000000	28.208570
1861.000000	28.321472
1860.000000	28.432371
1859.000000	28.520629
1858.000000	28.596766
1857.000000	28.639142
1856.000000	28.685825
1855.000000	28.729804
1854.000000	28.773883
1853.000000	28.788610
1852.000000	28.786306
1851.000000	28.813855
1850.000000	28.866850
1849.000000	28.931366
1848.000000	28.956110
1847.000000	28.956811
1846.000000	28.921247
1845.000000	28.882879
1844.000000	28.853326
1843.000000	28.854929
1842.000000	28.877769
1841.000000	28.890893
1840.000000	28.865948
1839.000000	28.828181
1838.000000	28.821368
1837.000000	28.799028
1836.000000	28.734613
1835.000000	28.681417
1834.000000	28.632329
1833.000000	28.590655
1832.000000	28.567413
1831.000000	28.542268
1830.000000	28.523234
1829.000000	28.503398
1828.000000	28.466532
1827.000000	28.443992
1826.000000	28.427162
1825.000000	28.402618
1824.000000	28.383483
1823.000000	28.403920
1822.000000	28.450904
1821.000000	28.478554
1820.000000	28.474446
1819.000000	28.447999
1818.000000	28.416643
1817.000000	28.391197
1816.000000	28.392099
1815.000000	28.375870
1814.000000	28.353730
1813.000000	28.355734
1812.000000	28.344814
1811.000000	28.307547
1810.000000	28.261164
1809.000000	28.226201
1808.000000	28.202158
1807.000000	28.189035
1806.000000	28.161385
1805.000000	28.129829
1804.000000	28.108791
1803.000000	28.090057
1802.000000	28.084547
1801.000000	28.057800
1800.000000	28.017627
1799.000000	27.989176
1798.000000	27.957119
1797.000000	27.937885
1796.000000	27.902321
1795.000000	27.866857
1794.000000	27.842814
1793.000000	27.827887
1792.000000	27.806850
1791.000000	27.786714
1790.000000	27.762871
1789.000000	27.758062
1788.000000	27.753554
1787.000000	27.751751
1786.000000	27.748445
1785.000000	27.747844
1784.000000	27.724803
1783.000000	27.691142
1782.000000	27.674112
1781.000000	27.656781
1780.000000	27.629932
1779.000000	27.595571
1778.000000	27.553295
1777.000000	27.519935
1776.000000	27.475355
1775.000000	27.414246
1774.000000	27.359047
1773.000000	27.321880
1772.000000	27.254860
1771.000000	27.208176
1770.000000	27.160992
1769.000000	27.105492
1768.000000	27.045885
1767.000000	27.002608
1766.000000	26.961835
1765.000000	26.904933
1764.000000	26.880890
1763.000000	26.850736
1762.000000	26.833405
1761.000000	26.829998
1760.000000	26.835608
1759.000000	26.809962
1758.000000	26.795937
1757.000000	26.776803
1756.000000	26.774900
1755.000000	26.765583
1754.000000	26.762578
1753.000000	26.744345
1752.000000	26.712788
1751.000000	26.700867
1750.000000	26.685940
1749.000000	26.632945
1748.000000	26.601489
1747.000000	26.544386
1746.000000	26.480372
1745.000000	26.401430
1744.000000	26.339319
1743.000000	26.280513
1742.000000	26.206280
1741.000000	26.137257
1740.000000	26.047696
1739.000000	25.977971
1738.000000	25.901834
1737.000000	25.840124
1736.000000	25.799952
1735.000000	25.760982
1734.000000	25.705683
1733.000000	25.648080
1732.000000	25.621833
1731.000000	25.580458
1730.000000	25.542190
1729.000000	25.484987
1728.000000	25.457237
1727.000000	25.424178
1726.000000	25.417867
1725.000000	25.401237
1724.000000	25.403341
1723.000000	25.473467
1722.000000	25.554011
1721.000000	25.663708
1720.000000	25.824396
1719.000000	26.012132
1718.000000	26.207583
1717.000000	26.439198
1716.000000	26.640859
1715.000000	26.835108
1714.000000	27.029857
1713.000000	27.206173
1712.000000	27.357544
1711.000000	27.514425
1710.000000	27.626025
1709.000000	27.767880
1708.000000	27.838707
1707.000000	27.933076
1706.000000	27.984869
1705.000000	28.058100
1704.000000	28.094265
1703.000000	28.139145
1702.000000	28.139746
1701.000000	28.171403
1700.000000	28.209572
1699.000000	28.199554
1698.000000	28.200555
1697.000000	28.200555
1696.000000	28.168899
1695.000000	28.116505
1694.000000	28.086451
1693.000000	27.982565
1692.000000	27.927566
1691.000000	27.838807
1690.000000	27.822177
1689.000000	27.784510
1688.000000	27.816467
1687.000000	27.881383
1686.000000	27.978057
1685.000000	28.135739
1684.000000	28.311554
1683.000000	28.500994
1682.000000	28.715479
1681.000000	28.911931
1680.000000	29.116698
1679.000000	29.309143
1678.000000	29.489967
1677.000000	29.642540
1676.000000	29.813747
1675.000000	29.946686
1674.000000	30.088139
1673.000000	30.243518
1672.000000	30.411419
1671.000000	30.552171
1670.000000	30.703943
1669.000000	30.865633
1668.000000	31.034836
1667.000000	31.163066
1666.000000	31.295904
1665.000000	31.449380
1664.000000	31.571999
1663.000000	31.700129
1662.000000	31.820946
1661.000000	31.929540
1660.000000	32.034428
1659.000000	32.101348
1658.000000	32.179789
1657.000000	32.246709
1656.000000	32.314430
1655.000000	32.353300
1654.000000	32.386660
1653.000000	32.419519
1652.000000	32.432642
1651.000000	32.433043
1650.000000	32.428435
1649.000000	32.430238
1648.000000	32.438653
1647.000000	32.439855
1646.000000	32.407998
1645.000000	32.398481
1644.000000	32.386860
1643.000000	32.375640
1642.000000	32.365622
1641.000000	32.357007
1640.000000	32.353300
1639.000000	32.324749
1638.000000	32.302209
1637.000000	32.279768
1636.000000	32.264040
1635.000000	32.248913
1634.000000	32.208841
1633.000000	32.171073
1632.000000	32.142222
1631.000000	32.120383
1630.000000	32.077305
1629.000000	32.042543
1628.000000	32.014994
1627.000000	31.971616
1626.000000	31.933648
1625.000000	31.884960
1624.000000	31.857111
1623.000000	31.830363
1622.000000	31.803414
1621.000000	31.775865
1620.000000	31.753825
1619.000000	31.730784
1618.000000	31.686104
1617.000000	31.659156
1616.000000	31.637817
1615.000000	31.618282
1614.000000	31.579413
