PE UV       SUBTECH     SPECTRUM    ASCII       PEDS        4.00        
   -1
CICIMAUCR0108-1.Sample.ASC
24/04/04
13:42:06.00
24/04/04
13:42:06.00
Vinicio Soto Monge
C. resplendens
250,000000
1
Lambda 1050
1050L1511233
PerkinElmer UV WinLab 6.3.2.0749 / 2.02.05 Lambda 900 UV/VIS/NIR, Aug  7 2015 09:38:08

0
0
3350/servo 860,8/2
0
0
UV/VIS
1
1
1
DoubleDePol,CommonBeamDepol,RBeamAtt,SBeamAtt,60mm sphere, WB InGaAs Detector
0
0
0
0
Program
Program
3350/servo 860,8/2
3350/0,2 860,8/0,2
3350/0,2 860,8/0,2
0
15.00
 
 
 
0
 
860,8
319,2
860,8
Front
100
on
S:100 R:100
0
0
0
0
 
0
 
 
 
0
 
 
0
0
0
0
0
 
 
 
 
0
0


0
0
#HDR
-1
-1
#GR
nm
%R
1.0
0.0
2500,000000
-1,000000
2251
8
63,019200
4,896500
#DATA
2500.000000	4.999180
2499.000000	5.006327
2498.000000	4.949836
2497.000000	4.990662
2496.000000	4.970886
2495.000000	4.994480
2494.000000	4.954536
2493.000000	4.956690
2492.000000	4.960312
2491.000000	4.868478
2490.000000	4.958158
2489.000000	4.962074
2488.000000	4.893541
2487.000000	4.960508
2486.000000	4.965501
2485.000000	4.921836
2484.000000	4.967753
2483.000000	4.886590
2482.000000	4.976858
2481.000000	4.927318
2480.000000	4.966480
2479.000000	4.945724
2478.000000	4.901961
2477.000000	4.904996
2476.000000	4.936032
2475.000000	4.865149
2474.000000	4.905779
2473.000000	4.962172
2472.000000	4.923696
2471.000000	4.926829
2470.000000	4.938479
2469.000000	4.907737
2468.000000	4.935934
2467.000000	4.945431
2466.000000	4.954536
2465.000000	4.975879
2464.000000	4.951207
2463.000000	4.987236
2462.000000	4.997418
2461.000000	5.025712
2460.000000	4.996047
2459.000000	5.032565
2458.000000	5.067811
2457.000000	5.082398
2456.000000	5.086217
2455.000000	5.085923
2454.000000	5.118819
2453.000000	5.154064
2452.000000	5.196261
2451.000000	5.183631
2450.000000	5.208695
2449.000000	5.231213
2448.000000	5.242570
2447.000000	5.291326
2446.000000	5.309144
2445.000000	5.319228
2444.000000	5.334599
2443.000000	5.358488
2442.000000	5.372880
2441.000000	5.388936
2440.000000	5.417622
2439.000000	5.452574
2438.000000	5.480183
2437.000000	5.493889
2436.000000	5.500449
2435.000000	5.510533
2434.000000	5.529429
2433.000000	5.536967
2432.000000	5.568786
2431.000000	5.572702
2430.000000	5.588954
2429.000000	5.601584
2428.000000	5.606577
2427.000000	5.614899
2426.000000	5.635655
2425.000000	5.660131
2424.000000	5.669040
2423.000000	5.663949
2422.000000	5.674131
2421.000000	5.684313
2420.000000	5.698509
2419.000000	5.699390
2418.000000	5.704971
2417.000000	5.727880
2416.000000	5.739825
2415.000000	5.737377
2414.000000	5.754412
2413.000000	5.772818
2412.000000	5.780063
2411.000000	5.782804
2410.000000	5.793868
2409.000000	5.798371
2408.000000	5.808553
2407.000000	5.828330
2406.000000	5.832931
2405.000000	5.850848
2404.000000	5.847225
2403.000000	5.854862
2402.000000	5.873366
2401.000000	5.898625
2400.000000	5.908709
2399.000000	5.914583
2398.000000	5.916835
2397.000000	5.927311
2396.000000	5.930835
2395.000000	5.939745
2394.000000	5.944248
2393.000000	5.958738
2392.000000	5.965200
2391.000000	5.966570
2390.000000	5.973130
2389.000000	5.962948
2388.000000	5.966766
2387.000000	5.974892
2386.000000	5.979690
2385.000000	5.982137
2384.000000	5.973620
2383.000000	5.969703
2382.000000	5.966864
2381.000000	5.969018
2380.000000	5.970487
2379.000000	5.967354
2378.000000	5.960011
2377.000000	5.955997
2376.000000	5.940528
2375.000000	5.936318
2374.000000	5.941017
2373.000000	5.919185
2372.000000	5.904989
2371.000000	5.902541
2370.000000	5.879044
2369.000000	5.861421
2368.000000	5.851533
2367.000000	5.836945
2366.000000	5.813644
2365.000000	5.798077
2364.000000	5.770371
2363.000000	5.742762
2362.000000	5.721810
2361.000000	5.694397
2360.000000	5.682453
2359.000000	5.664536
2358.000000	5.636829
2357.000000	5.608633
2356.000000	5.579751
2355.000000	5.577304
2354.000000	5.580730
2353.000000	5.569961
2352.000000	5.563989
2351.000000	5.581611
2350.000000	5.593947
2349.000000	5.600996
2348.000000	5.606577
2347.000000	5.622144
2346.000000	5.643389
2345.000000	5.649361
2344.000000	5.678243
2343.000000	5.703698
2342.000000	5.711824
2341.000000	5.722593
2340.000000	5.733559
2339.000000	5.733754
2338.000000	5.740706
2337.000000	5.752454
2336.000000	5.761853
2335.000000	5.749811
2334.000000	5.728174
2333.000000	5.711628
2332.000000	5.704971
2331.000000	5.695768
2330.000000	5.664536
2329.000000	5.639962
2328.000000	5.620871
2327.000000	5.608731
2326.000000	5.585919
2325.000000	5.550674
2324.000000	5.506519
2323.000000	5.450322
2322.000000	5.409986
2321.000000	5.354866
2320.000000	5.310613
2319.000000	5.257059
2318.000000	5.202918
2317.000000	5.133406
2316.000000	5.096888
2315.000000	5.033936
2314.000000	4.984788
2313.000000	4.950717
2312.000000	4.907640
2311.000000	4.864562
2310.000000	4.854282
2309.000000	4.837638
2308.000000	4.820015
2307.000000	4.793875
2306.000000	4.799749
2305.000000	4.801218
2304.000000	4.819036
2303.000000	4.824029
2302.000000	4.834701
2301.000000	4.848505
2300.000000	4.875919
2299.000000	4.899318
2298.000000	4.906367
2297.000000	4.939263
2296.000000	4.944745
2295.000000	4.952773
2294.000000	4.959333
2293.000000	4.978914
2292.000000	4.983711
2291.000000	4.984984
2290.000000	4.988802
2289.000000	4.971669
2288.000000	4.963934
2287.000000	4.957179
2286.000000	4.954144
2285.000000	4.956592
2284.000000	4.965892
2283.000000	4.906171
2282.000000	4.901863
2281.000000	4.895499
2280.000000	4.874940
2279.000000	4.868772
2278.000000	4.868576
2277.000000	4.845666
2276.000000	4.854282
2275.000000	4.860450
2274.000000	4.860156
2273.000000	4.855163
2272.000000	4.835680
2271.000000	4.843512
2270.000000	4.857904
2269.000000	4.880814
2268.000000	4.894716
2267.000000	4.897751
2266.000000	4.911752
2265.000000	4.949934
2264.000000	4.991935
2263.000000	5.018859
2262.000000	5.029432
2261.000000	5.080734
2260.000000	5.126945
2259.000000	5.169631
2258.000000	5.213198
2257.000000	5.263815
2256.000000	5.316291
2255.000000	5.354082
2254.000000	5.410475
2253.000000	5.451889
2252.000000	5.501918
2251.000000	5.529037
2250.000000	5.612060
2249.000000	5.626549
2248.000000	5.666396
2247.000000	5.703796
2246.000000	5.735027
2245.000000	5.767727
2244.000000	5.797392
2243.000000	5.819029
2242.000000	5.843309
2241.000000	5.866806
2240.000000	5.884625
2239.000000	5.913604
2238.000000	5.946500
2237.000000	5.951199
2236.000000	5.980864
2235.000000	5.960207
2234.000000	6.000935
2233.000000	6.011215
2232.000000	5.996823
2231.000000	6.021593
2230.000000	5.990557
2229.000000	5.970193
2228.000000	5.984879
2227.000000	5.949633
2226.000000	5.938961
2225.000000	5.923003
2224.000000	5.892849
2223.000000	5.866610
2222.000000	5.834987
2221.000000	5.796707
2220.000000	5.779671
2219.000000	5.748440
2218.000000	5.692243
2217.000000	5.667669
2216.000000	5.653865
2215.000000	5.651809
2214.000000	5.636046
2213.000000	5.618228
2212.000000	5.624787
2211.000000	5.625277
2210.000000	5.635850
2209.000000	5.651025
2208.000000	5.691166
2207.000000	5.733950
2206.000000	5.787504
2205.000000	5.836260
2204.000000	5.905478
2203.000000	5.983802
2202.000000	6.079943
2201.000000	6.177652
2200.000000	6.266842
2199.000000	6.338117
2198.000000	6.443951
2197.000000	6.566625
2196.000000	6.650039
2195.000000	6.734922
2194.000000	6.835861
2193.000000	6.931122
2192.000000	6.989766
2191.000000	7.073279
2190.000000	7.135839
2189.000000	7.210736
2188.000000	7.250877
2187.000000	7.310794
2186.000000	7.333312
2185.000000	7.374921
2184.000000	7.417705
2183.000000	7.475664
2182.000000	7.501511
2181.000000	7.513553
2180.000000	7.532155
2179.000000	7.561624
2178.000000	7.581793
2177.000000	7.629961
2176.000000	7.646409
2175.000000	7.671864
2174.000000	7.707795
2173.000000	7.713082
2172.000000	7.728942
2171.000000	7.765461
2170.000000	7.790524
2169.000000	7.821756
2168.000000	7.837714
2167.000000	7.882162
2166.000000	7.902918
2165.000000	7.921814
2164.000000	7.956374
2163.000000	7.970766
2162.000000	8.007480
2161.000000	8.026571
2160.000000	8.044683
2159.000000	8.095202
2158.000000	8.118013
2157.000000	8.146797
2156.000000	8.188015
2155.000000	8.215624
2154.000000	8.243037
2153.000000	8.241960
2152.000000	8.282590
2151.000000	8.305696
2150.000000	8.322241
2149.000000	8.364830
2148.000000	8.392243
2147.000000	8.406047
2146.000000	8.430915
2145.000000	8.464202
2144.000000	8.484762
2143.000000	8.500818
2142.000000	8.513252
2141.000000	8.525294
2140.000000	8.534497
2139.000000	8.557505
2138.000000	8.576009
2137.000000	8.597156
2136.000000	8.608709
2135.000000	8.637884
2134.000000	8.639353
2133.000000	8.648360
2132.000000	8.654626
2131.000000	8.653647
2130.000000	8.679493
2129.000000	8.683410
2128.000000	8.681941
2127.000000	8.672151
2126.000000	8.694473
2125.000000	8.695452
2124.000000	8.693004
2123.000000	8.694277
2122.000000	8.694375
2121.000000	8.701620
2120.000000	8.698487
2119.000000	8.697606
2118.000000	8.686836
2117.000000	8.675871
2116.000000	8.680472
2115.000000	8.680668
2114.000000	8.674109
2113.000000	8.667843
2112.000000	8.667060
2111.000000	8.652864
2110.000000	8.651787
2109.000000	8.653843
2108.000000	8.636611
2107.000000	8.631031
2106.000000	8.641898
2105.000000	8.642584
2104.000000	8.632402
2103.000000	8.620751
2102.000000	8.605184
2101.000000	8.596569
2100.000000	8.602737
2099.000000	8.595981
2098.000000	8.589520
2097.000000	8.589520
2096.000000	8.593142
2095.000000	8.588638
2094.000000	8.583352
2093.000000	8.582764
2092.000000	8.579240
2091.000000	8.582666
2090.000000	8.589617
2089.000000	8.588443
2088.000000	8.587757
2087.000000	8.581883
2086.000000	8.564162
2085.000000	8.562009
2084.000000	8.582568
2083.000000	8.581589
2082.000000	8.560050
2081.000000	8.546246
2080.000000	8.547812
2079.000000	8.560736
2078.000000	8.551631
2077.000000	8.537630
2076.000000	8.535281
2075.000000	8.528427
2074.000000	8.519616
2073.000000	8.506007
2072.000000	8.489559
2071.000000	8.471643
2070.000000	8.454412
2069.000000	8.444426
2068.000000	8.425922
2067.000000	8.419362
2066.000000	8.389501
2065.000000	8.363067
2064.000000	8.352690
2063.000000	8.326843
2062.000000	8.310297
2061.000000	8.287387
2060.000000	8.269471
2059.000000	8.244114
2058.000000	8.203582
2057.000000	8.193791
2056.000000	8.191637
2055.000000	8.191246
2054.000000	8.181259
2053.000000	8.180085
2052.000000	8.187329
2051.000000	8.176560
2050.000000	8.198099
2049.000000	8.235890
2048.000000	8.274562
2047.000000	8.297961
2046.000000	8.353277
2045.000000	8.426411
2044.000000	8.471741
2043.000000	8.545071
2042.000000	8.625744
2041.000000	8.706711
2040.000000	8.755075
2039.000000	8.828797
2038.000000	8.927093
2037.000000	9.010214
2036.000000	9.086089
2035.000000	9.145713
2034.000000	9.213854
2033.000000	9.296877
2032.000000	9.345144
2031.000000	9.393704
2030.000000	9.448922
2029.000000	9.504825
2028.000000	9.556029
2027.000000	9.607233
2026.000000	9.644632
2025.000000	9.705822
2024.000000	9.761726
2023.000000	9.792859
2022.000000	9.850622
2021.000000	9.885085
2020.000000	9.920722
2019.000000	9.946960
2018.000000	9.995423
2017.000000	10.016472
2016.000000	10.051913
2015.000000	10.100376
2014.000000	10.132195
2013.000000	10.154419
2012.000000	10.192308
2011.000000	10.216196
2010.000000	10.249484
2009.000000	10.280715
2008.000000	10.315373
2007.000000	10.354339
2006.000000	10.382144
2005.000000	10.389780
2004.000000	10.443040
2003.000000	10.455572
2002.000000	10.477894
2001.000000	10.507265
2000.000000	10.527727
1999.000000	10.544763
1998.000000	10.528902
1997.000000	10.568847
1996.000000	10.559644
1995.000000	10.550049
1994.000000	10.567574
1993.000000	10.551616
1992.000000	10.568358
1991.000000	10.533210
1990.000000	10.530664
1989.000000	10.534581
1988.000000	10.507070
1987.000000	10.496398
1986.000000	10.504622
1985.000000	10.485531
1984.000000	10.452341
1983.000000	10.441865
1982.000000	10.426592
1981.000000	10.421893
1980.000000	10.409263
1979.000000	10.365794
1978.000000	10.355122
1977.000000	10.318506
1976.000000	10.307247
1975.000000	10.279638
1974.000000	10.252617
1973.000000	10.246547
1972.000000	10.212476
1971.000000	10.198084
1970.000000	10.178797
1969.000000	10.165776
1968.000000	10.148153
1967.000000	10.104194
1966.000000	10.089215
1965.000000	10.072473
1964.000000	10.050053
1963.000000	10.051326
1962.000000	9.996793
1961.000000	9.988667
1960.000000	9.957925
1959.000000	9.938540
1958.000000	9.929827
1957.000000	9.888120
1956.000000	9.861979
1955.000000	9.848958
1954.000000	9.835839
1953.000000	9.835154
1952.000000	9.777586
1951.000000	9.761530
1950.000000	9.739110
1949.000000	9.724326
1948.000000	9.709347
1947.000000	9.700340
1946.000000	9.694465
1945.000000	9.667738
1944.000000	9.657262
1943.000000	9.657066
1942.000000	9.638073
1941.000000	9.634254
1940.000000	9.641499
1939.000000	9.648157
1938.000000	9.668912
1937.000000	9.660786
1936.000000	9.671164
1935.000000	9.700144
1934.000000	9.693486
1933.000000	9.696815
1932.000000	9.745473
1931.000000	9.755949
1930.000000	9.783852
1929.000000	9.815769
1928.000000	9.861784
1927.000000	9.921505
1926.000000	9.970555
1925.000000	9.988863
1924.000000	10.028710
1923.000000	10.058081
1922.000000	10.119467
1921.000000	10.202881
1920.000000	10.267792
1919.000000	10.339849
1918.000000	10.431977
1917.000000	10.482496
1916.000000	10.518329
1915.000000	10.560917
1914.000000	10.628471
1913.000000	10.748697
1912.000000	10.862070
1911.000000	10.934127
1910.000000	11.006283
1909.000000	11.019108
1908.000000	11.083529
1907.000000	11.158230
1906.000000	11.250553
1905.000000	11.385074
1904.000000	11.503538
1903.000000	11.571581
1902.000000	11.647652
1901.000000	11.704045
1900.000000	11.805572
1899.000000	11.925406
1898.000000	12.030458
1897.000000	12.146866
1896.000000	12.198951
1895.000000	12.239091
1894.000000	12.301456
1893.000000	12.382619
1892.000000	12.486397
1891.000000	12.593015
1890.000000	12.696401
1889.000000	12.814376
1888.000000	12.915707
1887.000000	13.009303
1886.000000	13.129235
1885.000000	13.276385
1884.000000	13.472389
1883.000000	13.662225
1882.000000	13.851376
1881.000000	14.054625
1880.000000	14.237216
1879.000000	14.422940
1878.000000	14.602105
1877.000000	14.783815
1876.000000	14.935958
1875.000000	15.091234
1874.000000	15.247783
1873.000000	15.402177
1872.000000	15.544138
1871.000000	15.659763
1870.000000	15.766576
1869.000000	15.851264
1868.000000	15.904230
1867.000000	15.917055
1866.000000	15.900999
1865.000000	15.898943
1864.000000	15.900999
1863.000000	15.868103
1862.000000	15.852634
1861.000000	15.842256
1860.000000	15.834816
1859.000000	15.829039
1858.000000	15.815724
1857.000000	15.786451
1856.000000	15.716450
1855.000000	15.673078
1854.000000	15.642532
1853.000000	15.581734
1852.000000	15.517606
1851.000000	15.451913
1850.000000	15.381618
1849.000000	15.324246
1848.000000	15.298105
1847.000000	15.291839
1846.000000	15.240831
1845.000000	15.145375
1844.000000	15.051779
1843.000000	15.013106
1842.000000	15.003414
1841.000000	14.995777
1840.000000	14.975413
1839.000000	14.939972
1838.000000	14.898852
1837.000000	14.889747
1836.000000	14.854698
1835.000000	14.802319
1834.000000	14.751800
1833.000000	14.683659
1832.000000	14.611210
1831.000000	14.543950
1830.000000	14.505082
1829.000000	14.468662
1828.000000	14.401304
1827.000000	14.325722
1826.000000	14.287539
1825.000000	14.246517
1824.000000	14.190712
1823.000000	14.156739
1822.000000	14.131186
1821.000000	14.130697
1820.000000	14.144207
1819.000000	14.123158
1818.000000	14.086542
1817.000000	14.063926
1816.000000	14.059814
1815.000000	14.054919
1814.000000	14.045324
1813.000000	14.043072
1812.000000	14.032793
1811.000000	14.028876
1810.000000	14.001463
1809.000000	13.966805
1808.000000	13.938707
1807.000000	13.904440
1806.000000	13.874971
1805.000000	13.844817
1804.000000	13.815250
1803.000000	13.775892
1802.000000	13.738297
1801.000000	13.700702
1800.000000	13.670058
1799.000000	13.642057
1798.000000	13.611413
1797.000000	13.573524
1796.000000	13.537300
1795.000000	13.524768
1794.000000	13.502544
1793.000000	13.472879
1792.000000	13.432151
1791.000000	13.403563
1790.000000	13.365870
1789.000000	13.321519
1788.000000	13.289309
1787.000000	13.243000
1786.000000	13.205601
1785.000000	13.147837
1784.000000	13.083710
1783.000000	13.027317
1782.000000	12.974645
1781.000000	12.908462
1780.000000	12.854419
1779.000000	12.803313
1778.000000	12.716570
1777.000000	12.639225
1776.000000	12.565601
1775.000000	12.490803
1774.000000	12.401514
1773.000000	12.310855
1772.000000	12.190433
1771.000000	12.104277
1770.000000	11.995897
1769.000000	11.891434
1768.000000	11.783837
1767.000000	11.666940
1766.000000	11.577945
1765.000000	11.522531
1764.000000	11.469467
1763.000000	11.461145
1762.000000	11.484055
1761.000000	11.517146
1760.000000	11.535944
1759.000000	11.578141
1758.000000	11.623960
1757.000000	11.638645
1756.000000	11.693863
1755.000000	11.727444
1754.000000	11.711192
1753.000000	11.741836
1752.000000	11.739389
1751.000000	11.745165
1750.000000	11.731067
1749.000000	11.698954
1748.000000	11.663317
1747.000000	11.622491
1746.000000	11.580980
1745.000000	11.512643
1744.000000	11.423158
1743.000000	11.317814
1742.000000	11.218049
1741.000000	11.099781
1740.000000	10.951554
1739.000000	10.795887
1738.000000	10.655590
1737.000000	10.517937
1736.000000	10.386354
1735.000000	10.296869
1734.000000	10.225302
1733.000000	10.170475
1732.000000	10.141398
1731.000000	10.165972
1730.000000	10.217959
1729.000000	10.275428
1728.000000	10.346409
1727.000000	10.433739
1726.000000	10.497083
1725.000000	10.550539
1724.000000	10.601743
1723.000000	10.643156
1722.000000	10.693675
1721.000000	10.712766
1720.000000	10.748207
1719.000000	10.767690
1718.000000	10.808027
1717.000000	10.848657
1716.000000	10.905833
1715.000000	10.936477
1714.000000	10.990814
1713.000000	11.039374
1712.000000	11.110159
1711.000000	11.140020
1710.000000	11.163908
1709.000000	11.204147
1708.000000	11.247518
1707.000000	11.285016
1706.000000	11.315464
1705.000000	11.352276
1704.000000	11.380962
1703.000000	11.410235
1702.000000	11.417088
1701.000000	11.414739
1700.000000	11.379199
1699.000000	11.381549
1698.000000	11.369311
1697.000000	11.367745
1696.000000	11.407885
1695.000000	11.406221
1694.000000	11.498838
1693.000000	11.575987
1692.000000	11.678003
1691.000000	11.774047
1690.000000	11.883601
1689.000000	11.977589
1688.000000	12.016555
1687.000000	12.052290
1686.000000	12.080584
1685.000000	12.095368
1684.000000	12.114753
1683.000000	12.230867
1682.000000	12.359220
1681.000000	12.543965
1680.000000	12.788333
1679.000000	13.082437
1678.000000	13.359604
1677.000000	13.618071
1676.000000	13.870370
1675.000000	14.083605
1674.000000	14.240349
1673.000000	14.401010
1672.000000	14.550509
1671.000000	14.647043
1670.000000	14.777745
1669.000000	14.842166
1668.000000	14.913832
1667.000000	14.960532
1666.000000	15.019764
1665.000000	15.034156
1664.000000	15.094661
1663.000000	15.131570
1662.000000	15.158298
1661.000000	15.165641
1660.000000	15.179446
1659.000000	15.208719
1658.000000	15.193837
1657.000000	15.207054
1656.000000	15.198439
1655.000000	15.190998
1654.000000	15.177390
1653.000000	15.171026
1652.000000	15.155557
1651.000000	15.138815
1650.000000	15.111794
1649.000000	15.095737
1648.000000	15.057163
1647.000000	15.045708
1646.000000	15.019666
1645.000000	14.966504
1644.000000	14.922741
1643.000000	14.887691
1642.000000	14.848432
1641.000000	14.824249
1640.000000	14.794193
1639.000000	14.752779
1638.000000	14.696289
1637.000000	14.659281
1636.000000	14.617868
1635.000000	14.582426
1634.000000	14.524075
1633.000000	14.475417
1632.000000	14.428619
1631.000000	14.368506
1630.000000	14.327484
1629.000000	14.280098
1628.000000	14.225762
1627.000000	14.191201
1626.000000	14.136571
1625.000000	14.093004
1624.000000	14.045031
1623.000000	13.995002
1622.000000	13.958875
1621.000000	13.903167
1620.000000	13.854020
1619.000000	13.814075
1618.000000	13.773347
1617.000000	13.739472
1616.000000	13.709219
1615.000000	13.654883
1614.000000	13.621008
1613.000000	13.578126
1612.000000	13.544055
1611.000000	13.525453
1610.000000	13.477970
1609.000000	13.449088
1608.000000	13.415605
1607.000000	13.378010
1606.000000	13.353044
1605.000000	13.322890
1604.000000	13.291463
1603.000000	13.262287
1602.000000	13.233993
1601.000000	13.212650
