PE UV       SUBTECH     SPECTRUM    ASCII       PEDS        4.00        
   -1
CICIMAUCR0020-1.Sample.ASC
24/03/08
12:01:00.00
24/03/08
12:01:00.00
Vinicio Soto Monge
C. resplendens
250,000000
1
Lambda 1050
1050L1511233
PerkinElmer UV WinLab 6.3.2.0749 / 2.02.05 Lambda 900 UV/VIS/NIR, Aug  7 2015 09:38:08

0
0
3350/servo 860,8/2
0
0
UV/VIS
1
1
1
DoubleDePol,CommonBeamDepol,RBeamAtt,SBeamAtt,60mm sphere, WB InGaAs Detector
0
0
0
0
Program
Program
3350/servo 860,8/2
3350/0,2 860,8/0,2
3350/0,2 860,8/0,2
0
15.00
 
 
 
0
 
860,8
319,2
860,8
Front
100
on
S:100 R:100
0
0
0
0
 
0
 
 
 
0
 
 
0
0
0
0
0
 
 
 
 
0
0


0
0
#HDR
-1
-1
#GR
nm
%R
1.0
0.0
2500,000000
-1,000000
2251
8
26,391500
2,064300
#DATA
2500.000000	2.121483
2499.000000	2.111961
2498.000000	2.183142
2497.000000	2.164654
2496.000000	2.186933
2495.000000	2.102070
2494.000000	2.160771
2493.000000	2.102070
2492.000000	2.072395
2491.000000	2.039300
2490.000000	2.051226
2489.000000	2.151249
2488.000000	2.112423
2487.000000	2.087926
2486.000000	2.091531
2485.000000	2.055386
2484.000000	2.063243
2483.000000	1.949261
2482.000000	1.999827
2481.000000	2.016559
2480.000000	2.041057
2479.000000	2.052520
2478.000000	2.075631
2477.000000	2.052335
2476.000000	2.030611
2475.000000	2.015080
2474.000000	2.058344
2473.000000	2.030888
2472.000000	2.047343
2471.000000	2.022661
2470.000000	2.004172
2469.000000	2.013324
2468.000000	2.029779
2467.000000	2.047528
2466.000000	2.055293
2465.000000	2.033107
2464.000000	2.053259
2463.000000	2.068143
2462.000000	2.045032
2461.000000	2.030703
2460.000000	2.064815
2459.000000	2.092548
2458.000000	2.090052
2457.000000	2.110574
2456.000000	2.143392
2455.000000	2.126752
2454.000000	2.136181
2453.000000	2.154300
2452.000000	2.193496
2451.000000	2.185731
2450.000000	2.189891
2449.000000	2.240827
2448.000000	2.259870
2447.000000	2.267820
2446.000000	2.271888
2445.000000	2.296478
2444.000000	2.288898
2443.000000	2.328556
2442.000000	2.346952
2441.000000	2.362205
2440.000000	2.371912
2439.000000	2.406116
2438.000000	2.415268
2437.000000	2.425436
2436.000000	2.442169
2435.000000	2.455480
2434.000000	2.479238
2433.000000	2.488298
2432.000000	2.511224
2431.000000	2.545058
2430.000000	2.548479
2429.000000	2.561143
2428.000000	2.557630
2427.000000	2.578615
2426.000000	2.603667
2425.000000	2.624467
2424.000000	2.635375
2423.000000	2.647393
2422.000000	2.682336
2421.000000	2.705078
2420.000000	2.709515
2419.000000	2.705725
2418.000000	2.712935
2417.000000	2.729298
2416.000000	2.748156
2415.000000	2.759804
2414.000000	2.753610
2413.000000	2.774133
2412.000000	2.778108
2411.000000	2.787999
2410.000000	2.798445
2409.000000	2.801311
2408.000000	2.828582
2407.000000	2.822573
2406.000000	2.834498
2405.000000	2.847163
2404.000000	2.860013
2403.000000	2.867501
2402.000000	2.879796
2401.000000	2.873972
2400.000000	2.878779
2399.000000	2.887561
2398.000000	2.905680
2397.000000	2.905402
2396.000000	2.906974
2395.000000	2.917697
2394.000000	2.944968
2393.000000	2.957448
2392.000000	2.946262
2391.000000	2.954860
2390.000000	2.966415
2389.000000	2.966785
2388.000000	2.980744
2387.000000	2.987307
2386.000000	2.985181
2385.000000	2.977508
2384.000000	2.981483
2383.000000	3.001636
2382.000000	3.013284
2381.000000	3.000989
2380.000000	2.989896
2379.000000	2.988324
2378.000000	2.992484
2377.000000	3.005981
2376.000000	2.984811
2375.000000	2.976121
2374.000000	2.977970
2373.000000	2.966785
2372.000000	2.968264
2371.000000	2.964566
2370.000000	2.960776
2369.000000	2.956708
2368.000000	2.944413
2367.000000	2.946170
2366.000000	2.936371
2365.000000	2.912151
2364.000000	2.890519
2363.000000	2.888208
2362.000000	2.873324
2361.000000	2.855021
2360.000000	2.854281
2359.000000	2.836624
2358.000000	2.826086
2357.000000	2.811110
2356.000000	2.791789
2355.000000	2.787260
2354.000000	2.774687
2353.000000	2.763132
2352.000000	2.744458
2351.000000	2.743164
2350.000000	2.747694
2349.000000	2.758972
2348.000000	2.778015
2347.000000	2.782730
2346.000000	2.777646
2345.000000	2.779125
2344.000000	2.794285
2343.000000	2.804916
2342.000000	2.818598
2341.000000	2.819615
2340.000000	2.829137
2339.000000	2.832280
2338.000000	2.836347
2337.000000	2.843188
2336.000000	2.848365
2335.000000	2.847071
2334.000000	2.834776
2333.000000	2.830338
2332.000000	2.829321
2331.000000	2.810740
2330.000000	2.806950
2329.000000	2.789016
2328.000000	2.777183
2327.000000	2.753980
2326.000000	2.745845
2325.000000	2.735307
2324.000000	2.725138
2323.000000	2.706557
2322.000000	2.685757
2321.000000	2.651183
2320.000000	2.652292
2319.000000	2.621601
2318.000000	2.600894
2317.000000	2.573438
2316.000000	2.547369
2315.000000	2.526754
2314.000000	2.497172
2313.000000	2.483861
2312.000000	2.445127
2311.000000	2.428302
2310.000000	2.407133
2309.000000	2.392434
2308.000000	2.374315
2307.000000	2.363499
2306.000000	2.375425
2305.000000	2.370155
2304.000000	2.358600
2303.000000	2.364239
2302.000000	2.371542
2301.000000	2.379769
2300.000000	2.399367
2299.000000	2.409166
2298.000000	2.423310
2297.000000	2.439026
2296.000000	2.446883
2295.000000	2.454279
2294.000000	2.467128
2293.000000	2.480440
2292.000000	2.490517
2291.000000	2.488853
2290.000000	2.490054
2289.000000	2.494122
2288.000000	2.494307
2287.000000	2.479423
2286.000000	2.472583
2285.000000	2.461397
2284.000000	2.449934
2283.000000	2.413419
2282.000000	2.424512
2281.000000	2.408889
2280.000000	2.400662
2279.000000	2.382080
2278.000000	2.373021
2277.000000	2.360541
2276.000000	2.336598
2275.000000	2.312933
2274.000000	2.311639
2273.000000	2.288343
2272.000000	2.280578
2271.000000	2.279099
2270.000000	2.275863
2269.000000	2.269392
2268.000000	2.269207
2267.000000	2.288805
2266.000000	2.292318
2265.000000	2.296570
2264.000000	2.292041
2263.000000	2.324396
2262.000000	2.358138
2261.000000	2.386610
2260.000000	2.415360
2259.000000	2.436345
2258.000000	2.472120
2257.000000	2.509375
2256.000000	2.559017
2255.000000	2.617256
2254.000000	2.633434
2253.000000	2.675496
2252.000000	2.724768
2251.000000	2.756384
2250.000000	2.787629
2249.000000	2.809908
2248.000000	2.857517
2247.000000	2.893662
2246.000000	2.909932
2245.000000	2.934245
2244.000000	2.979449
2243.000000	2.975382
2242.000000	2.996182
2241.000000	3.029924
2240.000000	3.050723
2239.000000	3.070691
2238.000000	3.075221
2237.000000	3.101937
2236.000000	3.116081
2235.000000	3.113677
2234.000000	3.128376
2233.000000	3.131981
2232.000000	3.135586
2231.000000	3.152596
2230.000000	3.131426
2229.000000	3.138914
2228.000000	3.130502
2227.000000	3.122367
2226.000000	3.110904
2225.000000	3.101290
2224.000000	3.089642
2223.000000	3.086869
2222.000000	3.063758
2221.000000	3.055068
2220.000000	3.019570
2219.000000	2.999417
2218.000000	2.971037
2217.000000	2.954675
2216.000000	2.947279
2215.000000	2.920655
2214.000000	2.915016
2213.000000	2.898746
2212.000000	2.873879
2211.000000	2.848735
2210.000000	2.876930
2209.000000	2.894956
2208.000000	2.888947
2207.000000	2.893107
2206.000000	2.931102
2205.000000	2.944598
2204.000000	2.984811
2203.000000	3.011897
2202.000000	3.050446
2201.000000	3.095466
2200.000000	3.127729
2199.000000	3.155462
2198.000000	3.193178
2197.000000	3.258444
2196.000000	3.293942
2195.000000	3.337020
2194.000000	3.383797
2193.000000	3.431497
2192.000000	3.463206
2191.000000	3.489922
2190.000000	3.530319
2189.000000	3.545757
2188.000000	3.604644
2187.000000	3.618973
2186.000000	3.625351
2185.000000	3.640789
2184.000000	3.675825
2183.000000	3.678414
2182.000000	3.682019
2181.000000	3.706332
2180.000000	3.717055
2179.000000	3.727039
2178.000000	3.719181
2177.000000	3.723896
2176.000000	3.726854
2175.000000	3.718442
2174.000000	3.723249
2173.000000	3.758655
2172.000000	3.759117
2171.000000	3.770672
2170.000000	3.772983
2169.000000	3.779085
2168.000000	3.786665
2167.000000	3.805986
2166.000000	3.811255
2165.000000	3.822810
2164.000000	3.825861
2163.000000	3.835475
2162.000000	3.842316
2161.000000	3.841299
2160.000000	3.854981
2159.000000	3.870881
2158.000000	3.870603
2157.000000	3.893899
2156.000000	3.933465
2155.000000	3.918582
2154.000000	3.929952
2153.000000	3.952693
2152.000000	3.955744
2151.000000	3.978577
2150.000000	3.984863
2149.000000	4.010655
2148.000000	4.028127
2147.000000	4.050591
2146.000000	4.045968
2145.000000	4.062423
2144.000000	4.084240
2143.000000	4.100787
2142.000000	4.101804
2141.000000	4.112158
2140.000000	4.140908
2139.000000	4.150337
2138.000000	4.147102
2137.000000	4.160506
2136.000000	4.176591
2135.000000	4.201643
2134.000000	4.194063
2133.000000	4.193693
2132.000000	4.225031
2131.000000	4.227342
2130.000000	4.209686
2129.000000	4.221149
2128.000000	4.227805
2127.000000	4.218468
2126.000000	4.225493
2125.000000	4.226141
2124.000000	4.215047
2123.000000	4.217728
2122.000000	4.230485
2121.000000	4.225586
2120.000000	4.214215
2119.000000	4.211072
2118.000000	4.213661
2117.000000	4.205711
2116.000000	4.197483
2115.000000	4.197760
2114.000000	4.205618
2113.000000	4.198685
2112.000000	4.186113
2111.000000	4.182877
2110.000000	4.190735
2109.000000	4.192491
2108.000000	4.171691
2107.000000	4.158287
2106.000000	4.155606
2105.000000	4.149043
2104.000000	4.149505
2103.000000	4.135731
2102.000000	4.120755
2101.000000	4.124730
2100.000000	4.131294
2099.000000	4.134067
2098.000000	4.120016
2097.000000	4.105872
2096.000000	4.100325
2095.000000	4.096627
2094.000000	4.101712
2093.000000	4.105502
2092.000000	4.093947
2091.000000	4.086551
2090.000000	4.094316
2089.000000	4.102636
2088.000000	4.094224
2087.000000	4.107628
2086.000000	4.100510
2085.000000	4.088400
2084.000000	4.091358
2083.000000	4.085996
2082.000000	4.095980
2081.000000	4.086366
2080.000000	4.072130
2079.000000	4.075181
2078.000000	4.073794
2077.000000	4.065012
2076.000000	4.063625
2075.000000	4.055028
2074.000000	4.058633
2073.000000	4.047078
2072.000000	4.035615
2071.000000	4.035615
2070.000000	4.021101
2069.000000	4.012227
2068.000000	4.015185
2067.000000	4.003722
2066.000000	4.012227
2065.000000	4.000394
2064.000000	3.984031
2063.000000	3.981073
2062.000000	3.976081
2061.000000	3.965728
2060.000000	3.973400
2059.000000	3.975342
2058.000000	3.972661
2057.000000	3.979224
2056.000000	3.994015
2055.000000	3.999469
2054.000000	3.994662
2053.000000	4.007697
2052.000000	4.041161
2051.000000	4.058171
2050.000000	4.084055
2049.000000	4.115578
2048.000000	4.150799
2047.000000	4.181398
2046.000000	4.209963
2045.000000	4.243427
2044.000000	4.297322
2043.000000	4.338089
2042.000000	4.383109
2041.000000	4.430625
2040.000000	4.462148
2039.000000	4.504580
2038.000000	4.562172
2037.000000	4.593973
2036.000000	4.633354
2035.000000	4.682349
2034.000000	4.715443
2033.000000	4.744378
2032.000000	4.772851
2031.000000	4.795222
2030.000000	4.868807
2029.000000	4.891640
2028.000000	4.919743
2027.000000	4.951451
2026.000000	4.976041
2025.000000	5.004236
2024.000000	5.042138
2023.000000	5.073661
2022.000000	5.105000
2021.000000	5.123858
2020.000000	5.159449
2019.000000	5.171374
2018.000000	5.196241
2017.000000	5.220276
2016.000000	5.242278
2015.000000	5.257624
2014.000000	5.277129
2013.000000	5.291365
2012.000000	5.325015
2011.000000	5.329914
2010.000000	5.329267
2009.000000	5.339528
2008.000000	5.357278
2007.000000	5.354134
2006.000000	5.380203
2005.000000	5.374102
2004.000000	5.377338
2003.000000	5.390927
2002.000000	5.384826
2001.000000	5.373455
2000.000000	5.376598
1999.000000	5.372161
1998.000000	5.359681
1997.000000	5.353210
1996.000000	5.352933
1995.000000	5.337587
1994.000000	5.345445
1993.000000	5.325015
1992.000000	5.304123
1991.000000	5.305971
1990.000000	5.283508
1989.000000	5.275742
1988.000000	5.246900
1987.000000	5.248564
1986.000000	5.222403
1985.000000	5.199939
1984.000000	5.186812
1983.000000	5.171466
1982.000000	5.159356
1981.000000	5.125892
1980.000000	5.092058
1979.000000	5.079855
1978.000000	5.055727
1977.000000	5.031877
1976.000000	5.014867
1975.000000	4.999244
1974.000000	4.980756
1973.000000	4.965133
1972.000000	4.928987
1971.000000	4.915121
1970.000000	4.901624
1969.000000	4.881841
1968.000000	4.868345
1967.000000	4.837931
1966.000000	4.858083
1965.000000	4.820829
1964.000000	4.818425
1963.000000	4.781725
1962.000000	4.764716
1961.000000	4.743269
1960.000000	4.723578
1959.000000	4.705552
1958.000000	4.669037
1957.000000	4.661364
1956.000000	4.665616
1955.000000	4.621151
1954.000000	4.618378
1953.000000	4.603772
1952.000000	4.590552
1951.000000	4.574744
1950.000000	4.560786
1949.000000	4.564483
1948.000000	4.540263
1947.000000	4.530464
1946.000000	4.531481
1945.000000	4.491545
1944.000000	4.486646
1943.000000	4.502454
1942.000000	4.509387
1941.000000	4.497832
1940.000000	4.488125
1939.000000	4.506706
1938.000000	4.483041
1937.000000	4.482948
1936.000000	4.502546
1935.000000	4.515119
1934.000000	4.548121
1933.000000	4.568458
1932.000000	4.592586
1931.000000	4.599519
1930.000000	4.628824
1929.000000	4.636127
1928.000000	4.665154
1927.000000	4.683088
1926.000000	4.712023
1925.000000	4.739663
1924.000000	4.801600
1923.000000	4.862151
1922.000000	4.892472
1921.000000	4.930189
1920.000000	4.941652
1919.000000	4.992219
1918.000000	5.058038
1917.000000	5.129959
1916.000000	5.190695
1915.000000	5.259472
1914.000000	5.336108
1913.000000	5.370404
1912.000000	5.413945
1911.000000	5.472185
1910.000000	5.566200
1909.000000	5.662063
1908.000000	5.750069
1907.000000	5.848059
1906.000000	5.904542
1905.000000	5.946511
1904.000000	6.010482
1903.000000	6.108934
1902.000000	6.211639
1901.000000	6.280787
1900.000000	6.354464
1899.000000	6.428326
1898.000000	6.518366
1897.000000	6.606834
1896.000000	6.714069
1895.000000	6.821211
1894.000000	6.922806
1893.000000	7.008223
1892.000000	7.079590
1891.000000	7.155578
1890.000000	7.234987
1889.000000	7.313934
1888.000000	7.425698
1887.000000	7.536167
1886.000000	7.643864
1885.000000	7.763301
1884.000000	7.886343
1883.000000	8.006150
1882.000000	8.151286
1881.000000	8.307515
1880.000000	8.473358
1879.000000	8.624041
1878.000000	8.761966
1877.000000	8.880479
1876.000000	8.982721
1875.000000	9.087182
1874.000000	9.160675
1873.000000	9.219376
1872.000000	9.268648
1871.000000	9.304886
1870.000000	9.304239
1869.000000	9.321249
1868.000000	9.362663
1867.000000	9.393909
1866.000000	9.442719
1865.000000	9.487554
1864.000000	9.517229
1863.000000	9.559475
1862.000000	9.594419
1861.000000	9.585822
1860.000000	9.571216
1859.000000	9.532204
1858.000000	9.503177
1857.000000	9.505858
1856.000000	9.517229
1855.000000	9.487000
1854.000000	9.443366
1853.000000	9.398531
1852.000000	9.366546
1851.000000	9.400473
1850.000000	9.419701
1849.000000	9.373202
1848.000000	9.280943
1847.000000	9.173432
1846.000000	9.110848
1845.000000	9.135715
1844.000000	9.204863
1843.000000	9.231764
1842.000000	9.192013
1841.000000	9.114545
1840.000000	9.068416
1839.000000	9.059911
1838.000000	9.037355
1837.000000	8.992982
1836.000000	8.937054
1835.000000	8.894530
1834.000000	8.883160
1833.000000	8.888521
1832.000000	8.886210
1831.000000	8.848216
1830.000000	8.787111
1829.000000	8.743755
1828.000000	8.722216
1827.000000	8.690046
1826.000000	8.639109
1825.000000	8.611469
1824.000000	8.625058
1823.000000	8.654732
1822.000000	8.646042
1821.000000	8.608510
1820.000000	8.548330
1819.000000	8.512462
1818.000000	8.530396
1817.000000	8.546019
1816.000000	8.540380
1815.000000	8.526883
1814.000000	8.524479
1813.000000	8.531598
1812.000000	8.518933
1811.000000	8.495822
1810.000000	8.478720
1809.000000	8.482048
1808.000000	8.478443
1807.000000	8.450063
1806.000000	8.410404
1805.000000	8.382949
1804.000000	8.373150
1803.000000	8.370191
1802.000000	8.357619
1801.000000	8.322213
1800.000000	8.285513
1799.000000	8.255377
1798.000000	8.244191
1797.000000	8.235779
1796.000000	8.229030
1795.000000	8.204163
1794.000000	8.181792
1793.000000	8.153782
1792.000000	8.135478
1791.000000	8.124015
1790.000000	8.103585
1789.000000	8.074003
1788.000000	8.060691
1787.000000	8.033328
1786.000000	7.994964
1785.000000	7.953827
1784.000000	7.927480
1783.000000	7.896697
1782.000000	7.857501
1781.000000	7.841046
1780.000000	7.807027
1779.000000	7.765242
1778.000000	7.742224
1777.000000	7.700254
1776.000000	7.647747
1775.000000	7.600693
1774.000000	7.546336
1773.000000	7.486803
1772.000000	7.453708
1771.000000	7.403973
1770.000000	7.351558
1769.000000	7.300252
1768.000000	7.248206
1767.000000	7.226760
1766.000000	7.200043
1765.000000	7.172403
1764.000000	7.156410
1763.000000	7.148830
1762.000000	7.160940
1761.000000	7.173327
1760.000000	7.194312
1759.000000	7.221953
1758.000000	7.261149
1757.000000	7.282410
1756.000000	7.300992
1755.000000	7.314766
1754.000000	7.316430
1753.000000	7.312547
1752.000000	7.305059
1751.000000	7.293411
1750.000000	7.253291
1749.000000	7.251350
1748.000000	7.222507
1747.000000	7.171478
1746.000000	7.130711
1745.000000	7.081716
1744.000000	7.035494
1743.000000	6.940462
1742.000000	6.866878
1741.000000	6.782477
1740.000000	6.693454
1739.000000	6.632071
1738.000000	6.566622
1737.000000	6.526594
1736.000000	6.458555
1735.000000	6.445613
1734.000000	6.421670
1733.000000	6.424813
1732.000000	6.461791
1731.000000	6.487767
1730.000000	6.520030
1729.000000	6.551738
1728.000000	6.600733
1727.000000	6.626617
1726.000000	6.652132
1725.000000	6.679957
1724.000000	6.676999
1723.000000	6.705379
1722.000000	6.711295
1721.000000	6.726271
1720.000000	6.737642
1719.000000	6.741617
1718.000000	6.742911
1717.000000	6.780720
1716.000000	6.806512
1715.000000	6.811874
1714.000000	6.869004
1713.000000	6.907645
1712.000000	6.901174
1711.000000	6.929277
1710.000000	6.924285
1709.000000	6.927613
1708.000000	6.928815
1707.000000	6.903485
1706.000000	6.905334
1705.000000	6.889156
1704.000000	6.897014
1703.000000	6.851070
1702.000000	6.804663
1701.000000	6.741247
1700.000000	6.685226
1699.000000	6.632534
1698.000000	6.598052
1697.000000	6.530199
1696.000000	6.534544
1695.000000	6.527241
1694.000000	6.545452
1693.000000	6.565235
1692.000000	6.610994
1691.000000	6.658510
1690.000000	6.700110
1689.000000	6.727843
1688.000000	6.732650
1687.000000	6.743003
1686.000000	6.735238
1685.000000	6.722111
1684.000000	6.770736
1683.000000	6.838220
1682.000000	6.948228
1681.000000	7.107323
1680.000000	7.304504
1679.000000	7.511393
1678.000000	7.697389
1677.000000	7.860181
1676.000000	8.014469
1675.000000	8.151470
1674.000000	8.270260
1673.000000	8.356048
1672.000000	8.442575
1671.000000	8.511537
1670.000000	8.584105
1669.000000	8.647706
1668.000000	8.689491
1667.000000	8.749856
1666.000000	8.779900
1665.000000	8.828156
1664.000000	8.846829
1663.000000	8.882605
1662.000000	8.904976
1661.000000	8.907472
1660.000000	8.933449
1659.000000	8.945282
1658.000000	8.958224
1657.000000	8.960073
1656.000000	8.956282
1655.000000	8.965712
1654.000000	8.947962
1653.000000	8.947685
1652.000000	8.944912
1651.000000	8.916532
1650.000000	8.902850
1649.000000	8.908582
1648.000000	8.891295
1647.000000	8.864948
1646.000000	8.848586
1645.000000	8.819374
1644.000000	8.806339
1643.000000	8.774261
1642.000000	8.750966
1641.000000	8.732939
1640.000000	8.712787
1639.000000	8.686440
1638.000000	8.680431
1637.000000	8.641883
1636.000000	8.602224
1635.000000	8.582904
1634.000000	8.562936
1633.000000	8.534001
1632.000000	8.514033
1631.000000	8.475762
1630.000000	8.462358
1629.000000	8.428061
1628.000000	8.387294
1627.000000	8.366309
1626.000000	8.334231
1625.000000	8.305666
1624.000000	8.292447
1623.000000	8.261940
1622.000000	8.250108
1621.000000	8.211374
1620.000000	8.169867
1619.000000	8.138991
1618.000000	8.122258
1617.000000	8.106451
1616.000000	8.095450
1615.000000	8.073818
1614.000000	8.049598
1613.000000	8.027042
1612.000000	7.993392
1611.000000	7.973702
1610.000000	7.955860
1609.000000	7.936632
1608.000000	7.915093
1607.000000	7.889301
1606.000000	7.864804
1605.000000	7.850013
1604.000000	7.833743
1603.000000	7.815162
1602.000000	7.794639
1601.000000	7.772268
1600.000000	7.760897
1599.000000	7.741299
1598.000000	7.731870
1597.000000	7.704137
1596.000000	7.685371
1595.000000	7.680102
1594.000000	7.667437
1593.000000	7.643494
1592.000000	7.634065
1591.000000	7.630829
1590.000000	7.615946
1589.000000	7.603928
1588.000000	7.587289
1587.000000	7.578876
1586.000000	7.577490
1585.000000	7.574716
1584.000000	7.571758
1583.000000	7.564548
