PE UV       SUBTECH     SPECTRUM    ASCII       PEDS        4.00        
   -1
CICIMAUCR0015-1.Sample.ASC
24/03/08
11:15:04.00
24/03/08
11:15:04.00
Vinicio Soto Monge
C. resplendens
250,000000
1
Lambda 1050
1050L1511233
PerkinElmer UV WinLab 6.3.2.0749 / 2.02.05 Lambda 900 UV/VIS/NIR, Aug  7 2015 09:38:08

0
0
3350/servo 860,8/2
0
0
UV/VIS
1
1
1
DoubleDePol,CommonBeamDepol,RBeamAtt,SBeamAtt,60mm sphere, WB InGaAs Detector
0
0
0
0
Program
Program
3350/servo 860,8/2
3350/0,2 860,8/0,2
3350/0,2 860,8/0,2
0
15.00
 
 
 
0
 
860,8
319,2
860,8
Front
100
on
S:100 R:100
0
0
0
0
 
0
 
 
 
0
 
 
0
0
0
0
0
 
 
 
 
0
0


0
0
#HDR
-1
-1
#GR
nm
%R
1.0
0.0
2500,000000
-1,000000
2251
8
23,608200
1,584400
#DATA
2500.000000	1.841661
2499.000000	1.743583
2498.000000	1.727972
2497.000000	1.716203
2496.000000	1.765896
2495.000000	1.690376
2494.000000	1.670924
2493.000000	1.662424
2492.000000	1.659073
2491.000000	1.700102
2490.000000	1.572028
2489.000000	1.624337
2488.000000	1.656294
2487.000000	1.680977
2486.000000	1.658746
2485.000000	1.621394
2484.000000	1.646404
2483.000000	1.612485
2482.000000	1.608644
2481.000000	1.619433
2480.000000	1.642318
2479.000000	1.596466
2478.000000	1.613385
2477.000000	1.601860
2476.000000	1.620250
2475.000000	1.581918
2474.000000	1.624827
2473.000000	1.617716
2472.000000	1.599081
2471.000000	1.605947
2470.000000	1.601125
2469.000000	1.617226
2468.000000	1.643135
2467.000000	1.580365
2466.000000	1.605293
2465.000000	1.605293
2464.000000	1.615510
2463.000000	1.627115
2462.000000	1.625481
2461.000000	1.622702
2460.000000	1.615510
2459.000000	1.631120
2458.000000	1.609788
2457.000000	1.643053
2456.000000	1.635943
2455.000000	1.647303
2454.000000	1.650409
2453.000000	1.670760
2452.000000	1.671005
2451.000000	1.678116
2450.000000	1.663731
2449.000000	1.683102
2448.000000	1.697650
2447.000000	1.713506
2446.000000	1.735737
2445.000000	1.734348
2444.000000	1.754535
2443.000000	1.757396
2442.000000	1.761891
2441.000000	1.761646
2440.000000	1.781425
2439.000000	1.798916
2438.000000	1.809622
2437.000000	1.801041
2436.000000	1.808642
2435.000000	1.820329
2434.000000	1.825478
2433.000000	1.835940
2432.000000	1.856128
2431.000000	1.856782
2430.000000	1.863892
2429.000000	1.882200
2428.000000	1.885633
2427.000000	1.910316
2426.000000	1.907782
2425.000000	1.919552
2424.000000	1.939821
2423.000000	1.965812
2422.000000	1.963769
2421.000000	1.964586
2420.000000	1.982730
2419.000000	1.996053
2418.000000	1.999158
2417.000000	2.003899
2416.000000	2.003081
2415.000000	2.009293
2414.000000	2.020490
2413.000000	2.021308
2412.000000	2.034466
2411.000000	2.048770
2410.000000	2.054409
2409.000000	2.052938
2408.000000	2.054736
2407.000000	2.066669
2406.000000	2.070020
2405.000000	2.074433
2404.000000	2.082688
2403.000000	2.085385
2402.000000	2.102549
2401.000000	2.102059
2400.000000	2.096583
2399.000000	2.100261
2398.000000	2.107616
2397.000000	2.130256
2396.000000	2.141944
2395.000000	2.138021
2394.000000	2.136468
2393.000000	2.138184
2392.000000	2.146929
2391.000000	2.146357
2390.000000	2.153713
2389.000000	2.158127
2388.000000	2.159271
2387.000000	2.170141
2386.000000	2.182564
2385.000000	2.180930
2384.000000	2.172348
2383.000000	2.177170
2382.000000	2.179622
2381.000000	2.171776
2380.000000	2.181911
2379.000000	2.196541
2378.000000	2.185425
2377.000000	2.179132
2376.000000	2.182891
2375.000000	2.183545
2374.000000	2.189021
2373.000000	2.182891
2372.000000	2.177170
2371.000000	2.171367
2370.000000	2.162704
2369.000000	2.163603
2368.000000	2.167607
2367.000000	2.163930
2366.000000	2.161069
2365.000000	2.163357
2364.000000	2.166954
2363.000000	2.151588
2362.000000	2.136713
2361.000000	2.136876
2360.000000	2.127314
2359.000000	2.119958
2358.000000	2.115626
2357.000000	2.106309
2356.000000	2.092986
2355.000000	2.085140
2354.000000	2.077457
2353.000000	2.082034
2352.000000	2.080481
2351.000000	2.070674
2350.000000	2.073698
2349.000000	2.076231
2348.000000	2.081054
2347.000000	2.092333
2346.000000	2.100506
2345.000000	2.101977
2344.000000	2.111458
2343.000000	2.117261
2342.000000	2.131727
2341.000000	2.135977
2340.000000	2.143824
2339.000000	2.146194
2338.000000	2.153550
2337.000000	2.166790
2336.000000	2.159516
2335.000000	2.160252
2334.000000	2.159107
2333.000000	2.162949
2332.000000	2.171858
2331.000000	2.156819
2330.000000	2.158862
2329.000000	2.151016
2328.000000	2.135896
2327.000000	2.139737
2326.000000	2.122246
2325.000000	2.108270
2324.000000	2.099770
2323.000000	2.071900
2322.000000	2.068467
2321.000000	2.070837
2320.000000	2.055962
2319.000000	2.048688
2318.000000	2.031361
2317.000000	2.003899
2316.000000	1.982403
2315.000000	1.988206
2314.000000	1.978317
2313.000000	1.963115
2312.000000	1.948321
2311.000000	1.925845
2310.000000	1.914403
2309.000000	1.909662
2308.000000	1.907537
2307.000000	1.905167
2306.000000	1.899609
2305.000000	1.901734
2304.000000	1.905330
2303.000000	1.907619
2302.000000	1.903287
2301.000000	1.906066
2300.000000	1.912604
2299.000000	1.911624
2298.000000	1.932629
2297.000000	1.920941
2296.000000	1.926744
2295.000000	1.943744
2294.000000	1.944643
2293.000000	1.954696
2292.000000	1.971370
2291.000000	1.969163
2290.000000	1.975701
2289.000000	1.960663
2288.000000	1.958292
2287.000000	1.958292
2286.000000	1.970634
2285.000000	1.959437
2284.000000	1.945869
2283.000000	1.955595
2282.000000	1.943090
2281.000000	1.935081
2280.000000	1.946441
2279.000000	1.930912
2278.000000	1.921431
2277.000000	1.918898
2276.000000	1.894869
2275.000000	1.903614
2274.000000	1.911951
2273.000000	1.902633
2272.000000	1.900099
2271.000000	1.889393
2270.000000	1.881465
2269.000000	1.884897
2268.000000	1.889066
2267.000000	1.896258
2266.000000	1.879993
2265.000000	1.889556
2264.000000	1.905249
2263.000000	1.917427
2262.000000	1.903205
2261.000000	1.921758
2260.000000	1.928215
2259.000000	1.956331
2258.000000	1.977009
2257.000000	1.994500
2256.000000	1.988860
2255.000000	2.025313
2254.000000	2.029317
2253.000000	2.066914
2252.000000	2.079255
2251.000000	2.097727
2250.000000	2.116934
2249.000000	2.134016
2248.000000	2.160579
2247.000000	2.173165
2246.000000	2.187877
2245.000000	2.203978
2244.000000	2.222695
2243.000000	2.237815
2242.000000	2.249257
2241.000000	2.237243
2240.000000	2.279416
2239.000000	2.284157
2238.000000	2.291595
2237.000000	2.300585
2236.000000	2.307369
2235.000000	2.301566
2234.000000	2.332460
2233.000000	2.324205
2232.000000	2.320773
2231.000000	2.335403
2230.000000	2.328946
2229.000000	2.319220
2228.000000	2.321835
2227.000000	2.301239
2226.000000	2.300176
2225.000000	2.282686
2224.000000	2.266094
2223.000000	2.250647
2222.000000	2.236671
2221.000000	2.234873
2220.000000	2.225555
2219.000000	2.192045
2218.000000	2.190901
2217.000000	2.182319
2216.000000	2.148973
2215.000000	2.162704
2214.000000	2.145867
2213.000000	2.132545
2212.000000	2.127477
2211.000000	2.135405
2210.000000	2.143251
2209.000000	2.143088
2208.000000	2.149626
2207.000000	2.167035
2206.000000	2.191555
2205.000000	2.190492
2204.000000	2.214685
2203.000000	2.257839
2202.000000	2.278272
2201.000000	2.289143
2200.000000	2.326085
2199.000000	2.381663
2198.000000	2.402586
2197.000000	2.437567
2196.000000	2.471650
2195.000000	2.498458
2194.000000	2.531804
2193.000000	2.560002
2192.000000	2.593757
2191.000000	2.612964
2190.000000	2.632988
2189.000000	2.642551
2188.000000	2.663637
2187.000000	2.689873
2186.000000	2.689955
2185.000000	2.711859
2184.000000	2.712431
2183.000000	2.728859
2182.000000	2.751581
2181.000000	2.759999
2180.000000	2.765884
2179.000000	2.776100
2178.000000	2.786153
2177.000000	2.779043
2176.000000	2.781086
2175.000000	2.791139
2174.000000	2.802500
2173.000000	2.810264
2172.000000	2.831106
2171.000000	2.829471
2170.000000	2.835029
2169.000000	2.846144
2168.000000	2.850149
2167.000000	2.851293
2166.000000	2.870991
2165.000000	2.882924
2164.000000	2.892405
2163.000000	2.903275
2162.000000	2.908179
2161.000000	2.921910
2160.000000	2.925833
2159.000000	2.935804
2158.000000	2.947982
2157.000000	2.955828
2156.000000	2.977732
2155.000000	2.984761
2154.000000	2.987377
2153.000000	3.003478
2152.000000	3.008382
2151.000000	3.033964
2150.000000	3.041320
2149.000000	3.061508
2148.000000	3.053498
2147.000000	3.072541
2146.000000	3.078344
2145.000000	3.101229
2144.000000	3.117249
2143.000000	3.122561
2142.000000	3.128446
2141.000000	3.146999
2140.000000	3.146999
2139.000000	3.149860
2138.000000	3.168249
2137.000000	3.182062
2136.000000	3.192360
2135.000000	3.203557
2134.000000	3.200615
2133.000000	3.198572
2132.000000	3.224971
2131.000000	3.226197
2130.000000	3.224971
2129.000000	3.228976
2128.000000	3.237558
2127.000000	3.235433
2126.000000	3.228649
2125.000000	3.231183
2124.000000	3.233471
2123.000000	3.234697
2122.000000	3.240337
2121.000000	3.233471
2120.000000	3.229548
2119.000000	3.237803
2118.000000	3.252760
2117.000000	3.251125
2116.000000	3.236087
2115.000000	3.235106
2114.000000	3.229303
2113.000000	3.234697
2112.000000	3.228322
2111.000000	3.221130
2110.000000	3.221048
2109.000000	3.226769
2108.000000	3.211649
2107.000000	3.200942
2106.000000	3.196855
2105.000000	3.204947
2104.000000	3.216798
2103.000000	3.205192
2102.000000	3.198817
2101.000000	3.195057
2100.000000	3.196692
2099.000000	3.197836
2098.000000	3.188192
2097.000000	3.177567
2096.000000	3.172172
2095.000000	3.182144
2094.000000	3.193913
2093.000000	3.188764
2092.000000	3.170783
2091.000000	3.167514
2090.000000	3.173317
2089.000000	3.175605
2088.000000	3.179692
2087.000000	3.173071
2086.000000	3.167350
2085.000000	3.162446
2084.000000	3.163345
2083.000000	3.157788
2082.000000	3.157542
2081.000000	3.167432
2080.000000	3.152802
2079.000000	3.146754
2078.000000	3.154600
2077.000000	3.147489
2076.000000	3.143321
2075.000000	3.132042
2074.000000	3.122806
2073.000000	3.117821
2072.000000	3.116676
2071.000000	3.105397
2070.000000	3.097551
2069.000000	3.092075
2068.000000	3.079815
2067.000000	3.065512
2066.000000	3.067147
2065.000000	3.064859
2064.000000	3.046305
2063.000000	3.033800
2062.000000	3.028324
2061.000000	3.005930
2060.000000	2.997348
2059.000000	2.991463
2058.000000	2.987704
2057.000000	2.984925
2056.000000	2.980920
2055.000000	2.973646
2054.000000	2.966290
2053.000000	2.983290
2052.000000	3.000290
2051.000000	2.983617
2050.000000	2.989011
2049.000000	3.006747
2048.000000	3.018517
2047.000000	3.045161
2046.000000	3.068700
2045.000000	3.093138
2044.000000	3.114224
2043.000000	3.141032
2042.000000	3.168167
2041.000000	3.197264
2040.000000	3.229711
2039.000000	3.252596
2038.000000	3.281039
2037.000000	3.316184
2036.000000	3.338496
2035.000000	3.355905
2034.000000	3.383694
2033.000000	3.395136
2032.000000	3.425377
2031.000000	3.433877
2030.000000	3.451777
2029.000000	3.476051
2028.000000	3.507436
2027.000000	3.504575
2026.000000	3.530157
2025.000000	3.537758
2024.000000	3.566855
2023.000000	3.575927
2022.000000	3.589413
2021.000000	3.596442
2020.000000	3.609927
2019.000000	3.620961
2018.000000	3.638043
2017.000000	3.651529
2016.000000	3.667957
2015.000000	3.684385
2014.000000	3.677438
2013.000000	3.700650
2012.000000	3.699914
2011.000000	3.700241
2010.000000	3.719938
2009.000000	3.725660
2008.000000	3.726640
2007.000000	3.740208
2006.000000	3.751814
2005.000000	3.752304
2004.000000	3.745112
2003.000000	3.741107
2002.000000	3.745520
2001.000000	3.744621
2000.000000	3.742742
1999.000000	3.741025
1998.000000	3.733506
1997.000000	3.722390
1996.000000	3.715525
1995.000000	3.714299
1994.000000	3.719693
1993.000000	3.697054
1992.000000	3.690106
1991.000000	3.674496
1990.000000	3.651611
1989.000000	3.644010
1988.000000	3.648832
1987.000000	3.628726
1986.000000	3.618509
1985.000000	3.599139
1984.000000	3.590394
1983.000000	3.579523
1982.000000	3.567182
1981.000000	3.555576
1980.000000	3.527951
1979.000000	3.517080
1978.000000	3.493623
1977.000000	3.503758
1976.000000	3.492642
1975.000000	3.465181
1974.000000	3.461748
1973.000000	3.447608
1972.000000	3.440579
1971.000000	3.412055
1970.000000	3.419656
1969.000000	3.407805
1968.000000	3.384511
1967.000000	3.397098
1966.000000	3.377155
1965.000000	3.355170
1964.000000	3.333266
1963.000000	3.336943
1962.000000	3.336698
1961.000000	3.331631
1960.000000	3.315039
1959.000000	3.295179
1958.000000	3.282837
1957.000000	3.278505
1956.000000	3.273356
1955.000000	3.240173
1954.000000	3.243688
1953.000000	3.223745
1952.000000	3.222437
1951.000000	3.222683
1950.000000	3.215899
1949.000000	3.187456
1948.000000	3.191134
1947.000000	3.183942
1946.000000	3.173643
1945.000000	3.180754
1944.000000	3.189091
1943.000000	3.171110
1942.000000	3.169475
1941.000000	3.169884
1940.000000	3.183778
1939.000000	3.171355
1938.000000	3.172091
1937.000000	3.173643
1936.000000	3.167759
1935.000000	3.189254
1934.000000	3.191543
1933.000000	3.188600
1932.000000	3.201024
1931.000000	3.221783
1930.000000	3.236659
1929.000000	3.250471
1928.000000	3.271885
1927.000000	3.281039
1926.000000	3.303679
1925.000000	3.315775
1924.000000	3.357540
1923.000000	3.393011
1922.000000	3.411074
1921.000000	3.421536
1920.000000	3.439599
1919.000000	3.462729
1918.000000	3.496729
1917.000000	3.525662
1916.000000	3.576499
1915.000000	3.617447
1914.000000	3.651120
1913.000000	3.679481
1912.000000	3.712991
1911.000000	3.738410
1910.000000	3.769059
1909.000000	3.841474
1908.000000	3.902118
1907.000000	3.948215
1906.000000	3.996273
1905.000000	4.022755
1904.000000	4.071712
1903.000000	4.128025
1902.000000	4.191122
1901.000000	4.242776
1900.000000	4.290181
1899.000000	4.322301
1898.000000	4.375427
1897.000000	4.423485
1896.000000	4.499496
1895.000000	4.570112
1894.000000	4.636233
1893.000000	4.705378
1892.000000	4.761037
1891.000000	4.796836
1890.000000	4.860178
1889.000000	4.927198
1888.000000	4.996506
1887.000000	5.078974
1886.000000	5.187514
1885.000000	5.274149
1884.000000	5.380319
1883.000000	5.494416
1882.000000	5.609004
1881.000000	5.741818
1880.000000	5.898661
1879.000000	6.021259
1878.000000	6.143938
1877.000000	6.274954
1876.000000	6.377201
1875.000000	6.482553
1874.000000	6.568780
1873.000000	6.643074
1872.000000	6.699387
1871.000000	6.734123
1870.000000	6.762811
1869.000000	6.781282
1868.000000	6.803922
1867.000000	6.817244
1866.000000	6.845524
1865.000000	6.879279
1864.000000	6.922351
1863.000000	6.959294
1862.000000	6.984958
1861.000000	6.989780
1860.000000	6.978092
1859.000000	6.956270
1858.000000	6.927746
1857.000000	6.921534
1856.000000	6.919818
1855.000000	6.892765
1854.000000	6.869308
1853.000000	6.829831
1852.000000	6.818716
1851.000000	6.842745
1850.000000	6.851000
1849.000000	6.807845
1848.000000	6.723498
1847.000000	6.650021
1846.000000	6.621007
1845.000000	6.638252
1844.000000	6.672988
1843.000000	6.680344
1842.000000	6.642093
1841.000000	6.593708
1840.000000	6.570251
1839.000000	6.571150
1838.000000	6.559136
1837.000000	6.506255
1836.000000	6.451904
1835.000000	6.421663
1834.000000	6.415288
1833.000000	6.415615
1832.000000	6.407768
1831.000000	6.374504
1830.000000	6.333474
1829.000000	6.301354
1828.000000	6.263839
1827.000000	6.225752
1826.000000	6.198126
1825.000000	6.188237
1824.000000	6.213819
1823.000000	6.243161
1822.000000	6.218233
1821.000000	6.163472
1820.000000	6.129554
1819.000000	6.116150
1818.000000	6.122606
1817.000000	6.135765
1816.000000	6.134212
1815.000000	6.128246
1814.000000	6.134866
1813.000000	6.138544
1812.000000	6.121789
1811.000000	6.098741
1810.000000	6.074139
1809.000000	6.081332
1808.000000	6.081250
1807.000000	6.060981
1806.000000	6.040793
1805.000000	6.024283
1804.000000	6.010634
1803.000000	6.004177
1802.000000	5.978513
1801.000000	5.950643
1800.000000	5.938955
1799.000000	5.928739
1798.000000	5.905936
1797.000000	5.902421
1796.000000	5.894738
1795.000000	5.882887
1794.000000	5.863353
1793.000000	5.855344
1792.000000	5.842839
1791.000000	5.809656
1790.000000	5.784482
1789.000000	5.760290
1788.000000	5.750318
1787.000000	5.724328
1786.000000	5.696048
1785.000000	5.679293
1784.000000	5.648889
1783.000000	5.625759
1782.000000	5.604918
1781.000000	5.574186
1780.000000	5.543047
1779.000000	5.522205
1778.000000	5.479296
1777.000000	5.454613
1776.000000	5.406718
1775.000000	5.375088
1774.000000	5.331607
1773.000000	5.279380
1772.000000	5.241620
1771.000000	5.201817
1770.000000	5.153186
1769.000000	5.119513
1768.000000	5.076930
1767.000000	5.036964
1766.000000	5.009257
1765.000000	4.976319
1764.000000	4.970025
1763.000000	4.974357
1762.000000	4.966021
1761.000000	4.996343
1760.000000	4.998468
1759.000000	5.027401
1758.000000	5.058704
1757.000000	5.067368
1756.000000	5.067940
1755.000000	5.083796
1754.000000	5.104147
1753.000000	5.085512
1752.000000	5.069902
1751.000000	5.077094
1750.000000	5.061075
1749.000000	5.034185
1748.000000	4.999367
1747.000000	4.971660
1746.000000	4.931530
1745.000000	4.881183
1744.000000	4.833043
1743.000000	4.770682
1742.000000	4.718619
1741.000000	4.647594
1740.000000	4.601906
1739.000000	4.529900
1738.000000	4.459611
1737.000000	4.421932
1736.000000	4.367172
1735.000000	4.339628
1734.000000	4.342407
1733.000000	4.318705
1732.000000	4.333499
1731.000000	4.344205
1730.000000	4.378860
1729.000000	4.419889
1728.000000	4.430351
1727.000000	4.460183
1726.000000	4.468928
1725.000000	4.503255
1724.000000	4.507342
1723.000000	4.520010
1722.000000	4.533006
1721.000000	4.522217
1720.000000	4.552540
1719.000000	4.543713
1718.000000	4.556953
1717.000000	4.579348
1716.000000	4.597982
1715.000000	4.620377
1714.000000	4.624382
1713.000000	4.661406
1712.000000	4.663613
1711.000000	4.691647
1710.000000	4.678570
1709.000000	4.704969
1708.000000	4.690503
1707.000000	4.693527
1706.000000	4.680858
1705.000000	4.678733
1704.000000	4.671459
1703.000000	4.637704
1702.000000	4.640728
1701.000000	4.584824
1700.000000	4.579184
1699.000000	4.532679
1698.000000	4.510203
1697.000000	4.483231
1696.000000	4.476366
1695.000000	4.484702
1694.000000	4.508241
1693.000000	4.553439
1692.000000	4.603377
1691.000000	4.608199
1690.000000	4.656584
1689.000000	4.689686
1688.000000	4.688214
1687.000000	4.703743
1686.000000	4.689113
1685.000000	4.709219
1684.000000	4.730551
1683.000000	4.810240
1682.000000	4.890255
1681.000000	5.027319
1680.000000	5.188413
1679.000000	5.328010
1678.000000	5.487551
1677.000000	5.615870
1676.000000	5.763559
1675.000000	5.859757
1674.000000	5.967725
1673.000000	6.061062
1672.000000	6.141977
1671.000000	6.212920
1670.000000	6.253868
1669.000000	6.307974
1668.000000	6.361263
1667.000000	6.411855
1666.000000	6.435802
1665.000000	6.470048
1664.000000	6.480510
1663.000000	6.511649
1662.000000	6.527424
1661.000000	6.544506
1660.000000	6.558237
1659.000000	6.580549
1658.000000	6.575891
1657.000000	6.581612
1656.000000	6.569761
1655.000000	6.582184
1654.000000	6.582511
1653.000000	6.572458
1652.000000	6.567554
1651.000000	6.557746
1650.000000	6.544260
1649.000000	6.550063
1648.000000	6.534453
1647.000000	6.510097
1646.000000	6.500125
1645.000000	6.485414
1644.000000	6.461957
1643.000000	6.436129
1642.000000	6.416187
1641.000000	6.407932
1640.000000	6.366330
1639.000000	6.352191
1638.000000	6.330859
1637.000000	6.313041
1636.000000	6.293671
1635.000000	6.275853
1634.000000	6.254276
1633.000000	6.231718
1632.000000	6.202377
1631.000000	6.190852
1630.000000	6.152030
1629.000000	6.118193
1628.000000	6.098414
1627.000000	6.077164
1626.000000	6.042918
1625.000000	6.026817
1624.000000	6.000908
1623.000000	5.967153
1622.000000	5.950152
1621.000000	5.919993
1620.000000	5.906262
1619.000000	5.875286
1618.000000	5.858858
1617.000000	5.812026
1616.000000	5.783992
1615.000000	5.766992
1614.000000	5.753179
1613.000000	5.737895
1612.000000	5.724655
1611.000000	5.698337
1610.000000	5.667361
1609.000000	5.642923
1608.000000	5.626822
1607.000000	5.620610
1606.000000	5.583586
1605.000000	5.552691
1604.000000	5.539369
1603.000000	5.521633
1602.000000	5.508311
1601.000000	5.489594
1600.000000	5.463767
1599.000000	5.449219
1598.000000	5.430829
1597.000000	5.412358
1596.000000	5.394050
1595.000000	5.371737
1594.000000	5.353919
1593.000000	5.353838
1592.000000	5.336347
1591.000000	5.323352
1590.000000	5.320655
1589.000000	5.306106
1588.000000	5.292539
1587.000000	5.279053
1586.000000	5.268428
1585.000000	5.269981
1584.000000	5.266385
1583.000000	5.252817
