PE UV       SUBTECH     SPECTRUM    ASCII       PEDS        4.00        
   -1
CICIMAUCR0239-2.ASC
24/06/20
13:57:00.00
24/06/20
13:57:00.00
Vinicio Soto Monge
C. cupreomarginata. Sex M. Ventral 
250,000000
1
Lambda 1050
1050L1511233
PerkinElmer UV WinLab 6.3.2.0749 / 2.02.05 Lambda 900 UV/VIS/NIR, Aug  7 2015 09:38:08

0
0
3350/servo 860,8/2
0
0
UV/VIS
1
1
1
DoubleDePol,CommonBeamDepol,RBeamAtt,SBeamAtt,60mm sphere, WB InGaAs Detector
0
0
0
0
Program
Program
3350/servo 860,8/2
3350/0,2 860,8/0,2
3350/0,2 860,8/0,2
0
15.00
 
 
 
0
 
860,8
319,2
860,8
Front
100
on
S:100 R:100
0
0
0
0
 
0
 
 
 
0
 
 
0
0
0
0
0
 
 
 
 
0
0


0
0
#HDR
-1
-1
#GR
nm
%R
1.0
0.0
2500,000000
-1,000000
2251
8
59,763500
4,030600
#DATA
2482.000000	5.685001
2481.000000	5.783059
2480.000000	5.722684
2479.000000	5.766322
2478.000000	5.773510
2477.000000	5.751639
2476.000000	5.727305
2475.000000	5.760880
2474.000000	5.688081
2473.000000	5.707796
2472.000000	5.766220
2471.000000	5.729358
2470.000000	5.759854
2469.000000	5.756465
2468.000000	5.773818
2467.000000	5.748867
2466.000000	5.741782
2465.000000	5.751537
2464.000000	5.754206
2463.000000	5.753077
2462.000000	5.785010
2461.000000	5.755438
2460.000000	5.767246
2459.000000	5.785318
2458.000000	5.800412
2457.000000	5.810782
2456.000000	5.838608
2455.000000	5.856679
2454.000000	5.874135
2453.000000	5.878447
2452.000000	5.903295
2451.000000	5.927938
2450.000000	5.945702
2449.000000	5.964081
2448.000000	6.001867
2447.000000	6.032054
2446.000000	6.064501
2445.000000	6.086577
2444.000000	6.091505
2443.000000	6.104853
2442.000000	6.139148
2441.000000	6.161327
2440.000000	6.187818
2439.000000	6.216054
2438.000000	6.250657
2437.000000	6.258152
2436.000000	6.270166
2435.000000	6.284541
2434.000000	6.315344
2433.000000	6.332594
2432.000000	6.364835
2431.000000	6.381161
2430.000000	6.397179
2429.000000	6.407960
2428.000000	6.420282
2427.000000	6.452831
2426.000000	6.445335
2425.000000	6.481684
2424.000000	6.513925
2423.000000	6.511768
2422.000000	6.534768
2421.000000	6.545447
2420.000000	6.552942
2419.000000	6.565161
2418.000000	6.578201
2417.000000	6.581590
2416.000000	6.588777
2415.000000	6.593603
2414.000000	6.633032
2413.000000	6.656545
2412.000000	6.645866
2411.000000	6.657880
2410.000000	6.679237
2409.000000	6.683036
2408.000000	6.678005
2407.000000	6.692996
2406.000000	6.713224
2405.000000	6.720719
2404.000000	6.732424
2403.000000	6.749777
2402.000000	6.757273
2401.000000	6.781915
2400.000000	6.780991
2399.000000	6.779040
2398.000000	6.796290
2397.000000	6.798344
2396.000000	6.803478
2395.000000	6.785509
2394.000000	6.780067
2393.000000	6.798960
2392.000000	6.821960
2391.000000	6.827094
2390.000000	6.828223
2389.000000	6.840853
2388.000000	6.846808
2387.000000	6.837259
2386.000000	6.833665
2385.000000	6.836130
2384.000000	6.843317
2383.000000	6.843317
2382.000000	6.853380
2381.000000	6.852250
2380.000000	6.814567
2379.000000	6.806250
2378.000000	6.824424
2377.000000	6.822473
2376.000000	6.814157
2375.000000	6.805942
2374.000000	6.798139
2373.000000	6.795572
2372.000000	6.786228
2371.000000	6.760866
2370.000000	6.743924
2369.000000	6.731911
2368.000000	6.728112
2367.000000	6.706344
2366.000000	6.666916
2365.000000	6.656134
2364.000000	6.646174
2363.000000	6.616911
2362.000000	6.595965
2361.000000	6.577175
2360.000000	6.563313
2359.000000	6.538157
2358.000000	6.510023
2357.000000	6.496675
2356.000000	6.475523
2355.000000	6.457759
2354.000000	6.451496
2353.000000	6.441434
2352.000000	6.431474
2351.000000	6.435273
2350.000000	6.437224
2349.000000	6.443795
2348.000000	6.459608
2347.000000	6.463509
2346.000000	6.463099
2345.000000	6.478603
2344.000000	6.481375
2343.000000	6.490822
2342.000000	6.509817
2341.000000	6.535795
2340.000000	6.548117
2339.000000	6.548425
2338.000000	6.539492
2337.000000	6.545242
2336.000000	6.565777
2335.000000	6.555099
2334.000000	6.551197
2333.000000	6.556947
2332.000000	6.531688
2331.000000	6.526349
2330.000000	6.517416
2329.000000	6.493286
2328.000000	6.477474
2327.000000	6.452112
2326.000000	6.429728
2325.000000	6.401286
2324.000000	6.381572
2323.000000	6.353849
2322.000000	6.323867
2321.000000	6.295733
2320.000000	6.271501
2319.000000	6.235666
2318.000000	6.199112
2317.000000	6.165434
2316.000000	6.126621
2315.000000	6.094483
2314.000000	6.065836
2313.000000	6.035032
2312.000000	5.998478
2311.000000	5.969934
2310.000000	5.948063
2309.000000	5.923626
2308.000000	5.902166
2307.000000	5.884711
2306.000000	5.886867
2305.000000	5.879166
2304.000000	5.884813
2303.000000	5.893746
2302.000000	5.896416
2301.000000	5.920648
2300.000000	5.937795
2299.000000	5.941287
2298.000000	5.952376
2297.000000	6.006077
2296.000000	6.043862
2295.000000	6.059367
2294.000000	6.094175
2293.000000	6.101773
2292.000000	6.125389
2291.000000	6.145822
2290.000000	6.161224
2289.000000	6.169644
2288.000000	6.184532
2287.000000	6.170362
2286.000000	6.159684
2285.000000	6.159889
2284.000000	6.185353
2283.000000	6.165742
2282.000000	6.160813
2281.000000	6.140072
2280.000000	6.120358
2279.000000	6.097461
2278.000000	6.079697
2277.000000	6.067889
2276.000000	6.047867
2275.000000	6.048483
2274.000000	6.035648
2273.000000	6.032978
2272.000000	6.029385
2271.000000	6.026304
2270.000000	6.021889
2269.000000	6.022300
2268.000000	6.041809
2267.000000	6.061523
2266.000000	6.079184
2265.000000	6.124054
2264.000000	6.150956
2263.000000	6.198085
2262.000000	6.263800
2261.000000	6.294911
2260.000000	6.384652
2259.000000	6.467309
2258.000000	6.537438
2257.000000	6.642991
2256.000000	6.732732
2255.000000	6.802451
2254.000000	6.926076
2253.000000	7.021362
2252.000000	7.124554
2251.000000	7.215527
2250.000000	7.294076
2249.000000	7.411335
2248.000000	7.502513
2247.000000	7.588147
2246.000000	7.648317
2245.000000	7.743500
2244.000000	7.835808
2243.000000	7.887866
2242.000000	7.961794
2241.000000	8.038187
2240.000000	8.080593
2239.000000	8.150107
2238.000000	8.189843
2237.000000	8.232968
2236.000000	8.291495
2235.000000	8.317678
2234.000000	8.369120
2233.000000	8.392325
2232.000000	8.451776
2231.000000	8.466972
2230.000000	8.504245
2229.000000	8.523035
2228.000000	8.524267
2227.000000	8.541414
2226.000000	8.553120
2225.000000	8.566879
2224.000000	8.561745
2223.000000	8.581048
2222.000000	8.565338
2221.000000	8.578789
2220.000000	8.564928
2219.000000	8.537923
2218.000000	8.519030
2217.000000	8.541517
2216.000000	8.534022
2215.000000	8.520365
2214.000000	8.518928
2213.000000	8.513691
2212.000000	8.471285
2211.000000	8.488227
2210.000000	8.471182
2209.000000	8.459990
2208.000000	8.459066
2207.000000	8.443048
2206.000000	8.448593
2205.000000	8.428365
2204.000000	8.421383
2203.000000	8.414093
2202.000000	8.400231
2201.000000	8.406598
2200.000000	8.402490
2199.000000	8.410910
2198.000000	8.352897
2197.000000	8.383495
2196.000000	8.375691
2195.000000	8.370147
2194.000000	8.358749
2193.000000	8.357825
2192.000000	8.360700
2191.000000	8.347147
2190.000000	8.343861
2189.000000	8.323223
2188.000000	8.341089
2187.000000	8.320656
2186.000000	8.322196
2185.000000	8.310490
2184.000000	8.319321
2183.000000	8.299298
2182.000000	8.309053
2181.000000	8.293754
2180.000000	8.292214
2179.000000	8.290057
2178.000000	8.266236
2177.000000	8.282973
2176.000000	8.259973
2175.000000	8.278455
2174.000000	8.266852
2173.000000	8.256379
2172.000000	8.277017
2171.000000	8.273937
2170.000000	8.283589
2169.000000	8.286053
2168.000000	8.290571
2167.000000	8.282151
2166.000000	8.295910
2165.000000	8.301763
2164.000000	8.314906
2163.000000	8.336981
2162.000000	8.345915
2161.000000	8.340781
2160.000000	8.372611
2159.000000	8.382263
2158.000000	8.394995
2157.000000	8.411115
2156.000000	8.404339
2155.000000	8.440379
2154.000000	8.435861
2153.000000	8.459374
2152.000000	8.485865
2151.000000	8.529196
2150.000000	8.545111
2149.000000	8.540798
2148.000000	8.553633
2147.000000	8.580535
2146.000000	8.588441
2145.000000	8.604972
2144.000000	8.615959
2143.000000	8.624173
2142.000000	8.640807
2141.000000	8.668530
2140.000000	8.684138
2139.000000	8.685678
2138.000000	8.697280
2137.000000	8.702722
2136.000000	8.706727
2135.000000	8.705905
2134.000000	8.721102
2133.000000	8.731883
2132.000000	8.731678
2131.000000	8.740816
2130.000000	8.750262
2129.000000	8.743896
2128.000000	8.758887
2127.000000	8.755499
2126.000000	8.725209
2125.000000	8.730240
2124.000000	8.739481
2123.000000	8.733321
2122.000000	8.714736
2121.000000	8.718740
2120.000000	8.701388
2119.000000	8.683829
2118.000000	8.668838
2117.000000	8.653231
2116.000000	8.645017
2115.000000	8.632388
2114.000000	8.612571
2113.000000	8.605280
2112.000000	8.584745
2111.000000	8.556405
2110.000000	8.540696
2109.000000	8.544905
2108.000000	8.512356
2107.000000	8.496544
2106.000000	8.489254
2105.000000	8.467897
2104.000000	8.447977
2103.000000	8.426209
2102.000000	8.426723
2101.000000	8.417481
2100.000000	8.384419
2099.000000	8.368504
2098.000000	8.355977
2097.000000	8.337598
2096.000000	8.327843
2095.000000	8.316651
2094.000000	8.296013
2093.000000	8.270446
2092.000000	8.257919
2091.000000	8.256995
2090.000000	8.244468
2089.000000	8.234098
2088.000000	8.220339
2087.000000	8.204218
2086.000000	8.184915
2085.000000	8.169924
2084.000000	8.149285
2083.000000	8.133370
2082.000000	8.123205
2081.000000	8.115504
2080.000000	8.098973
2079.000000	8.072482
2078.000000	8.062111
2077.000000	8.037674
2076.000000	8.014366
2075.000000	8.003995
2074.000000	7.982741
2073.000000	7.945776
2072.000000	7.920928
2071.000000	7.928424
2070.000000	7.920312
2069.000000	7.881705
2068.000000	7.864968
2067.000000	7.851517
2066.000000	7.820098
2065.000000	7.805518
2064.000000	7.795250
2063.000000	7.779643
2062.000000	7.751714
2061.000000	7.728919
2060.000000	7.728611
2059.000000	7.727174
2058.000000	7.705098
2057.000000	7.703455
2056.000000	7.705201
2055.000000	7.706535
2054.000000	7.713826
2053.000000	7.719678
2052.000000	7.724196
2051.000000	7.739085
2050.000000	7.772455
2049.000000	7.787138
2048.000000	7.806852
2047.000000	7.845665
2046.000000	7.888071
2045.000000	7.910763
2044.000000	7.933866
2043.000000	7.981098
2042.000000	8.024120
2041.000000	8.064986
2040.000000	8.107187
2039.000000	8.132549
2038.000000	8.167459
2037.000000	8.204218
2036.000000	8.242209
2035.000000	8.266749
2034.000000	8.285540
2033.000000	8.306999
2032.000000	8.350227
2031.000000	8.368196
2030.000000	8.379080
2029.000000	8.406906
2028.000000	8.422513
2027.000000	8.452084
2026.000000	8.447258
2025.000000	8.449004
2024.000000	8.474057
2023.000000	8.494182
2022.000000	8.497981
2021.000000	8.516464
2020.000000	8.508968
2019.000000	8.515950
2018.000000	8.514718
2017.000000	8.516361
2016.000000	8.534843
2015.000000	8.506196
2014.000000	8.515539
2013.000000	8.507428
2012.000000	8.517901
2011.000000	8.503013
2010.000000	8.501986
2009.000000	8.465330
2008.000000	8.442432
2007.000000	8.437709
2006.000000	8.436272
2005.000000	8.415633
2004.000000	8.397870
2003.000000	8.377745
2002.000000	8.363062
2001.000000	8.328767
2000.000000	8.314906
1999.000000	8.288312
1998.000000	8.254428
1997.000000	8.239950
1996.000000	8.203089
1995.000000	8.170950
1994.000000	8.155959
1993.000000	8.115504
1992.000000	8.081312
1991.000000	8.056566
1990.000000	8.016933
1989.000000	7.977915
1988.000000	7.934174
1987.000000	7.898750
1986.000000	7.860451
1985.000000	7.827593
1984.000000	7.804799
1983.000000	7.760750
1982.000000	7.736415
1981.000000	7.694317
1980.000000	7.662281
1979.000000	7.622750
1978.000000	7.586196
1977.000000	7.541839
1976.000000	7.506107
1975.000000	7.475303
1974.000000	7.440598
1973.000000	7.428277
1972.000000	7.379812
1971.000000	7.353835
1970.000000	7.329500
1969.000000	7.295103
1968.000000	7.258960
1967.000000	7.207723
1966.000000	7.186880
1965.000000	7.145705
1964.000000	7.125272
1963.000000	7.113362
1962.000000	7.069826
1961.000000	7.054014
1960.000000	7.025777
1959.000000	7.023107
1958.000000	6.972179
1957.000000	6.950719
1956.000000	6.919607
1955.000000	6.909134
1954.000000	6.886031
1953.000000	6.839518
1952.000000	6.826375
1951.000000	6.799987
1950.000000	6.765384
1949.000000	6.772572
1948.000000	6.744746
1947.000000	6.734683
1946.000000	6.724826
1945.000000	6.685706
1944.000000	6.681188
1943.000000	6.669688
1942.000000	6.642991
1941.000000	6.668353
1940.000000	6.638166
1939.000000	6.619170
1938.000000	6.653259
1937.000000	6.611469
1936.000000	6.640424
1935.000000	6.631183
1934.000000	6.623688
1933.000000	6.653465
1932.000000	6.644018
1931.000000	6.661063
1930.000000	6.683447
1929.000000	6.692482
1928.000000	6.721643
1927.000000	6.737250
1926.000000	6.766514
1925.000000	6.792902
1924.000000	6.821447
1923.000000	6.868987
1922.000000	6.886545
1921.000000	6.926898
1920.000000	6.983268
1919.000000	7.049188
1918.000000	7.066848
1917.000000	7.117674
1916.000000	7.189549
1915.000000	7.246125
1914.000000	7.308554
1913.000000	7.385357
1912.000000	7.463393
1911.000000	7.535678
1910.000000	7.612277
1909.000000	7.679839
1908.000000	7.757875
1907.000000	7.866098
1906.000000	7.960459
1905.000000	8.077410
1904.000000	8.181526
1903.000000	8.295807
1902.000000	8.417481
1901.000000	8.532789
1900.000000	8.656620
1899.000000	8.814026
1898.000000	8.969686
1897.000000	9.112102
1896.000000	9.273307
1895.000000	9.454432
1894.000000	9.600851
1893.000000	9.778690
1892.000000	9.961869
1891.000000	10.176056
1890.000000	10.438194
1889.000000	10.669735
1888.000000	10.910824
1887.000000	11.188569
1886.000000	11.485721
1885.000000	11.807515
1884.000000	12.123046
1883.000000	12.518050
1882.000000	12.959260
1881.000000	13.363505
1880.000000	13.821451
1879.000000	14.236683
1878.000000	14.651094
1877.000000	15.098361
1876.000000	15.542651
1875.000000	15.952030
1874.000000	16.373320
1873.000000	16.762575
1872.000000	17.185405
1871.000000	17.562851
1870.000000	17.923150
1869.000000	18.261373
1868.000000	18.582448
1867.000000	18.848283
1866.000000	19.086908
1865.000000	19.290006
1864.000000	19.483042
1863.000000	19.634082
1862.000000	19.791282
1861.000000	19.955671
1860.000000	20.100550
1859.000000	20.235162
1858.000000	20.358171
1857.000000	20.444318
1856.000000	20.530978
1855.000000	20.584474
1854.000000	20.619487
1853.000000	20.662715
1852.000000	20.687358
1851.000000	20.684586
1850.000000	20.692389
1849.000000	20.728943
1848.000000	20.715081
1847.000000	20.701527
1846.000000	20.683353
1845.000000	20.642077
1844.000000	20.611684
1843.000000	20.586938
1842.000000	20.579545
1841.000000	20.586014
1840.000000	20.587452
1839.000000	20.564246
1838.000000	20.533545
1837.000000	20.501099
1836.000000	20.464443
1835.000000	20.422755
1834.000000	20.377987
1833.000000	20.308679
1832.000000	20.241938
1831.000000	20.213188
1830.000000	20.170577
1829.000000	20.101885
1828.000000	20.034425
1827.000000	19.962448
1826.000000	19.884925
1825.000000	19.826399
1824.000000	19.758425
1823.000000	19.711399
1822.000000	19.677720
1821.000000	19.656876
1820.000000	19.622890
1819.000000	19.574528
1818.000000	19.533662
1817.000000	19.510867
1816.000000	19.490537
1815.000000	19.496184
1814.000000	19.487354
1813.000000	19.472466
1812.000000	19.451930
1811.000000	19.429033
1810.000000	19.400899
1809.000000	19.369274
1808.000000	19.328100
1807.000000	19.285180
1806.000000	19.247908
1805.000000	19.206426
1804.000000	19.156421
1803.000000	19.102412
1802.000000	19.052613
1801.000000	19.005689
1800.000000	18.959895
1799.000000	18.899828
1798.000000	18.851569
1797.000000	18.810600
1796.000000	18.751149
1795.000000	18.696832
1794.000000	18.652064
1793.000000	18.605654
1792.000000	18.555341
1791.000000	18.493734
1790.000000	18.431306
1789.000000	18.387975
1788.000000	18.335096
1787.000000	18.264453
1786.000000	18.208801
1785.000000	18.143703
1784.000000	18.074087
1783.000000	18.008065
1782.000000	17.917092
1781.000000	17.840391
1780.000000	17.788641
1779.000000	17.719641
1778.000000	17.647355
1777.000000	17.568806
1776.000000	17.486150
1775.000000	17.399387
1774.000000	17.294449
1773.000000	17.196699
1772.000000	17.094945
1771.000000	16.987954
1770.000000	16.882503
1769.000000	16.759905
1768.000000	16.663695
1767.000000	16.576008
1766.000000	16.465628
1765.000000	16.393651
1764.000000	16.343030
1763.000000	16.294771
1762.000000	16.279369
1761.000000	16.288302
1760.000000	16.326088
1759.000000	16.368084
1758.000000	16.432977
1757.000000	16.491503
1756.000000	16.544485
1755.000000	16.611226
1754.000000	16.662566
1753.000000	16.700967
1752.000000	16.725097
1751.000000	16.739164
1750.000000	16.738445
1749.000000	16.728485
1748.000000	16.699941
1747.000000	16.649731
1746.000000	16.579704
1745.000000	16.517994
1744.000000	16.430512
1743.000000	16.315204
1742.000000	16.172070
1741.000000	16.020312
1740.000000	15.852946
1739.000000	15.679830
1738.000000	15.475910
1737.000000	15.289651
1736.000000	15.136660
1735.000000	14.985620
1734.000000	14.880272
1733.000000	14.825134
1732.000000	14.817844
1731.000000	14.846491
1730.000000	14.904915
1729.000000	14.981924
1728.000000	15.070638
1727.000000	15.163870
1726.000000	15.284312
1725.000000	15.365428
1724.000000	15.443258
1723.000000	15.522629
1722.000000	15.568937
1721.000000	15.596968
1720.000000	15.627156
1719.000000	15.647178
1718.000000	15.679008
1717.000000	15.696566
1716.000000	15.727575
1715.000000	15.790106
1714.000000	15.850481
1713.000000	15.890115
1712.000000	15.959115
1711.000000	16.004602
1710.000000	16.057789
1709.000000	16.062410
1708.000000	16.074115
1707.000000	16.046905
1706.000000	16.024008
1705.000000	15.998236
1704.000000	15.933651
1703.000000	15.868553
1702.000000	15.804276
1701.000000	15.705910
1700.000000	15.602615
1699.000000	15.455066
1698.000000	15.312035
1697.000000	15.189745
1696.000000	15.076696
1695.000000	15.005745
1694.000000	14.973402
1693.000000	15.004513
1692.000000	15.086245
1691.000000	15.223013
1690.000000	15.369638
1689.000000	15.510410
1688.000000	15.647075
1687.000000	15.730245
1686.000000	15.801196
1685.000000	15.844526
1684.000000	15.869169
1683.000000	15.956754
1682.000000	16.119602
1681.000000	16.368392
1680.000000	16.706204
1679.000000	17.158297
1678.000000	17.634828
1677.000000	18.130458
1676.000000	18.648368
1675.000000	19.094711
1674.000000	19.502961
1673.000000	19.854327
1672.000000	20.173349
1671.000000	20.452429
1670.000000	20.676474
1669.000000	20.885733
1668.000000	21.063058
1667.000000	21.220670
1666.000000	21.343268
1665.000000	21.455188
1664.000000	21.549241
1663.000000	21.644732
1662.000000	21.701308
1661.000000	21.755728
1660.000000	21.826884
1659.000000	21.846906
1658.000000	21.887464
1657.000000	21.914161
1656.000000	21.932232
1655.000000	21.931000
1654.000000	21.954205
1653.000000	21.926482
1652.000000	21.898964
1651.000000	21.884795
1650.000000	21.853683
1649.000000	21.824728
1648.000000	21.784478
1647.000000	21.738991
1646.000000	21.678205
1645.000000	21.640009
1644.000000	21.580764
1643.000000	21.533223
1642.000000	21.454572
1641.000000	21.390808
1640.000000	21.350250
1639.000000	21.280737
1638.000000	21.217179
1637.000000	21.161425
1636.000000	21.067371
1635.000000	20.993853
1634.000000	20.935018
1633.000000	20.877108
1632.000000	20.779974
1631.000000	20.705019
1630.000000	20.632322
1629.000000	20.530773
1628.000000	20.452224
1627.000000	20.366693
1626.000000	20.283729
1625.000000	20.214831
1624.000000	20.134639
1623.000000	20.043872
1622.000000	19.958238
1621.000000	19.892010
1620.000000	19.820854
1619.000000	19.728341
1618.000000	19.658211
1617.000000	19.584796
1616.000000	19.490537
1615.000000	19.426466
1614.000000	19.353769
1613.000000	19.293702
1612.000000	19.220903
1611.000000	19.151698
1610.000000	19.066167
1609.000000	19.009796
1608.000000	18.953323
1607.000000	18.884323
1606.000000	18.804645
1605.000000	18.735747
1604.000000	18.657198
1603.000000	18.598980
1602.000000	18.526694
1601.000000	18.456873
1600.000000	18.384587
1599.000000	18.338279
1598.000000	18.272154
1597.000000	18.201717
1596.000000	18.128507
1595.000000	18.053859
1594.000000	17.998105
1593.000000	17.937217
1592.000000	17.893989
1591.000000	17.840802
1590.000000	17.785971
1589.000000	17.732784
1588.000000	17.685962
1587.000000	17.638628
1586.000000	17.586159
1585.000000	17.538003
1584.000000	17.505967
1583.000000	17.449494
1582.000000	17.421052
1581.000000	17.377927
1580.000000	17.356467
