PE UV       SUBTECH     SPECTRUM    ASCII       PEDS        4.00        
   -1
CICIMAUCR0242-2.Sample.ASC
24/06/21
14:21:29.00
24/06/21
14:21:29.00
Vinicio Soto Monge
C. cupreomarginata. Ventral. Sex M
250,000000
1
Lambda 1050
1050L1511233
PerkinElmer UV WinLab 6.3.2.0749 / 2.02.05 Lambda 900 UV/VIS/NIR, Aug  7 2015 09:38:08

0
0
3350/servo 860,8/2
0
0
UV/VIS
1
1
1
DoubleDePol,CommonBeamDepol,RBeamAtt,SBeamAtt,60mm sphere, WB InGaAs Detector
0
0
0
0
Program
Program
3350/servo 860,8/2
3350/0,2 860,8/0,2
3350/0,2 860,8/0,2
0
15.00
 
 
 
0
 
860,8
319,2
860,8
Front
100
on
S:100 R:100
0
0
0
0
 
0
 
 
 
0
 
 
0
0
0
0
0
 
 
 
 
0
0


0
0
#HDR
-1
-1
#GR
nm
%R
1.0
0.0
2500,000000
-1,000000
2251
8
52,376100
4,098600
#DATA
2482.000000	5.423792
2481.000000	5.411059
2480.000000	5.397041
2479.000000	5.451720
2478.000000	5.430319
2477.000000	5.352635
2476.000000	5.331555
2475.000000	5.364084
2474.000000	5.335728
2473.000000	5.324172
2472.000000	5.370718
2471.000000	5.387518
2470.000000	5.323958
2469.000000	5.318073
2468.000000	5.353063
2467.000000	5.340329
2466.000000	5.319250
2465.000000	5.337547
2464.000000	5.323851
2463.000000	5.345786
2462.000000	5.343539
2461.000000	5.298170
2460.000000	5.330699
2459.000000	5.331555
2458.000000	5.325242
2457.000000	5.347070
2456.000000	5.321925
2455.000000	5.348248
2454.000000	5.374035
2453.000000	5.374891
2452.000000	5.383559
2451.000000	5.433636
2450.000000	5.418121
2449.000000	5.391477
2448.000000	5.417372
2447.000000	5.466165
2446.000000	5.464560
2445.000000	5.489920
2444.000000	5.506185
2443.000000	5.521914
2442.000000	5.519881
2441.000000	5.528762
2440.000000	5.562254
2439.000000	5.588577
2438.000000	5.582050
2437.000000	5.588149
2436.000000	5.631807
2435.000000	5.652244
2434.000000	5.641437
2433.000000	5.662624
2432.000000	5.672682
2431.000000	5.689696
2430.000000	5.723081
2429.000000	5.720834
2428.000000	5.728966
2427.000000	5.746514
2426.000000	5.755824
2425.000000	5.762779
2424.000000	5.771018
2423.000000	5.784287
2422.000000	5.801728
2421.000000	5.810824
2420.000000	5.799481
2419.000000	5.830191
2418.000000	5.824520
2417.000000	5.817030
2416.000000	5.831368
2415.000000	5.846349
2414.000000	5.848168
2413.000000	5.851592
2412.000000	5.871281
2411.000000	5.881767
2410.000000	5.881981
2409.000000	5.905201
2408.000000	5.900492
2407.000000	5.898138
2406.000000	5.924675
2405.000000	5.926066
2404.000000	5.939763
2403.000000	5.941261
2402.000000	5.944471
2401.000000	5.955920
2400.000000	5.952282
2399.000000	5.959558
2398.000000	5.978819
2397.000000	6.000755
2396.000000	6.020122
2395.000000	6.030823
2394.000000	6.038848
2393.000000	6.036922
2392.000000	6.060998
2391.000000	6.081970
2390.000000	6.078439
2389.000000	6.083575
2388.000000	6.096095
2387.000000	6.107223
2386.000000	6.108507
2385.000000	6.104548
2384.000000	6.115248
2383.000000	6.133332
2382.000000	6.139003
2381.000000	6.137184
2380.000000	6.133760
2379.000000	6.121562
2378.000000	6.122204
2377.000000	6.128517
2376.000000	6.125628
2375.000000	6.137184
2374.000000	6.141892
2373.000000	6.132262
2372.000000	6.124451
2371.000000	6.113215
2370.000000	6.117495
2369.000000	6.120278
2368.000000	6.111075
2367.000000	6.110647
2366.000000	6.095988
2365.000000	6.078118
2364.000000	6.078118
2363.000000	6.076406
2362.000000	6.066883
2361.000000	6.057039
2360.000000	6.035531
2359.000000	6.016591
2358.000000	6.014130
2357.000000	6.017340
2356.000000	6.023760
2355.000000	6.008887
2354.000000	5.998615
2353.000000	6.006961
2352.000000	5.998615
2351.000000	5.984811
2350.000000	6.000006
2349.000000	6.008459
2348.000000	6.002360
2347.000000	6.006212
2346.000000	6.022583
2345.000000	6.024081
2344.000000	6.024081
2343.000000	6.047408
2342.000000	6.044733
2341.000000	6.052223
2340.000000	6.066990
2339.000000	6.073945
2338.000000	6.072126
2337.000000	6.067953
2336.000000	6.075443
2335.000000	6.073731
2334.000000	6.077583
2333.000000	6.084966
2332.000000	6.074373
2331.000000	6.066562
2330.000000	6.047943
2329.000000	6.034140
2328.000000	6.012418
2327.000000	6.014558
2326.000000	6.013060
2325.000000	5.987807
2324.000000	5.980103
2323.000000	5.966942
2322.000000	5.951533
2321.000000	5.925638
2320.000000	5.898031
2319.000000	5.862827
2318.000000	5.840249
2317.000000	5.821524
2316.000000	5.793168
2315.000000	5.788995
2314.000000	5.759569
2313.000000	5.716660
2312.000000	5.692585
2311.000000	5.677390
2310.000000	5.669900
2309.000000	5.654812
2308.000000	5.635873
2307.000000	5.605805
2306.000000	5.615756
2305.000000	5.626350
2304.000000	5.619822
2303.000000	5.627206
2302.000000	5.616826
2301.000000	5.642293
2300.000000	5.633198
2299.000000	5.624423
2298.000000	5.661554
2297.000000	5.675571
2296.000000	5.695688
2295.000000	5.728431
2294.000000	5.724258
2293.000000	5.741806
2292.000000	5.750581
2291.000000	5.761388
2290.000000	5.784073
2289.000000	5.780221
2288.000000	5.772730
2287.000000	5.785036
2286.000000	5.767059
2285.000000	5.763100
2284.000000	5.780756
2283.000000	5.766524
2282.000000	5.757964
2281.000000	5.735600
2280.000000	5.739773
2279.000000	5.737847
2278.000000	5.716446
2277.000000	5.697935
2276.000000	5.686593
2275.000000	5.691943
2274.000000	5.681777
2273.000000	5.657809
2272.000000	5.677711
2271.000000	5.665727
2270.000000	5.679423
2269.000000	5.672682
2268.000000	5.669258
2267.000000	5.679851
2266.000000	5.711738
2265.000000	5.706709
2264.000000	5.735600
2263.000000	5.757108
2262.000000	5.779793
2261.000000	5.863148
2260.000000	5.898994
2259.000000	5.907769
2258.000000	5.991659
2257.000000	6.038099
2256.000000	6.083147
2255.000000	6.136435
2254.000000	6.216795
2253.000000	6.274577
2252.000000	6.335141
2251.000000	6.403409
2250.000000	6.463010
2249.000000	6.518009
2248.000000	6.576968
2247.000000	6.638281
2246.000000	6.674556
2245.000000	6.749351
2244.000000	6.777065
2243.000000	6.815265
2242.000000	6.842551
2241.000000	6.919380
2240.000000	6.943883
2239.000000	6.973523
2238.000000	6.994817
2237.000000	7.058270
2236.000000	7.081276
2235.000000	7.094651
2234.000000	7.123756
2233.000000	7.137667
2232.000000	7.159281
2231.000000	7.182287
2230.000000	7.203795
2229.000000	7.202297
2228.000000	7.199836
2227.000000	7.210536
2226.000000	7.222841
2225.000000	7.237929
2224.000000	7.249057
2223.000000	7.254193
2222.000000	7.245312
2221.000000	7.238357
2220.000000	7.215672
2219.000000	7.230225
2218.000000	7.247773
2217.000000	7.240069
2216.000000	7.212462
2215.000000	7.210001
2214.000000	7.198445
2213.000000	7.204972
2212.000000	7.203902
2211.000000	7.211285
2210.000000	7.167521
2209.000000	7.168270
2208.000000	7.143873
2207.000000	7.156499
2206.000000	7.139914
2205.000000	7.136169
2204.000000	7.124826
2203.000000	7.124612
2202.000000	7.119369
2201.000000	7.125040
2200.000000	7.116052
2199.000000	7.106422
2198.000000	7.108134
2197.000000	7.103961
2196.000000	7.097005
2195.000000	7.105994
2194.000000	7.104817
2193.000000	7.085663
2192.000000	7.075070
2191.000000	7.083844
2190.000000	7.062871
2189.000000	7.099787
2188.000000	7.079885
2187.000000	7.078922
2186.000000	7.082132
2185.000000	7.056986
2184.000000	7.039437
2183.000000	7.057521
2182.000000	7.046072
2181.000000	7.050352
2180.000000	7.046393
2179.000000	7.056879
2178.000000	7.049496
2177.000000	7.026704
2176.000000	7.046286
2175.000000	7.046286
2174.000000	7.060196
2173.000000	7.047998
2172.000000	7.053776
2171.000000	7.050245
2170.000000	7.058912
2169.000000	7.048105
2168.000000	7.065760
2167.000000	7.071752
2166.000000	7.059554
2165.000000	7.048640
2164.000000	7.085877
2163.000000	7.093688
2162.000000	7.102462
2161.000000	7.121830
2160.000000	7.117657
2159.000000	7.128357
2158.000000	7.158104
2157.000000	7.157462
2156.000000	7.159602
2155.000000	7.182608
2154.000000	7.192987
2153.000000	7.202083
2152.000000	7.228834
2151.000000	7.238999
2150.000000	7.254728
2149.000000	7.247238
2148.000000	7.256975
2147.000000	7.275059
2146.000000	7.303201
2145.000000	7.302024
2144.000000	7.307267
2143.000000	7.308337
2142.000000	7.323425
2141.000000	7.339154
2140.000000	7.339903
2139.000000	7.357238
2138.000000	7.354456
2137.000000	7.367296
2136.000000	7.384310
2135.000000	7.384524
2134.000000	7.373609
2133.000000	7.380564
2132.000000	7.386557
2131.000000	7.393298
2130.000000	7.371897
2129.000000	7.377247
2128.000000	7.388376
2127.000000	7.383454
2126.000000	7.387948
2125.000000	7.386236
2124.000000	7.372325
2123.000000	7.359378
2122.000000	7.349426
2121.000000	7.346858
2120.000000	7.328133
2119.000000	7.323532
2118.000000	7.321820
2117.000000	7.313901
2116.000000	7.304057
2115.000000	7.283833
2114.000000	7.272812
2113.000000	7.248522
2112.000000	7.247773
2111.000000	7.241781
2110.000000	7.206470
2109.000000	7.189884
2108.000000	7.190098
2107.000000	7.180147
2106.000000	7.171480
2105.000000	7.155322
2104.000000	7.129106
2103.000000	7.128036
2102.000000	7.123435
2101.000000	7.111986
2100.000000	7.113912
2099.000000	7.101285
2098.000000	7.092618
2097.000000	7.072822
2096.000000	7.045751
2095.000000	7.045002
2094.000000	7.039544
2093.000000	7.033445
2092.000000	7.014292
2091.000000	7.005945
2090.000000	7.009690
2089.000000	6.994924
2088.000000	6.971918
2087.000000	6.966354
2086.000000	6.966247
2085.000000	6.947842
2084.000000	6.937677
2083.000000	6.932541
2082.000000	6.915634
2081.000000	6.914992
2080.000000	6.900975
2079.000000	6.884389
2078.000000	6.883319
2077.000000	6.872726
2076.000000	6.859565
2075.000000	6.831637
2074.000000	6.813553
2073.000000	6.800499
2072.000000	6.778991
2071.000000	6.773320
2070.000000	6.772999
2069.000000	6.748602
2068.000000	6.733514
2067.000000	6.712970
2066.000000	6.697454
2065.000000	6.695742
2064.000000	6.671666
2063.000000	6.661608
2062.000000	6.655402
2061.000000	6.638174
2060.000000	6.628223
2059.000000	6.616239
2058.000000	6.608427
2057.000000	6.602756
2056.000000	6.593982
2055.000000	6.596229
2054.000000	6.596871
2053.000000	6.596871
2052.000000	6.603612
2051.000000	6.606715
2050.000000	6.620091
2049.000000	6.634750
2048.000000	6.645237
2047.000000	6.677766
2046.000000	6.686433
2045.000000	6.698738
2044.000000	6.721958
2043.000000	6.752775
2042.000000	6.769147
2041.000000	6.794720
2040.000000	6.820401
2039.000000	6.834526
2038.000000	6.847366
2037.000000	6.859993
2036.000000	6.895625
2035.000000	6.912317
2034.000000	6.925800
2033.000000	6.951267
2032.000000	6.967638
2031.000000	6.970955
2030.000000	6.984759
2029.000000	6.989467
2028.000000	6.996957
2027.000000	6.992570
2026.000000	6.995566
2025.000000	7.013222
2024.000000	7.034408
2023.000000	7.040186
2022.000000	7.047998
2021.000000	7.029379
2020.000000	7.019107
2019.000000	7.028523
2018.000000	7.030342
2017.000000	7.036334
2016.000000	7.042541
2015.000000	7.030663
2014.000000	7.026490
2013.000000	7.033445
2012.000000	7.011938
2011.000000	6.995031
2010.000000	7.007657
2009.000000	6.984010
2008.000000	6.977910
2007.000000	6.966461
2006.000000	6.946344
2005.000000	6.940887
2004.000000	6.927619
2003.000000	6.899905
2002.000000	6.876899
2001.000000	6.879467
2000.000000	6.856140
1999.000000	6.846189
1998.000000	6.815693
1997.000000	6.800927
1996.000000	6.774711
1995.000000	6.737046
1994.000000	6.739186
1993.000000	6.720781
1992.000000	6.681725
1991.000000	6.651336
1990.000000	6.631326
1989.000000	6.624371
1988.000000	6.591200
1987.000000	6.564663
1986.000000	6.526463
1985.000000	6.529138
1984.000000	6.508272
1983.000000	6.477990
1982.000000	6.447494
1981.000000	6.426094
1980.000000	6.415072
1979.000000	6.370666
1978.000000	6.341347
1977.000000	6.333750
1976.000000	6.312456
1975.000000	6.276075
1974.000000	6.281532
1973.000000	6.242690
1972.000000	6.215832
1971.000000	6.207592
1970.000000	6.171960
1969.000000	6.159227
1968.000000	6.140180
1967.000000	6.134402
1966.000000	6.104976
1965.000000	6.120064
1964.000000	6.069237
1963.000000	6.051153
1962.000000	6.044091
1961.000000	6.029646
1960.000000	5.992836
1959.000000	5.997010
1958.000000	5.986737
1957.000000	5.985346
1956.000000	5.967156
1955.000000	5.933985
1954.000000	5.937623
1953.000000	5.880376
1952.000000	5.906699
1951.000000	5.882409
1950.000000	5.878771
1949.000000	5.856300
1948.000000	5.854374
1947.000000	5.826446
1946.000000	5.846456
1945.000000	5.818207
1944.000000	5.821738
1943.000000	5.799588
1942.000000	5.795201
1941.000000	5.805473
1940.000000	5.783966
1939.000000	5.777010
1938.000000	5.770055
1937.000000	5.797555
1936.000000	5.780114
1935.000000	5.786534
1934.000000	5.785250
1933.000000	5.791135
1932.000000	5.813392
1931.000000	5.804617
1930.000000	5.824092
1929.000000	5.816388
1928.000000	5.837788
1927.000000	5.865074
1926.000000	5.886475
1925.000000	5.891290
1924.000000	5.931737
1923.000000	5.926708
1922.000000	5.966086
1921.000000	5.985346
1920.000000	6.026436
1919.000000	6.059393
1918.000000	6.089461
1917.000000	6.130550
1916.000000	6.135365
1915.000000	6.199032
1914.000000	6.202884
1913.000000	6.284849
1912.000000	6.337709
1911.000000	6.389177
1910.000000	6.430802
1909.000000	6.466327
1908.000000	6.505062
1907.000000	6.560811
1906.000000	6.628544
1905.000000	6.704089
1904.000000	6.802318
1903.000000	6.858602
1902.000000	6.914243
1901.000000	6.986899
1900.000000	7.092725
1899.000000	7.200264
1898.000000	7.274845
1897.000000	7.404426
1896.000000	7.486391
1895.000000	7.570496
1894.000000	7.661984
1893.000000	7.785894
1892.000000	7.905310
1891.000000	8.051369
1890.000000	8.219900
1889.000000	8.378479
1888.000000	8.527535
1887.000000	8.704732
1886.000000	8.884177
1885.000000	9.109955
1884.000000	9.335732
1883.000000	9.607735
1882.000000	9.909485
1881.000000	10.178919
1880.000000	10.498646
1879.000000	10.787127
1878.000000	11.076464
1877.000000	11.394586
1876.000000	11.715489
1875.000000	12.040138
1874.000000	12.369922
1873.000000	12.669425
1872.000000	12.998996
1871.000000	13.309306
1870.000000	13.605812
1869.000000	13.877708
1868.000000	14.133982
1867.000000	14.334827
1866.000000	14.516305
1865.000000	14.662044
1864.000000	14.830146
1863.000000	14.951274
1862.000000	15.047791
1861.000000	15.179834
1860.000000	15.321720
1859.000000	15.440494
1858.000000	15.546641
1857.000000	15.638878
1856.000000	15.699121
1855.000000	15.763430
1854.000000	15.794354
1853.000000	15.833839
1852.000000	15.849354
1851.000000	15.852564
1850.000000	15.860590
1849.000000	15.854169
1848.000000	15.848284
1847.000000	15.851922
1846.000000	15.858771
1845.000000	15.834374
1844.000000	15.799919
1843.000000	15.779374
1842.000000	15.754763
1841.000000	15.756582
1840.000000	15.765143
1839.000000	15.761504
1838.000000	15.750376
1837.000000	15.721057
1836.000000	15.696125
1835.000000	15.675902
1834.000000	15.628927
1833.000000	15.581739
1832.000000	15.519998
1831.000000	15.473023
1830.000000	15.426798
1829.000000	15.375757
1828.000000	15.339590
1827.000000	15.278812
1826.000000	15.210330
1825.000000	15.164853
1824.000000	15.123550
1823.000000	15.065661
1822.000000	15.040729
1821.000000	15.017402
1820.000000	14.997821
1819.000000	14.994718
1818.000000	14.959620
1817.000000	14.917140
1816.000000	14.895311
1815.000000	14.886002
1814.000000	14.886537
1813.000000	14.882685
1812.000000	14.868239
1811.000000	14.838706
1810.000000	14.806070
1809.000000	14.777607
1808.000000	14.751606
1807.000000	14.727637
1806.000000	14.693182
1805.000000	14.662472
1804.000000	14.627054
1803.000000	14.576013
1802.000000	14.524651
1801.000000	14.490517
1800.000000	14.455634
1799.000000	14.406198
1798.000000	14.371529
1797.000000	14.333008
1796.000000	14.287639
1795.000000	14.255324
1794.000000	14.215304
1793.000000	14.167474
1792.000000	14.125314
1791.000000	14.083904
1790.000000	14.037785
1789.000000	13.995626
1788.000000	13.954002
1787.000000	13.902640
1786.000000	13.845072
1785.000000	13.812650
1784.000000	13.781191
1783.000000	13.705540
1782.000000	13.632456
1781.000000	13.588050
1780.000000	13.542573
1779.000000	13.482758
1778.000000	13.411815
1777.000000	13.356494
1776.000000	13.295823
1775.000000	13.217604
1774.000000	13.149550
1773.000000	13.074968
1772.000000	13.006700
1771.000000	12.909862
1770.000000	12.830144
1769.000000	12.763053
1768.000000	12.674347
1767.000000	12.605223
1766.000000	12.545515
1765.000000	12.488268
1764.000000	12.431235
1763.000000	12.405341
1762.000000	12.397422
1761.000000	12.385117
1760.000000	12.401167
1759.000000	12.432947
1758.000000	12.488375
1757.000000	12.548618
1756.000000	12.591527
1755.000000	12.632830
1754.000000	12.678948
1753.000000	12.727314
1752.000000	12.743257
1751.000000	12.743364
1750.000000	12.744863
1749.000000	12.756098
1748.000000	12.723569
1747.000000	12.693501
1746.000000	12.647275
1745.000000	12.577509
1744.000000	12.529358
1743.000000	12.447714
1742.000000	12.347559
1741.000000	12.230069
1740.000000	12.089359
1739.000000	11.949934
1738.000000	11.807833
1737.000000	11.660275
1736.000000	11.561190
1735.000000	11.466492
1734.000000	11.389129
1733.000000	11.344722
1732.000000	11.332417
1731.000000	11.338195
1730.000000	11.367728
1729.000000	11.423156
1728.000000	11.517854
1727.000000	11.591686
1726.000000	11.653427
1725.000000	11.715382
1724.000000	11.763213
1723.000000	11.830518
1722.000000	11.875352
1721.000000	11.903494
1720.000000	11.922648
1719.000000	11.939982
1718.000000	11.969087
1717.000000	12.002365
1716.000000	12.026441
1715.000000	12.057793
1714.000000	12.115789
1713.000000	12.154096
1712.000000	12.191013
1711.000000	12.235633
1710.000000	12.261100
1709.000000	12.281323
1708.000000	12.269553
1707.000000	12.271265
1706.000000	12.236275
1705.000000	12.212199
1704.000000	12.190906
1703.000000	12.147141
1702.000000	12.083153
1701.000000	11.995731
1700.000000	11.933883
1699.000000	11.849671
1698.000000	11.739137
1697.000000	11.629137
1696.000000	11.554128
1695.000000	11.504264
1694.000000	11.489498
1693.000000	11.521278
1692.000000	11.559585
1691.000000	11.633310
1690.000000	11.734429
1689.000000	11.864866
1688.000000	11.951111
1687.000000	11.994340
1686.000000	12.038854
1685.000000	12.092997
1684.000000	12.110867
1683.000000	12.179670
1682.000000	12.277899
1681.000000	12.468901
1680.000000	12.741117
1679.000000	13.066408
1678.000000	13.436426
1677.000000	13.806016
1676.000000	14.230178
1675.000000	14.589602
1674.000000	14.888249
1673.000000	15.163355
1672.000000	15.415027
1671.000000	15.649151
1670.000000	15.835765
1669.000000	16.020560
1668.000000	16.133234
1667.000000	16.291386
1666.000000	16.389294
1665.000000	16.488379
1664.000000	16.547552
1663.000000	16.632941
1662.000000	16.695431
1661.000000	16.748397
1660.000000	16.773650
1659.000000	16.827152
1658.000000	16.840527
1657.000000	16.869418
1656.000000	16.909117
1655.000000	16.884827
1654.000000	16.894029
1653.000000	16.880761
1652.000000	16.870167
1651.000000	16.843524
1650.000000	16.845450
1649.000000	16.818164
1648.000000	16.773329
1647.000000	16.760489
1646.000000	16.701851
1645.000000	16.677561
1644.000000	16.613145
1643.000000	16.579332
1642.000000	16.520266
1641.000000	16.467192
1640.000000	16.419790
1639.000000	16.346920
1638.000000	16.327232
1637.000000	16.265384
1636.000000	16.190160
1635.000000	16.150355
1634.000000	16.089791
1633.000000	16.040141
1632.000000	15.960424
1631.000000	15.894189
1630.000000	15.829987
1629.000000	15.762146
1628.000000	15.694306
1627.000000	15.643694
1626.000000	15.566972
1625.000000	15.495173
1624.000000	15.453013
1623.000000	15.361953
1622.000000	15.307703
1621.000000	15.230767
1620.000000	15.171273
1619.000000	15.102256
1618.000000	15.063200
1617.000000	14.995574
1616.000000	14.930836
1615.000000	14.869202
1614.000000	14.799543
1613.000000	14.753211
1612.000000	14.700779
1611.000000	14.644388
1610.000000	14.586285
1609.000000	14.526256
1608.000000	14.470080
1607.000000	14.418825
1606.000000	14.362541
1605.000000	14.326909
1604.000000	14.246228
1603.000000	14.190907
1602.000000	14.152493
1601.000000	14.083690
1600.000000	14.022805
1599.000000	13.985247
1598.000000	13.928642
1597.000000	13.875782
1596.000000	13.829022
1595.000000	13.782047
1594.000000	13.734110
1593.000000	13.689489
1592.000000	13.635238
1591.000000	13.576922
1590.000000	13.543964
1589.000000	13.503089
1588.000000	13.473984
1587.000000	13.432253
1586.000000	13.379286
1585.000000	13.350074
1584.000000	13.317010
1583.000000	13.270999
1582.000000	13.255162
1581.000000	13.222098
1580.000000	13.194170
