PE UV       SUBTECH     SPECTRUM    ASCII       PEDS        4.00        
   -1
CICIMAUCR0100-2.Sample.ASC
24/04/18
16:04:25.00
24/04/18
16:04:25.00
Vinicio Soto Monge
C. cupreomarginata
250,000000
1
Lambda 1050
1050L1511233
PerkinElmer UV WinLab 6.3.2.0749 / 2.02.05 Lambda 900 UV/VIS/NIR, Aug  7 2015 09:38:08

0
0
3350/servo 860,8/2
0
0
UV/VIS
1
1
1
DoubleDePol,CommonBeamDepol,RBeamAtt,SBeamAtt,60mm sphere, WB InGaAs Detector
0
0
0
0
Program
Program
3350/servo 860,8/2
3350/0,2 860,8/0,2
3350/0,2 860,8/0,2
0
15.00
 
 
 
0
 
860,8
319,2
860,8
Front
100
on
S:100 R:100
0
0
0
0
 
0
 
 
 
0
 
 
0
0
0
0
0
 
 
 
 
0
0


0
0
#HDR
-1
-1
#GR
nm
%R
1.0
0.0
2500,000000
-1,000000
2251
8
65,493400
4,757100
#DATA
2482.000000	10.885872
2481.000000	10.888548
2480.000000	10.873110
2479.000000	10.914691
2478.000000	10.868581
2477.000000	10.903061
2476.000000	10.906869
2475.000000	10.876609
2474.000000	10.877330
2473.000000	10.958227
2472.000000	10.909236
2471.000000	10.930541
2470.000000	10.950508
2469.000000	10.956581
2468.000000	10.991060
2467.000000	11.004852
2466.000000	11.061151
2465.000000	11.068767
2464.000000	11.107981
2463.000000	11.182085
2462.000000	11.196597
2461.000000	11.246824
2460.000000	11.330603
2459.000000	11.362407
2458.000000	11.452567
2457.000000	11.542316
2456.000000	11.617141
2455.000000	11.694745
2454.000000	11.790155
2453.000000	11.873008
2452.000000	11.987356
2451.000000	12.064445
2450.000000	12.155532
2449.000000	12.274306
2448.000000	12.371671
2447.000000	12.478711
2446.000000	12.583487
2445.000000	12.671795
2444.000000	12.786348
2443.000000	12.877538
2442.000000	12.990857
2441.000000	13.091721
2440.000000	13.178485
2439.000000	13.279968
2438.000000	13.381141
2437.000000	13.469038
2436.000000	13.564344
2435.000000	13.648947
2434.000000	13.740034
2433.000000	13.812492
2432.000000	13.899359
2431.000000	13.977684
2430.000000	14.055391
2429.000000	14.118688
2428.000000	14.192381
2427.000000	14.274102
2426.000000	14.319491
2425.000000	14.383304
2424.000000	14.448248
2423.000000	14.491991
2422.000000	14.549525
2421.000000	14.609117
2420.000000	14.673547
2419.000000	14.722847
2418.000000	14.778632
2417.000000	14.820213
2416.000000	14.858294
2415.000000	14.891024
2414.000000	14.928385
2413.000000	14.964099
2412.000000	15.002078
2411.000000	15.031102
2410.000000	15.075874
2409.000000	15.121366
2408.000000	15.143185
2407.000000	15.177356
2406.000000	15.202984
2405.000000	15.226553
2404.000000	15.264017
2403.000000	15.290571
2402.000000	15.340283
2401.000000	15.371160
2400.000000	15.391024
2399.000000	15.424783
2398.000000	15.453807
2397.000000	15.478612
2396.000000	15.520810
2395.000000	15.539440
2394.000000	15.558583
2393.000000	15.578242
2392.000000	15.620440
2391.000000	15.644421
2390.000000	15.645656
2389.000000	15.657287
2388.000000	15.675092
2387.000000	15.689913
2386.000000	15.690839
2385.000000	15.691663
2384.000000	15.686311
2383.000000	15.685590
2382.000000	15.688163
2381.000000	15.677048
2380.000000	15.661712
2379.000000	15.651523
2378.000000	15.627645
2377.000000	15.589769
2376.000000	15.564450
2375.000000	15.547776
2374.000000	15.526677
2373.000000	15.482832
2372.000000	15.450926
2371.000000	15.424269
2370.000000	15.386187
2369.000000	15.348929
2368.000000	15.293968
2367.000000	15.230464
2366.000000	15.176533
2365.000000	15.119719
2364.000000	15.050143
2363.000000	14.997755
2362.000000	14.937854
2361.000000	14.854589
2360.000000	14.778426
2359.000000	14.713893
2358.000000	14.650184
2357.000000	14.593782
2356.000000	14.538306
2355.000000	14.498063
2354.000000	14.469553
2353.000000	14.437956
2352.000000	14.420871
2351.000000	14.423341
2350.000000	14.430031
2349.000000	14.442690
2348.000000	14.473259
2347.000000	14.511855
2346.000000	14.546231
2345.000000	14.596252
2344.000000	14.637421
2343.000000	14.681266
2342.000000	14.727685
2341.000000	14.750534
2340.000000	14.776676
2339.000000	14.806112
2338.000000	14.817125
2337.000000	14.827006
2336.000000	14.817640
2335.000000	14.789541
2334.000000	14.767928
2333.000000	14.756503
2332.000000	14.717084
2331.000000	14.677973
2330.000000	14.626717
2329.000000	14.579887
2328.000000	14.515354
2327.000000	14.440838
2326.000000	14.390508
2325.000000	14.313213
2324.000000	14.226037
2323.000000	14.126922
2322.000000	14.045201
2321.000000	13.931060
2320.000000	13.821343
2319.000000	13.720273
2318.000000	13.584003
2317.000000	13.428486
2316.000000	13.322372
2315.000000	13.194850
2314.000000	13.067946
2313.000000	12.949070
2312.000000	12.817328
2311.000000	12.680337
2310.000000	12.581840
2309.000000	12.504956
2308.000000	12.449378
2307.000000	12.398946
2306.000000	12.368069
2305.000000	12.364260
2304.000000	12.399872
2303.000000	12.425397
2302.000000	12.474285
2301.000000	12.541700
2300.000000	12.622392
2299.000000	12.712861
2298.000000	12.817122
2297.000000	12.932396
2296.000000	13.034187
2295.000000	13.124863
2294.000000	13.218111
2293.000000	13.303434
2292.000000	13.353146
2291.000000	13.407181
2290.000000	13.432809
2289.000000	13.476242
2288.000000	13.491269
2287.000000	13.469346
2286.000000	13.456275
2285.000000	13.458436
2284.000000	13.421487
2283.000000	13.389890
2282.000000	13.333797
2281.000000	13.297156
2280.000000	13.256810
2279.000000	13.189807
2278.000000	13.143389
2277.000000	13.099955
2276.000000	13.070313
2275.000000	13.021939
2274.000000	13.010927
2273.000000	12.970992
2272.000000	12.975933
2271.000000	12.995385
2270.000000	13.021219
2269.000000	13.056007
2268.000000	13.127127
2267.000000	13.229947
2266.000000	13.329680
2265.000000	13.467597
2264.000000	13.617247
2263.000000	13.801685
2262.000000	14.022455
2261.000000	14.256194
2260.000000	14.493020
2259.000000	14.752695
2258.000000	15.057245
2257.000000	15.296335
2256.000000	15.575874
2255.000000	15.883512
2254.000000	16.168917
2253.000000	16.449280
2252.000000	16.713484
2251.000000	16.973982
2250.000000	17.227688
2249.000000	17.444341
2248.000000	17.680653
2247.000000	17.886705
2246.000000	18.052926
2245.000000	18.250538
2244.000000	18.394939
2243.000000	18.566718
2242.000000	18.705458
2241.000000	18.822173
2240.000000	18.944652
2239.000000	19.061675
2238.000000	19.150395
2237.000000	19.257641
2236.000000	19.332672
2235.000000	19.404821
2234.000000	19.469354
2233.000000	19.529564
2232.000000	19.584937
2231.000000	19.612726
2230.000000	19.658012
2229.000000	19.686625
2228.000000	19.686213
2227.000000	19.696608
2226.000000	19.700211
2225.000000	19.698152
2224.000000	19.691874
2223.000000	19.682096
2222.000000	19.643191
2221.000000	19.632178
2220.000000	19.604492
2219.000000	19.562705
2218.000000	19.519786
2217.000000	19.473677
2216.000000	19.457930
2215.000000	19.404512
2214.000000	19.345743
2213.000000	19.313631
2212.000000	19.281931
2211.000000	19.226867
2210.000000	19.219560
2209.000000	19.159967
2208.000000	19.117769
2207.000000	19.104697
2206.000000	19.072585
2205.000000	19.035018
2204.000000	19.015154
2203.000000	18.987365
2202.000000	18.946299
2201.000000	18.923861
2200.000000	18.932610
2199.000000	18.897204
2198.000000	18.874047
2197.000000	18.864578
2196.000000	18.864578
2195.000000	18.829481
2194.000000	18.809411
2193.000000	18.784195
2192.000000	18.774829
2191.000000	18.760728
2190.000000	18.742820
2189.000000	18.738085
2188.000000	18.702268
2187.000000	18.695475
2186.000000	18.677463
2185.000000	18.670053
2184.000000	18.653276
2183.000000	18.625178
2182.000000	18.595845
2181.000000	18.594096
2180.000000	18.583700
2179.000000	18.555602
2178.000000	18.542016
2177.000000	18.544075
2176.000000	18.532136
2175.000000	18.540061
2174.000000	18.538826
2173.000000	18.516183
2172.000000	18.530592
2171.000000	18.541914
2170.000000	18.552515
2169.000000	18.570629
2168.000000	18.605417
2167.000000	18.623840
2166.000000	18.659040
2165.000000	18.668097
2164.000000	18.699798
2163.000000	18.741173
2162.000000	18.772256
2161.000000	18.804470
2160.000000	18.859329
2159.000000	18.886603
2158.000000	18.958341
2157.000000	18.993849
2156.000000	19.055397
2155.000000	19.125282
2154.000000	19.190124
2153.000000	19.246320
2152.000000	19.315896
2151.000000	19.385678
2150.000000	19.439609
2149.000000	19.503010
2148.000000	19.590803
2147.000000	19.648749
2146.000000	19.711326
2145.000000	19.777815
2144.000000	19.847700
2143.000000	19.915629
2142.000000	19.958959
2141.000000	20.010524
2140.000000	20.073616
2139.000000	20.129606
2138.000000	20.172319
2137.000000	20.224089
2136.000000	20.279256
2135.000000	20.319808
2134.000000	20.342966
2133.000000	20.380430
2132.000000	20.420673
2131.000000	20.447433
2130.000000	20.477486
2129.000000	20.488499
2128.000000	20.507951
2127.000000	20.524419
2126.000000	20.520508
2125.000000	20.522258
2124.000000	20.527198
2123.000000	20.530800
2122.000000	20.553341
2121.000000	20.559310
2120.000000	20.526375
2119.000000	20.513509
2118.000000	20.511142
2117.000000	20.497762
2116.000000	20.492616
2115.000000	20.472237
2114.000000	20.461739
2113.000000	20.461533
2112.000000	20.438787
2111.000000	20.416659
2110.000000	20.410895
2109.000000	20.383517
2108.000000	20.348421
2107.000000	20.340393
2106.000000	20.319911
2105.000000	20.287387
2104.000000	20.258363
2103.000000	20.234793
2102.000000	20.221311
2101.000000	20.200520
2100.000000	20.172113
2099.000000	20.143192
2098.000000	20.125695
2097.000000	20.101714
2096.000000	20.071352
2095.000000	20.053443
2094.000000	20.050870
2093.000000	20.053134
2092.000000	20.049635
2091.000000	20.034402
2090.000000	20.032652
2089.000000	20.023698
2088.000000	20.017523
2087.000000	20.021125
2086.000000	20.007436
2085.000000	19.994777
2084.000000	19.987057
2083.000000	19.975118
2082.000000	19.935493
2081.000000	19.902352
2080.000000	19.873533
2079.000000	19.831541
2078.000000	19.810956
2077.000000	19.786563
2076.000000	19.732014
2075.000000	19.660174
2074.000000	19.626312
2073.000000	19.582055
2072.000000	19.515875
2071.000000	19.456900
2070.000000	19.398543
2069.000000	19.334525
2068.000000	19.278020
2067.000000	19.217295
2066.000000	19.146381
2065.000000	19.080099
2064.000000	19.019168
2063.000000	18.969559
2062.000000	18.910584
2061.000000	18.852741
2060.000000	18.806426
2059.000000	18.779048
2058.000000	18.738497
2057.000000	18.725734
2056.000000	18.722235
2055.000000	18.750127
2054.000000	18.767830
2053.000000	18.805809
2052.000000	18.854285
2051.000000	18.917789
2050.000000	19.001774
2049.000000	19.090803
2048.000000	19.200930
2047.000000	19.315484
2046.000000	19.444447
2045.000000	19.568366
2044.000000	19.722133
2043.000000	19.861697
2042.000000	20.002702
2041.000000	20.148956
2040.000000	20.294077
2039.000000	20.428907
2038.000000	20.586482
2037.000000	20.709887
2036.000000	20.835968
2035.000000	20.956182
2034.000000	21.066001
2033.000000	21.180348
2032.000000	21.295931
2031.000000	21.395664
2030.000000	21.494058
2029.000000	21.591115
2028.000000	21.667587
2027.000000	21.755895
2026.000000	21.841938
2025.000000	21.931687
2024.000000	21.982737
2023.000000	22.055916
2022.000000	22.114685
2021.000000	22.180864
2020.000000	22.252705
2019.000000	22.304578
2018.000000	22.363965
2017.000000	22.402972
2016.000000	22.428394
2015.000000	22.470799
2014.000000	22.511351
2013.000000	22.520614
2012.000000	22.529568
2011.000000	22.567958
2010.000000	22.577118
2009.000000	22.573310
2008.000000	22.580103
2007.000000	22.556019
2006.000000	22.548815
2005.000000	22.547168
2004.000000	22.525657
2003.000000	22.510836
2002.000000	22.474710
2001.000000	22.426851
2000.000000	22.389592
1999.000000	22.347291
1998.000000	22.288316
1997.000000	22.233870
1996.000000	22.192392
1995.000000	22.117669
1994.000000	22.052725
1993.000000	21.988295
1992.000000	21.909147
1991.000000	21.814458
1990.000000	21.735516
1989.000000	21.670777
1988.000000	21.571559
1987.000000	21.477488
1986.000000	21.420056
1985.000000	21.318677
1984.000000	21.218121
1983.000000	21.129916
1982.000000	21.032139
1981.000000	20.962769
1980.000000	20.870550
1979.000000	20.756305
1978.000000	20.652456
1977.000000	20.556222
1976.000000	20.477075
1975.000000	20.385164
1974.000000	20.297371
1973.000000	20.200623
1972.000000	20.126827
1971.000000	20.013817
1970.000000	19.943624
1969.000000	19.843480
1968.000000	19.763200
1967.000000	19.672936
1966.000000	19.595023
1965.000000	19.518757
1964.000000	19.421186
1963.000000	19.351404
1962.000000	19.273080
1961.000000	19.179831
1960.000000	19.077320
1959.000000	19.011346
1958.000000	18.923244
1957.000000	18.845743
1956.000000	18.733042
1955.000000	18.667789
1954.000000	18.573820
1953.000000	18.502082
1952.000000	18.404511
1951.000000	18.314248
1950.000000	18.278019
1949.000000	18.213795
1948.000000	18.138146
1947.000000	18.081230
1946.000000	18.021431
1945.000000	17.975733
1944.000000	17.917582
1943.000000	17.896688
1942.000000	17.862930
1941.000000	17.828965
1940.000000	17.838846
1939.000000	17.837816
1938.000000	17.836581
1937.000000	17.843477
1936.000000	17.838948
1935.000000	17.847079
1934.000000	17.879603
1933.000000	17.930756
1932.000000	17.991789
1931.000000	18.067644
1930.000000	18.130530
1929.000000	18.232527
1928.000000	18.340493
1927.000000	18.444651
1926.000000	18.553235
1925.000000	18.662437
1924.000000	18.813013
1923.000000	18.952886
1922.000000	19.126826
1921.000000	19.308588
1920.000000	19.487983
1919.000000	19.704328
1918.000000	19.888251
1917.000000	20.072587
1916.000000	20.271846
1915.000000	20.495086
1914.000000	20.770817
1913.000000	21.058282
1912.000000	21.325882
1911.000000	21.563120
1910.000000	21.851922
1909.000000	22.082881
1908.000000	22.365714
1907.000000	22.684982
1906.000000	23.038523
1905.000000	23.418206
1904.000000	23.768145
1903.000000	24.111188
1902.000000	24.466067
1901.000000	24.805405
1900.000000	25.186632
1899.000000	25.626525
1898.000000	26.022162
1897.000000	26.440030
1896.000000	26.797276
1895.000000	27.156272
1894.000000	27.566730
1893.000000	27.990876
1892.000000	28.453927
1891.000000	28.897320
1890.000000	29.326921
1889.000000	29.725543
1888.000000	30.163892
1887.000000	30.580731
1886.000000	31.010950
1885.000000	31.479147
1884.000000	31.982236
1883.000000	32.468856
1882.000000	32.931187
1881.000000	33.432114
1880.000000	33.883020
1879.000000	34.318282
1878.000000	34.751383
1877.000000	35.143932
1876.000000	35.515278
1875.000000	35.853381
1874.000000	36.167605
1873.000000	36.467009
1872.000000	36.732550
1871.000000	36.961657
1870.000000	37.141876
1869.000000	37.301201
1868.000000	37.431296
1867.000000	37.516928
1866.000000	37.580020
1865.000000	37.656389
1864.000000	37.736257
1863.000000	37.805318
1862.000000	37.886628
1861.000000	37.962276
1860.000000	38.022898
1859.000000	38.066331
1858.000000	38.081770
1857.000000	38.088254
1856.000000	38.093709
1855.000000	38.094327
1854.000000	38.081358
1853.000000	38.029382
1852.000000	37.983684
1851.000000	37.977303
1850.000000	38.000358
1849.000000	38.027941
1848.000000	37.984405
1847.000000	37.893832
1846.000000	37.792556
1845.000000	37.719480
1844.000000	37.680576
1843.000000	37.696529
1842.000000	37.722362
1841.000000	37.687163
1840.000000	37.627776
1839.000000	37.575594
1838.000000	37.533498
1837.000000	37.484198
1836.000000	37.399595
1835.000000	37.299039
1834.000000	37.212069
1833.000000	37.145581
1832.000000	37.086812
1831.000000	37.036791
1830.000000	36.968141
1829.000000	36.894551
1828.000000	36.807273
1827.000000	36.727919
1826.000000	36.663489
1825.000000	36.598956
1824.000000	36.555831
1823.000000	36.559331
1822.000000	36.580739
1821.000000	36.575593
1820.000000	36.523719
1819.000000	36.438396
1818.000000	36.412562
1817.000000	36.419355
1816.000000	36.413180
1815.000000	36.382406
1814.000000	36.367379
1813.000000	36.382509
1812.000000	36.372731
1811.000000	36.332488
1810.000000	36.284835
1809.000000	36.237593
1808.000000	36.199306
1807.000000	36.194983
1806.000000	36.152887
1805.000000	36.096177
1804.000000	36.047288
1803.000000	36.022381
1802.000000	35.999223
1801.000000	35.972669
1800.000000	35.918634
1799.000000	35.845765
1798.000000	35.803772
1797.000000	35.782673
1796.000000	35.749531
1795.000000	35.704451
1794.000000	35.674500
1793.000000	35.636522
1792.000000	35.591544
1791.000000	35.540597
1790.000000	35.488312
1789.000000	35.448481
1788.000000	35.392079
1787.000000	35.355747
1786.000000	35.305315
1785.000000	35.232651
1784.000000	35.165443
1783.000000	35.106056
1782.000000	35.052742
1781.000000	34.999633
1780.000000	34.929440
1779.000000	34.834133
1778.000000	34.743561
1777.000000	34.643211
1776.000000	34.543375
1775.000000	34.426043
1774.000000	34.299447
1773.000000	34.181086
1772.000000	34.053770
1771.000000	33.933144
1770.000000	33.798726
1769.000000	33.677791
1768.000000	33.550064
1767.000000	33.429952
1766.000000	33.332587
1765.000000	33.252822
1764.000000	33.175424
1763.000000	33.136210
1762.000000	33.116037
1761.000000	33.134151
1760.000000	33.150104
1759.000000	33.178511
1758.000000	33.219269
1757.000000	33.251895
1756.000000	33.261261
1755.000000	33.278553
1754.000000	33.263114
1753.000000	33.246029
1752.000000	33.227091
1751.000000	33.193538
1750.000000	33.124065
1749.000000	33.048931
1748.000000	32.981208
1747.000000	32.898457
1746.000000	32.786271
1745.000000	32.644546
1744.000000	32.504879
1743.000000	32.343496
1742.000000	32.144134
1741.000000	31.932627
1740.000000	31.710518
1739.000000	31.500041
1738.000000	31.292239
1737.000000	31.120563
1736.000000	30.967928
1735.000000	30.837730
1734.000000	30.785445
1733.000000	30.762802
1732.000000	30.754877
1731.000000	30.791518
1730.000000	30.836701
1729.000000	30.923362
1728.000000	30.985425
1727.000000	31.058397
1726.000000	31.130958
1725.000000	31.179538
1724.000000	31.217928
1723.000000	31.241909
1722.000000	31.289769
1721.000000	31.330835
1720.000000	31.393206
1719.000000	31.455166
1718.000000	31.536270
1717.000000	31.631473
1716.000000	31.754261
1715.000000	31.866035
1714.000000	31.977398
1713.000000	32.067147
1712.000000	32.148045
1711.000000	32.246233
1710.000000	32.304179
1709.000000	32.337320
1708.000000	32.367168
1707.000000	32.375608
1706.000000	32.367168
1705.000000	32.345966
1704.000000	32.325690
1703.000000	32.275566
1702.000000	32.185920
1701.000000	32.098024
1700.000000	31.961136
1699.000000	31.830733
1698.000000	31.735220
1697.000000	31.620049
1696.000000	31.564265
1695.000000	31.537505
1694.000000	31.576204
1693.000000	31.636620
1692.000000	31.735014
1691.000000	31.854405
1690.000000	31.965768
1689.000000	32.033285
1688.000000	32.108419
1687.000000	32.104817
1686.000000	32.139605
1685.000000	32.204961
1684.000000	32.301194
1683.000000	32.555312
1682.000000	32.852142
1681.000000	33.271657
1680.000000	33.758792
1679.000000	34.252926
1678.000000	34.761366
1677.000000	35.237386
1676.000000	35.635801
1675.000000	36.028041
1674.000000	36.370158
1673.000000	36.665856
1672.000000	36.935000
1671.000000	37.168739
1670.000000	37.377467
1669.000000	37.599369
1668.000000	37.784425
1667.000000	38.012400
1666.000000	38.152684
1665.000000	38.281853
1664.000000	38.448794
1663.000000	38.605958
1662.000000	38.707028
1661.000000	38.832491
1660.000000	38.957337
1659.000000	39.058511
1658.000000	39.132306
1657.000000	39.197766
1656.000000	39.260137
1655.000000	39.304497
1654.000000	39.337124
1653.000000	39.340932
1652.000000	39.364810
1651.000000	39.378396
1650.000000	39.375617
1649.000000	39.353077
1648.000000	39.335477
1647.000000	39.320141
1646.000000	39.282574
1645.000000	39.253962
1644.000000	39.213410
1643.000000	39.174608
1642.000000	39.140952
1641.000000	39.098651
1640.000000	39.061804
1639.000000	39.017959
1638.000000	38.968659
1637.000000	38.919050
1636.000000	38.886217
1635.000000	38.826522
1634.000000	38.760342
1633.000000	38.711763
1632.000000	38.646303
1631.000000	38.578580
1630.000000	38.512092
1629.000000	38.427798
1628.000000	38.363265
1627.000000	38.307377
1626.000000	38.238316
1625.000000	38.164520
1624.000000	38.083108
1623.000000	38.011062
1622.000000	37.941074
1621.000000	37.876438
1620.000000	37.802642
1619.000000	37.740271
1618.000000	37.663181
1617.000000	37.595767
1616.000000	37.528249
1615.000000	37.471642
1614.000000	37.402889
1613.000000	37.338459
1612.000000	37.271559
1611.000000	37.208570
1610.000000	37.131583
1609.000000	37.069727
1608.000000	36.999945
1607.000000	36.922135
