PE UV       SUBTECH     SPECTRUM    ASCII       PEDS        4.00        
   -1
CICIMAUCR0141-2.Sample.ASC
24/04/19
15:59:52.00
24/04/19
15:59:52.00
Vinicio Soto Monge
C. kalinini
250,000000
1
Lambda 1050
1050L1511233
PerkinElmer UV WinLab 6.3.2.0749 / 2.02.05 Lambda 900 UV/VIS/NIR, Aug  7 2015 09:38:08

0
0
3350/servo 860,8/2
0
0
UV/VIS
1
1
1
DoubleDePol,CommonBeamDepol,RBeamAtt,SBeamAtt,60mm sphere, WB InGaAs Detector
0
0
0
0
Program
Program
3350/servo 860,8/2
3350/0,2 860,8/0,2
3350/0,2 860,8/0,2
0
15.00
 
 
 
0
 
860,8
319,2
860,8
Front
100
on
S:100 R:100
0
0
0
0
 
0
 
 
 
0
 
 
0
0
0
0
0
 
 
 
 
0
0


0
0
#HDR
-1
-1
#GR
nm
%R
1.0
0.0
2500,000000
-1,000000
2251
8
99,178200
5,799400
#DATA
2482.000000	11.121372
2481.000000	11.098809
2480.000000	11.126167
2479.000000	11.143607
2478.000000	11.130309
2477.000000	11.150146
2476.000000	11.171401
2475.000000	11.233310
2474.000000	11.283230
2473.000000	11.303939
2472.000000	11.276145
2471.000000	11.349608
2470.000000	11.358110
2469.000000	11.442037
2468.000000	11.461438
2467.000000	11.495118
2466.000000	11.582423
2465.000000	11.585257
2464.000000	11.644878
2463.000000	11.690547
2462.000000	11.771313
2461.000000	11.827990
2460.000000	11.914206
2459.000000	11.972192
2458.000000	12.020804
2457.000000	12.089253
2456.000000	12.181899
2455.000000	12.251548
2454.000000	12.358036
2453.000000	12.460056
2452.000000	12.536353
2451.000000	12.631942
2450.000000	12.720665
2449.000000	12.826936
2448.000000	12.915004
2447.000000	13.019749
2446.000000	13.132341
2445.000000	13.217358
2444.000000	13.343902
2443.000000	13.438292
2442.000000	13.542928
2441.000000	13.641460
2440.000000	13.750892
2439.000000	13.873621
2438.000000	13.985668
2437.000000	14.088233
2436.000000	14.176193
2435.000000	14.308295
2434.000000	14.408463
2433.000000	14.515605
2432.000000	14.628743
2431.000000	14.706675
2430.000000	14.791909
2429.000000	14.894365
2428.000000	14.990499
2427.000000	15.075080
2426.000000	15.176882
2425.000000	15.276068
2424.000000	15.351275
2423.000000	15.420269
2422.000000	15.510191
2421.000000	15.589212
2420.000000	15.655918
2419.000000	15.732433
2418.000000	15.790854
2417.000000	15.858323
2416.000000	15.900395
2415.000000	15.966446
2414.000000	16.018764
2413.000000	16.083399
2412.000000	16.116315
2411.000000	16.158170
2410.000000	16.207327
2409.000000	16.227600
2408.000000	16.259863
2407.000000	16.304442
2406.000000	16.338667
2405.000000	16.362319
2404.000000	16.392619
2403.000000	16.424991
2402.000000	16.452785
2401.000000	16.467717
2400.000000	16.490279
2399.000000	16.507392
2398.000000	16.516765
2397.000000	16.537584
2396.000000	16.561672
2395.000000	16.584561
2394.000000	16.585651
2393.000000	16.596441
2392.000000	16.600583
2391.000000	16.622818
2390.000000	16.640258
2389.000000	16.653119
2388.000000	16.657697
2387.000000	16.657152
2386.000000	16.658678
2385.000000	16.658351
2384.000000	16.648759
2383.000000	16.644835
2382.000000	16.635353
2381.000000	16.615516
2380.000000	16.599929
2379.000000	16.592408
2378.000000	16.576386
2377.000000	16.547720
2376.000000	16.526357
2375.000000	16.511643
2374.000000	16.487010
2373.000000	16.469570
2372.000000	16.465755
2371.000000	16.454420
2370.000000	16.426844
2369.000000	16.408860
2368.000000	16.408751
2367.000000	16.407552
2366.000000	16.388369
2365.000000	16.379540
2364.000000	16.389023
2363.000000	16.385644
2362.000000	16.361447
2361.000000	16.357959
2360.000000	16.349893
2359.000000	16.329511
2358.000000	16.319483
2357.000000	16.309892
2356.000000	16.285586
2355.000000	16.268146
2354.000000	16.252342
2353.000000	16.215610
2352.000000	16.193702
2351.000000	16.169178
2350.000000	16.131466
2349.000000	16.116642
2348.000000	16.097350
2347.000000	16.072281
2346.000000	16.045904
2345.000000	16.026939
2344.000000	16.007320
2343.000000	15.977673
2342.000000	15.948135
2341.000000	15.928298
2340.000000	15.920668
2339.000000	15.893201
2338.000000	15.880013
2337.000000	15.880449
2336.000000	15.858868
2335.000000	15.852764
2334.000000	15.864971
2333.000000	15.878487
2332.000000	15.884700
2331.000000	15.894509
2330.000000	15.904864
2329.000000	15.935710
2328.000000	15.957618
2327.000000	15.970370
2326.000000	15.992714
2325.000000	16.023778
2324.000000	16.045141
2323.000000	16.070428
2322.000000	16.083617
2321.000000	16.087759
2320.000000	16.092118
2319.000000	16.099748
2318.000000	16.087323
2317.000000	16.061491
2316.000000	16.045795
2315.000000	16.039255
2314.000000	16.024759
2313.000000	15.986938
2312.000000	15.963612
2311.000000	15.925246
2310.000000	15.888514
2309.000000	15.859740
2308.000000	15.813634
2307.000000	15.788674
2306.000000	15.767856
2305.000000	15.730035
2304.000000	15.708454
2303.000000	15.690796
2302.000000	15.679788
2301.000000	15.656245
2300.000000	15.659515
2299.000000	15.670414
2298.000000	15.676627
2297.000000	15.682186
2296.000000	15.706165
2295.000000	15.712269
2294.000000	15.728291
2293.000000	15.741588
2292.000000	15.755976
2291.000000	15.808730
2290.000000	15.840447
2289.000000	15.868350
2288.000000	15.895708
2287.000000	15.939851
2286.000000	15.966119
2285.000000	16.009500
2284.000000	16.076423
2283.000000	16.075333
2282.000000	16.110212
2281.000000	16.165036
2280.000000	16.197081
2279.000000	16.221932
2278.000000	16.275449
2277.000000	16.309783
2276.000000	16.359049
2275.000000	16.369185
2274.000000	16.394690
2273.000000	16.420631
2272.000000	16.423029
2271.000000	16.460524
2270.000000	16.484939
2269.000000	16.527229
2268.000000	16.560037
2267.000000	16.604289
2266.000000	16.667615
2265.000000	16.746855
2264.000000	16.818901
2263.000000	16.902392
2262.000000	17.001796
2261.000000	17.115806
2260.000000	17.242132
2259.000000	17.361918
2258.000000	17.486391
2257.000000	17.647377
2256.000000	17.792342
2255.000000	17.975127
2254.000000	18.126958
2253.000000	18.284675
2252.000000	18.460158
2251.000000	18.644906
2250.000000	18.787908
2249.000000	18.931128
2248.000000	19.092006
2247.000000	19.218332
2246.000000	19.384223
2245.000000	19.491148
2244.000000	19.596111
2243.000000	19.690610
2242.000000	19.795028
2241.000000	19.897375
2240.000000	19.973781
2239.000000	20.012910
2238.000000	20.068934
2237.000000	20.093785
2236.000000	20.139563
2235.000000	20.143596
2234.000000	20.170082
2233.000000	20.154168
2232.000000	20.150572
2231.000000	20.122887
2230.000000	20.114058
2229.000000	20.076346
2228.000000	20.023701
2227.000000	19.985007
2226.000000	19.928765
2225.000000	19.883968
2224.000000	19.834593
2223.000000	19.747833
2222.000000	19.658129
2221.000000	19.584339
2220.000000	19.522212
2219.000000	19.443190
2218.000000	19.335938
2217.000000	19.231520
2216.000000	19.147812
2215.000000	19.076092
2214.000000	18.990095
2213.000000	18.904097
2212.000000	18.841752
2211.000000	18.758152
2210.000000	18.653080
2209.000000	18.587792
2208.000000	18.559889
2207.000000	18.483810
2206.000000	18.389420
2205.000000	18.333505
2204.000000	18.277263
2203.000000	18.202383
2202.000000	18.154643
2201.000000	18.111045
2200.000000	18.067011
2199.000000	18.006627
2198.000000	17.945480
2197.000000	17.915180
2196.000000	17.882699
2195.000000	17.844441
2194.000000	17.801497
2193.000000	17.756264
2192.000000	17.728361
2191.000000	17.686834
2190.000000	17.651955
2189.000000	17.617077
2188.000000	17.597784
2187.000000	17.571298
2186.000000	17.526174
2185.000000	17.504920
2184.000000	17.467644
2183.000000	17.445626
2182.000000	17.401701
2181.000000	17.365188
2180.000000	17.333034
2179.000000	17.303278
2178.000000	17.290635
2177.000000	17.266002
2176.000000	17.230469
2175.000000	17.220768
2174.000000	17.220550
2173.000000	17.207362
2172.000000	17.210959
2171.000000	17.209978
2170.000000	17.207035
2169.000000	17.219242
2168.000000	17.254993
2167.000000	17.268399
2166.000000	17.282569
2165.000000	17.309709
2164.000000	17.336086
2163.000000	17.370310
2162.000000	17.439305
2161.000000	17.497617
2160.000000	17.515711
2159.000000	17.576203
2158.000000	17.653045
2157.000000	17.736536
2156.000000	17.809781
2155.000000	17.884225
2154.000000	17.977852
2153.000000	18.071152
2152.000000	18.170665
2151.000000	18.263094
2150.000000	18.369801
2149.000000	18.472038
2148.000000	18.564685
2147.000000	18.676732
2146.000000	18.787690
2145.000000	18.893961
2144.000000	18.989441
2143.000000	19.087755
2142.000000	19.201764
2141.000000	19.290487
2140.000000	19.377247
2139.000000	19.484608
2138.000000	19.583140
2137.000000	19.670991
2136.000000	19.754263
2135.000000	19.839171
2134.000000	19.935196
2133.000000	20.028605
2132.000000	20.111660
2131.000000	20.176077
2130.000000	20.238422
2129.000000	20.305890
2128.000000	20.361805
2127.000000	20.434287
2126.000000	20.492818
2125.000000	20.540449
2124.000000	20.586554
2123.000000	20.647265
2122.000000	20.706340
2121.000000	20.743835
2120.000000	20.785907
2119.000000	20.815227
2118.000000	20.844656
2117.000000	20.883785
2116.000000	20.912342
2115.000000	20.948093
2114.000000	20.964442
2113.000000	20.983189
2112.000000	21.003027
2111.000000	21.010983
2110.000000	21.030384
2109.000000	21.049786
2108.000000	21.057524
2107.000000	21.059595
2106.000000	21.077144
2105.000000	21.088043
2104.000000	21.097635
2103.000000	21.107444
2102.000000	21.108534
2101.000000	21.129462
2100.000000	21.142868
2099.000000	21.157909
2098.000000	21.179818
2097.000000	21.185376
2096.000000	21.196712
2095.000000	21.226468
2094.000000	21.265488
2093.000000	21.290230
2092.000000	21.318351
2091.000000	21.357153
2090.000000	21.382004
2089.000000	21.395847
2088.000000	21.423641
2087.000000	21.446748
2086.000000	21.462334
2085.000000	21.489256
2084.000000	21.486640
2083.000000	21.487839
2082.000000	21.476504
2081.000000	21.453942
2080.000000	21.418409
2079.000000	21.374048
2078.000000	21.345055
2077.000000	21.305381
2076.000000	21.260147
2075.000000	21.180144
2074.000000	21.103957
2073.000000	21.028423
2072.000000	20.945259
2071.000000	20.836590
2070.000000	20.743944
2069.000000	20.644104
2068.000000	20.534454
2067.000000	20.428510
2066.000000	20.311776
2065.000000	20.191663
2064.000000	20.060432
2063.000000	19.940428
2062.000000	19.835574
2061.000000	19.724072
2060.000000	19.627392
2059.000000	19.538888
2058.000000	19.469894
2057.000000	19.396867
2056.000000	19.330706
2055.000000	19.294629
2054.000000	19.271522
2053.000000	19.256044
2052.000000	19.272503
2051.000000	19.339862
2050.000000	19.389891
2049.000000	19.450928
2048.000000	19.556872
2047.000000	19.669247
2046.000000	19.787071
2045.000000	19.917648
2044.000000	20.048225
2043.000000	20.194715
2042.000000	20.347636
2041.000000	20.500884
2040.000000	20.613040
2039.000000	20.738058
2038.000000	20.876483
2037.000000	21.003027
2036.000000	21.122377
2035.000000	21.260365
2034.000000	21.356390
2033.000000	21.455686
2032.000000	21.555199
2031.000000	21.639234
2030.000000	21.732316
2029.000000	21.828996
2028.000000	21.910960
2027.000000	21.972652
2026.000000	22.049603
2025.000000	22.105518
2024.000000	22.161323
2023.000000	22.234132
2022.000000	22.277077
2021.000000	22.336261
2020.000000	22.375500
2019.000000	22.424548
2018.000000	22.466729
2017.000000	22.506622
2016.000000	22.519701
2015.000000	22.529947
2014.000000	22.541609
2013.000000	22.550547
2012.000000	22.570493
2011.000000	22.562754
2010.000000	22.557850
2009.000000	22.550983
2008.000000	22.522317
2007.000000	22.483842
2006.000000	22.454522
2005.000000	22.412013
2004.000000	22.380841
2003.000000	22.318713
2002.000000	22.228574
2001.000000	22.184866
2000.000000	22.127426
1999.000000	22.063227
1998.000000	21.993688
1997.000000	21.911723
1996.000000	21.824418
1995.000000	21.740382
1994.000000	21.650679
1993.000000	21.565444
1992.000000	21.479992
1991.000000	21.359660
1990.000000	21.256877
1989.000000	21.152242
1988.000000	21.041502
1987.000000	20.938174
1986.000000	20.835391
1985.000000	20.725088
1984.000000	20.622087
1983.000000	20.502083
1982.000000	20.405948
1981.000000	20.286489
1980.000000	20.185341
1979.000000	20.066209
1978.000000	19.958194
1977.000000	19.868382
1976.000000	19.756443
1975.000000	19.654532
1974.000000	19.545646
1973.000000	19.441446
1972.000000	19.331687
1971.000000	19.235880
1970.000000	19.127211
1969.000000	19.035001
1968.000000	18.949766
1967.000000	18.846548
1966.000000	18.772757
1965.000000	18.663217
1964.000000	18.566429
1963.000000	18.485445
1962.000000	18.374814
1961.000000	18.281514
1960.000000	18.172409
1959.000000	18.090445
1958.000000	17.999978
1957.000000	17.899702
1956.000000	17.819481
1955.000000	17.713756
1954.000000	17.606940
1953.000000	17.511460
1952.000000	17.439850
1951.000000	17.357231
1950.000000	17.248453
1949.000000	17.187961
1948.000000	17.125288
1947.000000	17.055204
1946.000000	17.002014
1945.000000	16.928660
1944.000000	16.872745
1943.000000	16.810618
1942.000000	16.790999
1941.000000	16.779881
1940.000000	16.755684
1939.000000	16.736065
1938.000000	16.691376
1937.000000	16.650394
1936.000000	16.666089
1935.000000	16.681567
1934.000000	16.712413
1933.000000	16.738354
1932.000000	16.794050
1931.000000	16.847022
1930.000000	16.910022
1929.000000	16.971277
1928.000000	17.051389
1927.000000	17.134662
1926.000000	17.233303
1925.000000	17.352217
1924.000000	17.491950
1923.000000	17.637786
1922.000000	17.782314
1921.000000	17.946788
1920.000000	18.100908
1919.000000	18.291106
1918.000000	18.495582
1917.000000	18.728396
1916.000000	18.969822
1915.000000	19.240131
1914.000000	19.518615
1913.000000	19.837863
1912.000000	20.134222
1911.000000	20.437775
1910.000000	20.786779
1909.000000	21.154749
1908.000000	21.558795
1907.000000	21.992707
1906.000000	22.510981
1905.000000	23.024460
1904.000000	23.515812
1903.000000	24.042043
1902.000000	24.607077
1901.000000	25.201648
1900.000000	25.839055
1899.000000	26.467851
1898.000000	27.114740
1897.000000	27.800214
1896.000000	28.433914
1895.000000	29.074809
1894.000000	29.757884
1893.000000	30.471697
1892.000000	31.216464
1891.000000	31.935727
1890.000000	32.597548
1889.000000	33.226780
1888.000000	33.891654
1887.000000	34.511185
1886.000000	35.111969
1885.000000	35.701091
1884.000000	36.297079
1883.000000	36.840858
1882.000000	37.310193
1881.000000	37.801110
1880.000000	38.248210
1879.000000	38.674601
1878.000000	39.088130
1877.000000	39.478989
1876.000000	39.838784
1875.000000	40.183319
1874.000000	40.524693
1873.000000	40.843723
1872.000000	41.119373
1871.000000	41.367339
1870.000000	41.562223
1869.000000	41.772693
1868.000000	41.944907
1867.000000	42.082786
1866.000000	42.204861
1865.000000	42.331623
1864.000000	42.475933
1863.000000	42.610216
1862.000000	42.756488
1861.000000	42.881179
1860.000000	42.997696
1859.000000	43.088598
1858.000000	43.159227
1857.000000	43.233017
1856.000000	43.297325
1855.000000	43.344956
1854.000000	43.378635
1853.000000	43.376346
1852.000000	43.385393
1851.000000	43.448393
1850.000000	43.503544
1849.000000	43.554772
1848.000000	43.556516
1847.000000	43.481418
1846.000000	43.403595
1845.000000	43.383540
1844.000000	43.400435
1843.000000	43.428991
1842.000000	43.438147
1841.000000	43.391497
1840.000000	43.330677
1839.000000	43.280975
1838.000000	43.238467
1837.000000	43.198357
1836.000000	43.120534
1835.000000	43.039114
1834.000000	42.980256
1833.000000	42.945160
1832.000000	42.928047
1831.000000	42.904395
1830.000000	42.868972
1829.000000	42.834420
1828.000000	42.788642
1827.000000	42.755507
1826.000000	42.731419
1825.000000	42.703298
1824.000000	42.704061
1823.000000	42.745698
1822.000000	42.797253
1821.000000	42.816109
1820.000000	42.800740
1819.000000	42.769895
1818.000000	42.745044
1817.000000	42.749730
1816.000000	42.762592
1815.000000	42.741556
1814.000000	42.734253
1813.000000	42.743082
1812.000000	42.726078
1811.000000	42.686404
1810.000000	42.625366
1809.000000	42.605093
1808.000000	42.598009
1807.000000	42.591469
1806.000000	42.557680
1805.000000	42.516916
1804.000000	42.491084
1803.000000	42.507433
1802.000000	42.511030
1801.000000	42.482364
1800.000000	42.443017
1799.000000	42.407157
1798.000000	42.386775
1797.000000	42.389173
1796.000000	42.374022
1795.000000	42.342959
1794.000000	42.331841
1793.000000	42.312985
1792.000000	42.298597
1791.000000	42.301758
1790.000000	42.305355
1789.000000	42.313421
1788.000000	42.303829
1787.000000	42.322468
1786.000000	42.340888
1785.000000	42.358436
1784.000000	42.354294
1783.000000	42.350370
1782.000000	42.355384
1781.000000	42.336310
1780.000000	42.306009
1779.000000	42.279087
1778.000000	42.251729
1777.000000	42.213690
1776.000000	42.177285
1775.000000	42.129981
1774.000000	42.061968
1773.000000	42.028942
1772.000000	41.967469
1771.000000	41.922889
1770.000000	41.882452
1769.000000	41.837982
1768.000000	41.802667
1767.000000	41.765936
1766.000000	41.720702
1765.000000	41.688985
1764.000000	41.680701
1763.000000	41.659338
1762.000000	41.658357
1761.000000	41.653234
1760.000000	41.658575
1759.000000	41.674270
1758.000000	41.673507
1757.000000	41.680156
1756.000000	41.696287
1755.000000	41.698358
1754.000000	41.698249
1753.000000	41.710675
1752.000000	41.714272
1751.000000	41.705443
1750.000000	41.674270
1749.000000	41.630454
1748.000000	41.587619
1747.000000	41.521240
1746.000000	41.418349
1745.000000	41.351861
1744.000000	41.261940
1743.000000	41.140301
1742.000000	41.012013
1741.000000	40.899529
1740.000000	40.802741
1739.000000	40.683064
1738.000000	40.562079
1737.000000	40.480441
1736.000000	40.381800
1735.000000	40.284140
1734.000000	40.212966
1733.000000	40.115523
1732.000000	40.012087
1731.000000	39.901892
1730.000000	39.810990
1729.000000	39.714855
1728.000000	39.644880
1727.000000	39.562371
1726.000000	39.480406
1725.000000	39.453048
1724.000000	39.441167
1723.000000	39.503513
1722.000000	39.588965
1721.000000	39.763141
1720.000000	39.969905
1719.000000	40.237926
1718.000000	40.522404
1717.000000	40.803068
1716.000000	41.101389
1715.000000	41.368538
1714.000000	41.631435
1713.000000	41.860653
1712.000000	42.067527
1711.000000	42.238541
1710.000000	42.427539
1709.000000	42.578171
1708.000000	42.706895
1707.000000	42.818834
1706.000000	42.910826
1705.000000	42.992028
1704.000000	43.065164
1703.000000	43.127400
1702.000000	43.127400
1701.000000	43.164241
1700.000000	43.162606
1699.000000	43.164132
1698.000000	43.170999
1697.000000	43.135357
1696.000000	43.082058
1695.000000	43.002382
1694.000000	42.915622
1693.000000	42.795182
1692.000000	42.665259
1691.000000	42.540350
1690.000000	42.452063
1689.000000	42.386993
1688.000000	42.375657
1687.000000	42.437567
1686.000000	42.582531
1685.000000	42.775671
1684.000000	43.003690
1683.000000	43.265825
1682.000000	43.564255
1681.000000	43.860069
1680.000000	44.138008
1679.000000	44.388916
1678.000000	44.609959
1677.000000	44.852802
1676.000000	45.058367
1675.000000	45.251617
1674.000000	45.425465
1673.000000	45.639314
1672.000000	45.855126
1671.000000	46.077368
1670.000000	46.307567
1669.000000	46.508882
1668.000000	46.732868
1667.000000	47.014076
1666.000000	47.191848
1665.000000	47.384771
1664.000000	47.565158
1663.000000	47.763313
1662.000000	47.945880
1661.000000	48.101417
1660.000000	48.238643
1659.000000	48.375977
1658.000000	48.489769
1657.000000	48.595385
1656.000000	48.691847
1655.000000	48.754519
1654.000000	48.820679
1653.000000	48.875722
1652.000000	48.930329
1651.000000	48.956379
1650.000000	48.974690
1649.000000	48.997688
1648.000000	49.014692
1647.000000	49.004337
1646.000000	48.996053
1645.000000	49.005863
1644.000000	49.007062
1643.000000	48.996271
1642.000000	49.004010
1641.000000	48.993002
1640.000000	49.002920
1639.000000	48.999868
1638.000000	48.993982
1637.000000	48.956488
1636.000000	48.944607
1635.000000	48.924334
1634.000000	48.893162
1633.000000	48.844004
1632.000000	48.809453
1631.000000	48.770432
1630.000000	48.703182
1629.000000	48.665252
1628.000000	48.611735
1627.000000	48.575766
1626.000000	48.509824
1625.000000	48.457070
1624.000000	48.396250
1623.000000	48.341970
1622.000000	48.298372
1621.000000	48.249651
1620.000000	48.209105
1619.000000	48.158640
1618.000000	48.097711
1617.000000	48.056402
1616.000000	48.017708
1615.000000	47.950131
1614.000000	47.882445
1613.000000	47.816720
1612.000000	47.756337
1611.000000	47.676443
1610.000000	47.606250
1609.000000	47.535621
1608.000000	47.448533
1607.000000	47.346186
1606.000000	47.248308
