PE UV       SUBTECH     SPECTRUM    ASCII       PEDS        4.00        
   -1
CICIMAUCR0253-1.ASC
24/06/26
11:50:58.00
24/06/26
11:50:58.00
Vinicio Soto Monge
C. resplendens. Sex M. Dorsal.
250,000000
1
Lambda 1050
1050L1511233
PerkinElmer UV WinLab 6.3.2.0749 / 2.02.05 Lambda 900 UV/VIS/NIR, Aug  7 2015 09:38:08

0
0
3350/servo 860,8/2
0
0
UV/VIS
1
1
1
DoubleDePol,CommonBeamDepol,RBeamAtt,SBeamAtt,60mm sphere, WB InGaAs Detector
0
0
0
0
Program
Program
3350/servo 860,8/2
3350/0,2 860,8/0,2
3350/0,2 860,8/0,2
0
15.00
 
 
 
0
 
860,8
319,2
860,8
Front
100
on
S:100 R:100
0
0
0
0
 
0
 
 
 
0
 
 
0
0
0
0
0
 
 
 
 
0
0


0
0
#HDR
-1
-1
#GR
nm
%R
1.0
0.0
2500,000000
-1,000000
2251
8
92,405500
5,523500
#DATA
2482.000000	9.759649
2481.000000	9.758444
2480.000000	9.821727
2479.000000	9.811682
2478.000000	9.748499
2477.000000	9.780744
2476.000000	9.800633
2475.000000	9.779840
2474.000000	9.850355
2473.000000	9.862509
2472.000000	9.895155
2471.000000	9.875065
2470.000000	9.918560
2469.000000	9.940458
2468.000000	9.967177
2467.000000	9.969689
2466.000000	9.967579
2465.000000	10.008462
2464.000000	10.044523
2463.000000	10.123075
2462.000000	10.149593
2461.000000	10.204439
2460.000000	10.222017
2459.000000	10.254462
2458.000000	10.332913
2457.000000	10.400315
2456.000000	10.427235
2455.000000	10.502672
2454.000000	10.591168
2453.000000	10.660277
2452.000000	10.744554
2451.000000	10.793875
2450.000000	10.852035
2449.000000	10.964438
2448.000000	11.041482
2447.000000	11.127868
2446.000000	11.232235
2445.000000	11.308074
2444.000000	11.413747
2443.000000	11.476528
2442.000000	11.565626
2441.000000	11.644680
2440.000000	11.740609
2439.000000	11.837542
2438.000000	11.890781
2437.000000	11.991431
2436.000000	12.085552
2435.000000	12.171335
2434.000000	12.213624
2433.000000	12.290368
2432.000000	12.351240
2431.000000	12.444055
2430.000000	12.521200
2429.000000	12.590209
2428.000000	12.658313
2427.000000	12.713259
2426.000000	12.779756
2425.000000	12.837515
2424.000000	12.916970
2423.000000	12.969103
2422.000000	13.020131
2421.000000	13.075579
2420.000000	13.132735
2419.000000	13.192703
2418.000000	13.240919
2417.000000	13.279491
2416.000000	13.324392
2415.000000	13.391794
2414.000000	13.419819
2413.000000	13.467432
2412.000000	13.528405
2411.000000	13.572100
2410.000000	13.623731
2409.000000	13.656879
2408.000000	13.705999
2407.000000	13.734225
2406.000000	13.774104
2405.000000	13.830556
2404.000000	13.874352
2403.000000	13.912623
2402.000000	13.933617
2401.000000	13.976810
2400.000000	14.021008
2399.000000	14.052448
2398.000000	14.100162
2397.000000	14.133009
2396.000000	14.163143
2395.000000	14.209551
2394.000000	14.234462
2393.000000	14.268716
2392.000000	14.307790
2391.000000	14.337423
2390.000000	14.369868
2389.000000	14.397692
2388.000000	14.421599
2387.000000	14.430841
2386.000000	14.457359
2385.000000	14.471523
2384.000000	14.494626
2383.000000	14.513109
2382.000000	14.515921
2381.000000	14.534504
2380.000000	14.531491
2379.000000	14.534103
2378.000000	14.539326
2377.000000	14.533199
2376.000000	14.533299
2375.000000	14.529884
2374.000000	14.516926
2373.000000	14.512707
2372.000000	14.511200
2371.000000	14.497137
2370.000000	14.489604
2369.000000	14.476545
2368.000000	14.449524
2367.000000	14.433452
2366.000000	14.398597
2365.000000	14.371977
2364.000000	14.350180
2363.000000	14.313014
2362.000000	14.269419
2361.000000	14.230444
2360.000000	14.189260
2359.000000	14.149985
2358.000000	14.116133
2357.000000	14.076355
2356.000000	14.035975
2355.000000	14.000717
2354.000000	13.966062
2353.000000	13.932211
2352.000000	13.918650
2351.000000	13.932713
2350.000000	13.906194
2349.000000	13.894643
2348.000000	13.927289
2347.000000	13.946977
2346.000000	13.973495
2345.000000	14.000215
2344.000000	14.025227
2343.000000	14.061187
2342.000000	14.108600
2341.000000	14.151391
2340.000000	14.177910
2339.000000	14.212866
2338.000000	14.250032
2337.000000	14.279062
2336.000000	14.293225
2335.000000	14.300156
2334.000000	14.290312
2333.000000	14.306485
2332.000000	14.315425
2331.000000	14.291216
2330.000000	14.263191
2329.000000	14.231750
2328.000000	14.208446
2327.000000	14.165454
2326.000000	14.117339
2325.000000	14.063397
2324.000000	14.008753
2323.000000	13.953104
2322.000000	13.869129
2321.000000	13.779026
2320.000000	13.703789
2319.000000	13.607458
2318.000000	13.496562
2317.000000	13.381749
2316.000000	13.275373
2315.000000	13.154332
2314.000000	13.042331
2313.000000	12.941982
2312.000000	12.810996
2311.000000	12.698292
2310.000000	12.609796
2309.000000	12.529939
2308.000000	12.456008
2307.000000	12.375750
2306.000000	12.316384
2305.000000	12.292477
2304.000000	12.258827
2303.000000	12.270378
2302.000000	12.285647
2301.000000	12.311562
2300.000000	12.360883
2299.000000	12.427682
2298.000000	12.511356
2297.000000	12.583278
2296.000000	12.674385
2295.000000	12.746307
2294.000000	12.824557
2293.000000	12.922997
2292.000000	13.013401
2291.000000	13.085524
2290.000000	13.149209
2289.000000	13.209177
2288.000000	13.257091
2287.000000	13.277282
2286.000000	13.291746
2285.000000	13.308019
2284.000000	13.309626
2283.000000	13.292248
2282.000000	13.269145
2281.000000	13.215003
2280.000000	13.196319
2279.000000	13.136452
2278.000000	13.087131
2277.000000	13.030578
2276.000000	12.976637
2275.000000	12.924705
2274.000000	12.886936
2273.000000	12.827570
2272.000000	12.773328
2271.000000	12.749220
2270.000000	12.760972
2269.000000	12.768807
2268.000000	12.788295
2267.000000	12.812603
2266.000000	12.875384
2265.000000	12.975733
2264.000000	13.072666
2263.000000	13.199433
2262.000000	13.359851
2261.000000	13.536541
2260.000000	13.708611
2259.000000	13.932914
2258.000000	14.148377
2257.000000	14.401208
2256.000000	14.643994
2255.000000	14.859859
2254.000000	15.112690
2253.000000	15.370744
2252.000000	15.635629
2251.000000	15.842956
2250.000000	16.055005
2249.000000	16.278705
2248.000000	16.480508
2247.000000	16.666037
2246.000000	16.824848
2245.000000	17.001337
2244.000000	17.152513
2243.000000	17.287617
2242.000000	17.413480
2241.000000	17.527992
2240.000000	17.631154
2239.000000	17.714527
2238.000000	17.792074
2237.000000	17.865703
2236.000000	17.929488
2235.000000	17.987648
2234.000000	18.040485
2233.000000	18.105174
2232.000000	18.146860
2231.000000	18.162932
2230.000000	18.166046
2229.000000	18.193770
2228.000000	18.193469
2227.000000	18.205422
2226.000000	18.178301
2225.000000	18.176593
2224.000000	18.137418
2223.000000	18.139126
2222.000000	18.111000
2221.000000	18.074436
2220.000000	18.020294
2219.000000	17.968663
2218.000000	17.953596
2217.000000	17.895034
2216.000000	17.864698
2215.000000	17.819295
2214.000000	17.765555
2213.000000	17.714527
2212.000000	17.676657
2211.000000	17.625830
2210.000000	17.574802
2209.000000	17.539243
2208.000000	17.494041
2207.000000	17.463605
2206.000000	17.414485
2205.000000	17.401828
2204.000000	17.374104
2203.000000	17.332619
2202.000000	17.303790
2201.000000	17.302383
2200.000000	17.257985
2199.000000	17.259492
2198.000000	17.205751
2197.000000	17.179735
2196.000000	17.162960
2195.000000	17.135638
2194.000000	17.139254
2193.000000	17.108516
2192.000000	17.090034
2191.000000	17.065022
2190.000000	17.078281
2189.000000	17.049452
2188.000000	17.021427
2187.000000	17.009775
2186.000000	16.977229
2185.000000	16.954628
2184.000000	16.951313
2183.000000	16.930721
2182.000000	16.892048
2181.000000	16.882606
2180.000000	16.859603
2179.000000	16.814501
2178.000000	16.825350
2177.000000	16.812292
2176.000000	16.813798
2175.000000	16.795918
2174.000000	16.776431
2173.000000	16.779746
2172.000000	16.775427
2171.000000	16.793608
2170.000000	16.788586
2169.000000	16.786878
2168.000000	16.824245
2167.000000	16.828464
2166.000000	16.842929
2165.000000	16.856791
2164.000000	16.861411
2163.000000	16.895363
2162.000000	16.937351
2161.000000	16.962564
2160.000000	16.991995
2159.000000	17.024340
2158.000000	17.063214
2157.000000	17.104298
2156.000000	17.136140
2155.000000	17.176822
2154.000000	17.212582
2153.000000	17.261902
2152.000000	17.306201
2151.000000	17.345074
2150.000000	17.393591
2149.000000	17.441104
2148.000000	17.502880
2147.000000	17.547178
2146.000000	17.580126
2145.000000	17.623319
2144.000000	17.652750
2143.000000	17.701067
2142.000000	17.739940
2141.000000	17.777207
2140.000000	17.810054
2139.000000	17.835568
2138.000000	17.846316
2137.000000	17.869520
2136.000000	17.902467
2135.000000	17.926475
2134.000000	17.945962
2133.000000	17.967659
2132.000000	17.967960
2131.000000	17.961833
2130.000000	17.980918
2129.000000	17.988854
2128.000000	17.996789
2127.000000	17.988753
2126.000000	17.981420
2125.000000	17.965851
2124.000000	17.968663
2123.000000	17.952893
2122.000000	17.935415
2121.000000	17.911809
2120.000000	17.890815
2119.000000	17.869821
2118.000000	17.843303
2117.000000	17.805534
2116.000000	17.777207
2115.000000	17.745867
2114.000000	17.708801
2113.000000	17.687807
2112.000000	17.659179
2111.000000	17.615584
2110.000000	17.570683
2109.000000	17.532312
2108.000000	17.506095
2107.000000	17.462801
2106.000000	17.425032
2105.000000	17.371091
2104.000000	17.333724
2103.000000	17.300274
2102.000000	17.260396
2101.000000	17.225841
2100.000000	17.184757
2099.000000	17.150504
2098.000000	17.116552
2097.000000	17.087623
2096.000000	17.048950
2095.000000	17.004351
2094.000000	16.980343
2093.000000	16.961861
2092.000000	16.926402
2091.000000	16.880497
2090.000000	16.849056
2089.000000	16.825149
2088.000000	16.789590
2087.000000	16.751218
2086.000000	16.711240
2085.000000	16.674877
2084.000000	16.637912
2083.000000	16.601750
2082.000000	16.564986
2081.000000	16.520587
2080.000000	16.455496
2079.000000	16.398340
2078.000000	16.339979
2077.000000	16.288449
2076.000000	16.248068
2075.000000	16.185689
2074.000000	16.112964
2073.000000	16.041444
2072.000000	15.978965
2071.000000	15.916184
2070.000000	15.842956
2069.000000	15.760789
2068.000000	15.680229
2067.000000	15.604691
2066.000000	15.533974
2065.000000	15.467477
2064.000000	15.406103
2063.000000	15.330665
2062.000000	15.250808
2061.000000	15.188831
2060.000000	15.118315
2059.000000	15.046695
2058.000000	14.999183
2057.000000	14.966737
2056.000000	14.930174
2055.000000	14.881356
2054.000000	14.854335
2053.000000	14.849312
2052.000000	14.841377
2051.000000	14.845194
2050.000000	14.861065
2049.000000	14.880552
2048.000000	14.908979
2047.000000	14.951067
2046.000000	14.989539
2045.000000	15.030925
2044.000000	15.094509
2043.000000	15.154276
2042.000000	15.215450
2041.000000	15.278231
2040.000000	15.318209
2039.000000	15.373256
2038.000000	15.426293
2037.000000	15.477221
2036.000000	15.533372
2035.000000	15.569734
2034.000000	15.608106
2033.000000	15.638241
2032.000000	15.677014
2031.000000	15.703533
2030.000000	15.722919
2029.000000	15.733868
2028.000000	15.747730
2027.000000	15.761592
2026.000000	15.752552
2025.000000	15.748233
2024.000000	15.746625
2023.000000	15.740900
2022.000000	15.748434
2021.000000	15.736078
2020.000000	15.725330
2019.000000	15.710564
2018.000000	15.683845
2017.000000	15.649089
2016.000000	15.622772
2015.000000	15.595048
2014.000000	15.563306
2013.000000	15.529052
2012.000000	15.497110
2011.000000	15.455624
2010.000000	15.401984
2009.000000	15.347742
2008.000000	15.311680
2007.000000	15.269492
2006.000000	15.208619
2005.000000	15.153975
2004.000000	15.102344
2003.000000	15.032030
2002.000000	14.971459
2001.000000	14.887885
2000.000000	14.834446
1999.000000	14.759611
1998.000000	14.697232
1997.000000	14.630032
1996.000000	14.558813
1995.000000	14.454848
1994.000000	14.383127
1993.000000	14.309297
1992.000000	14.206236
1991.000000	14.126279
1990.000000	14.043006
1989.000000	13.961140
1988.000000	13.861293
1987.000000	13.771090
1986.000000	13.677572
1985.000000	13.588272
1984.000000	13.493649
1983.000000	13.411884
1982.000000	13.317562
1981.000000	13.221934
1980.000000	13.137456
1979.000000	13.048056
1978.000000	12.957451
1977.000000	12.860317
1976.000000	12.754343
1975.000000	12.669865
1974.000000	12.569717
1973.000000	12.461433
1972.000000	12.399857
1971.000000	12.321507
1970.000000	12.238837
1969.000000	12.146826
1968.000000	12.059234
1967.000000	11.996252
1966.000000	11.896807
1965.000000	11.846583
1964.000000	11.760699
1963.000000	11.688677
1962.000000	11.610728
1961.000000	11.524743
1960.000000	11.456739
1959.000000	11.366536
1958.000000	11.304157
1957.000000	11.231733
1956.000000	11.169053
1955.000000	11.099542
1954.000000	11.031638
1953.000000	10.967953
1952.000000	10.889502
1951.000000	10.822101
1950.000000	10.773383
1949.000000	10.721752
1948.000000	10.679162
1947.000000	10.628937
1946.000000	10.600711
1945.000000	10.541245
1944.000000	10.484089
1943.000000	10.457972
1942.000000	10.418195
1941.000000	10.421911
1940.000000	10.416386
1939.000000	10.382535
1938.000000	10.374198
1937.000000	10.340949
1936.000000	10.352400
1935.000000	10.346072
1934.000000	10.362847
1933.000000	10.385348
1932.000000	10.419902
1931.000000	10.464100
1930.000000	10.498353
1929.000000	10.577306
1928.000000	10.613870
1927.000000	10.677253
1926.000000	10.750380
1925.000000	10.810147
1924.000000	10.902259
1923.000000	11.019484
1922.000000	11.107377
1921.000000	11.219980
1920.000000	11.339214
1919.000000	11.437955
1918.000000	11.569142
1917.000000	11.746535
1916.000000	11.885256
1915.000000	12.074804
1914.000000	12.252297
1913.000000	12.439736
1912.000000	12.634005
1911.000000	12.796130
1910.000000	13.008781
1909.000000	13.234289
1908.000000	13.483705
1907.000000	13.732819
1906.000000	14.001119
1905.000000	14.270825
1904.000000	14.546960
1903.000000	14.827013
1902.000000	15.146743
1901.000000	15.489676
1900.000000	15.820456
1899.000000	16.171124
1898.000000	16.539170
1897.000000	16.917462
1896.000000	17.306502
1895.000000	17.694939
1894.000000	18.118333
1893.000000	18.572866
1892.000000	19.051707
1891.000000	19.595841
1890.000000	20.108634
1889.000000	20.606159
1888.000000	21.123172
1887.000000	21.695431
1886.000000	22.258148
1885.000000	22.845073
1884.000000	23.413816
1883.000000	24.011188
1882.000000	24.630257
1881.000000	25.179614
1880.000000	25.767845
1879.000000	26.303139
1878.000000	26.828890
1877.000000	27.353034
1876.000000	27.847345
1875.000000	28.337336
1874.000000	28.815977
1873.000000	29.253735
1872.000000	29.681749
1871.000000	30.068981
1870.000000	30.418645
1869.000000	30.750228
1868.000000	31.070460
1867.000000	31.347399
1866.000000	31.588175
1865.000000	31.779431
1864.000000	31.992082
1863.000000	32.199309
1862.000000	32.391870
1861.000000	32.585034
1860.000000	32.769358
1859.000000	32.948761
1858.000000	33.070304
1857.000000	33.187830
1856.000000	33.314195
1855.000000	33.410224
1854.000000	33.494401
1853.000000	33.564113
1852.000000	33.610520
1851.000000	33.677520
1850.000000	33.772846
1849.000000	33.834924
1848.000000	33.867168
1847.000000	33.880427
1846.000000	33.849188
1845.000000	33.819153
1844.000000	33.848083
1843.000000	33.891376
1842.000000	33.956769
1841.000000	33.986301
1840.000000	33.953856
1839.000000	33.950842
1838.000000	33.946121
1837.000000	33.927538
1836.000000	33.907247
1835.000000	33.875003
1834.000000	33.824377
1833.000000	33.782489
1832.000000	33.773750
1831.000000	33.773248
1830.000000	33.742209
1829.000000	33.700925
1828.000000	33.674607
1827.000000	33.620063
1826.000000	33.563610
1825.000000	33.536791
1824.000000	33.509870
1823.000000	33.503341
1822.000000	33.528152
1821.000000	33.526746
1820.000000	33.481543
1819.000000	33.429511
1818.000000	33.388527
1817.000000	33.377478
1816.000000	33.369442
1815.000000	33.367534
1814.000000	33.358192
1813.000000	33.345636
1812.000000	33.338504
1811.000000	33.310378
1810.000000	33.268691
1809.000000	33.230420
1808.000000	33.210632
1807.000000	33.190341
1806.000000	33.162014
1805.000000	33.109881
1804.000000	33.067793
1803.000000	33.037658
1802.000000	33.002903
1801.000000	32.975982
1800.000000	32.932789
1799.000000	32.876638
1798.000000	32.836358
1797.000000	32.805219
1796.000000	32.770262
1795.000000	32.735708
1794.000000	32.706778
1793.000000	32.674635
1792.000000	32.635058
1791.000000	32.600403
1790.000000	32.566652
1789.000000	32.535613
1788.000000	32.506081
1787.000000	32.472732
1786.000000	32.446313
1785.000000	32.414772
1784.000000	32.374693
1783.000000	32.327884
1782.000000	32.284188
1781.000000	32.242301
1780.000000	32.205034
1779.000000	32.157823
1778.000000	32.108804
1777.000000	32.063300
1776.000000	32.014984
1775.000000	31.968577
1774.000000	31.894345
1773.000000	31.830459
1772.000000	31.772098
1771.000000	31.694752
1770.000000	31.630666
1769.000000	31.559447
1768.000000	31.492447
1767.000000	31.421430
1766.000000	31.352019
1765.000000	31.305009
1764.000000	31.266537
1763.000000	31.229773
1762.000000	31.217116
1761.000000	31.240822
1760.000000	31.284718
1759.000000	31.333336
1758.000000	31.389889
1757.000000	31.458194
1756.000000	31.516053
1755.000000	31.579135
1754.000000	31.642619
1753.000000	31.698971
1752.000000	31.751606
1751.000000	31.791585
1750.000000	31.816296
1749.000000	31.824432
1748.000000	31.819912
1747.000000	31.796608
1746.000000	31.777020
1745.000000	31.749296
1744.000000	31.690935
1743.000000	31.615297
1742.000000	31.529814
1741.000000	31.432077
1740.000000	31.313547
1739.000000	31.169101
1738.000000	31.030582
1737.000000	30.901906
1736.000000	30.765295
1735.000000	30.636921
1734.000000	30.544608
1733.000000	30.464651
1732.000000	30.433813
1731.000000	30.424270
1730.000000	30.448880
1729.000000	30.485845
1728.000000	30.565301
1727.000000	30.627680
1726.000000	30.712861
1725.000000	30.813310
1724.000000	30.872073
1723.000000	30.938269
1722.000000	31.010994
1721.000000	31.104412
1720.000000	31.193008
1719.000000	31.278089
1718.000000	31.379040
1717.000000	31.475471
1716.000000	31.582550
1715.000000	31.695053
1714.000000	31.811273
1713.000000	31.929100
1712.000000	32.028746
1711.000000	32.126684
1710.000000	32.218997
1709.000000	32.278965
1708.000000	32.318944
1707.000000	32.365854
1706.000000	32.380921
1705.000000	32.387551
1704.000000	32.367863
1703.000000	32.349882
1702.000000	32.317236
1701.000000	32.248127
1700.000000	32.169074
1699.000000	32.087710
1698.000000	32.002227
1697.000000	31.919156
1696.000000	31.841609
1695.000000	31.783449
1694.000000	31.765368
1693.000000	31.759642
1692.000000	31.812378
1691.000000	31.888921
1690.000000	31.974604
1689.000000	32.080377
1688.000000	32.191172
1687.000000	32.269121
1686.000000	32.366054
1685.000000	32.459271
1684.000000	32.559018
1683.000000	32.670918
1682.000000	32.858457
1681.000000	33.057145
1680.000000	33.339609
1679.000000	33.644070
1678.000000	33.982986
1677.000000	34.363890
1676.000000	34.691957
1675.000000	35.006263
1674.000000	35.299273
1673.000000	35.559437
1672.000000	35.792278
1671.000000	35.992072
1670.000000	36.156407
1669.000000	36.345352
1668.000000	36.462475
1667.000000	36.593260
1666.000000	36.695719
1665.000000	36.787730
1664.000000	36.867788
1663.000000	36.961306
1662.000000	37.020371
1661.000000	37.071198
1660.000000	37.124536
1659.000000	37.197965
1658.000000	37.224082
1657.000000	37.224483
1656.000000	37.285858
1655.000000	37.287264
1654.000000	37.281739
1653.000000	37.295401
1652.000000	37.286862
1651.000000	37.288871
1650.000000	37.259942
1649.000000	37.244071
1648.000000	37.221972
1647.000000	37.175565
1646.000000	37.151859
1645.000000	37.127952
1644.000000	37.099525
1643.000000	37.048999
1642.000000	37.013138
1641.000000	36.974264
1640.000000	36.935089
1639.000000	36.875020
1638.000000	36.821280
1637.000000	36.784817
1636.000000	36.718119
1635.000000	36.672414
1634.000000	36.617368
1633.000000	36.568952
1632.000000	36.484273
1631.000000	36.446705
1630.000000	36.386636
1629.000000	36.324860
1628.000000	36.245103
1627.000000	36.185135
1626.000000	36.124062
1625.000000	36.056660
1624.000000	35.986245
1623.000000	35.917538
1622.000000	35.847224
1621.000000	35.773092
1620.000000	35.728292
1619.000000	35.657576
1618.000000	35.604337
1617.000000	35.539447
1616.000000	35.468731
1615.000000	35.414890
1614.000000	35.336540
1613.000000	35.286918
1612.000000	35.217206
1611.000000	35.153220
1610.000000	35.084010
1609.000000	35.029667
1608.000000	34.962467
1607.000000	34.889340
1606.000000	34.832887
