PE UV       SUBTECH     SPECTRUM    ASCII       PEDS        4.00        
   -1
INBUCR0144-1.Sample.ASC
24/04/29
13:14:05.00
24/04/29
13:14:05.00
Vinicio Soto Monge
C. cupreomarginata
250,000000
1
Lambda 1050
1050L1511233
PerkinElmer UV WinLab 6.3.2.0749 / 2.02.05 Lambda 900 UV/VIS/NIR, Aug  7 2015 09:38:08

0
0
3350/servo 860,8/2
0
0
UV/VIS
1
1
1
DoubleDePol,CommonBeamDepol,RBeamAtt,SBeamAtt,60mm sphere, WB InGaAs Detector
0
0
0
0
Program
Program
3350/servo 860,8/2
3350/0,2 860,8/0,2
3350/0,2 860,8/0,2
0
15.00
 
 
 
0
 
860,8
319,2
860,8
Front
100
on
S:100 R:100
0
0
0
0
 
0
 
 
 
0
 
 
0
0
0
0
0
 
 
 
 
0
0


0
0
#HDR
-1
-1
#GR
nm
%R
1.0
0.0
2500,000000
-1,000000
2251
8
81,987700
5,634500
#DATA
2482.000000	16.485307
2481.000000	16.475704
2480.000000	16.497108
2479.000000	16.475010
2478.000000	16.647165
2477.000000	16.639297
2476.000000	16.532742
2475.000000	16.620208
2474.000000	16.643462
2473.000000	16.711838
2472.000000	16.788660
2471.000000	16.813535
2470.000000	16.873812
2469.000000	16.875547
2468.000000	16.936287
2467.000000	17.031157
2466.000000	17.070378
2465.000000	17.150786
2464.000000	17.224368
2463.000000	17.262548
2462.000000	17.380210
2461.000000	17.446041
2460.000000	17.485956
2459.000000	17.604775
2458.000000	17.676043
2457.000000	17.735279
2456.000000	17.852594
2455.000000	17.966554
2454.000000	18.069176
2453.000000	18.170062
2452.000000	18.338167
2451.000000	18.432690
2450.000000	18.570368
2449.000000	18.673336
2448.000000	18.796552
2447.000000	18.960723
2446.000000	19.064965
2445.000000	19.205419
2444.000000	19.364500
2443.000000	19.499169
2442.000000	19.616832
2441.000000	19.722114
2440.000000	19.876567
2439.000000	20.006725
2438.000000	20.147757
2437.000000	20.269931
2436.000000	20.403212
2435.000000	20.511503
2434.000000	20.668502
2433.000000	20.788593
2432.000000	20.892604
2431.000000	21.030397
2430.000000	21.157430
2429.000000	21.265837
2428.000000	21.373665
2427.000000	21.499772
2426.000000	21.603320
2425.000000	21.701545
2424.000000	21.787969
2423.000000	21.869882
2422.000000	21.972388
2421.000000	22.074778
2420.000000	22.155649
2419.000000	22.213844
2418.000000	22.311953
2417.000000	22.401386
2416.000000	22.486075
2415.000000	22.529808
2414.000000	22.594597
2413.000000	22.660196
2412.000000	22.726374
2411.000000	22.776701
2410.000000	22.833276
2409.000000	22.886033
2408.000000	22.931965
2407.000000	22.978358
2406.000000	23.016653
2405.000000	23.038404
2404.000000	23.077741
2403.000000	23.125060
2402.000000	23.167636
2401.000000	23.246540
2400.000000	23.391622
2399.000000	23.540753
2398.000000	23.690810
2397.000000	23.762425
2396.000000	23.765086
2395.000000	23.777581
2394.000000	23.803960
2393.000000	23.834041
2392.000000	23.886219
2391.000000	23.966512
2390.000000	24.021351
2389.000000	24.031764
2388.000000	24.041251
2387.000000	24.067051
2386.000000	24.106040
2385.000000	24.106040
2384.000000	24.132535
2383.000000	24.169210
2382.000000	24.159145
2381.000000	24.175226
2380.000000	24.198481
2379.000000	24.176614
2378.000000	24.192002
2377.000000	24.202415
2376.000000	24.171871
2375.000000	24.194894
2374.000000	24.223355
2373.000000	24.204728
2372.000000	24.213406
2371.000000	24.243833
2370.000000	24.227868
2369.000000	24.199522
2368.000000	24.233421
2367.000000	24.248346
2366.000000	24.215835
2365.000000	24.260725
2364.000000	24.297516
2363.000000	24.285715
2362.000000	24.321234
2361.000000	24.337084
2360.000000	24.319614
2359.000000	24.302491
2358.000000	24.326787
2357.000000	24.354322
2356.000000	24.332803
2355.000000	24.339861
2354.000000	24.357793
2353.000000	24.342753
2352.000000	24.318573
2351.000000	24.327481
2350.000000	24.356636
2349.000000	24.358140
2348.000000	24.327250
2347.000000	24.299714
2346.000000	24.273220
2345.000000	24.296128
2344.000000	24.331993
2343.000000	24.308391
2342.000000	24.303532
2341.000000	24.308507
2340.000000	24.317184
2339.000000	24.335233
2338.000000	24.385213
2337.000000	24.392039
2336.000000	24.374222
2335.000000	24.411592
2334.000000	24.477422
2333.000000	24.515023
2332.000000	24.524395
2331.000000	24.585250
2330.000000	24.621116
2329.000000	24.669824
2328.000000	24.733687
2327.000000	24.755901
2326.000000	24.808311
2325.000000	24.888025
2324.000000	24.930369
2323.000000	24.950500
2322.000000	24.960219
2321.000000	25.010430
2320.000000	25.028942
2319.000000	25.055089
2318.000000	25.064692
2317.000000	25.023504
2316.000000	25.005456
2315.000000	25.005687
2314.000000	25.014596
2313.000000	24.969359
2312.000000	24.918106
2311.000000	24.878422
2310.000000	24.825781
2309.000000	24.798361
2308.000000	24.777767
2307.000000	24.771751
2306.000000	24.733225
2305.000000	24.699789
2304.000000	24.667972
2303.000000	24.671443
2302.000000	24.646800
2301.000000	24.620190
2300.000000	24.615447
2299.000000	24.629909
2298.000000	24.622273
2297.000000	24.660684
2296.000000	24.682434
2295.000000	24.700598
2294.000000	24.718184
2293.000000	24.741439
2292.000000	24.782626
2291.000000	24.810509
2290.000000	24.874836
2289.000000	24.910238
2288.000000	24.942402
2287.000000	24.969590
2286.000000	25.054973
2285.000000	25.100557
2284.000000	25.149496
2283.000000	25.227128
2282.000000	25.265307
2281.000000	25.332410
2280.000000	25.387250
2279.000000	25.455857
2278.000000	25.497161
2277.000000	25.534530
2276.000000	25.589833
2275.000000	25.668968
2274.000000	25.711544
2273.000000	25.736187
2272.000000	25.773325
2271.000000	25.869005
2270.000000	25.917250
2269.000000	25.982965
2268.000000	26.059208
2267.000000	26.167152
2266.000000	26.246056
2265.000000	26.338960
2264.000000	26.471662
2263.000000	26.600894
2262.000000	26.783345
2261.000000	26.940806
2260.000000	27.096417
2259.000000	27.288239
2258.000000	27.513498
2257.000000	27.706594
2256.000000	27.918085
2255.000000	28.139873
2254.000000	28.371957
2253.000000	28.626371
2252.000000	28.837978
2251.000000	29.053750
2250.000000	29.278430
2249.000000	29.515952
2248.000000	29.709395
2247.000000	29.895202
2246.000000	30.081008
2245.000000	30.235346
2244.000000	30.412012
2243.000000	30.564499
2242.000000	30.678227
2241.000000	30.785940
2240.000000	30.848415
2239.000000	30.990373
2238.000000	31.044750
2237.000000	31.102135
2236.000000	31.134530
2235.000000	31.147487
2234.000000	31.177568
2233.000000	31.183237
2232.000000	31.190757
2231.000000	31.174907
2230.000000	31.134298
2229.000000	31.099821
2228.000000	31.065228
2227.000000	30.972788
2226.000000	30.932063
2225.000000	30.835226
2224.000000	30.775990
2223.000000	30.662608
2222.000000	30.594811
2221.000000	30.480273
2220.000000	30.369437
2219.000000	30.252006
2218.000000	30.162573
2217.000000	30.056828
2216.000000	29.971098
2215.000000	29.841982
2214.000000	29.748616
2213.000000	29.665662
2212.000000	29.574379
2211.000000	29.494433
2210.000000	29.384638
2209.000000	29.317304
2208.000000	29.222318
2207.000000	29.136819
2206.000000	29.073881
2205.000000	29.025983
2204.000000	28.955987
2203.000000	28.921510
2202.000000	28.864241
2201.000000	28.821086
2200.000000	28.757223
2199.000000	28.723671
2198.000000	28.695441
2197.000000	28.663278
2196.000000	28.647428
2195.000000	28.592588
2194.000000	28.558342
2193.000000	28.559962
2192.000000	28.520163
2191.000000	28.493669
2190.000000	28.470067
2189.000000	28.444267
2188.000000	28.440102
2187.000000	28.404236
2186.000000	28.364437
2185.000000	28.350438
2184.000000	28.339331
2183.000000	28.306474
2182.000000	28.286111
2181.000000	28.252444
2180.000000	28.247353
2179.000000	28.209868
2178.000000	28.203621
2177.000000	28.192977
2176.000000	28.204546
2175.000000	28.213802
2174.000000	28.212876
2173.000000	28.206513
2172.000000	28.223405
2171.000000	28.254874
2170.000000	28.298838
2169.000000	28.312953
2168.000000	28.351595
2167.000000	28.401344
2166.000000	28.466249
2165.000000	28.517618
2164.000000	28.582407
2163.000000	28.656105
2162.000000	28.733621
2161.000000	28.813913
2160.000000	28.909131
2159.000000	29.020198
2158.000000	29.132538
2157.000000	29.261654
2156.000000	29.380589
2155.000000	29.503804
2154.000000	29.649465
2153.000000	29.792117
2152.000000	29.958024
2151.000000	30.111783
2150.000000	30.269707
2149.000000	30.411781
2148.000000	30.555475
2147.000000	30.714787
2146.000000	30.870629
2145.000000	31.012934
2144.000000	31.161371
2143.000000	31.312006
2142.000000	31.463104
2141.000000	31.603443
2140.000000	31.741004
2139.000000	31.891871
2138.000000	32.042043
2137.000000	32.159127
2136.000000	32.276211
2135.000000	32.399195
2134.000000	32.534790
2133.000000	32.659278
2132.000000	32.751371
2131.000000	32.838490
2130.000000	32.952218
2129.000000	33.060972
2128.000000	33.123216
2127.000000	33.209987
2126.000000	33.292710
2125.000000	33.339682
2124.000000	33.408405
2123.000000	33.491706
2122.000000	33.543768
2121.000000	33.592476
2120.000000	33.638986
2119.000000	33.691396
2118.000000	33.725757
2117.000000	33.746698
2116.000000	33.782101
2115.000000	33.826065
2114.000000	33.840758
2113.000000	33.835089
2112.000000	33.844576
2111.000000	33.867368
2110.000000	33.882524
2109.000000	33.888540
2108.000000	33.885648
2107.000000	33.875814
2106.000000	33.880095
2105.000000	33.902771
2104.000000	33.896523
2103.000000	33.876855
2102.000000	33.868178
2101.000000	33.875004
2100.000000	33.879979
2099.000000	33.892358
2098.000000	33.905432
2097.000000	33.911448
2096.000000	33.910754
2095.000000	33.936438
2094.000000	33.971031
2093.000000	33.983295
2092.000000	34.016384
2091.000000	34.051786
2090.000000	34.056067
2089.000000	34.082561
2088.000000	34.102461
2087.000000	34.093784
2086.000000	34.085685
2085.000000	34.084760
2084.000000	34.070645
2083.000000	34.051902
2082.000000	34.019623
2081.000000	33.974271
2080.000000	33.902771
2079.000000	33.826528
2078.000000	33.759193
2077.000000	33.677512
2076.000000	33.575585
2075.000000	33.478285
2074.000000	33.365829
2073.000000	33.225953
2072.000000	33.070459
2071.000000	32.920286
2070.000000	32.779138
2069.000000	32.631858
2068.000000	32.477173
2067.000000	32.310688
2066.000000	32.146748
2065.000000	31.986857
2064.000000	31.817132
2063.000000	31.658282
2062.000000	31.501515
2061.000000	31.349029
2060.000000	31.222921
2059.000000	31.119605
2058.000000	31.022768
2057.000000	30.952888
2056.000000	30.917022
2055.000000	30.887751
2054.000000	30.876645
2053.000000	30.920493
2052.000000	30.974523
2051.000000	31.058286
2050.000000	31.177915
2049.000000	31.314320
2048.000000	31.481153
2047.000000	31.681074
2046.000000	31.868501
2045.000000	32.078140
2044.000000	32.306986
2043.000000	32.520559
2042.000000	32.727654
2041.000000	32.951061
2040.000000	33.166370
2039.000000	33.400769
2038.000000	33.604046
2037.000000	33.820974
2036.000000	34.002847
2035.000000	34.185993
2034.000000	34.356759
2033.000000	34.526253
2032.000000	34.687879
2031.000000	34.837705
2030.000000	34.987646
2029.000000	35.110977
2028.000000	35.213714
2027.000000	35.357639
2026.000000	35.461302
2025.000000	35.562767
2024.000000	35.670364
2023.000000	35.772985
2022.000000	35.856980
2021.000000	35.914018
2020.000000	35.982972
2019.000000	36.066851
2018.000000	36.117179
2017.000000	36.167391
2016.000000	36.228709
2015.000000	36.246295
2014.000000	36.257864
2013.000000	36.288871
2012.000000	36.290722
2011.000000	36.284590
2010.000000	36.299746
2009.000000	36.278342
2008.000000	36.257054
2007.000000	36.223850
2006.000000	36.193306
2005.000000	36.145177
2004.000000	36.085247
2003.000000	36.020226
2002.000000	35.956247
2001.000000	35.884053
2000.000000	35.806074
1999.000000	35.720807
1998.000000	35.645026
1997.000000	35.534537
1996.000000	35.440246
1995.000000	35.331261
1994.000000	35.225747
1993.000000	35.133537
1992.000000	35.000835
1991.000000	34.877272
1990.000000	34.740521
1989.000000	34.617305
1988.000000	34.506585
1987.000000	34.365205
1986.000000	34.250204
1985.000000	34.106973
1984.000000	33.962701
1983.000000	33.829304
1982.000000	33.718121
1981.000000	33.584377
1980.000000	33.451328
1979.000000	33.306940
1978.000000	33.182105
1977.000000	33.070228
1976.000000	32.940417
1975.000000	32.820326
1974.000000	32.706366
1973.000000	32.578754
1972.000000	32.469190
1971.000000	32.359743
1970.000000	32.236643
1969.000000	32.143624
1968.000000	32.001666
1967.000000	31.884119
1966.000000	31.789943
1965.000000	31.678876
1964.000000	31.545479
1963.000000	31.451650
1962.000000	31.334451
1961.000000	31.205104
1960.000000	31.097507
1959.000000	30.951384
1958.000000	30.851770
1957.000000	30.727861
1956.000000	30.606728
1955.000000	30.494850
1954.000000	30.382047
1953.000000	30.257675
1952.000000	30.131567
1951.000000	30.021772
1950.000000	29.908507
1949.000000	29.810628
1948.000000	29.720155
1947.000000	29.624359
1946.000000	29.545917
1945.000000	29.482169
1944.000000	29.393778
1943.000000	29.331303
1942.000000	29.282826
1941.000000	29.249853
1940.000000	29.204963
1939.000000	29.196518
1938.000000	29.177544
1937.000000	29.174883
1936.000000	29.159727
1935.000000	29.200336
1934.000000	29.244300
1933.000000	29.297751
1932.000000	29.356756
1931.000000	29.442254
1930.000000	29.539439
1929.000000	29.630606
1928.000000	29.766895
1927.000000	29.926208
1926.000000	30.051043
1925.000000	30.239858
1924.000000	30.445333
1923.000000	30.637618
1922.000000	30.900941
1921.000000	31.175486
1920.000000	31.446097
1919.000000	31.693106
1918.000000	32.026193
1917.000000	32.327464
1916.000000	32.645742
1915.000000	33.015157
1914.000000	33.449361
1913.000000	33.927530
1912.000000	34.378741
1911.000000	34.776733
1910.000000	35.238473
1909.000000	35.721964
1908.000000	36.250807
1907.000000	36.843745
1906.000000	37.504597
1905.000000	38.163944
1904.000000	38.834861
1903.000000	39.488077
1902.000000	40.216032
1901.000000	40.913674
1900.000000	41.715327
1899.000000	42.508765
1898.000000	43.251414
1897.000000	44.018242
1896.000000	44.708596
1895.000000	45.374654
1894.000000	46.111748
1893.000000	46.879965
1892.000000	47.718640
1891.000000	48.531168
1890.000000	49.250099
1889.000000	49.886307
1888.000000	50.555720
1887.000000	51.189615
1886.000000	51.820617
1885.000000	52.410200
1884.000000	53.022575
1883.000000	53.553154
1882.000000	54.015125
1881.000000	54.484385
1880.000000	54.887931
1879.000000	55.307673
1878.000000	55.728226
1877.000000	56.063048
1876.000000	56.405390
1875.000000	56.775731
1874.000000	57.120387
1873.000000	57.465506
1872.000000	57.734845
1871.000000	57.986713
1870.000000	58.214170
1869.000000	58.407266
1868.000000	58.554893
1867.000000	58.647449
1866.000000	58.718602
1865.000000	58.807109
1864.000000	58.874096
1863.000000	58.971512
1862.000000	59.116709
1861.000000	59.254503
1860.000000	59.393453
1859.000000	59.484389
1858.000000	59.559128
1857.000000	59.621951
1856.000000	59.646015
1855.000000	59.690211
1854.000000	59.735332
1853.000000	59.738109
1852.000000	59.764950
1851.000000	59.821409
1850.000000	59.851837
1849.000000	59.892562
1848.000000	59.933981
1847.000000	59.868035
1846.000000	59.773974
1845.000000	59.742737
1844.000000	59.711383
1843.000000	59.759744
1842.000000	59.799196
1841.000000	59.756736
1840.000000	59.711962
1839.000000	59.667650
1838.000000	59.601010
1837.000000	59.547327
1836.000000	59.498504
1835.000000	59.413236
1834.000000	59.344629
1833.000000	59.286319
1832.000000	59.236685
1831.000000	59.219563
1830.000000	59.191564
1829.000000	59.131634
1828.000000	59.068812
1827.000000	59.054234
1826.000000	59.032830
1825.000000	58.989329
1824.000000	58.977412
1823.000000	59.030632
1822.000000	59.088595
1821.000000	59.110578
1820.000000	59.092760
1819.000000	59.051110
1818.000000	59.018253
1817.000000	59.000089
1816.000000	58.998469
1815.000000	58.983428
1814.000000	58.978685
1813.000000	58.959248
1812.000000	58.923383
1811.000000	58.887633
1810.000000	58.825620
1809.000000	58.786978
1808.000000	58.786284
1807.000000	58.777722
1806.000000	58.727510
1805.000000	58.675795
1804.000000	58.662837
1803.000000	58.641317
1802.000000	58.635301
1801.000000	58.606030
1800.000000	58.559405
1799.000000	58.525738
1798.000000	58.486054
1797.000000	58.471245
1796.000000	58.457940
1795.000000	58.427975
1794.000000	58.408770
1793.000000	58.396506
1792.000000	58.379383
1791.000000	58.358790
1790.000000	58.353005
1789.000000	58.356938
1788.000000	58.352889
1787.000000	58.365963
1786.000000	58.367467
1785.000000	58.360409
1784.000000	58.351964
1783.000000	58.352889
1782.000000	58.344675
1781.000000	58.312974
1780.000000	58.297124
1779.000000	58.276646
1778.000000	58.234301
1777.000000	58.176338
1776.000000	58.111433
1775.000000	58.044793
1774.000000	57.995159
1773.000000	57.929097
1772.000000	57.875646
1771.000000	57.820922
1770.000000	57.757637
1769.000000	57.705111
1768.000000	57.645528
1767.000000	57.591614
1766.000000	57.549732
1765.000000	57.521734
1764.000000	57.489686
1763.000000	57.493736
1762.000000	57.470712
1761.000000	57.432649
1760.000000	57.419459
1759.000000	57.414137
1758.000000	57.406617
1757.000000	57.382668
1756.000000	57.377693
1755.000000	57.374223
1754.000000	57.344026
1753.000000	57.350852
1752.000000	57.333035
1751.000000	57.296707
1750.000000	57.244760
1749.000000	57.175574
1748.000000	57.128601
1747.000000	57.051317
1746.000000	56.954133
1745.000000	56.835892
1744.000000	56.730378
1743.000000	56.635277
1742.000000	56.507433
1741.000000	56.403423
1740.000000	56.282637
1739.000000	56.161620
1738.000000	56.070105
1737.000000	55.992242
1736.000000	55.925833
1735.000000	55.838599
1734.000000	55.760967
1733.000000	55.680328
1732.000000	55.617274
1731.000000	55.534436
1730.000000	55.484687
1729.000000	55.402428
1728.000000	55.347935
1727.000000	55.276088
1726.000000	55.248900
1725.000000	55.238603
1724.000000	55.265329
1723.000000	55.330928
1722.000000	55.474043
1721.000000	55.653834
1720.000000	55.883836
1719.000000	56.187189
1718.000000	56.486261
1717.000000	56.812291
1716.000000	57.122238
1715.000000	57.422699
1714.000000	57.689839
1713.000000	57.936617
1712.000000	58.143943
1711.000000	58.348146
1710.000000	58.528630
1709.000000	58.719296
1708.000000	58.833603
1707.000000	58.963529
1706.000000	59.044863
1705.000000	59.130014
1704.000000	59.180805
1703.000000	59.221876
1702.000000	59.256816
1701.000000	59.283195
1700.000000	59.288401
1699.000000	59.273824
1698.000000	59.285162
1697.000000	59.265609
1696.000000	59.231942
1695.000000	59.168657
1694.000000	59.079687
1693.000000	58.980189
1692.000000	58.893186
1691.000000	58.795076
1690.000000	58.753310
1689.000000	58.749261
1688.000000	58.793572
1687.000000	58.937035
1686.000000	59.114280
1685.000000	59.365686
1684.000000	59.648676
1683.000000	59.921833
1682.000000	60.229930
1681.000000	60.549017
1680.000000	60.855610
1679.000000	61.133741
1678.000000	61.402617
1677.000000	61.668485
1676.000000	61.904503
1675.000000	62.136357
1674.000000	62.368210
1673.000000	62.638011
1672.000000	62.855056
1671.000000	63.076265
1670.000000	63.328250
1669.000000	63.568317
1668.000000	63.788601
1667.000000	64.032024
1666.000000	64.204526
1665.000000	64.399010
1664.000000	64.571858
1663.000000	64.732559
1662.000000	64.885740
1661.000000	65.017285
1660.000000	65.126039
1659.000000	65.265914
1658.000000	65.361941
1657.000000	65.455192
1656.000000	65.517552
1655.000000	65.565681
1654.000000	65.612306
1653.000000	65.641808
1652.000000	65.687624
1651.000000	65.693061
1650.000000	65.694565
1649.000000	65.690979
1648.000000	65.686930
1647.000000	65.664022
1646.000000	65.649907
1645.000000	65.642387
1644.000000	65.622487
1643.000000	65.605596
1642.000000	65.602588
1641.000000	65.585233
1640.000000	65.571003
1639.000000	65.555847
1638.000000	65.531204
1637.000000	65.501933
1636.000000	65.490479
1635.000000	65.467224
1634.000000	65.426499
1633.000000	65.376056
1632.000000	65.336604
1631.000000	65.302474
1630.000000	65.254576
1629.000000	65.202860
1628.000000	65.145244
1627.000000	65.100470
1626.000000	65.046440
1625.000000	65.000047
1624.000000	64.949603
1623.000000	64.891409
1622.000000	64.858204
1621.000000	64.824768
1620.000000	64.784506
1619.000000	64.739616
1618.000000	64.703867
1617.000000	64.669737
1616.000000	64.607492
1615.000000	64.566652
1614.000000	64.525349
1613.000000	64.499317
1612.000000	64.441701
1611.000000	64.373325
1610.000000	64.306800
1609.000000	64.233102
1608.000000	64.170049
1607.000000	64.082814
1606.000000	64.007497
