PE UV       SUBTECH     SPECTRUM    ASCII       PEDS        4.00        
   -1
CICIMAUCR0003-3.Sample.ASC
24/05/03
16:05:21.00
24/05/03
16:05:21.00
Vinicio Soto Monge
C. kalinini
250,000000
1
Lambda 1050
1050L1511233
PerkinElmer UV WinLab 6.3.2.0749 / 2.02.05 Lambda 900 UV/VIS/NIR, Aug  7 2015 09:38:08

0
0
3350/servo 860,8/2
0
0
UV/VIS
1
1
1
DoubleDePol,CommonBeamDepol,RBeamAtt,SBeamAtt,60mm sphere, WB InGaAs Detector
0
0
0
0
Program
Program
3350/servo 860,8/2
3350/0,2 860,8/0,2
3350/0,2 860,8/0,2
0
15.00
 
 
 
0
 
860,8
319,2
860,8
Front
100
on
S:100 R:100
0
0
0
0
 
0
 
 
 
0
 
 
0
0
0
0
0
 
 
 
 
0
0


0
0
#HDR
-1
-1
#GR
nm
%R
1.0
0.0
2500,000000
-1,000000
2251
8
101,669700
5,424300
#DATA
250.000000	0.055859
251.000000	0.061109
252.000000	0.059203
253.000000	0.072248
254.000000	0.070880
255.000000	0.027386
256.000000	0.080270
257.000000	0.057007
258.000000	0.071294
259.000000	0.031177
260.000000	0.052984
261.000000	0.058118
262.000000	0.045190
263.000000	0.063860
264.000000	0.049951
265.000000	0.023683
266.000000	0.055396
267.000000	0.046919
268.000000	0.063375
269.000000	0.037649
270.000000	0.048807
271.000000	0.075376
272.000000	0.045697
273.000000	0.037157
274.000000	0.051648
275.000000	0.054086
276.000000	0.023347
277.000000	0.044268
278.000000	0.060282
279.000000	0.058017
280.000000	0.069716
281.000000	0.043302
282.000000	0.046795
283.000000	0.060852
284.000000	0.055790
285.000000	0.061910
286.000000	0.070732
287.000000	0.086464
288.000000	0.022816
289.000000	0.047795
290.000000	0.015990
291.000000	0.028460
292.000000	0.048539
293.000000	0.073002
294.000000	0.074925
295.000000	0.082308
296.000000	0.061211
297.000000	0.085230
298.000000	0.061504
299.000000	0.070948
300.000000	0.075492
301.000000	0.082835
302.000000	0.080985
303.000000	0.078532
304.000000	0.073359
305.000000	0.069666
306.000000	0.070193
307.000000	0.054701
308.000000	0.097835
309.000000	0.061129
310.000000	0.049668
311.000000	0.085956
312.000000	0.090798
313.000000	0.104272
314.000000	0.106046
315.000000	0.064390
316.000000	0.069105
317.000000	0.200526
318.000000	0.203148
319.000000	0.350025
320.000000	0.373225
321.000000	0.450068
322.000000	0.401321
323.000000	0.162215
324.000000	0.081919
325.000000	0.310689
326.000000	0.226293
327.000000	0.134156
328.000000	0.143667
329.000000	0.118005
330.000000	0.091218
331.000000	0.274402
332.000000	0.300661
333.000000	0.048948
334.000000	0.180177
335.000000	0.088313
336.000000	0.067939
337.000000	0.027544
338.000000	0.210247
339.000000	0.012402
340.000000	0.037451
341.000000	0.091246
342.000000	0.023432
343.000000	0.085701
344.000000	0.063416
345.000000	0.090394
346.000000	0.144626
347.000000	0.089824
348.000000	0.176049
349.000000	0.082678
350.000000	0.061504
351.000000	0.108096
352.000000	0.066737
353.000000	0.052575
354.000000	0.019796
355.000000	0.018895
356.000000	0.051885
357.000000	0.090448
358.000000	0.045522
359.000000	0.119627
360.000000	0.118523
361.000000	0.033764
362.000000	0.039246
363.000000	0.045769
364.000000	0.170575
365.000000	0.071168
366.000000	0.066993
367.000000	0.131242
368.000000	0.196874
369.000000	0.098300
370.000000	0.018868
371.000000	0.103413
372.000000	0.082471
373.000000	0.109187
374.000000	0.105025
375.000000	0.179991
376.000000	0.279296
377.000000	0.304198
378.000000	0.341659
379.000000	0.349548
380.000000	0.371380
381.000000	0.402882
382.000000	0.428321
383.000000	0.488552
384.000000	0.504951
385.000000	0.550021
386.000000	0.611718
387.000000	0.640948
388.000000	0.673383
389.000000	0.695917
390.000000	0.743029
391.000000	0.790370
392.000000	0.831092
393.000000	0.858788
394.000000	0.883166
395.000000	0.911957
396.000000	0.947621
397.000000	0.985651
398.000000	0.999041
399.000000	1.009960
400.000000	1.030191
401.000000	1.044714
402.000000	1.051901
403.000000	1.080017
404.000000	1.083377
405.000000	1.088205
406.000000	1.083659
407.000000	1.068770
408.000000	1.065336
409.000000	1.057527
410.000000	1.038178
411.000000	1.022548
412.000000	1.015210
413.000000	1.005726
414.000000	0.974140
415.000000	0.936387
416.000000	0.905529
417.000000	0.886465
418.000000	0.860516
419.000000	0.840476
420.000000	0.822841
421.000000	0.783896
422.000000	0.756519
423.000000	0.744477
424.000000	0.729323
425.000000	0.697748
426.000000	0.679445
427.000000	0.665999
428.000000	0.643799
429.000000	0.611308
430.000000	0.603425
431.000000	0.589056
432.000000	0.578268
433.000000	0.586197
434.000000	0.570090
435.000000	0.555909
436.000000	0.548146
437.000000	0.551580
438.000000	0.550031
439.000000	0.556803
440.000000	0.551065
441.000000	0.537770
442.000000	0.532854
443.000000	0.509373
444.000000	0.477142
445.000000	0.459251
446.000000	0.425655
447.000000	0.393361
448.000000	0.400108
449.000000	0.389094
450.000000	0.340779
451.000000	0.290642
452.000000	0.241365
453.000000	0.186333
454.000000	0.156088
455.000000	0.114237
456.000000	0.081592
457.000000	0.102770
458.000000	0.127421
459.000000	0.177524
460.000000	0.233443
461.000000	0.293999
462.000000	0.353923
463.000000	0.416984
464.000000	0.500087
465.000000	0.583174
466.000000	0.639323
467.000000	0.701688
468.000000	0.758926
469.000000	0.826024
470.000000	0.897485
471.000000	0.955774
472.000000	1.007836
473.000000	1.060515
474.000000	1.112616
475.000000	1.153764
476.000000	1.188194
477.000000	1.204756
478.000000	1.210691
479.000000	1.227907
480.000000	1.236744
481.000000	1.245478
482.000000	1.265422
483.000000	1.263939
484.000000	1.270507
485.000000	1.284622
486.000000	1.280247
487.000000	1.274537
488.000000	1.273921
489.000000	1.289524
490.000000	1.290257
491.000000	1.317101
492.000000	1.324765
493.000000	1.359779
494.000000	1.397946
495.000000	1.449653
496.000000	1.487069
497.000000	1.517974
498.000000	1.584256
499.000000	1.635035
500.000000	1.709861
501.000000	1.779522
502.000000	1.855272
503.000000	1.920736
504.000000	2.008887
505.000000	2.053894
506.000000	2.113662
507.000000	2.220116
508.000000	2.286239
509.000000	2.353448
510.000000	2.418537
511.000000	2.461256
512.000000	2.530624
513.000000	2.582798
514.000000	2.651098
515.000000	2.705236
516.000000	2.762964
517.000000	2.820238
518.000000	2.869136
519.000000	2.922747
520.000000	2.965476
521.000000	3.008531
522.000000	3.052712
523.000000	3.069441
524.000000	3.134495
525.000000	3.175906
526.000000	3.188797
527.000000	3.206188
528.000000	3.230721
529.000000	3.237942
530.000000	3.249404
531.000000	3.244815
532.000000	3.258036
533.000000	3.228792
534.000000	3.194640
535.000000	3.192023
536.000000	3.149560
537.000000	3.091494
538.000000	3.070179
539.000000	3.030507
540.000000	2.998408
541.000000	2.929258
542.000000	2.882157
543.000000	2.821228
544.000000	2.778008
545.000000	2.734521
546.000000	2.660484
547.000000	2.601269
548.000000	2.571879
549.000000	2.521439
550.000000	2.478065
551.000000	2.416160
552.000000	2.360623
553.000000	2.347949
554.000000	2.284282
555.000000	2.239084
556.000000	2.207672
557.000000	2.157721
558.000000	2.161828
559.000000	2.090858
560.000000	2.069398
561.000000	2.027211
562.000000	2.013475
563.000000	2.019264
564.000000	1.986299
565.000000	1.959642
566.000000	1.963559
567.000000	1.949749
568.000000	1.946660
569.000000	1.986523
570.000000	2.022371
571.000000	2.065642
572.000000	2.052967
573.000000	2.096414
574.000000	2.147473
575.000000	2.144578
576.000000	2.165181
577.000000	2.187529
578.000000	2.227959
579.000000	2.264685
580.000000	2.267643
581.000000	2.351640
582.000000	2.407257
583.000000	2.418375
584.000000	2.439634
585.000000	2.436389
586.000000	2.475366
587.000000	2.472103
588.000000	2.499344
589.000000	2.526516
590.000000	2.515559
591.000000	2.535468
592.000000	2.582609
593.000000	2.616662
594.000000	2.667295
595.000000	2.649907
596.000000	2.727101
597.000000	2.731580
598.000000	2.719658
599.000000	2.764322
600.000000	2.796581
601.000000	2.763415
602.000000	2.748571
603.000000	2.713928
604.000000	2.661870
605.000000	2.616316
606.000000	2.583747
607.000000	2.535718
608.000000	2.527944
609.000000	2.448323
610.000000	2.420239
611.000000	2.349622
612.000000	2.333404
613.000000	2.256691
614.000000	2.191914
615.000000	2.153111
616.000000	2.081012
617.000000	2.007832
618.000000	1.908299
619.000000	1.770039
620.000000	1.662626
621.000000	1.533778
622.000000	1.382249
623.000000	1.223384
624.000000	1.055079
625.000000	0.876096
626.000000	0.681467
627.000000	0.490730
628.000000	0.315755
629.000000	0.175452
630.000000	0.202959
631.000000	0.353016
632.000000	0.541060
633.000000	0.687132
634.000000	0.854634
635.000000	1.060494
636.000000	1.199675
637.000000	1.304183
638.000000	1.429600
639.000000	1.579248
640.000000	1.694905
641.000000	1.836199
642.000000	1.887358
643.000000	1.944507
644.000000	1.991813
645.000000	2.056312
646.000000	2.079022
647.000000	2.106597
648.000000	2.111119
649.000000	2.120272
650.000000	2.086341
651.000000	2.020350
652.000000	1.984326
653.000000	1.938244
654.000000	1.831439
655.000000	1.744907
656.000000	1.658902
657.000000	1.539798
658.000000	1.432316
659.000000	1.352121
660.000000	1.254907
661.000000	1.189605
662.000000	1.131082
663.000000	1.084383
664.000000	1.059414
665.000000	1.030171
666.000000	1.008199
667.000000	1.065786
668.000000	1.080689
669.000000	1.125158
670.000000	1.224861
671.000000	1.329902
672.000000	1.381199
673.000000	1.441232
674.000000	1.521407
675.000000	1.651482
676.000000	1.734896
677.000000	1.773113
678.000000	1.898745
679.000000	1.958121
680.000000	2.057727
681.000000	2.108191
682.000000	2.195709
683.000000	2.209509
684.000000	2.248322
685.000000	2.278329
686.000000	2.339870
687.000000	2.324201
688.000000	2.417231
689.000000	2.406880
690.000000	2.358989
691.000000	2.397601
692.000000	2.398380
693.000000	2.409570
694.000000	2.395757
695.000000	2.378807
696.000000	2.415557
697.000000	2.420185
698.000000	2.421997
699.000000	2.377259
700.000000	2.373727
701.000000	2.394237
702.000000	2.417989
703.000000	2.443616
704.000000	2.412946
705.000000	2.393797
706.000000	2.429875
707.000000	2.469352
708.000000	2.465424
709.000000	2.456736
710.000000	2.540546
711.000000	2.543699
712.000000	2.550214
713.000000	2.607129
714.000000	2.618739
715.000000	2.685863
716.000000	2.675088
717.000000	2.686479
718.000000	2.717458
719.000000	2.750018
720.000000	2.727169
721.000000	2.674710
722.000000	2.682044
723.000000	2.659070
724.000000	2.627182
725.000000	2.616108
726.000000	2.621800
727.000000	2.623243
728.000000	2.535804
729.000000	2.511177
730.000000	2.525463
731.000000	2.478441
732.000000	2.406007
733.000000	2.359543
734.000000	2.336788
735.000000	2.282369
736.000000	2.248790
737.000000	2.213220
738.000000	2.198674
739.000000	2.192591
740.000000	2.179416
741.000000	2.202885
742.000000	2.176437
743.000000	2.166309
744.000000	2.195646
745.000000	2.190523
746.000000	2.091274
747.000000	2.078076
748.000000	2.138470
749.000000	2.129512
750.000000	2.111731
751.000000	2.122461
752.000000	2.177520
753.000000	2.203585
754.000000	2.206319
755.000000	2.280090
756.000000	2.308746
757.000000	2.304224
758.000000	2.373309
759.000000	2.464055
760.000000	2.471540
761.000000	2.462311
762.000000	2.429843
763.000000	2.428210
764.000000	2.566446
765.000000	2.594479
766.000000	2.559449
767.000000	2.703310
768.000000	2.715985
769.000000	2.622467
770.000000	2.591051
771.000000	2.646147
772.000000	2.658285
773.000000	2.643894
774.000000	2.607624
775.000000	2.601438
776.000000	2.638936
777.000000	2.620745
778.000000	2.647997
779.000000	2.729278
780.000000	2.744784
781.000000	2.625956
782.000000	2.611639
783.000000	2.676098
784.000000	2.709266
785.000000	2.688725
786.000000	2.663353
787.000000	2.679523
788.000000	2.640824
789.000000	2.689164
790.000000	2.677381
791.000000	2.631373
792.000000	2.647234
793.000000	2.646987
794.000000	2.676987
795.000000	2.741915
796.000000	2.727376
797.000000	2.731950
798.000000	2.740039
799.000000	2.815223
800.000000	2.891108
801.000000	2.847972
802.000000	2.833741
803.000000	2.902785
804.000000	2.885515
805.000000	2.842518
806.000000	2.873847
807.000000	3.005305
808.000000	3.010042
809.000000	2.915376
810.000000	3.023778
811.000000	2.985320
812.000000	2.934496
813.000000	3.073462
814.000000	3.132850
815.000000	3.160087
816.000000	3.211823
817.000000	3.209775
818.000000	3.157858
819.000000	3.162246
820.000000	3.152272
821.000000	3.061457
822.000000	3.139985
823.000000	3.290966
824.000000	3.219521
825.000000	3.199924
826.000000	3.127342
827.000000	3.162448
828.000000	3.058815
829.000000	3.093164
830.000000	3.018407
831.000000	3.029407
832.000000	3.139486
833.000000	2.906386
834.000000	2.940216
835.000000	3.158318
836.000000	3.002910
837.000000	2.794670
838.000000	2.710149
839.000000	2.717350
840.000000	2.809859
841.000000	2.674045
842.000000	2.550387
843.000000	2.600609
844.000000	2.639861
845.000000	2.560751
846.000000	2.470574
847.000000	2.428469
848.000000	2.292245
849.000000	2.170887
850.000000	2.501409
851.000000	2.377679
852.000000	2.062830
853.000000	1.938208
854.000000	1.762658
855.000000	2.222418
856.000000	2.425863
857.000000	2.116352
858.000000	2.250293
859.000000	1.488740
860.000000	1.486395
861.000000	1.475091
862.000000	1.463568
863.000000	1.461456
864.000000	1.458555
865.000000	1.446341
866.000000	1.444396
867.000000	1.441609
868.000000	1.452941
869.000000	1.430521
870.000000	1.427230
871.000000	1.423779
872.000000	1.487231
873.000000	1.626153
874.000000	1.804505
875.000000	1.989445
876.000000	2.096957
877.000000	2.279517
878.000000	2.548630
879.000000	2.789733
880.000000	2.970917
881.000000	3.177527
882.000000	3.370405
883.000000	3.586755
884.000000	3.765122
885.000000	3.961168
886.000000	4.128817
887.000000	4.315532
888.000000	4.478900
889.000000	4.586639
890.000000	4.685256
891.000000	4.863070
892.000000	4.985232
893.000000	5.116536
894.000000	5.244039
895.000000	5.342263
896.000000	5.406786
897.000000	5.482302
898.000000	5.595832
899.000000	5.705834
900.000000	5.777244
901.000000	5.852186
902.000000	5.905600
903.000000	5.956716
904.000000	6.026942
905.000000	6.070460
906.000000	6.171885
907.000000	6.248496
908.000000	6.284901
909.000000	6.284667
910.000000	6.338890
911.000000	6.394092
912.000000	6.431479
913.000000	6.478112
914.000000	6.502800
915.000000	6.519917
916.000000	6.545748
917.000000	6.603892
918.000000	6.636965
919.000000	6.659854
920.000000	6.659722
921.000000	6.710736
922.000000	6.737763
923.000000	6.727791
924.000000	6.751173
925.000000	6.780710
926.000000	6.802999
927.000000	6.795469
928.000000	6.836400
929.000000	6.830299
930.000000	6.840052
931.000000	6.843887
932.000000	6.836806
933.000000	6.846489
934.000000	6.867857
935.000000	6.867548
936.000000	6.837504
937.000000	6.845679
938.000000	6.846953
939.000000	6.848687
940.000000	6.849192
941.000000	6.847092
942.000000	6.854341
943.000000	6.855226
944.000000	6.827278
945.000000	6.824961
946.000000	6.813216
947.000000	6.806903
948.000000	6.784226
949.000000	6.762908
950.000000	6.753791
951.000000	6.734510
952.000000	6.714646
953.000000	6.698787
954.000000	6.689622
955.000000	6.684693
956.000000	6.672420
957.000000	6.648268
958.000000	6.644659
959.000000	6.649030
960.000000	6.642071
961.000000	6.630239
962.000000	6.616071
963.000000	6.617440
964.000000	6.606309
965.000000	6.586481
966.000000	6.584862
967.000000	6.565019
968.000000	6.560854
969.000000	6.564829
970.000000	6.559590
971.000000	6.540384
972.000000	6.520885
973.000000	6.526920
974.000000	6.540786
975.000000	6.528623
976.000000	6.518080
977.000000	6.505441
978.000000	6.505650
979.000000	6.529046
980.000000	6.513866
981.000000	6.500014
982.000000	6.504430
983.000000	6.509262
984.000000	6.506016
985.000000	6.500203
986.000000	6.488089
987.000000	6.476126
988.000000	6.472194
989.000000	6.462257
990.000000	6.455107
991.000000	6.450627
992.000000	6.445210
993.000000	6.436067
994.000000	6.426683
995.000000	6.425078
996.000000	6.403152
997.000000	6.393410
998.000000	6.389980
999.000000	6.382394
1000.000000	6.376636
1001.000000	6.361617
1002.000000	6.358519
1003.000000	6.350810
1004.000000	6.330823
1005.000000	6.322129
1006.000000	6.304503
1007.000000	6.298385
1008.000000	6.297592
1009.000000	6.281603
1010.000000	6.282179
1011.000000	6.280623
1012.000000	6.266619
1013.000000	6.266703
1014.000000	6.263504
1015.000000	6.252678
1016.000000	6.257759
1017.000000	6.252271
1018.000000	6.246670
1019.000000	6.243901
1020.000000	6.244986
1021.000000	6.249581
1022.000000	6.242710
1023.000000	6.244272
1024.000000	6.249814
1025.000000	6.251740
1026.000000	6.250609
1027.000000	6.251513
1028.000000	6.252393
1029.000000	6.259161
1030.000000	6.266031
1031.000000	6.268287
1032.000000	6.262256
1033.000000	6.270838
1034.000000	6.289194
1035.000000	6.299954
1036.000000	6.294441
1037.000000	6.293590
1038.000000	6.307531
1039.000000	6.309791
1040.000000	6.310811
1041.000000	6.318287
1042.000000	6.324207
1043.000000	6.323746
1044.000000	6.328904
1045.000000	6.335718
1046.000000	6.327352
1047.000000	6.318675
1048.000000	6.314471
1049.000000	6.326155
1050.000000	6.330779
1051.000000	6.315881
1052.000000	6.301876
1053.000000	6.299133
1054.000000	6.301925
1055.000000	6.300968
1056.000000	6.298674
1057.000000	6.296347
1058.000000	6.286921
1059.000000	6.284726
1060.000000	6.284476
1061.000000	6.281638
1062.000000	6.276673
1063.000000	6.268880
1064.000000	6.270285
1065.000000	6.268447
1066.000000	6.268271
1067.000000	6.266046
1068.000000	6.261397
1069.000000	6.264856
1070.000000	6.265517
1071.000000	6.266428
1072.000000	6.259936
1073.000000	6.263362
1074.000000	6.262373
1075.000000	6.267425
1076.000000	6.270758
1077.000000	6.261229
1078.000000	6.271257
1079.000000	6.275019
1080.000000	6.287203
1081.000000	6.288643
1082.000000	6.296608
1083.000000	6.300013
1084.000000	6.301352
1085.000000	6.316448
1086.000000	6.320557
1087.000000	6.325067
1088.000000	6.334126
1089.000000	6.343564
1090.000000	6.347727
1091.000000	6.347958
1092.000000	6.358817
1093.000000	6.363473
1094.000000	6.371285
1095.000000	6.360542
1096.000000	6.367226
1097.000000	6.380988
1098.000000	6.380893
1099.000000	6.379161
1100.000000	6.375880
1101.000000	6.385684
1102.000000	6.388593
1103.000000	6.390679
1104.000000	6.395414
1105.000000	6.410374
1106.000000	6.405431
1107.000000	6.404479
1108.000000	6.408546
1109.000000	6.401486
1110.000000	6.396804
1111.000000	6.396653
1112.000000	6.406492
1113.000000	6.400966
1114.000000	6.390835
1115.000000	6.390897
1116.000000	6.393644
1117.000000	6.392297
1118.000000	6.388980
1119.000000	6.387370
1120.000000	6.380963
1121.000000	6.384499
1122.000000	6.379415
1123.000000	6.380982
1124.000000	6.374866
1125.000000	6.372072
1126.000000	6.365857
1127.000000	6.364420
1128.000000	6.371410
1129.000000	6.376522
1130.000000	6.371475
1131.000000	6.359210
1132.000000	6.353138
1133.000000	6.377543
1134.000000	6.379346
1135.000000	6.388441
1136.000000	6.393229
1137.000000	6.402572
1138.000000	6.415274
1139.000000	6.420747
1140.000000	6.429363
1141.000000	6.450682
1142.000000	6.454290
1143.000000	6.477221
1144.000000	6.483299
1145.000000	6.505846
1146.000000	6.506284
1147.000000	6.516285
1148.000000	6.521169
1149.000000	6.524075
1150.000000	6.518930
1151.000000	6.524965
1152.000000	6.517757
1153.000000	6.513986
1154.000000	6.506786
1155.000000	6.519332
1156.000000	6.505184
1157.000000	6.524400
1158.000000	6.525077
1159.000000	6.539347
1160.000000	6.548842
1161.000000	6.547686
1162.000000	6.561745
1163.000000	6.557509
1164.000000	6.562475
1165.000000	6.587025
1166.000000	6.577094
1167.000000	6.598109
1168.000000	6.595911
1169.000000	6.603451
1170.000000	6.617694
1171.000000	6.598274
1172.000000	6.613380
1173.000000	6.622020
1174.000000	6.627747
1175.000000	6.620175
1176.000000	6.629846
1177.000000	6.611546
1178.000000	6.618074
1179.000000	6.620421
1180.000000	6.618753
1181.000000	6.615735
1182.000000	6.633789
1183.000000	6.623523
1184.000000	6.621172
1185.000000	6.628486
1186.000000	6.637901
1187.000000	6.652070
1188.000000	6.674027
1189.000000	6.677204
1190.000000	6.692502
1191.000000	6.705968
1192.000000	6.697508
1193.000000	6.691026
1194.000000	6.697803
1195.000000	6.697161
1196.000000	6.692998
1197.000000	6.692563
1198.000000	6.687752
1199.000000	6.690460
1200.000000	6.708974
1201.000000	6.709836
1202.000000	6.719922
1203.000000	6.712689
