PE UV       SUBTECH     SPECTRUM    ASCII       PEDS        4.00        
   -1
CICIMAUCR0002-3.Sample.ASC
24/05/03
15:09:39.00
24/05/03
15:09:39.00
Vinicio Soto Monge
C. kalinini
250,000000
1
Lambda 1050
1050L1511233
PerkinElmer UV WinLab 6.3.2.0749 / 2.02.05 Lambda 900 UV/VIS/NIR, Aug  7 2015 09:38:08

0
0
3350/servo 860,8/2
0
0
UV/VIS
1
1
1
DoubleDePol,CommonBeamDepol,RBeamAtt,SBeamAtt,60mm sphere, WB InGaAs Detector
0
0
0
0
Program
Program
3350/servo 860,8/2
3350/0,2 860,8/0,2
3350/0,2 860,8/0,2
0
15.00
 
 
 
0
 
860,8
319,2
860,8
Front
100
on
S:100 R:100
0
0
0
0
 
0
 
 
 
0
 
 
0
0
0
0
0
 
 
 
 
0
0


0
0
#HDR
-1
-1
#GR
nm
%R
1.0
0.0
2500,000000
-1,000000
2251
8
99,074100
5,519500
#DATA
250.000000	0.235555
251.000000	0.185445
252.000000	0.218132
253.000000	0.185458
254.000000	0.211393
255.000000	0.211846
256.000000	0.207954
257.000000	0.216080
258.000000	0.184124
259.000000	0.200430
260.000000	0.176735
261.000000	0.188994
262.000000	0.206469
263.000000	0.184483
264.000000	0.192423
265.000000	0.193556
266.000000	0.180216
267.000000	0.195367
268.000000	0.184362
269.000000	0.209184
270.000000	0.185461
271.000000	0.169794
272.000000	0.218447
273.000000	0.193132
274.000000	0.177431
275.000000	0.181409
276.000000	0.175562
277.000000	0.186442
278.000000	0.190791
279.000000	0.161444
280.000000	0.190995
281.000000	0.172027
282.000000	0.163948
283.000000	0.187653
284.000000	0.189692
285.000000	0.173642
286.000000	0.192583
287.000000	0.152691
288.000000	0.186290
289.000000	0.181844
290.000000	0.186198
291.000000	0.186557
292.000000	0.195137
293.000000	0.167722
294.000000	0.164901
295.000000	0.204453
296.000000	0.162411
297.000000	0.175174
298.000000	0.192993
299.000000	0.190739
300.000000	0.158001
301.000000	0.189097
302.000000	0.145806
303.000000	0.142204
304.000000	0.147101
305.000000	0.168426
306.000000	0.163122
307.000000	0.162603
308.000000	0.198500
309.000000	0.137493
310.000000	0.172606
311.000000	0.187066
312.000000	0.170354
313.000000	0.148831
314.000000	0.184172
315.000000	0.151754
316.000000	0.174810
317.000000	0.235398
318.000000	0.236347
319.000000	0.734748
320.000000	0.501822
321.000000	0.103380
322.000000	0.504971
323.000000	0.714634
324.000000	0.187196
325.000000	0.160126
326.000000	0.227709
327.000000	0.243156
328.000000	0.158050
329.000000	0.186761
330.000000	0.339108
331.000000	0.168612
332.000000	0.140293
333.000000	0.135464
334.000000	0.092845
335.000000	0.260248
336.000000	0.269695
337.000000	0.237058
338.000000	0.126131
339.000000	0.153778
340.000000	0.285907
341.000000	0.197838
342.000000	0.221323
343.000000	0.191292
344.000000	0.145959
345.000000	0.178148
346.000000	0.137192
347.000000	0.112210
348.000000	0.194778
349.000000	0.208907
350.000000	0.240139
351.000000	0.180928
352.000000	0.154993
353.000000	0.130599
354.000000	0.150633
355.000000	0.135038
356.000000	0.095262
357.000000	0.134339
358.000000	0.181505
359.000000	0.153206
360.000000	0.179518
361.000000	0.197770
362.000000	0.135769
363.000000	0.174250
364.000000	0.160141
365.000000	0.244128
366.000000	0.166754
367.000000	0.163556
368.000000	0.224851
369.000000	0.193350
370.000000	0.213219
371.000000	0.176297
372.000000	0.180335
373.000000	0.306367
374.000000	0.287225
375.000000	0.243564
376.000000	0.198605
377.000000	0.167509
378.000000	0.170612
379.000000	0.173449
380.000000	0.174152
381.000000	0.177401
382.000000	0.181385
383.000000	0.189635
384.000000	0.204280
385.000000	0.206295
386.000000	0.240308
387.000000	0.260354
388.000000	0.251009
389.000000	0.266780
390.000000	0.283192
391.000000	0.300954
392.000000	0.337513
393.000000	0.356978
394.000000	0.374737
395.000000	0.399465
396.000000	0.434545
397.000000	0.471358
398.000000	0.502121
399.000000	0.532849
400.000000	0.567961
401.000000	0.594960
402.000000	0.631074
403.000000	0.660298
404.000000	0.698462
405.000000	0.738884
406.000000	0.774299
407.000000	0.799422
408.000000	0.823137
409.000000	0.862647
410.000000	0.885199
411.000000	0.906845
412.000000	0.927457
413.000000	0.928857
414.000000	0.946705
415.000000	0.961137
416.000000	0.951867
417.000000	0.953599
418.000000	0.951396
419.000000	0.961204
420.000000	0.958386
421.000000	0.937448
422.000000	0.902666
423.000000	0.888366
424.000000	0.873039
425.000000	0.856862
426.000000	0.825082
427.000000	0.792150
428.000000	0.753575
429.000000	0.723302
430.000000	0.711706
431.000000	0.665673
432.000000	0.618508
433.000000	0.593154
434.000000	0.556604
435.000000	0.513846
436.000000	0.473167
437.000000	0.441833
438.000000	0.410567
439.000000	0.384319
440.000000	0.362348
441.000000	0.325109
442.000000	0.286923
443.000000	0.258360
444.000000	0.210314
445.000000	0.181515
446.000000	0.165760
447.000000	0.146976
448.000000	0.129182
449.000000	0.112782
450.000000	0.098240
451.000000	0.060932
452.000000	0.029813
453.000000	0.022806
454.000000	0.058039
455.000000	0.073811
456.000000	0.110136
457.000000	0.132372
458.000000	0.179135
459.000000	0.214570
460.000000	0.252625
461.000000	0.295566
462.000000	0.325515
463.000000	0.357600
464.000000	0.385443
465.000000	0.439402
466.000000	0.488797
467.000000	0.505277
468.000000	0.523081
469.000000	0.556091
470.000000	0.571447
471.000000	0.573896
472.000000	0.571353
473.000000	0.557223
474.000000	0.528242
475.000000	0.498046
476.000000	0.470018
477.000000	0.406927
478.000000	0.333350
479.000000	0.248047
480.000000	0.159279
481.000000	0.100030
482.000000	0.119602
483.000000	0.225614
484.000000	0.364660
485.000000	0.509975
486.000000	0.658748
487.000000	0.822229
488.000000	0.989017
489.000000	1.149976
490.000000	1.310690
491.000000	1.471048
492.000000	1.641252
493.000000	1.793591
494.000000	1.955294
495.000000	2.068104
496.000000	2.166352
497.000000	2.264610
498.000000	2.332178
499.000000	2.412372
500.000000	2.458716
501.000000	2.499936
502.000000	2.505639
503.000000	2.490075
504.000000	2.462199
505.000000	2.429888
506.000000	2.403472
507.000000	2.354046
508.000000	2.306516
509.000000	2.243039
510.000000	2.187057
511.000000	2.130115
512.000000	2.067465
513.000000	2.026141
514.000000	1.979284
515.000000	1.951242
516.000000	1.919543
517.000000	1.901604
518.000000	1.840095
519.000000	1.795706
520.000000	1.766026
521.000000	1.742807
522.000000	1.702135
523.000000	1.661570
524.000000	1.621973
525.000000	1.591512
526.000000	1.560350
527.000000	1.547403
528.000000	1.507482
529.000000	1.488265
530.000000	1.479447
531.000000	1.465874
532.000000	1.450106
533.000000	1.418421
534.000000	1.372602
535.000000	1.339477
536.000000	1.322575
537.000000	1.278199
538.000000	1.237663
539.000000	1.182157
540.000000	1.114278
541.000000	1.046178
542.000000	1.004273
543.000000	0.904684
544.000000	0.831303
545.000000	0.761335
546.000000	0.692139
547.000000	0.613126
548.000000	0.544071
549.000000	0.473327
550.000000	0.398057
551.000000	0.336846
552.000000	0.256722
553.000000	0.205255
554.000000	0.190330
555.000000	0.187500
556.000000	0.187657
557.000000	0.202738
558.000000	0.218781
559.000000	0.300104
560.000000	0.351472
561.000000	0.414933
562.000000	0.466463
563.000000	0.506560
564.000000	0.552736
565.000000	0.641942
566.000000	0.683380
567.000000	0.726207
568.000000	0.807395
569.000000	0.898966
570.000000	0.962843
571.000000	1.009147
572.000000	1.058242
573.000000	1.138766
574.000000	1.181488
575.000000	1.240970
576.000000	1.283751
577.000000	1.357537
578.000000	1.404763
579.000000	1.477926
580.000000	1.593697
581.000000	1.618876
582.000000	1.716149
583.000000	1.748874
584.000000	1.817477
585.000000	1.819027
586.000000	1.871985
587.000000	1.912158
588.000000	1.938102
589.000000	1.985833
590.000000	2.014087
591.000000	2.080596
592.000000	2.084688
593.000000	2.095541
594.000000	2.083737
595.000000	2.069085
596.000000	2.017767
597.000000	1.984425
598.000000	1.931817
599.000000	1.855497
600.000000	1.757637
601.000000	1.645470
602.000000	1.555984
603.000000	1.434854
604.000000	1.315746
605.000000	1.199312
606.000000	1.077369
607.000000	0.966150
608.000000	0.839355
609.000000	0.670703
610.000000	0.547219
611.000000	0.497333
612.000000	0.329909
613.000000	0.258266
614.000000	0.203203
615.000000	0.074135
616.000000	0.067013
617.000000	0.074844
618.000000	0.075693
619.000000	0.154801
620.000000	0.201499
621.000000	0.242178
622.000000	0.257205
623.000000	0.281547
624.000000	0.280160
625.000000	0.293715
626.000000	0.305535
627.000000	0.339068
628.000000	0.365660
629.000000	0.404932
630.000000	0.405353
631.000000	0.452793
632.000000	0.511226
633.000000	0.497796
634.000000	0.551042
635.000000	0.579622
636.000000	0.567376
637.000000	0.573089
638.000000	0.545876
639.000000	0.614266
640.000000	0.670593
641.000000	0.706619
642.000000	0.776692
643.000000	0.840761
644.000000	0.983481
645.000000	1.067391
646.000000	1.186426
647.000000	1.296005
648.000000	1.481460
649.000000	1.631303
650.000000	1.758885
651.000000	1.897991
652.000000	2.027304
653.000000	2.138549
654.000000	2.185436
655.000000	2.264160
656.000000	2.307117
657.000000	2.305050
658.000000	2.301390
659.000000	2.237379
660.000000	2.173285
661.000000	2.138765
662.000000	2.069443
663.000000	1.955588
664.000000	1.903366
665.000000	1.791946
666.000000	1.734174
667.000000	1.671248
668.000000	1.632805
669.000000	1.621073
670.000000	1.606076
671.000000	1.599487
672.000000	1.578788
673.000000	1.554803
674.000000	1.633557
675.000000	1.594754
676.000000	1.627558
677.000000	1.646332
678.000000	1.638055
679.000000	1.663018
680.000000	1.651446
681.000000	1.657724
682.000000	1.623473
683.000000	1.602356
684.000000	1.574669
685.000000	1.534473
686.000000	1.540124
687.000000	1.454551
688.000000	1.371900
689.000000	1.308601
690.000000	1.297314
691.000000	1.261744
692.000000	1.170452
693.000000	1.134505
694.000000	1.101271
695.000000	1.098830
696.000000	1.083388
697.000000	1.035046
698.000000	1.018832
699.000000	0.985398
700.000000	1.006747
701.000000	1.000002
702.000000	0.919785
703.000000	0.922004
704.000000	0.892159
705.000000	0.831819
706.000000	0.812237
707.000000	0.771383
708.000000	0.699177
709.000000	0.634293
710.000000	0.553558
711.000000	0.518232
712.000000	0.453044
713.000000	0.412400
714.000000	0.448634
715.000000	0.417352
716.000000	0.443161
717.000000	0.462392
718.000000	0.411284
719.000000	0.446526
720.000000	0.493665
721.000000	0.435489
722.000000	0.468577
723.000000	0.491252
724.000000	0.457970
725.000000	0.493582
726.000000	0.478173
727.000000	0.470096
728.000000	0.476066
729.000000	0.456806
730.000000	0.467931
731.000000	0.482962
732.000000	0.448104
733.000000	0.426911
734.000000	0.426313
735.000000	0.391354
736.000000	0.362742
737.000000	0.310061
738.000000	0.291375
739.000000	0.292275
740.000000	0.282394
741.000000	0.296949
742.000000	0.309057
743.000000	0.338869
744.000000	0.343530
745.000000	0.323658
746.000000	0.385428
747.000000	0.391453
748.000000	0.394315
749.000000	0.378922
750.000000	0.350860
751.000000	0.340627
752.000000	0.374728
753.000000	0.323185
754.000000	0.242113
755.000000	0.287549
756.000000	0.313002
757.000000	0.361451
758.000000	0.456060
759.000000	0.457882
760.000000	0.476314
761.000000	0.534210
762.000000	0.570387
763.000000	0.606853
764.000000	0.655426
765.000000	0.703015
766.000000	0.757587
767.000000	0.842179
768.000000	0.874238
769.000000	0.914474
770.000000	0.968988
771.000000	1.025894
772.000000	1.093790
773.000000	1.146014
774.000000	1.154018
775.000000	1.114470
776.000000	1.139608
777.000000	1.230651
778.000000	1.363553
779.000000	1.342621
780.000000	1.333106
781.000000	1.360386
782.000000	1.408900
783.000000	1.393496
784.000000	1.425946
785.000000	1.591925
786.000000	1.627276
787.000000	1.626501
788.000000	1.544663
789.000000	1.598986
790.000000	1.714796
791.000000	1.649725
792.000000	1.571042
793.000000	1.618838
794.000000	1.622549
795.000000	1.552790
796.000000	1.511811
797.000000	1.542321
798.000000	1.582260
799.000000	1.599773
800.000000	1.525357
801.000000	1.539910
802.000000	1.433752
803.000000	1.419487
804.000000	1.357852
805.000000	1.366066
806.000000	1.308297
807.000000	1.356423
808.000000	1.371569
809.000000	1.221078
810.000000	1.249786
811.000000	1.196278
812.000000	1.138686
813.000000	1.051482
814.000000	1.026201
815.000000	0.842575
816.000000	0.696452
817.000000	0.752037
818.000000	0.654221
819.000000	0.609101
820.000000	0.516377
821.000000	0.255286
822.000000	0.263492
823.000000	0.286866
824.000000	0.099335
825.000000	0.242390
826.000000	0.152056
827.000000	0.227385
828.000000	0.211689
829.000000	0.380022
830.000000	0.289949
831.000000	0.435551
832.000000	0.563694
833.000000	0.509918
834.000000	0.666968
835.000000	0.584542
836.000000	0.553959
837.000000	0.773889
838.000000	0.906108
839.000000	0.964088
840.000000	0.893155
841.000000	0.685648
842.000000	0.755828
843.000000	0.986594
844.000000	1.223884
845.000000	1.281023
846.000000	1.087782
847.000000	1.013036
848.000000	0.871634
849.000000	1.124769
850.000000	1.367537
851.000000	1.163597
852.000000	1.011975
853.000000	1.014941
854.000000	1.196792
855.000000	1.179895
856.000000	1.144661
857.000000	1.490279
858.000000	1.267804
859.000000	1.141827
860.000000	1.172886
861.000000	1.174223
862.000000	1.197050
863.000000	1.236772
864.000000	1.265052
865.000000	1.288312
866.000000	1.316548
867.000000	1.337148
868.000000	1.364206
869.000000	1.370311
870.000000	1.386453
871.000000	1.426867
872.000000	1.500071
873.000000	1.659445
874.000000	1.795597
875.000000	1.859146
876.000000	1.911521
877.000000	1.961995
878.000000	2.007713
879.000000	2.056922
880.000000	2.097558
881.000000	2.141864
882.000000	2.194352
883.000000	2.266045
884.000000	2.311238
885.000000	2.359000
886.000000	2.412736
887.000000	2.480853
888.000000	2.521327
889.000000	2.589242
890.000000	2.638874
891.000000	2.682567
892.000000	2.736835
893.000000	2.803057
894.000000	2.867653
895.000000	2.923969
896.000000	2.994048
897.000000	3.052952
898.000000	3.115367
899.000000	3.178700
900.000000	3.221842
901.000000	3.292563
902.000000	3.367542
903.000000	3.425502
904.000000	3.483031
905.000000	3.530332
906.000000	3.586872
907.000000	3.638876
908.000000	3.685866
909.000000	3.748680
910.000000	3.784169
911.000000	3.827722
912.000000	3.867740
913.000000	3.876701
914.000000	3.921587
915.000000	3.951849
916.000000	3.985928
917.000000	4.000437
918.000000	4.042795
919.000000	4.076989
920.000000	4.096751
921.000000	4.116158
922.000000	4.147218
923.000000	4.167237
924.000000	4.185898
925.000000	4.208046
926.000000	4.234308
927.000000	4.243534
928.000000	4.282016
929.000000	4.278112
930.000000	4.283289
931.000000	4.303829
932.000000	4.329005
933.000000	4.333877
934.000000	4.343181
935.000000	4.350339
936.000000	4.363221
937.000000	4.393215
938.000000	4.403069
939.000000	4.423205
940.000000	4.439404
941.000000	4.462840
942.000000	4.474694
943.000000	4.495727
944.000000	4.492634
945.000000	4.515034
946.000000	4.520340
947.000000	4.527957
948.000000	4.539142
949.000000	4.567095
950.000000	4.564211
951.000000	4.571023
952.000000	4.583700
953.000000	4.591693
954.000000	4.607623
955.000000	4.620148
956.000000	4.630361
957.000000	4.649280
958.000000	4.661735
959.000000	4.677458
960.000000	4.693629
961.000000	4.709314
962.000000	4.725600
963.000000	4.740234
964.000000	4.754918
965.000000	4.774407
966.000000	4.794684
967.000000	4.816083
968.000000	4.830139
969.000000	4.836209
970.000000	4.859459
971.000000	4.873372
972.000000	4.887789
973.000000	4.905479
974.000000	4.929500
975.000000	4.944076
976.000000	4.966670
977.000000	4.991381
978.000000	5.015144
979.000000	5.030311
980.000000	5.062773
981.000000	5.083577
982.000000	5.094793
983.000000	5.121466
984.000000	5.146478
985.000000	5.180559
986.000000	5.209132
987.000000	5.242316
988.000000	5.267512
989.000000	5.285664
990.000000	5.319046
991.000000	5.348481
992.000000	5.382360
993.000000	5.412380
994.000000	5.438031
995.000000	5.472934
996.000000	5.509796
997.000000	5.542500
998.000000	5.565751
999.000000	5.598304
1000.000000	5.638295
1001.000000	5.681284
1002.000000	5.711561
1003.000000	5.738381
1004.000000	5.771761
1005.000000	5.809921
1006.000000	5.850799
1007.000000	5.887681
1008.000000	5.916979
1009.000000	5.952339
1010.000000	5.995147
1011.000000	6.031239
1012.000000	6.075716
1013.000000	6.108549
1014.000000	6.151806
1015.000000	6.203534
1016.000000	6.239675
1017.000000	6.260005
1018.000000	6.290810
1019.000000	6.325607
1020.000000	6.357679
1021.000000	6.408274
1022.000000	6.437766
1023.000000	6.468927
1024.000000	6.513285
1025.000000	6.543459
1026.000000	6.578840
1027.000000	6.619739
1028.000000	6.648220
1029.000000	6.666181
1030.000000	6.699917
1031.000000	6.748630
1032.000000	6.783660
1033.000000	6.817327
1034.000000	6.860484
1035.000000	6.891120
1036.000000	6.923680
1037.000000	6.965146
1038.000000	7.006694
1039.000000	7.035391
1040.000000	7.063141
1041.000000	7.106613
1042.000000	7.145659
1043.000000	7.177678
1044.000000	7.217004
1045.000000	7.256945
1046.000000	7.285525
1047.000000	7.308943
1048.000000	7.346445
1049.000000	7.383260
1050.000000	7.411174
1051.000000	7.432110
1052.000000	7.471094
1053.000000	7.503424
1054.000000	7.537651
1055.000000	7.564030
1056.000000	7.585551
1057.000000	7.612821
1058.000000	7.648521
1059.000000	7.670574
1060.000000	7.701060
1061.000000	7.735275
1062.000000	7.764254
1063.000000	7.798658
1064.000000	7.822758
1065.000000	7.843020
1066.000000	7.878424
1067.000000	7.905990
1068.000000	7.935379
1069.000000	7.961347
1070.000000	7.985479
1071.000000	8.010857
1072.000000	8.038973
1073.000000	8.073211
1074.000000	8.107332
1075.000000	8.126718
1076.000000	8.147811
1077.000000	8.174875
1078.000000	8.198112
1079.000000	8.228437
1080.000000	8.245283
1081.000000	8.267269
1082.000000	8.293942
1083.000000	8.318050
1084.000000	8.343452
1085.000000	8.368298
1086.000000	8.381743
1087.000000	8.394276
1088.000000	8.424514
1089.000000	8.442310
1090.000000	8.456544
1091.000000	8.476322
1092.000000	8.497570
1093.000000	8.516669
1094.000000	8.517783
1095.000000	8.539012
1096.000000	8.560584
1097.000000	8.592687
1098.000000	8.598566
1099.000000	8.599114
1100.000000	8.624110
1101.000000	8.651312
1102.000000	8.658628
1103.000000	8.665470
1104.000000	8.683306
1105.000000	8.688049
1106.000000	8.699223
1107.000000	8.726834
1108.000000	8.735107
1109.000000	8.765032
1110.000000	8.773666
1111.000000	8.780517
1112.000000	8.798419
1113.000000	8.811706
1114.000000	8.830974
1115.000000	8.841683
1116.000000	8.850742
1117.000000	8.873933
1118.000000	8.891899
1119.000000	8.890850
1120.000000	8.892073
1121.000000	8.911632
1122.000000	8.931678
1123.000000	8.952064
1124.000000	8.963378
1125.000000	8.973677
1126.000000	8.993877
1127.000000	9.006434
1128.000000	9.019170
1129.000000	9.027371
1130.000000	9.037955
1131.000000	9.058304
1132.000000	9.080610
1133.000000	9.120159
1134.000000	9.169376
1135.000000	9.193551
1136.000000	9.249890
1137.000000	9.311227
1138.000000	9.365309
1139.000000	9.432903
1140.000000	9.509430
1141.000000	9.588844
1142.000000	9.652200
1143.000000	9.724406
1144.000000	9.800375
1145.000000	9.862042
1146.000000	9.937757
1147.000000	10.000837
1148.000000	10.032218
1149.000000	10.051271
1150.000000	10.062800
1151.000000	10.041636
1152.000000	10.027679
1153.000000	10.002544
1154.000000	10.003291
1155.000000	9.988569
1156.000000	9.969361
1157.000000	9.967572
1158.000000	9.999244
1159.000000	10.036658
1160.000000	10.064724
1161.000000	10.100383
1162.000000	10.120579
1163.000000	10.185790
1164.000000	10.205708
1165.000000	10.265541
1166.000000	10.303771
1167.000000	10.339513
1168.000000	10.395219
1169.000000	10.423879
1170.000000	10.453959
1171.000000	10.491174
1172.000000	10.532431
1173.000000	10.559225
1174.000000	10.616450
1175.000000	10.660411
1176.000000	10.679079
1177.000000	10.705786
1178.000000	10.735012
1179.000000	10.732256
1180.000000	10.761789
1181.000000	10.819680
1182.000000	10.866311
1183.000000	10.927468
1184.000000	10.997441
1185.000000	11.056467
1186.000000	11.107147
1187.000000	11.164958
1188.000000	11.219727
1189.000000	11.242528
1190.000000	11.262868
1191.000000	11.247778
1192.000000	11.231196
1193.000000	11.193351
1194.000000	11.151525
1195.000000	11.115491
1196.000000	11.074614
1197.000000	11.041539
1198.000000	11.036421
1199.000000	11.026458
1200.000000	11.032790
1201.000000	11.038149
