PE UV       SUBTECH     SPECTRUM    ASCII       PEDS        4.00        
   -1
CICIMAUCR0006-2.Sample.ASC
24/04/12
10:39:35.00
24/04/12
10:39:35.00
Vinicio Soto Monge
C. kalinini
250,000000
1
Lambda 1050
1050L1511233
PerkinElmer UV WinLab 6.3.2.0749 / 2.02.05 Lambda 900 UV/VIS/NIR, Aug  7 2015 09:38:08

0
0
3350/servo 860,8/2
0
0
UV/VIS
1
1
1
DoubleDePol,CommonBeamDepol,RBeamAtt,SBeamAtt,60mm sphere, WB InGaAs Detector
0
0
0
0
Program
Program
3350/servo 860,8/2
3350/0,2 860,8/0,2
3350/0,2 860,8/0,2
0
15.00
 
 
 
0
 
860,8
319,2
860,8
Front
100
on
S:100 R:100
0
0
0
0
 
0
 
 
 
0
 
 
0
0
0
0
0
 
 
 
 
0
0


0
0
#HDR
-1
-1
#GR
nm
%R
1.0
0.0
2500,000000
-1,000000
2251
8
92,561500
5,026000
#DATA
2482.000000	9.579610
2481.000000	9.680875
2480.000000	9.666798
2479.000000	9.611170
2478.000000	9.632627
2477.000000	9.690865
2476.000000	9.570528
2475.000000	9.654083
2474.000000	9.671793
2473.000000	9.659192
2472.000000	9.649088
2471.000000	9.647385
2470.000000	9.645682
2469.000000	9.707553
2468.000000	9.737070
2467.000000	9.729804
2466.000000	9.798487
2465.000000	9.799168
2464.000000	9.826414
2463.000000	9.862516
2462.000000	9.917575
2461.000000	9.952655
2460.000000	10.009190
2459.000000	10.051535
2458.000000	10.107163
2457.000000	10.193328
2456.000000	10.249183
2455.000000	10.329672
2454.000000	10.386435
2453.000000	10.467719
2452.000000	10.549117
2451.000000	10.619843
2450.000000	10.713048
2449.000000	10.793991
2448.000000	10.872210
2447.000000	10.944412
2446.000000	11.000834
2445.000000	11.087114
2444.000000	11.206996
2443.000000	11.272728
2442.000000	11.334145
2441.000000	11.389545
2440.000000	11.475824
2439.000000	11.551886
2438.000000	11.615006
2437.000000	11.673018
2436.000000	11.754643
2435.000000	11.796534
2434.000000	11.864195
2433.000000	11.923114
2432.000000	12.000879
2431.000000	12.057074
2430.000000	12.096922
2429.000000	12.138245
2428.000000	12.129617
2427.000000	12.097489
2426.000000	12.058209
2425.000000	12.066610
2424.000000	12.067405
2423.000000	12.099419
2422.000000	12.124281
2421.000000	12.119967
2420.000000	12.160269
2419.000000	12.174119
2418.000000	12.183882
2417.000000	12.183541
2416.000000	12.211015
2415.000000	12.251089
2414.000000	12.245526
2413.000000	12.252565
2412.000000	12.281060
2411.000000	12.279811
2410.000000	12.288212
2409.000000	12.321021
2408.000000	12.344407
2407.000000	12.342818
2406.000000	12.331011
2405.000000	12.355873
2404.000000	12.381416
2403.000000	12.424896
2402.000000	12.443174
2401.000000	12.440109
2400.000000	12.456343
2399.000000	12.484724
2398.000000	12.499256
2397.000000	12.512084
2396.000000	12.526615
2395.000000	12.540011
2394.000000	12.547617
2393.000000	12.565781
2392.000000	12.571231
2391.000000	12.589622
2390.000000	12.593936
2389.000000	12.611532
2388.000000	12.618798
2387.000000	12.613008
2386.000000	12.613689
2385.000000	12.608467
2384.000000	12.588032
2383.000000	12.569528
2382.000000	12.555564
2381.000000	12.540919
2380.000000	12.512652
2379.000000	12.484384
2378.000000	12.469852
2377.000000	12.457705
2376.000000	12.419447
2375.000000	12.393563
2374.000000	12.381643
2373.000000	12.354965
2372.000000	12.321929
2371.000000	12.270161
2370.000000	12.224411
2369.000000	12.183996
2368.000000	12.133817
2367.000000	12.076146
2366.000000	12.018816
2365.000000	11.946841
2364.000000	11.870325
2363.000000	11.807432
2362.000000	11.747264
2361.000000	11.671202
2360.000000	11.589123
2359.000000	11.533268
2358.000000	11.472305
2357.000000	11.398060
2356.000000	11.358439
2355.000000	11.326539
2354.000000	11.310645
2353.000000	11.316775
2352.000000	11.314164
2351.000000	11.318705
2350.000000	11.346860
2349.000000	11.394654
2348.000000	11.439837
2347.000000	11.485020
2346.000000	11.520667
2345.000000	11.574705
2344.000000	11.631014
2343.000000	11.665412
2342.000000	11.693793
2341.000000	11.728078
2340.000000	11.749080
2339.000000	11.758048
2338.000000	11.760887
2337.000000	11.777802
2336.000000	11.762589
2335.000000	11.748058
2334.000000	11.709346
2333.000000	11.681532
2332.000000	11.644183
2331.000000	11.588442
2330.000000	11.534744
2329.000000	11.486269
2328.000000	11.417699
2327.000000	11.360369
2326.000000	11.275566
2325.000000	11.177707
2324.000000	11.094833
2323.000000	11.010370
2322.000000	10.912739
2321.000000	10.787520
2320.000000	10.667751
2319.000000	10.572503
2318.000000	10.444787
2317.000000	10.347609
2316.000000	10.237263
2315.000000	10.105346
2314.000000	9.987620
2313.000000	9.887945
2312.000000	9.786340
2311.000000	9.717203
2310.000000	9.661008
2309.000000	9.629107
2308.000000	9.583357
2307.000000	9.581994
2306.000000	9.594255
2305.000000	9.635238
2304.000000	9.694271
2303.000000	9.758867
2302.000000	9.837881
2301.000000	9.923706
2300.000000	10.012483
2299.000000	10.129527
2298.000000	10.230224
2297.000000	10.339663
2296.000000	10.429121
2295.000000	10.511313
2294.000000	10.596457
2293.000000	10.645046
2292.000000	10.701695
2291.000000	10.736093
2290.000000	10.749262
2289.000000	10.756414
2288.000000	10.762090
2287.000000	10.748808
2286.000000	10.729622
2285.000000	10.672405
2284.000000	10.655490
2283.000000	10.618935
2282.000000	10.566486
2281.000000	10.515173
2280.000000	10.480548
2279.000000	10.425488
2278.000000	10.408459
2277.000000	10.353740
2276.000000	10.304583
2275.000000	10.280289
2274.000000	10.281084
2273.000000	10.276202
2272.000000	10.291074
2271.000000	10.306513
2270.000000	10.364979
2269.000000	10.415725
2268.000000	10.478845
2267.000000	10.568416
2266.000000	10.705555
2265.000000	10.848483
2264.000000	11.029443
2263.000000	11.196098
2262.000000	11.419629
2261.000000	11.634533
2260.000000	11.854204
2259.000000	12.119513
2258.000000	12.362003
2257.000000	12.672268
2256.000000	12.910898
2255.000000	13.173937
2254.000000	13.424147
2253.000000	13.738044
2252.000000	13.930583
2251.000000	14.172619
2250.000000	14.393994
2249.000000	14.599134
2248.000000	14.815740
2247.000000	14.985461
2246.000000	15.173799
2245.000000	15.340228
2244.000000	15.451710
2243.000000	15.587713
2242.000000	15.763110
2241.000000	15.864374
2240.000000	15.975175
2239.000000	16.089495
2238.000000	16.190533
2237.000000	16.285326
2236.000000	16.377849
2235.000000	16.441991
2234.000000	16.541894
2233.000000	16.547797
2232.000000	16.616934
2231.000000	16.672675
2230.000000	16.688909
2229.000000	16.689590
2228.000000	16.733638
2227.000000	16.761225
2226.000000	16.767923
2225.000000	16.767582
2224.000000	16.757138
2223.000000	16.746012
2222.000000	16.736249
2221.000000	16.700943
2220.000000	16.683006
2219.000000	16.635893
2218.000000	16.605695
2217.000000	16.568231
2216.000000	16.583217
2215.000000	16.508744
2214.000000	16.502727
2213.000000	16.471508
2212.000000	16.441878
2211.000000	16.412134
2210.000000	16.388521
2209.000000	16.354804
2208.000000	16.350376
2207.000000	16.319951
2206.000000	16.301674
2205.000000	16.299857
2204.000000	16.274314
2203.000000	16.258307
2202.000000	16.222774
2201.000000	16.218914
2200.000000	16.229812
2199.000000	16.222093
2198.000000	16.190078
2197.000000	16.183835
2196.000000	16.172596
2195.000000	16.156929
2194.000000	16.127185
2193.000000	16.139333
2192.000000	16.118444
2191.000000	16.114016
2190.000000	16.098691
2189.000000	16.111065
2188.000000	16.076667
2187.000000	16.065768
2186.000000	16.016952
2185.000000	16.011957
2184.000000	15.993339
2183.000000	15.969612
2182.000000	15.963709
2181.000000	15.941571
2180.000000	15.916369
2179.000000	15.905357
2178.000000	15.918299
2177.000000	15.889690
2176.000000	15.880041
2175.000000	15.895594
2174.000000	15.866872
2173.000000	15.853589
2172.000000	15.862444
2171.000000	15.875046
2170.000000	15.889236
2169.000000	15.885944
2168.000000	15.890939
2167.000000	15.908081
2166.000000	15.930105
2165.000000	15.941798
2164.000000	15.954740
2163.000000	15.954513
2162.000000	15.996631
2161.000000	16.035116
2160.000000	16.064065
2159.000000	16.120828
2158.000000	16.150118
2157.000000	16.183494
2156.000000	16.233218
2155.000000	16.259329
2154.000000	16.299857
2153.000000	16.356961
2152.000000	16.406004
2151.000000	16.452208
2150.000000	16.503635
2149.000000	16.553246
2148.000000	16.598997
2147.000000	16.654965
2146.000000	16.700034
2145.000000	16.755775
2144.000000	16.800164
2143.000000	16.837287
2142.000000	16.878496
2141.000000	16.916073
2140.000000	16.948882
2139.000000	16.986005
2138.000000	17.025512
2137.000000	17.063997
2136.000000	17.107363
2135.000000	17.151184
2134.000000	17.193643
2133.000000	17.212715
2132.000000	17.232809
2131.000000	17.258239
2130.000000	17.272543
2129.000000	17.283895
2128.000000	17.301492
2127.000000	17.321813
2126.000000	17.329419
2125.000000	17.334073
2124.000000	17.342815
2123.000000	17.343950
2122.000000	17.350989
2121.000000	17.357346
2120.000000	17.345994
2119.000000	17.322607
2118.000000	17.320223
2117.000000	17.323062
2116.000000	17.297291
2115.000000	17.280603
2114.000000	17.285712
2113.000000	17.288777
2112.000000	17.258239
2111.000000	17.229630
2110.000000	17.212374
2109.000000	17.200114
2108.000000	17.187285
2107.000000	17.157428
2106.000000	17.135858
2105.000000	17.125300
2104.000000	17.111791
2103.000000	17.100211
2102.000000	17.086475
2101.000000	17.073760
2100.000000	17.056958
2099.000000	17.031528
2098.000000	17.015408
2097.000000	16.997017
2096.000000	16.998493
2095.000000	16.999741
2094.000000	16.974539
2093.000000	16.950358
2092.000000	16.934918
2091.000000	16.944454
2090.000000	16.941843
2089.000000	16.935486
2088.000000	16.950812
2087.000000	16.942752
2086.000000	16.913008
2085.000000	16.907672
2084.000000	16.913916
2083.000000	16.897455
2082.000000	16.872706
2081.000000	16.840806
2080.000000	16.822074
2079.000000	16.812311
2078.000000	16.797780
2077.000000	16.770534
2076.000000	16.754413
2075.000000	16.719334
2074.000000	16.687774
2073.000000	16.658711
2072.000000	16.639298
2071.000000	16.624767
2070.000000	16.588098
2069.000000	16.549273
2068.000000	16.525319
2067.000000	16.493759
2066.000000	16.472870
2065.000000	16.454138
2064.000000	16.425417
2063.000000	16.409069
2062.000000	16.391018
2061.000000	16.377849
2060.000000	16.364226
2059.000000	16.372854
2058.000000	16.397716
2057.000000	16.413496
2056.000000	16.426665
2055.000000	16.461972
2054.000000	16.493305
2053.000000	16.560171
2052.000000	16.643045
2051.000000	16.757478
2050.000000	16.869414
2049.000000	16.956942
2048.000000	17.059229
2047.000000	17.179906
2046.000000	17.319883
2045.000000	17.480181
2044.000000	17.634348
2043.000000	17.776368
2042.000000	17.915437
2041.000000	18.067561
2040.000000	18.193801
2039.000000	18.366814
2038.000000	18.509061
2037.000000	18.624403
2036.000000	18.750075
2035.000000	18.863941
2034.000000	18.979056
2033.000000	19.120963
2032.000000	19.218027
2031.000000	19.316453
2030.000000	19.423848
2029.000000	19.517166
2028.000000	19.607419
2027.000000	19.696536
2026.000000	19.755342
2025.000000	19.834015
2024.000000	19.900428
2023.000000	20.012591
2022.000000	20.057320
2021.000000	20.127819
2020.000000	20.179473
2019.000000	20.242480
2018.000000	20.305827
2017.000000	20.348512
2016.000000	20.377348
2015.000000	20.426845
2014.000000	20.477477
2013.000000	20.524023
2012.000000	20.549679
2011.000000	20.558421
2010.000000	20.595657
2009.000000	20.565913
2008.000000	20.589186
2007.000000	20.604398
2006.000000	20.609961
2005.000000	20.586689
2004.000000	20.555128
2003.000000	20.565005
2002.000000	20.542300
2001.000000	20.512897
2000.000000	20.484743
1999.000000	20.447847
1998.000000	20.424688
1997.000000	20.374510
1996.000000	20.313547
1995.000000	20.276424
1994.000000	20.231468
1993.000000	20.175727
1992.000000	20.096259
1991.000000	20.033025
1990.000000	19.950152
1989.000000	19.904061
1988.000000	19.841849
1987.000000	19.774074
1986.000000	19.678713
1985.000000	19.592206
1984.000000	19.522388
1983.000000	19.440082
1982.000000	19.346310
1981.000000	19.254923
1980.000000	19.194641
1979.000000	19.096441
1978.000000	19.014476
1977.000000	18.927742
1976.000000	18.848275
1975.000000	18.783452
1974.000000	18.706709
1973.000000	18.603401
1972.000000	18.523252
1971.000000	18.435951
1970.000000	18.352850
1969.000000	18.301082
1968.000000	18.221047
1967.000000	18.155884
1966.000000	18.087541
1965.000000	18.002965
1964.000000	17.925314
1963.000000	17.899089
1962.000000	17.784429
1961.000000	17.733115
1960.000000	17.628445
1959.000000	17.548750
1958.000000	17.472915
1957.000000	17.411271
1956.000000	17.326013
1955.000000	17.274246
1954.000000	17.192848
1953.000000	17.162423
1952.000000	17.076144
1951.000000	17.014500
1950.000000	16.941389
1949.000000	16.888373
1948.000000	16.831951
1947.000000	16.793693
1946.000000	16.752937
1945.000000	16.711160
1944.000000	16.689363
1943.000000	16.651446
1942.000000	16.622042
1941.000000	16.609441
1940.000000	16.591504
1939.000000	16.626924
1938.000000	16.631124
1937.000000	16.657235
1936.000000	16.682097
1935.000000	16.728529
1934.000000	16.752029
1933.000000	16.779843
1932.000000	16.839898
1931.000000	16.912327
1930.000000	17.000990
1929.000000	17.110769
1928.000000	17.228722
1927.000000	17.360298
1926.000000	17.504362
1925.000000	17.630034
1924.000000	17.747306
1923.000000	17.843689
1922.000000	18.033957
1921.000000	18.256694
1920.000000	18.489421
1919.000000	18.689793
1918.000000	18.886306
1917.000000	19.032413
1916.000000	19.162967
1915.000000	19.381957
1914.000000	19.683594
1913.000000	19.996470
1912.000000	20.297880
1911.000000	20.577493
1910.000000	20.752095
1909.000000	20.904673
1908.000000	21.107543
1907.000000	21.395443
1906.000000	21.761449
1905.000000	22.186034
1904.000000	22.521955
1903.000000	22.794984
1902.000000	23.056206
1901.000000	23.335137
1900.000000	23.718399
1899.000000	24.110516
1898.000000	24.476294
1897.000000	24.829926
1896.000000	25.061063
1895.000000	25.288568
1894.000000	25.583848
1893.000000	25.929305
1892.000000	26.308140
1891.000000	26.708203
1890.000000	27.053206
1889.000000	27.373462
1888.000000	27.736402
1887.000000	28.054614
1886.000000	28.435491
1885.000000	28.891977
1884.000000	29.422367
1883.000000	29.953893
1882.000000	30.467255
1881.000000	30.978913
1880.000000	31.438464
1879.000000	31.915611
1878.000000	32.339401
1877.000000	32.776587
1876.000000	33.170520
1875.000000	33.573990
1874.000000	33.900602
1873.000000	34.225512
1872.000000	34.556552
1871.000000	34.871130
1870.000000	35.168453
1869.000000	35.412646
1868.000000	35.583843
1867.000000	35.714510
1866.000000	35.762645
1865.000000	35.824062
1864.000000	35.878895
1863.000000	35.910341
1862.000000	35.949167
1861.000000	35.999572
1860.000000	36.062465
1859.000000	36.104924
1858.000000	36.112530
1857.000000	36.091868
1856.000000	36.032949
1855.000000	36.017396
1854.000000	36.019439
1853.000000	35.958022
1852.000000	35.881279
1851.000000	35.792843
1850.000000	35.693394
1849.000000	35.662061
1848.000000	35.681928
1847.000000	35.681928
1846.000000	35.583956
1845.000000	35.432967
1844.000000	35.294580
1843.000000	35.248829
1842.000000	35.281184
1841.000000	35.292650
1840.000000	35.231687
1839.000000	35.136212
1838.000000	35.073432
1837.000000	35.049252
1836.000000	35.026774
1835.000000	34.949803
1834.000000	34.827650
1833.000000	34.704248
1832.000000	34.596399
1831.000000	34.518634
1830.000000	34.451881
1829.000000	34.372073
1828.000000	34.268992
1827.000000	34.194633
1826.000000	34.130491
1825.000000	34.050796
1824.000000	33.967355
1823.000000	33.892882
1822.000000	33.898899
1821.000000	33.946807
1820.000000	33.955321
1819.000000	33.892088
1818.000000	33.823745
1817.000000	33.802857
1816.000000	33.804333
1815.000000	33.803084
1814.000000	33.784806
1813.000000	33.759263
1812.000000	33.747116
1811.000000	33.730428
1810.000000	33.690240
1809.000000	33.628936
1808.000000	33.578304
1807.000000	33.525855
1806.000000	33.488618
1805.000000	33.439235
1804.000000	33.364649
1803.000000	33.326164
1802.000000	33.276213
1801.000000	33.233981
1800.000000	33.174948
1799.000000	33.110352
1798.000000	33.057790
1797.000000	32.991150
1796.000000	32.944718
1795.000000	32.910888
1794.000000	32.852082
1793.000000	32.800314
1792.000000	32.736399
1791.000000	32.674982
1790.000000	32.621512
1789.000000	32.562706
1788.000000	32.486303
1787.000000	32.408879
1786.000000	32.316356
1785.000000	32.243245
1784.000000	32.163437
1783.000000	32.090440
1782.000000	31.983045
1781.000000	31.907097
1780.000000	31.821158
1779.000000	31.701729
1778.000000	31.589680
1777.000000	31.484442
1776.000000	31.361948
1775.000000	31.227307
1774.000000	31.067917
1773.000000	30.909663
1772.000000	30.775817
1771.000000	30.615859
1770.000000	30.453518
1769.000000	30.301508
1768.000000	30.160850
1767.000000	30.021327
1766.000000	29.934026
1765.000000	29.848201
1764.000000	29.797796
1763.000000	29.795184
1762.000000	29.808240
1761.000000	29.855353
1760.000000	29.913591
1759.000000	29.980685
1758.000000	30.086036
1757.000000	30.169932
1756.000000	30.223062
1755.000000	30.251329
1754.000000	30.266088
1753.000000	30.265747
1752.000000	30.249059
1751.000000	30.220337
1750.000000	30.149043
1749.000000	30.067645
1748.000000	29.981139
1747.000000	29.858191
1746.000000	29.720485
1745.000000	29.550424
1744.000000	29.357431
1743.000000	29.160464
1742.000000	28.895155
1741.000000	28.626895
1740.000000	28.322306
1739.000000	28.040537
1738.000000	27.778520
1737.000000	27.548858
1736.000000	27.406952
1735.000000	27.281279
1734.000000	27.209871
1733.000000	27.196362
1732.000000	27.245518
1731.000000	27.331230
1730.000000	27.431359
1729.000000	27.556237
1728.000000	27.678504
1727.000000	27.795322
1726.000000	27.902036
1725.000000	28.008976
1724.000000	28.060517
1723.000000	28.082995
1722.000000	28.107403
1721.000000	28.122502
1720.000000	28.167912
1719.000000	28.189936
1718.000000	28.274626
1717.000000	28.340243
1716.000000	28.410629
1715.000000	28.468414
1714.000000	28.569905
1713.000000	28.650281
1712.000000	28.707044
1711.000000	28.732928
1710.000000	28.784922
1709.000000	28.783446
1708.000000	28.743486
1707.000000	28.738604
1706.000000	28.722256
1705.000000	28.686042
1704.000000	28.598627
1703.000000	28.492935
1702.000000	28.394736
1701.000000	28.212641
1700.000000	28.060176
1699.000000	27.878763
1698.000000	27.710632
1697.000000	27.570201
1696.000000	27.496637
1695.000000	27.467574
1694.000000	27.556464
1693.000000	27.680434
1692.000000	27.851290
1691.000000	28.062788
1690.000000	28.264522
1689.000000	28.405294
1688.000000	28.480220
1687.000000	28.494297
1686.000000	28.521203
1685.000000	28.566954
1684.000000	28.706249
1683.000000	28.961341
1682.000000	29.376503
1681.000000	29.910753
1680.000000	30.529126
1679.000000	31.237978
1678.000000	31.881894
1677.000000	32.489368
1676.000000	33.048481
1675.000000	33.509053
1674.000000	33.928189
1673.000000	34.283410
1672.000000	34.611157
1671.000000	34.858302
1670.000000	35.096932
1669.000000	35.320464
1668.000000	35.492909
1667.000000	35.679998
1666.000000	35.827922
1665.000000	35.971532
1664.000000	36.071661
1663.000000	36.194041
1662.000000	36.265222
1661.000000	36.339808
1660.000000	36.408150
1659.000000	36.446068
1658.000000	36.493748
1657.000000	36.537683
1656.000000	36.562091
1655.000000	36.572875
1654.000000	36.586498
1653.000000	36.569129
1652.000000	36.562545
1651.000000	36.535071
1650.000000	36.521789
1649.000000	36.487391
1648.000000	36.437440
1647.000000	36.401793
1646.000000	36.358540
1645.000000	36.306772
1644.000000	36.242403
1643.000000	36.203804
1642.000000	36.150902
1641.000000	36.093685
1640.000000	36.016488
1639.000000	35.958249
1638.000000	35.894221
1637.000000	35.827809
1636.000000	35.730177
1635.000000	35.657975
1634.000000	35.591222
1633.000000	35.509938
1632.000000	35.437395
1631.000000	35.349413
1630.000000	35.259160
1629.000000	35.167091
1628.000000	35.078995
1627.000000	34.963540
1626.000000	34.872720
1625.000000	34.779629
1624.000000	34.698685
1623.000000	34.619218
1622.000000	34.535549
1621.000000	34.436215
1620.000000	34.347892
1619.000000	34.274668
1618.000000	34.177036
1617.000000	34.095639
1616.000000	34.000277
1615.000000	33.916041
1614.000000	33.840320
1613.000000	33.760852
1612.000000	33.685699
1611.000000	33.605436
1610.000000	33.513935
1609.000000	33.434807
1608.000000	33.362038
1607.000000	33.289609
1606.000000	33.258048
1605.000000	33.191750
