PE UV       SUBTECH     SPECTRUM    ASCII       PEDS        4.00        
   -1
CICIMAUCR0239-3.ASC
24/06/20
14:40:00.00
24/06/20
14:40:00.00
Vinicio Soto Monge
C. cupreomarginata. Sex M. Ventral 
250,000000
1
Lambda 1050
1050L1511233
PerkinElmer UV WinLab 6.3.2.0749 / 2.02.05 Lambda 900 UV/VIS/NIR, Aug  7 2015 09:38:08

0
0
3350/servo 860,8/2
0
0
UV/VIS
1
1
1
DoubleDePol,CommonBeamDepol,RBeamAtt,SBeamAtt,60mm sphere, WB InGaAs Detector
0
0
0
0
Program
Program
3350/servo 860,8/2
3350/0,2 860,8/0,2
3350/0,2 860,8/0,2
0
15.00
 
 
 
0
 
860,8
319,2
860,8
Front
100
on
S:100 R:100
0
0
0
0
 
0
 
 
 
0
 
 
0
0
0
0
0
 
 
 
 
0
0


0
0
#HDR
-1
-1
#GR
nm
%R
1.0
0.0
2500,000000
-1,000000
2251
8
61,032400
4,392100
#DATA
2482.000000	5.615226
2481.000000	5.651549
2480.000000	5.583010
2479.000000	5.538265
2478.000000	5.574482
2477.000000	5.621333
2476.000000	5.601645
2475.000000	5.623122
2474.000000	5.594486
2473.000000	5.608067
2472.000000	5.594275
2471.000000	5.625439
2470.000000	5.580799
2469.000000	5.621227
2468.000000	5.617227
2467.000000	5.591011
2466.000000	5.600487
2465.000000	5.643758
2464.000000	5.652075
2463.000000	5.616279
2462.000000	5.627860
2461.000000	5.615542
2460.000000	5.633861
2459.000000	5.673974
2458.000000	5.638599
2457.000000	5.675132
2456.000000	5.732827
2455.000000	5.704716
2454.000000	5.771676
2453.000000	5.769781
2452.000000	5.773781
2451.000000	5.828212
2450.000000	5.835477
2449.000000	5.824633
2448.000000	5.871904
2447.000000	5.865272
2446.000000	5.916439
2445.000000	5.936653
2444.000000	5.973502
2443.000000	5.997822
2442.000000	6.000243
2441.000000	6.028670
2440.000000	6.065729
2439.000000	6.071519
2438.000000	6.118791
2437.000000	6.108473
2436.000000	6.126687
2435.000000	6.176380
2434.000000	6.183434
2433.000000	6.202069
2432.000000	6.219757
2431.000000	6.259027
2430.000000	6.264396
2429.000000	6.283663
2428.000000	6.297560
2427.000000	6.327566
2426.000000	6.329145
2425.000000	6.337252
2424.000000	6.354518
2423.000000	6.369994
2422.000000	6.373995
2421.000000	6.397157
2420.000000	6.406527
2419.000000	6.435796
2418.000000	6.464538
2417.000000	6.464117
2416.000000	6.474434
2415.000000	6.463274
2414.000000	6.472750
2413.000000	6.489279
2412.000000	6.505177
2411.000000	6.518653
2410.000000	6.532655
2409.000000	6.534445
2408.000000	6.553396
2407.000000	6.549711
2406.000000	6.568662
2405.000000	6.579927
2404.000000	6.596562
2403.000000	6.616776
2402.000000	6.624777
2401.000000	6.637832
2400.000000	6.636464
2399.000000	6.646571
2398.000000	6.651940
2397.000000	6.677103
2396.000000	6.706371
2395.000000	6.715846
2394.000000	6.723953
2393.000000	6.752906
2392.000000	6.767119
2391.000000	6.770909
2390.000000	6.781543
2389.000000	6.800704
2388.000000	6.803547
2387.000000	6.810916
2386.000000	6.812917
2385.000000	6.835447
2384.000000	6.834605
2383.000000	6.825024
2382.000000	6.825024
2381.000000	6.829867
2380.000000	6.821339
2379.000000	6.833657
2378.000000	6.841659
2377.000000	6.828498
2376.000000	6.820286
2375.000000	6.821971
2374.000000	6.813548
2373.000000	6.799335
2372.000000	6.794598
2371.000000	6.805442
2370.000000	6.799019
2369.000000	6.773120
2368.000000	6.752590
2367.000000	6.748695
2366.000000	6.741851
2365.000000	6.725111
2364.000000	6.705318
2363.000000	6.672681
2362.000000	6.660784
2361.000000	6.649098
2360.000000	6.617092
2359.000000	6.592772
2358.000000	6.569188
2357.000000	6.546342
2356.000000	6.545500
2355.000000	6.543921
2354.000000	6.528128
2353.000000	6.515916
2352.000000	6.510757
2351.000000	6.510757
2350.000000	6.517600
2349.000000	6.518969
2348.000000	6.525917
2347.000000	6.551606
2346.000000	6.567293
2345.000000	6.598983
2344.000000	6.616039
2343.000000	6.626567
2342.000000	6.648361
2341.000000	6.656994
2340.000000	6.678998
2339.000000	6.705213
2338.000000	6.699422
2337.000000	6.699528
2336.000000	6.713004
2335.000000	6.718689
2334.000000	6.716373
2333.000000	6.702476
2332.000000	6.713741
2331.000000	6.718163
2330.000000	6.678050
2329.000000	6.665311
2328.000000	6.646781
2327.000000	6.615197
2326.000000	6.577400
2325.000000	6.564135
2324.000000	6.559081
2323.000000	6.516547
2322.000000	6.484752
2321.000000	6.455273
2320.000000	6.424952
2319.000000	6.378838
2318.000000	6.326934
2317.000000	6.296297
2316.000000	6.278399
2315.000000	6.241550
2314.000000	6.196700
2313.000000	6.144691
2312.000000	6.112685
2311.000000	6.105736
2310.000000	6.074362
2309.000000	6.031196
2308.000000	6.021510
2307.000000	6.012982
2306.000000	6.009824
2305.000000	6.003297
2304.000000	6.012351
2303.000000	6.024458
2302.000000	6.045199
2301.000000	6.060044
2300.000000	6.067308
2299.000000	6.104473
2298.000000	6.122792
2297.000000	6.155956
2296.000000	6.175328
2295.000000	6.220915
2294.000000	6.262922
2293.000000	6.281663
2292.000000	6.305878
2291.000000	6.303772
2290.000000	6.328092
2289.000000	6.349043
2288.000000	6.351991
2287.000000	6.340094
2286.000000	6.343779
2285.000000	6.350938
2284.000000	6.339041
2283.000000	6.317985
2282.000000	6.294086
2281.000000	6.290822
2280.000000	6.272924
2279.000000	6.263554
2278.000000	6.251447
2277.000000	6.226389
2276.000000	6.211334
2275.000000	6.203227
2274.000000	6.197437
2273.000000	6.182487
2272.000000	6.168590
2271.000000	6.164484
2270.000000	6.177644
2269.000000	6.173854
2268.000000	6.175854
2267.000000	6.209123
2266.000000	6.234391
2265.000000	6.246814
2264.000000	6.297244
2263.000000	6.349991
2262.000000	6.400632
2261.000000	6.464433
2260.000000	6.557502
2259.000000	6.623409
2258.000000	6.722374
2257.000000	6.828814
2256.000000	6.891457
2255.000000	7.010637
2254.000000	7.101495
2253.000000	7.217095
2252.000000	7.343960
2251.000000	7.447137
2250.000000	7.563684
2249.000000	7.639277
2248.000000	7.756035
2247.000000	7.843103
2246.000000	7.924907
2245.000000	8.015134
2244.000000	8.110415
2243.000000	8.179795
2242.000000	8.236858
2241.000000	8.312030
2240.000000	8.395624
2239.000000	8.426788
2238.000000	8.488378
2237.000000	8.545335
2236.000000	8.583553
2235.000000	8.639879
2234.000000	8.691046
2233.000000	8.724841
2232.000000	8.756953
2231.000000	8.798644
2230.000000	8.842021
2229.000000	8.850233
2228.000000	8.861708
2227.000000	8.897294
2226.000000	8.929721
2225.000000	8.958357
2224.000000	8.936248
2223.000000	8.953514
2222.000000	8.965938
2221.000000	8.958884
2220.000000	8.969833
2219.000000	8.948987
2218.000000	8.947934
2217.000000	8.939933
2216.000000	8.926983
2215.000000	8.950567
2214.000000	8.890556
2213.000000	8.901400
2212.000000	8.904348
2211.000000	8.890450
2210.000000	8.870236
2209.000000	8.871815
2208.000000	8.878027
2207.000000	8.867288
2206.000000	8.858234
2205.000000	8.869815
2204.000000	8.846758
2203.000000	8.852865
2202.000000	8.836441
2201.000000	8.854654
2200.000000	8.854865
2199.000000	8.828650
2198.000000	8.831598
2197.000000	8.824333
2196.000000	8.820122
2195.000000	8.802540
2194.000000	8.819490
2193.000000	8.824017
2192.000000	8.796854
2191.000000	8.800855
2190.000000	8.795170
2189.000000	8.788011
2188.000000	8.798013
2187.000000	8.792012
2186.000000	8.777904
2185.000000	8.766533
2184.000000	8.755057
2183.000000	8.735264
2182.000000	8.741160
2181.000000	8.715155
2180.000000	8.750636
2179.000000	8.752636
2178.000000	8.726000
2177.000000	8.717682
2176.000000	8.724210
2175.000000	8.725789
2174.000000	8.726526
2173.000000	8.728737
2172.000000	8.725157
2171.000000	8.717788
2170.000000	8.727895
2169.000000	8.758216
2168.000000	8.751057
2167.000000	8.753583
2166.000000	8.761164
2165.000000	8.763269
2164.000000	8.755268
2163.000000	8.758111
2162.000000	8.804961
2161.000000	8.816016
2160.000000	8.820438
2159.000000	8.837704
2158.000000	8.840968
2157.000000	8.847074
2156.000000	8.867394
2155.000000	8.887608
2154.000000	8.912349
2153.000000	8.936353
2152.000000	8.956883
2151.000000	8.967938
2150.000000	8.972676
2149.000000	8.988784
2148.000000	9.009525
2147.000000	9.000365
2146.000000	9.021632
2145.000000	9.042267
2144.000000	9.055533
2143.000000	9.067535
2142.000000	9.083643
2141.000000	9.086486
2140.000000	9.093645
2139.000000	9.103331
2138.000000	9.112385
2137.000000	9.118281
2136.000000	9.132389
2135.000000	9.125230
2134.000000	9.128599
2133.000000	9.127335
2132.000000	9.129230
2131.000000	9.133126
2130.000000	9.140390
2129.000000	9.136705
2128.000000	9.122492
2127.000000	9.108595
2126.000000	9.089434
2125.000000	9.086591
2124.000000	9.069746
2123.000000	9.066272
2122.000000	9.057639
2121.000000	9.027212
2120.000000	9.033634
2119.000000	9.018474
2118.000000	8.993837
2117.000000	8.967517
2116.000000	8.951198
2115.000000	8.938670
2114.000000	8.917087
2113.000000	8.900136
2112.000000	8.885502
2111.000000	8.865920
2110.000000	8.847811
2109.000000	8.831071
2108.000000	8.812857
2107.000000	8.774956
2106.000000	8.745793
2105.000000	8.748425
2104.000000	8.730632
2103.000000	8.697994
2102.000000	8.681676
2101.000000	8.667568
2100.000000	8.649038
2099.000000	8.645038
2098.000000	8.614295
2097.000000	8.588080
2096.000000	8.571866
2095.000000	8.547125
2094.000000	8.544493
2093.000000	8.532175
2092.000000	8.519120
2091.000000	8.497327
2090.000000	8.471743
2089.000000	8.461320
2088.000000	8.460583
2087.000000	8.444054
2086.000000	8.414048
2085.000000	8.413206
2084.000000	8.404889
2083.000000	8.384359
2082.000000	8.372672
2081.000000	8.355722
2080.000000	8.340772
2079.000000	8.322769
2078.000000	8.288868
2077.000000	8.269391
2076.000000	8.267285
2075.000000	8.254019
2074.000000	8.243070
2073.000000	8.222224
2072.000000	8.186534
2071.000000	8.160845
2070.000000	8.146421
2069.000000	8.134208
2068.000000	8.118942
2067.000000	8.104624
2066.000000	8.091253
2065.000000	8.065880
2064.000000	8.055773
2063.000000	8.034717
2062.000000	8.012186
2061.000000	8.001447
2060.000000	7.998605
2059.000000	8.004711
2058.000000	7.990919
2057.000000	7.988182
2056.000000	7.980496
2055.000000	7.970600
2054.000000	7.988077
2053.000000	8.002290
2052.000000	8.007238
2051.000000	8.045140
2050.000000	8.059037
2049.000000	8.069144
2048.000000	8.090095
2047.000000	8.124312
2046.000000	8.153054
2045.000000	8.195377
2044.000000	8.232015
2043.000000	8.267917
2042.000000	8.307924
2041.000000	8.331823
2040.000000	8.357091
2039.000000	8.404257
2038.000000	8.436895
2037.000000	8.463636
2036.000000	8.493115
2035.000000	8.516067
2034.000000	8.544282
2033.000000	8.562707
2032.000000	8.598819
2031.000000	8.608820
2030.000000	8.613979
2029.000000	8.642090
2028.000000	8.650723
2027.000000	8.659145
2026.000000	8.664620
2025.000000	8.674938
2024.000000	8.673780
2023.000000	8.685255
2022.000000	8.700942
2021.000000	8.694415
2020.000000	8.701258
2019.000000	8.707049
2018.000000	8.694625
2017.000000	8.680412
2016.000000	8.697363
2015.000000	8.698731
2014.000000	8.657882
2013.000000	8.662304
2012.000000	8.655987
2011.000000	8.662514
2010.000000	8.621875
2009.000000	8.601135
2008.000000	8.598608
2007.000000	8.581131
2006.000000	8.573972
2005.000000	8.551758
2004.000000	8.536807
2003.000000	8.510382
2002.000000	8.477323
2001.000000	8.459636
2000.000000	8.445317
1999.000000	8.399730
1998.000000	8.374989
1997.000000	8.333297
1996.000000	8.322979
1995.000000	8.286236
1994.000000	8.236753
1993.000000	8.211485
1992.000000	8.171478
1991.000000	8.161476
1990.000000	8.113047
1989.000000	8.069986
1988.000000	8.026715
1987.000000	7.987971
1986.000000	7.939542
1985.000000	7.914379
1984.000000	7.878794
1983.000000	7.821204
1982.000000	7.782039
1981.000000	7.755192
1980.000000	7.709500
1979.000000	7.676125
1978.000000	7.636013
1977.000000	7.602849
1976.000000	7.574212
1975.000000	7.537574
1974.000000	7.497777
1973.000000	7.461876
1972.000000	7.425975
1971.000000	7.395969
1970.000000	7.387021
1969.000000	7.319745
1968.000000	7.285950
1967.000000	7.263314
1966.000000	7.238678
1965.000000	7.201408
1964.000000	7.187300
1963.000000	7.159927
1962.000000	7.129184
1961.000000	7.084966
1960.000000	7.046854
1959.000000	7.050644
1958.000000	7.030219
1957.000000	7.000214
1956.000000	6.953047
1955.000000	6.951152
1954.000000	6.895037
1953.000000	6.885140
1952.000000	6.867137
1951.000000	6.824077
1950.000000	6.810600
1949.000000	6.799125
1948.000000	6.781964
1947.000000	6.781227
1946.000000	6.750484
1945.000000	6.758907
1944.000000	6.723216
1943.000000	6.715531
1942.000000	6.693421
1941.000000	6.686578
1940.000000	6.678682
1939.000000	6.692684
1938.000000	6.670049
1937.000000	6.678682
1936.000000	6.681840
1935.000000	6.667522
1934.000000	6.693316
1933.000000	6.677629
1932.000000	6.691421
1931.000000	6.694053
1930.000000	6.709845
1929.000000	6.751432
1928.000000	6.756696
1927.000000	6.775331
1926.000000	6.811232
1925.000000	6.848923
1924.000000	6.852082
1923.000000	6.872822
1922.000000	6.932938
1921.000000	6.967471
1920.000000	7.021797
1919.000000	7.067173
1918.000000	7.106970
1917.000000	7.147819
1916.000000	7.219727
1915.000000	7.245311
1914.000000	7.321640
1913.000000	7.374492
1912.000000	7.471562
1911.000000	7.533784
1910.000000	7.618115
1909.000000	7.680968
1908.000000	7.745401
1907.000000	7.843840
1906.000000	7.947332
1905.000000	8.060300
1904.000000	8.176426
1903.000000	8.270654
1902.000000	8.393624
1901.000000	8.514698
1900.000000	8.628403
1899.000000	8.787590
1898.000000	8.932142
1897.000000	9.093434
1896.000000	9.250094
1895.000000	9.403069
1894.000000	9.569731
1893.000000	9.743973
1892.000000	9.942641
1891.000000	10.186369
1890.000000	10.434203
1889.000000	10.692566
1888.000000	10.946296
1887.000000	11.235296
1886.000000	11.524822
1885.000000	11.881623
1884.000000	12.271694
1883.000000	12.687032
1882.000000	13.144588
1881.000000	13.584457
1880.000000	14.078547
1879.000000	14.547263
1878.000000	14.989870
1877.000000	15.483643
1876.000000	15.992577
1875.000000	16.446238
1874.000000	16.902952
1873.000000	17.345454
1872.000000	17.785849
1871.000000	18.202661
1870.000000	18.595574
1869.000000	18.951849
1868.000000	19.293911
1867.000000	19.565224
1866.000000	19.812005
1865.000000	20.020464
1864.000000	20.234608
1863.000000	20.415272
1862.000000	20.581197
1861.000000	20.771126
1860.000000	20.925785
1859.000000	21.080971
1858.000000	21.201730
1857.000000	21.309223
1856.000000	21.391343
1855.000000	21.461672
1854.000000	21.516524
1853.000000	21.533474
1852.000000	21.556110
1851.000000	21.579377
1850.000000	21.595275
1849.000000	21.622648
1848.000000	21.632334
1847.000000	21.613699
1846.000000	21.564217
1845.000000	21.530421
1844.000000	21.496204
1843.000000	21.485360
1842.000000	21.489361
1841.000000	21.505364
1840.000000	21.479359
1839.000000	21.454618
1838.000000	21.437141
1837.000000	21.404925
1836.000000	21.354073
1835.000000	21.311961
1834.000000	21.253318
1833.000000	21.182463
1832.000000	21.122453
1831.000000	21.071917
1830.000000	21.007379
1829.000000	20.950211
1828.000000	20.882093
1827.000000	20.799341
1826.000000	20.709115
1825.000000	20.642366
1824.000000	20.575406
1823.000000	20.529924
1822.000000	20.496445
1821.000000	20.474651
1820.000000	20.440329
1819.000000	20.385267
1818.000000	20.328941
1817.000000	20.312095
1816.000000	20.302409
1815.000000	20.265455
1814.000000	20.259033
1813.000000	20.244083
1812.000000	20.229344
1811.000000	20.204286
1810.000000	20.178913
1809.000000	20.145013
1808.000000	20.103321
1807.000000	20.062787
1806.000000	20.020464
1805.000000	19.968138
1804.000000	19.911707
1803.000000	19.872648
1802.000000	19.827271
1801.000000	19.764523
1800.000000	19.708302
1799.000000	19.647344
1798.000000	19.587438
1797.000000	19.543114
1796.000000	19.494790
1795.000000	19.445728
1794.000000	19.392771
1793.000000	19.340551
1792.000000	19.288963
1791.000000	19.237480
1790.000000	19.172521
1789.000000	19.106930
1788.000000	19.049972
1787.000000	18.985540
1786.000000	18.926055
1785.000000	18.860464
1784.000000	18.781713
1783.000000	18.701804
1782.000000	18.617578
1781.000000	18.553988
1780.000000	18.483449
1779.000000	18.404277
1778.000000	18.333738
1777.000000	18.236457
1776.000000	18.141492
1775.000000	18.051581
1774.000000	17.955669
1773.000000	17.846913
1772.000000	17.726575
1771.000000	17.617082
1770.000000	17.505377
1769.000000	17.378196
1768.000000	17.264386
1767.000000	17.155630
1766.000000	17.056875
1765.000000	16.963911
1764.000000	16.901163
1763.000000	16.858523
1762.000000	16.822517
1761.000000	16.823464
1760.000000	16.844837
1759.000000	16.912217
1758.000000	16.998233
1757.000000	17.048768
1756.000000	17.114254
1755.000000	17.183424
1754.000000	17.252279
1753.000000	17.281021
1752.000000	17.291865
1751.000000	17.309447
1750.000000	17.307868
1749.000000	17.299445
1748.000000	17.279863
1747.000000	17.228906
1746.000000	17.169527
1745.000000	17.094040
1744.000000	17.005287
1743.000000	16.882001
1742.000000	16.739660
1741.000000	16.577841
1740.000000	16.378963
1739.000000	16.177874
1738.000000	15.979417
1737.000000	15.779486
1736.000000	15.614404
1735.000000	15.446163
1734.000000	15.348461
1733.000000	15.276553
1732.000000	15.226649
1731.000000	15.270552
1730.000000	15.333195
1729.000000	15.413420
1728.000000	15.527019
1727.000000	15.648936
1726.000000	15.742111
1725.000000	15.855816
1724.000000	15.942989
1723.000000	16.017319
1722.000000	16.078593
1721.000000	16.103439
1720.000000	16.120495
1719.000000	16.142815
1718.000000	16.150395
1717.000000	16.182401
1716.000000	16.212196
1715.000000	16.257046
1714.000000	16.300949
1713.000000	16.368435
1712.000000	16.430025
1711.000000	16.466347
1710.000000	16.497827
1709.000000	16.522568
1708.000000	16.523937
1707.000000	16.510882
1706.000000	16.504670
1705.000000	16.465610
1704.000000	16.402757
1703.000000	16.365803
1702.000000	16.270417
1701.000000	16.154607
1700.000000	16.039217
1699.000000	15.896455
1698.000000	15.752218
1697.000000	15.621984
1696.000000	15.485959
1695.000000	15.397522
1694.000000	15.392679
1693.000000	15.419421
1692.000000	15.521018
1691.000000	15.658727
1690.000000	15.822546
1689.000000	15.962361
1688.000000	16.124285
1687.000000	16.223777
1686.000000	16.287157
1685.000000	16.328954
1684.000000	16.356222
1683.000000	16.426445
1682.000000	16.576156
1681.000000	16.847890
1680.000000	17.225327
1679.000000	17.692569
1678.000000	18.208768
1677.000000	18.754445
1676.000000	19.322548
1675.000000	19.801477
1674.000000	20.273036
1673.000000	20.651946
1672.000000	20.984428
1671.000000	21.280165
1670.000000	21.516313
1669.000000	21.721508
1668.000000	21.895435
1667.000000	22.110210
1666.000000	22.228126
1665.000000	22.365309
1664.000000	22.459747
1663.000000	22.549658
1662.000000	22.630410
1661.000000	22.702528
1660.000000	22.760012
1659.000000	22.806336
1658.000000	22.853924
1657.000000	22.902775
1656.000000	22.912039
1655.000000	22.915619
1654.000000	22.927621
1653.000000	22.921725
1652.000000	22.908881
1651.000000	22.870874
1650.000000	22.863189
1649.000000	22.827287
1648.000000	22.746009
1647.000000	22.751800
1646.000000	22.676313
1645.000000	22.615986
1644.000000	22.544605
1643.000000	22.501755
1642.000000	22.433532
1641.000000	22.370889
1640.000000	22.330461
1639.000000	22.239813
1638.000000	22.177170
1637.000000	22.093470
1636.000000	22.015562
1635.000000	21.955235
1634.000000	21.880169
1633.000000	21.802365
1632.000000	21.715507
1631.000000	21.634966
1630.000000	21.550004
1629.000000	21.450512
1628.000000	21.363865
1627.000000	21.291957
1626.000000	21.191307
1625.000000	21.104133
1624.000000	21.006958
1623.000000	20.928207
1622.000000	20.832505
1621.000000	20.753123
1620.000000	20.668897
1619.000000	20.585934
1618.000000	20.502867
1617.000000	20.422747
1616.000000	20.362947
1615.000000	20.264613
1614.000000	20.162805
1613.000000	20.101320
1612.000000	20.038783
1611.000000	19.972455
1610.000000	19.877596
1609.000000	19.812637
1608.000000	19.761996
1607.000000	19.681981
1606.000000	19.601335
1605.000000	19.527638
1604.000000	19.456783
1603.000000	19.378242
1602.000000	19.304861
1601.000000	19.244955
1600.000000	19.169468
1599.000000	19.104614
1598.000000	19.017545
1597.000000	18.961746
1596.000000	18.890786
1595.000000	18.829827
1594.000000	18.755182
1593.000000	18.693697
1592.000000	18.614209
1591.000000	18.554093
1590.000000	18.513981
1589.000000	18.451022
1588.000000	18.415015
1587.000000	18.349740
1586.000000	18.300258
1585.000000	18.244564
1584.000000	18.199924
1583.000000	18.157179
1582.000000	18.112961
1581.000000	18.056424
1580.000000	18.026103
