PE UV       SUBTECH     SPECTRUM    ASCII       PEDS        4.00        
   -1
CICIMAUCR0020-7.Sample.ASC
24/04/25
16:24:51.00
24/04/25
16:24:51.00
Vinicio Soto Monge
C. resplendens
250,000000
1
Lambda 1050
1050L1511233
PerkinElmer UV WinLab 6.3.2.0749 / 2.02.05 Lambda 900 UV/VIS/NIR, Aug  7 2015 09:38:08

0
0
3350/servo 860,8/2
0
0
UV/VIS
1
1
1
DoubleDePol,CommonBeamDepol,RBeamAtt,SBeamAtt,60mm sphere, WB InGaAs Detector
0
0
0
0
Program
Program
3350/servo 860,8/2
3350/0,2 860,8/0,2
3350/0,2 860,8/0,2
0
15.00
 
 
 
0
 
860,8
319,2
860,8
Front
100
on
S:100 R:100
0
0
0
0
 
0
 
 
 
0
 
 
0
0
0
0
0
 
 
 
 
0
0


0
0
#HDR
-1
-1
#GR
nm
%R
1.0
0.0
2500,000000
-1,000000
2251
8
81,082400
5,554700
#DATA
2482.000000	9.553951
2481.000000	9.511691
2480.000000	9.517005
2479.000000	9.585831
2478.000000	9.511568
2477.000000	9.490438
2476.000000	9.495752
2475.000000	9.532945
2474.000000	9.540853
2473.000000	9.524172
2472.000000	9.460535
2471.000000	9.500323
2470.000000	9.482036
2469.000000	9.507861
2468.000000	9.513668
2467.000000	9.442248
2466.000000	9.502548
2465.000000	9.500447
2464.000000	9.556299
2463.000000	9.553704
2462.000000	9.601400
2461.000000	9.622035
2460.000000	9.669855
2459.000000	9.726695
2458.000000	9.758946
2457.000000	9.823200
2456.000000	9.826783
2455.000000	9.920322
2454.000000	9.973702
2453.000000	10.062175
2452.000000	10.109377
2451.000000	10.177338
2450.000000	10.265317
2449.000000	10.328582
2448.000000	10.380232
2447.000000	10.479950
2446.000000	10.544574
2445.000000	10.611547
2444.000000	10.668387
2443.000000	10.721149
2442.000000	10.809993
2441.000000	10.863991
2440.000000	10.915147
2439.000000	10.981378
2438.000000	11.027221
2437.000000	11.099012
2436.000000	11.150168
2435.000000	11.183902
2434.000000	11.233575
2433.000000	11.271880
2432.000000	11.318341
2431.000000	11.379011
2430.000000	11.406566
2429.000000	11.463036
2428.000000	11.480953
2427.000000	11.495410
2426.000000	11.519134
2425.000000	11.543477
2424.000000	11.558058
2423.000000	11.587343
2422.000000	11.618728
2421.000000	11.641341
2420.000000	11.658887
2419.000000	11.668031
2418.000000	11.731049
2417.000000	11.763794
2416.000000	11.768366
2415.000000	11.777757
2414.000000	11.810131
2413.000000	11.839787
2412.000000	11.860916
2411.000000	11.911702
2410.000000	11.995108
2409.000000	12.065417
2408.000000	12.128806
2407.000000	12.156485
2406.000000	12.162169
2405.000000	12.198373
2404.000000	12.230006
2403.000000	12.266581
2402.000000	12.330835
2401.000000	12.379520
2400.000000	12.408682
2399.000000	12.430429
2398.000000	12.476519
2397.000000	12.509017
2396.000000	12.553500
2395.000000	12.604286
2394.000000	12.632335
2393.000000	12.671134
2392.000000	12.714382
2391.000000	12.745397
2390.000000	12.770357
2389.000000	12.783702
2388.000000	12.789510
2387.000000	12.797542
2386.000000	12.813482
2385.000000	12.824726
2384.000000	12.834117
2383.000000	12.844249
2382.000000	12.853764
2381.000000	12.851540
2380.000000	12.857965
2379.000000	12.833870
2378.000000	12.831399
2377.000000	12.843755
2376.000000	12.826085
2375.000000	12.796306
2374.000000	12.780860
2373.000000	12.759731
2372.000000	12.725009
2371.000000	12.705362
2370.000000	12.670269
2369.000000	12.622820
2368.000000	12.588963
2367.000000	12.537190
2366.000000	12.469352
2365.000000	12.392865
2364.000000	12.338744
2363.000000	12.282151
2362.000000	12.207146
2361.000000	12.137703
2360.000000	12.077156
2359.000000	12.033537
2358.000000	11.986088
2357.000000	11.940616
2356.000000	11.934808
2355.000000	11.928259
2354.000000	11.928259
2353.000000	11.960757
2352.000000	11.990536
2351.000000	12.020192
2350.000000	12.068877
2349.000000	12.114472
2348.000000	12.180209
2347.000000	12.268558
2346.000000	12.355796
2345.000000	12.422521
2344.000000	12.470341
2343.000000	12.539043
2342.000000	12.606757
2341.000000	12.660631
2340.000000	12.693253
2339.000000	12.725009
2338.000000	12.769740
2337.000000	12.761461
2336.000000	12.768627
2335.000000	12.755530
2334.000000	12.719325
2333.000000	12.716483
2332.000000	12.702520
2331.000000	12.628134
2330.000000	12.564992
2329.000000	12.521126
2328.000000	12.452053
2327.000000	12.396449
2326.000000	12.305257
2325.000000	12.198497
2324.000000	12.084322
2323.000000	11.997085
2322.000000	11.904906
2321.000000	11.786036
2320.000000	11.649619
2319.000000	11.523706
2318.000000	11.385931
2317.000000	11.268667
2316.000000	11.165490
2315.000000	11.047609
2314.000000	10.930963
2313.000000	10.821731
2312.000000	10.725598
2311.000000	10.647134
2310.000000	10.594001
2309.000000	10.576578
2308.000000	10.571264
2307.000000	10.564221
2306.000000	10.574724
2305.000000	10.626004
2304.000000	10.692359
2303.000000	10.788616
2302.000000	10.892658
2301.000000	11.000531
2300.000000	11.121872
2299.000000	11.224925
2298.000000	11.370609
2297.000000	11.478111
2296.000000	11.567819
2295.000000	11.679399
2294.000000	11.766759
2293.000000	11.839416
2292.000000	11.907500
2291.000000	11.948030
2290.000000	11.978180
2289.000000	11.970766
2288.000000	11.963970
2287.000000	11.973855
2286.000000	11.940616
2285.000000	11.903299
2284.000000	11.854985
2283.000000	11.789372
2282.000000	11.728701
2281.000000	11.712267
2280.000000	11.653574
2279.000000	11.575357
2278.000000	11.535321
2277.000000	11.489849
2276.000000	11.455869
2275.000000	11.428190
2274.000000	11.449814
2273.000000	11.437705
2272.000000	11.441288
2271.000000	11.477369
2270.000000	11.508879
2269.000000	11.592903
2268.000000	11.720546
2267.000000	11.839292
2266.000000	11.989918
2265.000000	12.130783
2264.000000	12.364939
2263.000000	12.567092
2262.000000	12.775176
2261.000000	13.025643
2260.000000	13.318864
2259.000000	13.599357
2258.000000	13.891590
2257.000000	14.195931
2256.000000	14.508922
2255.000000	14.826485
2254.000000	15.077199
2253.000000	15.363377
2252.000000	15.591231
2251.000000	15.923375
2250.000000	16.141468
2249.000000	16.354989
2248.000000	16.579878
2247.000000	16.749904
2246.000000	16.959841
2245.000000	17.141235
2244.000000	17.288649
2243.000000	17.457068
2242.000000	17.628577
2241.000000	17.760915
2240.000000	17.840862
2239.000000	17.965293
2238.000000	18.066122
2237.000000	18.177701
2236.000000	18.274577
2235.000000	18.371205
2234.000000	18.438672
2233.000000	18.481796
2232.000000	18.538636
2231.000000	18.595847
2230.000000	18.642554
2229.000000	18.668750
2228.000000	18.683455
2227.000000	18.706438
2226.000000	18.701124
2225.000000	18.697170
2224.000000	18.685555
2223.000000	18.728309
2222.000000	18.692598
2221.000000	18.647250
2220.000000	18.630692
2219.000000	18.595105
2218.000000	18.583737
2217.000000	18.563843
2216.000000	18.528133
2215.000000	18.504038
2214.000000	18.466597
2213.000000	18.443985
2212.000000	18.389616
2211.000000	18.378866
2210.000000	18.348098
2209.000000	18.314859
2208.000000	18.310287
2207.000000	18.285945
2206.000000	18.302626
2205.000000	18.285450
2204.000000	18.257154
2203.000000	18.251223
2202.000000	18.210446
2201.000000	18.193641
2200.000000	18.196483
2199.000000	18.192776
2198.000000	18.155830
2197.000000	18.145822
2196.000000	18.148540
2195.000000	18.129140
2194.000000	18.115548
2193.000000	18.075142
2192.000000	18.051665
2191.000000	18.025963
2190.000000	18.003351
2189.000000	17.991736
2188.000000	17.997543
2187.000000	17.976537
2186.000000	17.959114
2185.000000	17.915990
2184.000000	17.908947
2183.000000	17.883739
2182.000000	17.857667
2181.000000	17.793537
2180.000000	17.801321
2179.000000	17.786988
2178.000000	17.770801
2177.000000	17.757085
2176.000000	17.751525
2175.000000	17.733360
2174.000000	17.730148
2173.000000	17.725205
2172.000000	17.732495
2171.000000	17.717420
2170.000000	17.726564
2169.000000	17.723475
2168.000000	17.762645
2167.000000	17.772036
2166.000000	17.766229
2165.000000	17.786246
2164.000000	17.811948
2163.000000	17.831595
2162.000000	17.859891
2161.000000	17.887694
2160.000000	17.907711
2159.000000	17.957384
2158.000000	17.990624
2157.000000	18.009035
2156.000000	18.033254
2155.000000	18.100350
2154.000000	18.151382
2153.000000	18.205874
2152.000000	18.246651
2151.000000	18.301761
2150.000000	18.354524
2149.000000	18.393076
2148.000000	18.409757
2147.000000	18.465609
2146.000000	18.515776
2145.000000	18.550375
2144.000000	18.618706
2143.000000	18.645273
2142.000000	18.686173
2141.000000	18.725220
2140.000000	18.771557
2139.000000	18.821106
2138.000000	18.840259
2137.000000	18.873992
2136.000000	18.909950
2135.000000	18.938370
2134.000000	18.982483
2133.000000	18.997681
2132.000000	19.025236
2131.000000	19.048714
2130.000000	19.058970
2129.000000	19.099993
2128.000000	19.129155
2127.000000	19.129278
2126.000000	19.143859
2125.000000	19.164495
2124.000000	19.157204
2123.000000	19.169190
2122.000000	19.172897
2121.000000	19.165977
2120.000000	19.169931
2119.000000	19.142129
2118.000000	19.137681
2117.000000	19.144724
2116.000000	19.124830
2115.000000	19.123594
2114.000000	19.111114
2113.000000	19.081459
2112.000000	19.047849
2111.000000	19.025978
2110.000000	19.013003
2109.000000	19.017452
2108.000000	18.991627
2107.000000	18.946772
2106.000000	18.920824
2105.000000	18.928855
2104.000000	18.916252
2103.000000	18.886720
2102.000000	18.872262
2101.000000	18.844707
2100.000000	18.822713
2099.000000	18.811098
2098.000000	18.806155
2097.000000	18.801954
2096.000000	18.780577
2095.000000	18.736958
2094.000000	18.732881
2093.000000	18.738194
2092.000000	18.722254
2091.000000	18.712987
2090.000000	18.700012
2089.000000	18.674929
2088.000000	18.675917
2087.000000	18.677400
2086.000000	18.644531
2085.000000	18.641442
2084.000000	18.644284
2083.000000	18.629333
2082.000000	18.606597
2081.000000	18.584602
2080.000000	18.575582
2079.000000	18.549263
2078.000000	18.524673
2077.000000	18.494400
2076.000000	18.462273
2075.000000	18.449051
2074.000000	18.426315
2073.000000	18.427056
2072.000000	18.405185
2071.000000	18.365768
2070.000000	18.338584
2069.000000	18.308804
2068.000000	18.280508
2067.000000	18.255795
2066.000000	18.234912
2065.000000	18.207234
2064.000000	18.203774
2063.000000	18.206369
2062.000000	18.176342
2061.000000	18.166951
2060.000000	18.185115
2059.000000	18.213783
2058.000000	18.216748
2057.000000	18.230587
2056.000000	18.271240
2055.000000	18.314983
2054.000000	18.384550
2053.000000	18.486738
2052.000000	18.559148
2051.000000	18.630074
2050.000000	18.722625
2049.000000	18.853728
2048.000000	18.976675
2047.000000	19.077257
2046.000000	19.234803
2045.000000	19.386541
2044.000000	19.532719
2043.000000	19.660362
2042.000000	19.786275
2041.000000	19.961615
2040.000000	20.094324
2039.000000	20.205533
2038.000000	20.331322
2037.000000	20.487015
2036.000000	20.622195
2035.000000	20.717217
2034.000000	20.826325
2033.000000	20.931232
2032.000000	21.044789
2031.000000	21.165389
2030.000000	21.257939
2029.000000	21.338257
2028.000000	21.400410
2027.000000	21.500869
2026.000000	21.574637
2025.000000	21.668794
2024.000000	21.703269
2023.000000	21.785810
2022.000000	21.832147
2021.000000	21.877990
2020.000000	21.942491
2019.000000	21.967081
2018.000000	22.035289
2017.000000	22.060002
2016.000000	22.101149
2015.000000	22.149587
2014.000000	22.159472
2013.000000	22.193082
2012.000000	22.193205
2011.000000	22.205809
2010.000000	22.206674
2009.000000	22.220760
2008.000000	22.203955
2007.000000	22.186656
2006.000000	22.167504
2005.000000	22.160955
2004.000000	22.110540
2003.000000	22.101026
2002.000000	22.039614
2001.000000	21.993647
2000.000000	21.970417
1999.000000	21.907399
1998.000000	21.864274
1997.000000	21.778026
1996.000000	21.716614
1995.000000	21.663110
1994.000000	21.577850
1993.000000	21.521504
1992.000000	21.419315
1991.000000	21.358274
1990.000000	21.263747
1989.000000	21.175027
1988.000000	21.073085
1987.000000	21.005248
1986.000000	20.882177
1985.000000	20.838805
1984.000000	20.713263
1983.000000	20.612928
1982.000000	20.516917
1981.000000	20.431040
1980.000000	20.328975
1979.000000	20.204791
1978.000000	20.126945
1977.000000	20.026363
1976.000000	19.929982
1975.000000	19.822604
1974.000000	19.730300
1973.000000	19.629595
1972.000000	19.532101
1971.000000	19.465747
1970.000000	19.351449
1969.000000	19.281758
1968.000000	19.208607
1967.000000	19.108396
1966.000000	18.987302
1965.000000	18.928732
1964.000000	18.863366
1963.000000	18.764884
1962.000000	18.686420
1961.000000	18.571751
1960.000000	18.503543
1959.000000	18.431752
1958.000000	18.333023
1957.000000	18.268275
1956.000000	18.179679
1955.000000	18.100226
1954.000000	18.014595
1953.000000	17.962821
1952.000000	17.853713
1951.000000	17.802557
1950.000000	17.728665
1949.000000	17.656132
1948.000000	17.612019
1947.000000	17.544553
1946.000000	17.517862
1945.000000	17.466953
1944.000000	17.431861
1943.000000	17.397880
1942.000000	17.337086
1941.000000	17.370820
1940.000000	17.312003
1939.000000	17.328560
1938.000000	17.371437
1937.000000	17.412338
1936.000000	17.409619
1935.000000	17.462258
1934.000000	17.484500
1933.000000	17.541711
1932.000000	17.613626
1931.000000	17.684305
1930.000000	17.755108
1929.000000	17.880650
1928.000000	18.011877
1927.000000	18.134206
1926.000000	18.300031
1925.000000	18.414206
1924.000000	18.532211
1923.000000	18.670727
1922.000000	18.862501
1921.000000	19.131008
1920.000000	19.375668
1919.000000	19.576214
1918.000000	19.771695
1917.000000	19.943451
1916.000000	20.084068
1915.000000	20.286221
1914.000000	20.621207
1913.000000	20.958293
1912.000000	21.269678
1911.000000	21.492837
1910.000000	21.717726
1909.000000	21.911353
1908.000000	22.125121
1907.000000	22.434405
1906.000000	22.829814
1905.000000	23.251172
1904.000000	23.572442
1903.000000	23.882591
1902.000000	24.195582
1901.000000	24.538847
1900.000000	24.941423
1899.000000	25.349436
1898.000000	25.733600
1897.000000	26.117147
1896.000000	26.336970
1895.000000	26.593986
1894.000000	26.911672
1893.000000	27.283234
1892.000000	27.741043
1891.000000	28.162895
1890.000000	28.575604
1889.000000	28.937774
1888.000000	29.317490
1887.000000	29.705609
1886.000000	30.173798
1885.000000	30.660646
1884.000000	31.224969
1883.000000	31.799054
1882.000000	32.342741
1881.000000	32.873207
1880.000000	33.330770
1879.000000	33.791669
1878.000000	34.279134
1877.000000	34.699133
1876.000000	35.092441
1875.000000	35.484885
1874.000000	35.857311
1873.000000	36.233197
1872.000000	36.574114
1871.000000	36.918861
1870.000000	37.265091
1869.000000	37.553740
1868.000000	37.742301
1867.000000	37.878593
1866.000000	37.939387
1865.000000	38.011673
1864.000000	38.026872
1863.000000	38.039228
1862.000000	38.099405
1861.000000	38.183305
1860.000000	38.268442
1859.000000	38.336650
1858.000000	38.398186
1857.000000	38.384841
1856.000000	38.322317
1855.000000	38.337021
1854.000000	38.358645
1853.000000	38.321822
1852.000000	38.257074
1851.000000	38.169590
1850.000000	38.076051
1849.000000	38.045530
1848.000000	38.124488
1847.000000	38.175644
1846.000000	38.099775
1845.000000	37.948778
1844.000000	37.805443
1843.000000	37.749838
1842.000000	37.782089
1841.000000	37.796422
1840.000000	37.754410
1839.000000	37.689415
1838.000000	37.623060
1837.000000	37.613422
1836.000000	37.607491
1835.000000	37.551763
1834.000000	37.433017
1833.000000	37.285603
1832.000000	37.169699
1831.000000	37.110264
1830.000000	37.054659
1829.000000	36.959514
1828.000000	36.866716
1827.000000	36.806540
1826.000000	36.748217
1825.000000	36.659374
1824.000000	36.562128
1823.000000	36.489471
1822.000000	36.476126
1821.000000	36.502569
1820.000000	36.520733
1819.000000	36.473284
1818.000000	36.398774
1817.000000	36.359233
1816.000000	36.355897
1815.000000	36.338722
1814.000000	36.293373
1813.000000	36.268166
1812.000000	36.248148
1811.000000	36.228501
1810.000000	36.172156
1809.000000	36.085536
1808.000000	36.030797
1807.000000	35.992615
1806.000000	35.936393
1805.000000	35.872262
1804.000000	35.817894
1803.000000	35.750921
1802.000000	35.695811
1801.000000	35.640083
1800.000000	35.593622
1799.000000	35.520595
1798.000000	35.442626
1797.000000	35.378866
1796.000000	35.323632
1795.000000	35.281867
1794.000000	35.204762
1793.000000	35.132353
1792.000000	35.065628
1791.000000	35.003598
1790.000000	34.925257
1789.000000	34.862239
1788.000000	34.800951
1787.000000	34.703458
1786.000000	34.621904
1785.000000	34.539239
1784.000000	34.442858
1783.000000	34.351049
1782.000000	34.249602
1781.000000	34.150873
1780.000000	34.062771
1779.000000	33.972074
1778.000000	33.857282
1777.000000	33.716417
1776.000000	33.590875
1775.000000	33.456189
1774.000000	33.312235
1773.000000	33.161732
1772.000000	32.995661
1771.000000	32.843057
1770.000000	32.691690
1769.000000	32.574179
1768.000000	32.411691
1767.000000	32.294798
1766.000000	32.181118
1765.000000	32.098576
1764.000000	32.046061
1763.000000	32.033457
1762.000000	32.056811
1761.000000	32.092645
1760.000000	32.176175
1759.000000	32.248584
1758.000000	32.314568
1757.000000	32.354233
1756.000000	32.417869
1755.000000	32.449749
1754.000000	32.450119
1753.000000	32.462476
1752.000000	32.441841
1751.000000	32.397481
1750.000000	32.331867
1749.000000	32.271815
1748.000000	32.192239
1747.000000	32.079300
1746.000000	31.946838
1745.000000	31.759142
1744.000000	31.596653
1743.000000	31.408834
1742.000000	31.164545
1741.000000	30.885905
1740.000000	30.612455
1739.000000	30.356181
1738.000000	30.133145
1737.000000	29.914435
1736.000000	29.772581
1735.000000	29.687321
1734.000000	29.675459
1733.000000	29.686456
1732.000000	29.751205
1731.000000	29.851169
1730.000000	30.013534
1729.000000	30.176887
1728.000000	30.302059
1727.000000	30.456392
1726.000000	30.590337
1725.000000	30.652490
1724.000000	30.739110
1723.000000	30.772225
1722.000000	30.855138
1721.000000	30.867988
1720.000000	30.914202
1719.000000	30.967088
1718.000000	31.024669
1717.000000	31.095102
1716.000000	31.188146
1715.000000	31.279585
1714.000000	31.367563
1713.000000	31.466416
1712.000000	31.511764
1711.000000	31.551676
1710.000000	31.579725
1709.000000	31.589363
1708.000000	31.598507
1707.000000	31.566504
1706.000000	31.507934
1705.000000	31.466910
1704.000000	31.414889
1703.000000	31.325922
1702.000000	31.184810
1701.000000	31.029488
1700.000000	30.858227
1699.000000	30.689684
1698.000000	30.520646
1697.000000	30.397204
1696.000000	30.318493
1695.000000	30.338511
1694.000000	30.388678
1693.000000	30.575139
1692.000000	30.776921
1691.000000	30.947317
1690.000000	31.122410
1689.000000	31.266363
1688.000000	31.352735
1687.000000	31.376460
1686.000000	31.416495
1685.000000	31.471729
1684.000000	31.614941
1683.000000	31.906061
1682.000000	32.307278
1681.000000	32.846641
1680.000000	33.438025
1679.000000	34.086496
1678.000000	34.690730
1677.000000	35.269511
1676.000000	35.744743
1675.000000	36.182782
1674.000000	36.566947
1673.000000	36.884757
1672.000000	37.131888
1671.000000	37.387174
1670.000000	37.593528
1669.000000	37.787155
1668.000000	37.956316
1667.000000	38.109043
1666.000000	38.220622
1665.000000	38.327506
1664.000000	38.431919
1663.000000	38.525705
1662.000000	38.591936
1661.000000	38.615290
1660.000000	38.675219
1659.000000	38.701415
1658.000000	38.744787
1657.000000	38.773577
1656.000000	38.773948
1655.000000	38.782598
1654.000000	38.778767
1653.000000	38.759738
1652.000000	38.714389
1651.000000	38.714019
1650.000000	38.663728
1649.000000	38.614919
1648.000000	38.562280
1647.000000	38.529659
1646.000000	38.470224
1645.000000	38.373843
1644.000000	38.312926
1643.000000	38.243976
1642.000000	38.186765
1641.000000	38.118928
1640.000000	38.044912
1639.000000	37.980782
1638.000000	37.899105
1637.000000	37.816069
1636.000000	37.727473
1635.000000	37.657658
1634.000000	37.562760
1633.000000	37.482937
1632.000000	37.392487
1631.000000	37.317112
1630.000000	37.213441
1629.000000	37.123609
1628.000000	37.022162
1627.000000	36.926769
1626.000000	36.816425
1625.000000	36.735119
1624.000000	36.648500
1623.000000	36.564723
1622.000000	36.468465
1621.000000	36.379869
1620.000000	36.301034
1619.000000	36.213921
1618.000000	36.123718
1617.000000	36.050814
1616.000000	35.985078
1615.000000	35.906984
1614.000000	35.836181
1613.000000	35.745979
1612.000000	35.677153
1611.000000	35.600419
1610.000000	35.517259
1609.000000	35.454241
1608.000000	35.386650
1607.000000	35.311152
1606.000000	35.239237
1605.000000	35.165963
