PE UV       SUBTECH     SPECTRUM    ASCII       PEDS        4.00        
   -1
INBUCR0146-1.Sample.ASC
24/04/29
14:50:17.00
24/04/29
14:50:17.00
Vinicio Soto Monge
Chrysina sp.
250,000000
1
Lambda 1050
1050L1511233
PerkinElmer UV WinLab 6.3.2.0749 / 2.02.05 Lambda 900 UV/VIS/NIR, Aug  7 2015 09:38:08

0
0
3350/servo 860,8/2
0
0
UV/VIS
1
1
1
DoubleDePol,CommonBeamDepol,RBeamAtt,SBeamAtt,60mm sphere, WB InGaAs Detector
0
0
0
0
Program
Program
3350/servo 860,8/2
3350/0,2 860,8/0,2
3350/0,2 860,8/0,2
0
15.00
 
 
 
0
 
860,8
319,2
860,8
Front
100
on
S:100 R:100
0
0
0
0
 
0
 
 
 
0
 
 
0
0
0
0
0
 
 
 
 
0
0


0
0
#HDR
-1
-1
#GR
nm
%R
1.0
0.0
2500,000000
-1,000000
2251
8
101,354600
5,945600
#DATA
2482.000000	13.981366
2481.000000	13.935358
2480.000000	13.931604
2479.000000	13.982760
2478.000000	14.027482
2477.000000	14.000349
2476.000000	14.068128
2475.000000	14.147060
2474.000000	14.091185
2473.000000	14.169367
2472.000000	14.194784
2471.000000	14.258703
2470.000000	14.275540
2469.000000	14.343641
2468.000000	14.364554
2467.000000	14.452817
2466.000000	14.526602
2465.000000	14.542688
2464.000000	14.595775
2463.000000	14.673206
2462.000000	14.764150
2461.000000	14.803616
2460.000000	14.899279
2459.000000	14.989258
2458.000000	15.067333
2457.000000	15.118167
2456.000000	15.234207
2455.000000	15.349388
2454.000000	15.434541
2453.000000	15.522697
2452.000000	15.639809
2451.000000	15.735472
2450.000000	15.844755
2449.000000	15.923580
2448.000000	16.047341
2447.000000	16.149332
2446.000000	16.249713
2445.000000	16.402431
2444.000000	16.500024
2443.000000	16.625501
2442.000000	16.731674
2441.000000	16.859510
2440.000000	16.977266
2439.000000	17.112073
2438.000000	17.209238
2437.000000	17.343723
2436.000000	17.457940
2435.000000	17.563898
2434.000000	17.673288
2433.000000	17.797908
2432.000000	17.885205
2431.000000	17.979581
2430.000000	18.070418
2429.000000	18.176698
2428.000000	18.297349
2427.000000	18.387221
2426.000000	18.475591
2425.000000	18.581657
2424.000000	18.654047
2423.000000	18.727725
2422.000000	18.806229
2421.000000	18.884518
2420.000000	18.967311
2419.000000	19.037128
2418.000000	19.104907
2417.000000	19.185556
2416.000000	19.252798
2415.000000	19.294088
2414.000000	19.337630
2413.000000	19.384174
2412.000000	19.429217
2411.000000	19.475762
2410.000000	19.522413
2409.000000	19.564668
2408.000000	19.605528
2407.000000	19.639096
2406.000000	19.668482
2405.000000	19.698617
2404.000000	19.709664
2403.000000	19.748165
2402.000000	19.767791
2401.000000	19.778944
2400.000000	19.751060
2399.000000	19.709771
2398.000000	19.698832
2397.000000	19.688858
2396.000000	19.714168
2395.000000	19.728539
2394.000000	19.736904
2393.000000	19.751918
2392.000000	19.749988
2391.000000	19.720281
2390.000000	19.691325
2389.000000	19.701299
2388.000000	19.702907
2387.000000	19.680600
2386.000000	19.659366
2385.000000	19.635021
2384.000000	19.589763
2383.000000	19.585152
2382.000000	19.582471
2381.000000	19.543970
2380.000000	19.515442
2379.000000	19.472973
2378.000000	19.417635
2377.000000	19.407661
2376.000000	19.404014
2375.000000	19.367229
2374.000000	19.320470
2373.000000	19.294410
2372.000000	19.264166
2371.000000	19.231886
2370.000000	19.224057
2369.000000	19.191990
2368.000000	19.152309
2367.000000	19.134507
2366.000000	19.135579
2365.000000	19.124640
2364.000000	19.079919
2363.000000	19.025116
2362.000000	18.996482
2361.000000	18.986937
2360.000000	18.982755
2359.000000	18.949187
2358.000000	18.890952
2357.000000	18.867787
2356.000000	18.862854
2355.000000	18.821457
2354.000000	18.770516
2353.000000	18.741238
2352.000000	18.696088
2351.000000	18.655442
2350.000000	18.627022
2349.000000	18.573828
2348.000000	18.522886
2347.000000	18.504011
2346.000000	18.449959
2345.000000	18.411137
2344.000000	18.392154
2343.000000	18.350436
2342.000000	18.316010
2341.000000	18.274935
2340.000000	18.237077
2339.000000	18.219596
2338.000000	18.179272
2337.000000	18.169835
2336.000000	18.144310
2335.000000	18.128009
2334.000000	18.126615
2333.000000	18.113852
2332.000000	18.095406
2331.000000	18.106131
2330.000000	18.129618
2329.000000	18.119858
2328.000000	18.139913
2327.000000	18.142058
2326.000000	18.154713
2325.000000	18.176269
2324.000000	18.186136
2323.000000	18.184205
2322.000000	18.203188
2321.000000	18.191820
2320.000000	18.180559
2319.000000	18.164258
2318.000000	18.172945
2317.000000	18.162327
2316.000000	18.119000
2315.000000	18.090795
2314.000000	18.063876
2313.000000	18.021085
2312.000000	17.992665
2311.000000	17.955987
2310.000000	17.915019
2309.000000	17.860324
2308.000000	17.826864
2307.000000	17.778174
2306.000000	17.725517
2305.000000	17.706534
2304.000000	17.710824
2303.000000	17.670929
2302.000000	17.647335
2301.000000	17.603043
2300.000000	17.589851
2299.000000	17.608083
2298.000000	17.617199
2297.000000	17.603686
2296.000000	17.597895
2295.000000	17.615376
2294.000000	17.606153
2293.000000	17.621382
2292.000000	17.667175
2291.000000	17.694952
2290.000000	17.702674
2289.000000	17.738494
2288.000000	17.768630
2287.000000	17.782893
2286.000000	17.803377
2285.000000	17.831904
2284.000000	17.880594
2283.000000	17.912446
2282.000000	17.950303
2281.000000	17.982155
2280.000000	18.009503
2279.000000	18.037386
2278.000000	18.068595
2277.000000	18.090044
2276.000000	18.124577
2275.000000	18.171550
2274.000000	18.163722
2273.000000	18.217022
2272.000000	18.225173
2271.000000	18.240402
2270.000000	18.292952
2269.000000	18.338103
2268.000000	18.378641
2267.000000	18.408027
2266.000000	18.477200
2265.000000	18.571147
2264.000000	18.653082
2263.000000	18.743705
2262.000000	18.856848
2261.000000	18.977928
2260.000000	19.125498
2259.000000	19.254193
2258.000000	19.417420
2257.000000	19.539787
2256.000000	19.730040
2255.000000	19.915682
2254.000000	20.085452
2253.000000	20.285893
2252.000000	20.458451
2251.000000	20.634655
2250.000000	20.826732
2249.000000	21.011408
2248.000000	21.166592
2247.000000	21.338721
2246.000000	21.488436
2245.000000	21.642869
2244.000000	21.767703
2243.000000	21.896719
2242.000000	22.005680
2241.000000	22.102201
2240.000000	22.205907
2239.000000	22.277225
2238.000000	22.315941
2237.000000	22.385436
2236.000000	22.424795
2235.000000	22.452572
2234.000000	22.454395
2233.000000	22.465012
2232.000000	22.465227
2231.000000	22.463725
2230.000000	22.436485
2229.000000	22.392407
2228.000000	22.351010
2227.000000	22.330419
2226.000000	22.273686
2225.000000	22.203977
2224.000000	22.125366
2223.000000	22.052546
2222.000000	21.976402
2221.000000	21.902617
2220.000000	21.821647
2219.000000	21.734457
2218.000000	21.661851
2217.000000	21.552783
2216.000000	21.460230
2215.000000	21.353628
2214.000000	21.309443
2213.000000	21.216461
2212.000000	21.169059
2211.000000	21.073718
2210.000000	20.992747
2209.000000	20.906629
2208.000000	20.850004
2207.000000	20.784155
2206.000000	20.734608
2205.000000	20.656748
2204.000000	20.606021
2203.000000	20.535453
2202.000000	20.498668
2201.000000	20.466280
2200.000000	20.408796
2199.000000	20.366542
2198.000000	20.331580
2197.000000	20.286537
2196.000000	20.245354
2195.000000	20.214789
2194.000000	20.175967
2193.000000	20.170604
2192.000000	20.133069
2191.000000	20.099608
2190.000000	20.080947
2189.000000	20.044591
2188.000000	20.018530
2187.000000	19.992363
2186.000000	19.966838
2185.000000	19.940134
2184.000000	19.922117
2183.000000	19.902598
2182.000000	19.885332
2181.000000	19.862488
2180.000000	19.852729
2179.000000	19.820234
2178.000000	19.802002
2177.000000	19.790956
2176.000000	19.784199
2175.000000	19.789133
2174.000000	19.785486
2173.000000	19.783449
2172.000000	19.805541
2171.000000	19.817874
2170.000000	19.837286
2169.000000	19.856804
2168.000000	19.889729
2167.000000	19.941207
2166.000000	19.969198
2165.000000	20.021426
2164.000000	20.071188
2163.000000	20.122022
2162.000000	20.191196
2161.000000	20.240207
2160.000000	20.323536
2159.000000	20.403220
2158.000000	20.479149
2157.000000	20.574062
2156.000000	20.686776
2155.000000	20.800886
2154.000000	20.912313
2153.000000	21.006582
2152.000000	21.139459
2151.000000	21.265151
2150.000000	21.383871
2149.000000	21.521467
2148.000000	21.655738
2147.000000	21.780787
2146.000000	21.914522
2145.000000	22.042144
2144.000000	22.179525
2143.000000	22.310150
2142.000000	22.428012
2141.000000	22.564750
2140.000000	22.690120
2139.000000	22.814418
2138.000000	22.945042
2137.000000	23.048213
2136.000000	23.158890
2135.000000	23.272677
2134.000000	23.370485
2133.000000	23.471403
2132.000000	23.567816
2131.000000	23.664337
2130.000000	23.746916
2129.000000	23.813516
2128.000000	23.893735
2127.000000	23.979102
2126.000000	24.051922
2125.000000	24.103722
2124.000000	24.160991
2123.000000	24.220834
2122.000000	24.268236
2121.000000	24.329366
2120.000000	24.380093
2119.000000	24.413661
2118.000000	24.458168
2117.000000	24.481011
2116.000000	24.498385
2115.000000	24.523802
2114.000000	24.565627
2113.000000	24.578068
2112.000000	24.575172
2111.000000	24.589972
2110.000000	24.591581
2109.000000	24.595871
2108.000000	24.603807
2107.000000	24.594798
2106.000000	24.591152
2105.000000	24.593297
2104.000000	24.597265
2103.000000	24.598337
2102.000000	24.586433
2101.000000	24.575387
2100.000000	24.579891
2099.000000	24.590830
2098.000000	24.606595
2097.000000	24.620752
2096.000000	24.628795
2095.000000	24.637053
2094.000000	24.659467
2093.000000	24.684563
2092.000000	24.708693
2091.000000	24.741617
2090.000000	24.765640
2089.000000	24.786446
2088.000000	24.813579
2087.000000	24.820871
2086.000000	24.820657
2085.000000	24.832025
2084.000000	24.830524
2083.000000	24.815402
2082.000000	24.798243
2081.000000	24.774970
2080.000000	24.716414
2079.000000	24.651638
2078.000000	24.601340
2077.000000	24.537851
2076.000000	24.461921
2075.000000	24.385562
2074.000000	24.294297
2073.000000	24.176434
2072.000000	24.068009
2071.000000	23.943711
2070.000000	23.819200
2069.000000	23.692757
2068.000000	23.563956
2067.000000	23.423786
2066.000000	23.286941
2065.000000	23.140229
2064.000000	22.994161
2063.000000	22.869327
2062.000000	22.740954
2061.000000	22.622770
2060.000000	22.499760
2059.000000	22.388975
2058.000000	22.307469
2057.000000	22.234864
2056.000000	22.180597
2055.000000	22.144348
2054.000000	22.141882
2053.000000	22.169766
2052.000000	22.208159
2051.000000	22.278405
2050.000000	22.377178
2049.000000	22.491609
2048.000000	22.612689
2047.000000	22.759722
2046.000000	22.941825
2045.000000	23.119102
2044.000000	23.295735
2043.000000	23.499501
2042.000000	23.680639
2041.000000	23.872393
2040.000000	24.047847
2039.000000	24.245822
2038.000000	24.425994
2037.000000	24.611207
2036.000000	24.768536
2035.000000	24.954606
2034.000000	25.107967
2033.000000	25.237091
2032.000000	25.401927
2031.000000	25.532230
2030.000000	25.657171
2029.000000	25.811283
2028.000000	25.934293
2027.000000	26.048080
2026.000000	26.137309
2025.000000	26.245948
2024.000000	26.368959
2023.000000	26.434593
2022.000000	26.524250
2021.000000	26.595461
2020.000000	26.673643
2019.000000	26.757294
2018.000000	26.817673
2017.000000	26.854887
2016.000000	26.898751
2015.000000	26.957950
2014.000000	26.996666
2013.000000	27.022297
2012.000000	27.022405
2011.000000	27.044604
2010.000000	27.063051
2009.000000	27.042138
2008.000000	27.020903
2007.000000	27.009964
2006.000000	26.987872
2005.000000	26.947976
2004.000000	26.902719
2003.000000	26.840945
2002.000000	26.787752
2001.000000	26.744210
2000.000000	26.679112
1999.000000	26.582913
1998.000000	26.522641
1997.000000	26.433306
1996.000000	26.352657
1995.000000	26.244661
1994.000000	26.145674
1993.000000	26.049475
1992.000000	25.945018
1991.000000	25.851714
1990.000000	25.726880
1989.000000	25.616310
1988.000000	25.513140
1987.000000	25.376403
1986.000000	25.273018
1985.000000	25.137996
1984.000000	25.018632
1983.000000	24.900448
1982.000000	24.793738
1981.000000	24.673624
1980.000000	24.552758
1979.000000	24.440472
1978.000000	24.306415
1977.000000	24.194344
1976.000000	24.066722
1975.000000	23.961729
1974.000000	23.860596
1973.000000	23.771904
1972.000000	23.648465
1971.000000	23.531138
1970.000000	23.419067
1969.000000	23.343674
1968.000000	23.235999
1967.000000	23.114812
1966.000000	23.014216
1965.000000	22.937106
1964.000000	22.788786
1963.000000	22.707065
1962.000000	22.583733
1961.000000	22.470803
1960.000000	22.344790
1959.000000	22.246768
1958.000000	22.133946
1957.000000	22.025628
1956.000000	21.930930
1955.000000	21.823148
1954.000000	21.687590
1953.000000	21.596003
1952.000000	21.454117
1951.000000	21.366927
1950.000000	21.261075
1949.000000	21.188899
1948.000000	21.079080
1947.000000	20.986635
1946.000000	20.904699
1945.000000	20.813648
1944.000000	20.740721
1943.000000	20.665971
1942.000000	20.611597
1941.000000	20.580925
1940.000000	20.517329
1939.000000	20.511859
1938.000000	20.445474
1937.000000	20.450944
1936.000000	20.445689
1935.000000	20.436466
1934.000000	20.450622
1933.000000	20.476683
1932.000000	20.506282
1931.000000	20.548752
1930.000000	20.596261
1929.000000	20.685060
1928.000000	20.808285
1927.000000	20.886682
1926.000000	21.012910
1925.000000	21.115436
1924.000000	21.245310
1923.000000	21.379796
1922.000000	21.586029
1921.000000	21.815856
1920.000000	22.028952
1919.000000	22.233040
1918.000000	22.454717
1917.000000	22.666526
1916.000000	22.886701
1915.000000	23.177550
1914.000000	23.545617
1913.000000	23.938671
1912.000000	24.331082
1911.000000	24.664615
1910.000000	25.034075
1909.000000	25.397315
1908.000000	25.829729
1907.000000	26.315872
1906.000000	26.926313
1905.000000	27.574504
1904.000000	28.173040
1903.000000	28.753774
1902.000000	29.392849
1901.000000	30.029243
1900.000000	30.792294
1899.000000	31.574757
1898.000000	32.290620
1897.000000	32.981709
1896.000000	33.606628
1895.000000	34.231976
1894.000000	34.904082
1893.000000	35.636676
1892.000000	36.456245
1891.000000	37.205354
1890.000000	37.882501
1889.000000	38.532623
1888.000000	39.171805
1887.000000	39.764229
1886.000000	40.343139
1885.000000	40.900172
1884.000000	41.475114
1883.000000	42.000724
1882.000000	42.427346
1881.000000	42.854183
1880.000000	43.241124
1879.000000	43.615089
1878.000000	43.996024
1877.000000	44.344357
1876.000000	44.694942
1875.000000	45.024615
1874.000000	45.348925
1873.000000	45.665406
1872.000000	45.935986
1871.000000	46.168708
1870.000000	46.366576
1869.000000	46.548035
1868.000000	46.696463
1867.000000	46.792877
1866.000000	46.847035
1865.000000	46.907093
1864.000000	46.965649
1863.000000	47.055199
1862.000000	47.178960
1861.000000	47.290602
1860.000000	47.411790
1859.000000	47.511421
1858.000000	47.580594
1857.000000	47.631750
1856.000000	47.656309
1855.000000	47.701030
1854.000000	47.750042
1853.000000	47.749398
1852.000000	47.759586
1851.000000	47.789293
1850.000000	47.823076
1849.000000	47.851388
1848.000000	47.892892
1847.000000	47.871980
1846.000000	47.793369
1845.000000	47.716045
1844.000000	47.661671
1843.000000	47.667892
1842.000000	47.689019
1841.000000	47.688912
1840.000000	47.671109
1839.000000	47.624993
1838.000000	47.568153
1837.000000	47.520322
1836.000000	47.458978
1835.000000	47.374039
1834.000000	47.294892
1833.000000	47.227328
1832.000000	47.174670
1831.000000	47.149467
1830.000000	47.125873
1829.000000	47.096488
1828.000000	47.044474
1827.000000	47.018950
1826.000000	46.992031
1825.000000	46.941948
1824.000000	46.918568
1823.000000	46.955568
1822.000000	47.011657
1821.000000	47.057022
1820.000000	47.059596
1819.000000	47.012622
1818.000000	46.990208
1817.000000	46.986991
1816.000000	46.966936
1815.000000	46.954388
1814.000000	46.947203
1813.000000	46.933368
1812.000000	46.919104
1811.000000	46.887896
1810.000000	46.829876
1809.000000	46.787407
1808.000000	46.768854
1807.000000	46.754912
1806.000000	46.712550
1805.000000	46.663217
1804.000000	46.649489
1803.000000	46.658713
1802.000000	46.649060
1801.000000	46.610881
1800.000000	46.573560
1799.000000	46.537847
1798.000000	46.508676
1797.000000	46.484010
1796.000000	46.455268
1795.000000	46.427277
1794.000000	46.404863
1793.000000	46.391457
1792.000000	46.379875
1791.000000	46.354243
1790.000000	46.350704
1789.000000	46.362179
1788.000000	46.372689
1787.000000	46.375906
1786.000000	46.383628
1785.000000	46.378373
1784.000000	46.367863
1783.000000	46.357568
1782.000000	46.353170
1781.000000	46.334724
1780.000000	46.304696
1779.000000	46.276705
1778.000000	46.225441
1777.000000	46.162166
1776.000000	46.112297
1775.000000	46.048272
1774.000000	45.993791
1773.000000	45.931696
1772.000000	45.861236
1771.000000	45.809544
1770.000000	45.751095
1769.000000	45.692217
1768.000000	45.659507
1767.000000	45.609638
1766.000000	45.565560
1765.000000	45.528453
1764.000000	45.499497
1763.000000	45.486306
1762.000000	45.466573
1761.000000	45.456277
1760.000000	45.437080
1759.000000	45.429895
1758.000000	45.429466
1757.000000	45.437724
1756.000000	45.425498
1755.000000	45.428608
1754.000000	45.423782
1753.000000	45.413701
1752.000000	45.415631
1751.000000	45.392895
1750.000000	45.364583
1749.000000	45.310102
1748.000000	45.260018
1747.000000	45.185804
1746.000000	45.085745
1745.000000	45.007563
1744.000000	44.893025
1743.000000	44.782026
1742.000000	44.671348
1741.000000	44.536863
1740.000000	44.425971
1739.000000	44.314650
1738.000000	44.205045
1737.000000	44.105522
1736.000000	44.016508
1735.000000	43.933929
1734.000000	43.854889
1733.000000	43.781212
1732.000000	43.711931
1731.000000	43.626778
1730.000000	43.553422
1729.000000	43.472345
1728.000000	43.381937
1727.000000	43.315123
1726.000000	43.272332
1725.000000	43.239515
1724.000000	43.265683
1723.000000	43.302468
1722.000000	43.423441
1721.000000	43.598144
1720.000000	43.835800
1719.000000	44.111849
1718.000000	44.396586
1717.000000	44.720788
1716.000000	45.013676
1715.000000	45.323186
1714.000000	45.587546
1713.000000	45.833030
1712.000000	46.057709
1711.000000	46.252789
1710.000000	46.460309
1709.000000	46.604125
1708.000000	46.755233
1707.000000	46.880174
1706.000000	46.978197
1705.000000	47.070642
1704.000000	47.155044
1703.000000	47.190542
1702.000000	47.226791
1701.000000	47.268295
1700.000000	47.280950
1699.000000	47.292533
1698.000000	47.284811
1697.000000	47.268081
1696.000000	47.198908
1695.000000	47.127375
1694.000000	47.032355
1693.000000	46.912241
1692.000000	46.757915
1691.000000	46.654744
1690.000000	46.553505
1689.000000	46.513395
1688.000000	46.511143
1687.000000	46.608951
1686.000000	46.751694
1685.000000	46.942806
1684.000000	47.167377
1683.000000	47.469702
1682.000000	47.744894
1681.000000	48.024054
1680.000000	48.315654
1679.000000	48.549985
1678.000000	48.782386
1677.000000	49.015323
1676.000000	49.203860
1675.000000	49.433043
1674.000000	49.631233
1673.000000	49.820092
1672.000000	50.038980
1671.000000	50.271488
1670.000000	50.503781
1669.000000	50.728568
1668.000000	50.975768
1667.000000	51.211601
1666.000000	51.415367
1665.000000	51.632968
1664.000000	51.826117
1663.000000	52.034066
1662.000000	52.199653
1661.000000	52.390120
1660.000000	52.545733
1659.000000	52.702312
1658.000000	52.843554
1657.000000	52.936965
1656.000000	53.047749
1655.000000	53.150168
1654.000000	53.204113
1653.000000	53.277469
1652.000000	53.324657
1651.000000	53.379566
1650.000000	53.399728
1649.000000	53.424395
1648.000000	53.444235
1647.000000	53.453458
1646.000000	53.459142
1645.000000	53.441554
1644.000000	53.457426
1643.000000	53.454745
1642.000000	53.435441
1641.000000	53.444664
1640.000000	53.452922
1639.000000	53.431366
1638.000000	53.437264
1637.000000	53.435119
1636.000000	53.404233
1635.000000	53.361120
1634.000000	53.361013
1633.000000	53.329375
1632.000000	53.287657
1631.000000	53.254411
1630.000000	53.204220
1629.000000	53.158426
1628.000000	53.142447
1627.000000	53.083891
1626.000000	53.027158
1625.000000	52.984260
1624.000000	52.942112
1623.000000	52.889562
1622.000000	52.843125
1621.000000	52.804516
1620.000000	52.778456
1619.000000	52.733306
1618.000000	52.692981
1617.000000	52.650727
1616.000000	52.603753
1615.000000	52.559139
1614.000000	52.507125
1613.000000	52.475488
1612.000000	52.426584
1611.000000	52.356124
1610.000000	52.293492
1609.000000	52.229038
1608.000000	52.163404
1607.000000	52.081468
1606.000000	51.986770
