PE UV       SUBTECH     SPECTRUM    ASCII       PEDS        4.00        
   -1
CICIMAUCR0209-3.Sample.ASC
24/06/12
13:21:01.00
24/06/12
13:21:01.00
Vinicio Soto Monge
C. cupreomarginata. Sex F. Ventral
250,000000
1
Lambda 1050
1050L1511233
PerkinElmer UV WinLab 6.3.2.0749 / 2.02.05 Lambda 900 UV/VIS/NIR, Aug  7 2015 09:38:08

0
0
3350/servo 860,8/2
0
0
UV/VIS
1
1
1
DoubleDePol,CommonBeamDepol,RBeamAtt,SBeamAtt,60mm sphere, WB InGaAs Detector
0
0
0
0
Program
Program
3350/servo 860,8/2
3350/0,2 860,8/0,2
3350/0,2 860,8/0,2
0
15.00
 
 
 
0
 
860,8
319,2
860,8
Front
100
on
S:100 R:100
0
0
0
0
 
0
 
 
 
0
 
 
0
0
0
0
0
 
 
 
 
0
0


0
0
#HDR
-1
-1
#GR
nm
%R
1.0
0.0
2500,000000
-1,000000
2251
8
60,858100
3,838200
#DATA
2482.000000	6.799853
2481.000000	6.861528
2480.000000	6.708355
2479.000000	6.833531
2478.000000	6.856050
2477.000000	6.774290
2476.000000	6.764552
2475.000000	6.672953
2474.000000	6.839820
2473.000000	6.762625
2472.000000	6.877961
2471.000000	6.799143
2470.000000	6.777942
2469.000000	6.813344
2468.000000	6.856557
2467.000000	6.871164
2466.000000	6.822677
2465.000000	6.878164
2464.000000	6.862238
2463.000000	6.886177
2462.000000	6.958706
2461.000000	6.976255
2460.000000	6.948867
2459.000000	7.062377
2458.000000	7.036611
2457.000000	7.024844
2456.000000	7.094127
2455.000000	7.115936
2454.000000	7.092504
2453.000000	7.105488
2452.000000	7.191610
2451.000000	7.163815
2450.000000	7.240808
2449.000000	7.313641
2448.000000	7.339609
2447.000000	7.376939
2446.000000	7.436889
2445.000000	7.489028
2444.000000	7.533662
2443.000000	7.565412
2442.000000	7.601828
2441.000000	7.652751
2440.000000	7.672126
2439.000000	7.702152
2438.000000	7.766464
2437.000000	7.802880
2436.000000	7.833413
2435.000000	7.888596
2434.000000	7.945199
2433.000000	7.984354
2432.000000	8.028379
2431.000000	8.095531
2430.000000	8.101922
2429.000000	8.158119
2428.000000	8.194536
2427.000000	8.226895
2426.000000	8.262398
2425.000000	8.264731
2424.000000	8.307031
2423.000000	8.359070
2422.000000	8.403601
2421.000000	8.410803
2420.000000	8.446206
2419.000000	8.502808
2418.000000	8.538819
2417.000000	8.573004
2416.000000	8.599581
2415.000000	8.636606
2414.000000	8.694934
2413.000000	8.718062
2412.000000	8.713598
2411.000000	8.741494
2410.000000	8.780244
2409.000000	8.808038
2408.000000	8.837151
2407.000000	8.856627
2406.000000	8.871133
2405.000000	8.887059
2404.000000	8.905521
2403.000000	8.945792
2402.000000	8.948328
2401.000000	8.969833
2400.000000	9.022175
2399.000000	9.025929
2398.000000	9.026334
2397.000000	9.046419
2396.000000	9.071678
2395.000000	9.071170
2394.000000	9.091965
2393.000000	9.095922
2392.000000	9.096327
2391.000000	9.114181
2390.000000	9.151409
2389.000000	9.174232
2388.000000	9.202635
2387.000000	9.212881
2386.000000	9.211359
2385.000000	9.228604
2384.000000	9.252746
2383.000000	9.250210
2382.000000	9.253963
2381.000000	9.261368
2380.000000	9.265324
2379.000000	9.258731
2378.000000	9.272628
2377.000000	9.314522
2376.000000	9.295655
2375.000000	9.275164
2374.000000	9.269281
2373.000000	9.274758
2372.000000	9.279729
2371.000000	9.293017
2370.000000	9.314522
2369.000000	9.315537
2368.000000	9.313711
2367.000000	9.303364
2366.000000	9.305291
2365.000000	9.298698
2364.000000	9.300321
2363.000000	9.319087
2362.000000	9.314928
2361.000000	9.312899
2360.000000	9.316754
2359.000000	9.319087
2358.000000	9.307523
2357.000000	9.297582
2356.000000	9.301335
2355.000000	9.314522
2354.000000	9.312696
2353.000000	9.305900
2352.000000	9.287438
2351.000000	9.282569
2350.000000	9.308132
2349.000000	9.297481
2348.000000	9.296669
2347.000000	9.309653
2346.000000	9.309045
2345.000000	9.322232
2344.000000	9.341911
2343.000000	9.342317
2342.000000	9.353779
2341.000000	9.362706
2340.000000	9.375588
2339.000000	9.390804
2338.000000	9.405614
2337.000000	9.403078
2336.000000	9.406629
2335.000000	9.415251
2334.000000	9.430163
2333.000000	9.439799
2332.000000	9.453899
2331.000000	9.466275
2330.000000	9.457957
2329.000000	9.467086
2328.000000	9.492446
2327.000000	9.498431
2326.000000	9.495185
2325.000000	9.511618
2324.000000	9.506242
2323.000000	9.490620
2322.000000	9.501373
2321.000000	9.518414
2320.000000	9.507459
2319.000000	9.481389
2318.000000	9.468405
2317.000000	9.464145
2316.000000	9.449943
2315.000000	9.420729
2314.000000	9.391109
2313.000000	9.370111
2312.000000	9.357431
2311.000000	9.333999
2310.000000	9.322536
2309.000000	9.292814
2308.000000	9.271918
2307.000000	9.242298
2306.000000	9.239052
2305.000000	9.241993
2304.000000	9.233270
2303.000000	9.215214
2302.000000	9.217952
2301.000000	9.229922
2300.000000	9.229212
2299.000000	9.255891
2298.000000	9.267962
2297.000000	9.292206
2296.000000	9.292307
2295.000000	9.325883
2294.000000	9.354692
2293.000000	9.373965
2292.000000	9.388674
2291.000000	9.416570
2290.000000	9.439089
2289.000000	9.477636
2288.000000	9.499141
2287.000000	9.523791
2286.000000	9.546209
2285.000000	9.559193
2284.000000	9.586176
2283.000000	9.590132
2282.000000	9.605246
2281.000000	9.625635
2280.000000	9.625331
2279.000000	9.641764
2278.000000	9.645416
2277.000000	9.653024
2276.000000	9.647749
2275.000000	9.660835
2274.000000	9.678485
2273.000000	9.677775
2272.000000	9.681934
2271.000000	9.656574
2270.000000	9.680818
2269.000000	9.700700
2268.000000	9.727886
2267.000000	9.771809
2266.000000	9.801327
2265.000000	9.829426
2264.000000	9.879638
2263.000000	9.922953
2262.000000	9.982396
2261.000000	10.058272
2260.000000	10.134554
2259.000000	10.226052
2258.000000	10.301117
2257.000000	10.401744
2256.000000	10.488068
2255.000000	10.594985
2254.000000	10.704640
2253.000000	10.800805
2252.000000	10.902041
2251.000000	11.005204
2250.000000	11.103802
2249.000000	11.201691
2248.000000	11.287204
2247.000000	11.384281
2246.000000	11.465432
2245.000000	11.550945
2244.000000	11.613228
2243.000000	11.679772
2242.000000	11.756054
2241.000000	11.802716
2240.000000	11.861855
2239.000000	11.913893
2238.000000	11.952339
2237.000000	11.975872
2236.000000	12.010463
2235.000000	12.030041
2234.000000	12.046474
2233.000000	12.061994
2232.000000	12.093744
2231.000000	12.085021
2230.000000	12.080760
2229.000000	12.087151
2228.000000	12.083702
2227.000000	12.063921
2226.000000	12.065747
2225.000000	12.014013
2224.000000	11.988045
2223.000000	11.979423
2222.000000	11.930428
2221.000000	11.940166
2220.000000	11.873419
2219.000000	11.848465
2218.000000	11.804035
2217.000000	11.769647
2216.000000	11.729883
2215.000000	11.684641
2214.000000	11.658673
2213.000000	11.619213
2212.000000	11.596592
2211.000000	11.583202
2210.000000	11.537251
2209.000000	11.499313
2208.000000	11.458636
2207.000000	11.443724
2206.000000	11.437435
2205.000000	11.416234
2204.000000	11.377282
2203.000000	11.368355
2202.000000	11.332040
2201.000000	11.337112
2200.000000	11.311752
2199.000000	11.305970
2198.000000	11.277770
2197.000000	11.284566
2196.000000	11.282233
2195.000000	11.232934
2194.000000	11.245918
2193.000000	11.230094
2192.000000	11.220761
2191.000000	11.202908
2190.000000	11.183838
2189.000000	11.166694
2188.000000	11.155130
2187.000000	11.169636
2186.000000	11.138697
2185.000000	11.159594
2184.000000	11.138393
2183.000000	11.129365
2182.000000	11.100658
2181.000000	11.089500
2180.000000	11.075907
2179.000000	11.065154
2178.000000	11.068400
2177.000000	11.055518
2176.000000	11.065459
2175.000000	11.037563
2174.000000	11.040403
2173.000000	11.050344
2172.000000	11.041823
2171.000000	11.051359
2170.000000	11.058053
2169.000000	11.043142
2168.000000	11.048518
2167.000000	11.066676
2166.000000	11.075298
2165.000000	11.094876
2164.000000	11.094064
2163.000000	11.118105
2162.000000	11.130887
2161.000000	11.150566
2160.000000	11.194590
2159.000000	11.204024
2158.000000	11.222182
2157.000000	11.277770
2156.000000	11.287407
2155.000000	11.346951
2154.000000	11.393309
2153.000000	11.415321
2152.000000	11.445550
2151.000000	11.487951
2150.000000	11.551959
2149.000000	11.579652
2148.000000	11.613736
2147.000000	11.659180
2146.000000	11.693162
2145.000000	11.729782
2144.000000	11.781110
2143.000000	11.829496
2142.000000	11.864797
2141.000000	11.893301
2140.000000	11.923733
2139.000000	11.967453
2138.000000	12.002551
2137.000000	12.057531
2136.000000	12.091208
2135.000000	12.098512
2134.000000	12.122857
2133.000000	12.147405
2132.000000	12.184329
2131.000000	12.210095
2130.000000	12.221456
2129.000000	12.250772
2128.000000	12.264770
2127.000000	12.265987
2126.000000	12.289927
2125.000000	12.301694
2124.000000	12.315388
2123.000000	12.322590
2122.000000	12.320663
2121.000000	12.332430
2120.000000	12.346428
2119.000000	12.337400
2118.000000	12.320257
2117.000000	12.322590
2116.000000	12.306563
2115.000000	12.302303
2114.000000	12.306563
2113.000000	12.296622
2112.000000	12.288405
2111.000000	12.270349
2110.000000	12.252395
2109.000000	12.239816
2108.000000	12.219833
2107.000000	12.203805
2106.000000	12.189705
2105.000000	12.167592
2104.000000	12.137566
2103.000000	12.123770
2102.000000	12.107540
2101.000000	12.084108
2100.000000	12.060168
2099.000000	12.049213
2098.000000	12.038257
2097.000000	12.016042
2096.000000	11.997276
2095.000000	11.978003
2094.000000	11.969583
2093.000000	11.971105
2092.000000	11.956497
2091.000000	11.923023
2090.000000	11.913082
2089.000000	11.907705
2088.000000	11.888432
2087.000000	11.875955
2086.000000	11.850798
2085.000000	11.821077
2084.000000	11.797847
2083.000000	11.778269
2082.000000	11.746113
2081.000000	11.710813
2080.000000	11.673889
2079.000000	11.644472
2078.000000	11.613736
2077.000000	11.574986
2076.000000	11.535526
2075.000000	11.477503
2074.000000	11.425161
2073.000000	11.385295
2072.000000	11.333359
2071.000000	11.274321
2070.000000	11.205140
2069.000000	11.145291
2068.000000	11.088384
2067.000000	11.037157
2066.000000	10.986641
2065.000000	10.923241
2064.000000	10.864102
2063.000000	10.809934
2062.000000	10.755258
2061.000000	10.702916
2060.000000	10.636474
2059.000000	10.585653
2058.000000	10.548323
2057.000000	10.512110
2056.000000	10.482084
2055.000000	10.460274
2054.000000	10.439986
2053.000000	10.437653
2052.000000	10.428625
2051.000000	10.423148
2050.000000	10.438566
2049.000000	10.449319
2048.000000	10.469099
2047.000000	10.495879
2046.000000	10.530977
2045.000000	10.566785
2044.000000	10.580885
2043.000000	10.630184
2042.000000	10.687294
2041.000000	10.714581
2040.000000	10.749172
2039.000000	10.777879
2038.000000	10.811456
2037.000000	10.828700
2036.000000	10.855582
2035.000000	10.879115
2034.000000	10.906098
2033.000000	10.931965
2032.000000	10.956919
2031.000000	10.960672
2030.000000	10.968280
2029.000000	10.973555
2028.000000	10.975989
2027.000000	10.988162
2026.000000	11.001451
2025.000000	11.006320
2024.000000	11.011493
2023.000000	11.009160
2022.000000	10.990597
2021.000000	10.975685
2020.000000	10.967671
2019.000000	10.962194
2018.000000	10.944746
2017.000000	10.947181
2016.000000	10.946978
2015.000000	10.916445
2014.000000	10.899606
2013.000000	10.871406
2012.000000	10.859639
2011.000000	10.839047
2010.000000	10.805471
2009.000000	10.770271
2008.000000	10.735275
2007.000000	10.713364
2006.000000	10.675629
2005.000000	10.649965
2004.000000	10.611722
2003.000000	10.567292
2002.000000	10.520022
2001.000000	10.501154
2000.000000	10.445363
1999.000000	10.405903
1998.000000	10.363197
1997.000000	10.321303
1996.000000	10.269569
1995.000000	10.221893
1994.000000	10.164681
1993.000000	10.131105
1992.000000	10.090935
1991.000000	10.033014
1990.000000	9.977527
1989.000000	9.920518
1988.000000	9.867161
1987.000000	9.809747
1986.000000	9.762882
1985.000000	9.718858
1984.000000	9.669153
1983.000000	9.593479
1982.000000	9.526732
1981.000000	9.497011
1980.000000	9.450146
1979.000000	9.387051
1978.000000	9.351750
1977.000000	9.301234
1976.000000	9.230531
1975.000000	9.188535
1974.000000	9.141670
1973.000000	9.088618
1972.000000	9.053419
1971.000000	9.004627
1970.000000	8.938184
1969.000000	8.914650
1968.000000	8.846078
1967.000000	8.814124
1966.000000	8.757927
1965.000000	8.734495
1964.000000	8.680732
1963.000000	8.653039
1962.000000	8.586597
1961.000000	8.556673
1960.000000	8.521879
1959.000000	8.467305
1958.000000	8.420643
1957.000000	8.387675
1956.000000	8.362011
1955.000000	8.308553
1954.000000	8.279643
1953.000000	8.230039
1952.000000	8.203665
1951.000000	8.150308
1950.000000	8.146352
1949.000000	8.115515
1948.000000	8.053434
1947.000000	8.024727
1946.000000	8.019351
1945.000000	7.975124
1944.000000	7.962342
1943.000000	7.958589
1942.000000	7.926027
1941.000000	7.900363
1940.000000	7.889002
1939.000000	7.879264
1938.000000	7.874902
1937.000000	7.868207
1936.000000	7.877438
1935.000000	7.869729
1934.000000	7.869221
1933.000000	7.896610
1932.000000	7.889509
1931.000000	7.902493
1930.000000	7.914057
1929.000000	7.953314
1928.000000	7.970660
1927.000000	8.006164
1926.000000	8.021177
1925.000000	8.095227
1924.000000	8.117544
1923.000000	8.160148
1922.000000	8.213911
1921.000000	8.276397
1920.000000	8.346694
1919.000000	8.417194
1918.000000	8.478463
1917.000000	8.545819
1916.000000	8.612768
1915.000000	8.703962
1914.000000	8.771013
1913.000000	8.874582
1912.000000	9.012133
1911.000000	9.133454
1910.000000	9.230125
1909.000000	9.335419
1908.000000	9.453696
1907.000000	9.597435
1906.000000	9.740464
1905.000000	9.927010
1904.000000	10.124714
1903.000000	10.312478
1902.000000	10.473968
1901.000000	10.693178
1900.000000	10.907924
1899.000000	11.189924
1898.000000	11.472330
1897.000000	11.753214
1896.000000	12.018578
1895.000000	12.264770
1894.000000	12.526888
1893.000000	12.823090
1892.000000	13.168185
1891.000000	13.588446
1890.000000	14.002621
1889.000000	14.373989
1888.000000	14.763209
1887.000000	15.166023
1886.000000	15.534348
1885.000000	15.957145
1884.000000	16.371421
1883.000000	16.829316
1882.000000	17.257388
1881.000000	17.657970
1880.000000	18.054393
1879.000000	18.411763
1878.000000	18.780899
1877.000000	19.165960
1876.000000	19.534386
1875.000000	19.927766
1874.000000	20.316987
1873.000000	20.691905
1872.000000	21.077272
1871.000000	21.457870
1870.000000	21.849526
1869.000000	22.203750
1868.000000	22.554627
1867.000000	22.822020
1866.000000	23.068618
1865.000000	23.268047
1864.000000	23.452970
1863.000000	23.625822
1862.000000	23.778284
1861.000000	23.984002
1860.000000	24.201690
1859.000000	24.419479
1858.000000	24.624386
1857.000000	24.781717
1856.000000	24.908009
1855.000000	25.018171
1854.000000	25.150853
1853.000000	25.286376
1852.000000	25.377772
1851.000000	25.440969
1850.000000	25.487732
1849.000000	25.531046
1848.000000	25.639079
1847.000000	25.777137
1846.000000	25.857477
1845.000000	25.860317
1844.000000	25.833638
1843.000000	25.797425
1842.000000	25.829784
1841.000000	25.910833
1840.000000	25.942584
1839.000000	25.954452
1838.000000	25.945526
1837.000000	25.940656
1836.000000	25.958814
1835.000000	25.982145
1834.000000	25.963277
1833.000000	25.913877
1832.000000	25.861534
1831.000000	25.831407
1830.000000	25.821263
1829.000000	25.823393
1828.000000	25.801482
1827.000000	25.773282
1826.000000	25.779774
1825.000000	25.780484
1824.000000	25.739909
1823.000000	25.690407
1822.000000	25.660381
1821.000000	25.687566
1820.000000	25.716375
1819.000000	25.732200
1818.000000	25.702782
1817.000000	25.651454
1816.000000	25.619095
1815.000000	25.609154
1814.000000	25.598605
1813.000000	25.573955
1812.000000	25.559551
1811.000000	25.538553
1810.000000	25.509338
1809.000000	25.474342
1808.000000	25.443200
1807.000000	25.417739
1806.000000	25.400596
1805.000000	25.366107
1804.000000	25.331618
1803.000000	25.298751
1802.000000	25.271566
1801.000000	25.255031
1800.000000	25.230584
1799.000000	25.197110
1798.000000	25.161910
1797.000000	25.126610
1796.000000	25.089584
1795.000000	25.065036
1794.000000	25.047284
1793.000000	25.029837
1792.000000	25.004376
1791.000000	24.986015
1790.000000	24.964510
1789.000000	24.938846
1788.000000	24.932658
1787.000000	24.927688
1786.000000	24.911762
1785.000000	24.895836
1784.000000	24.886605
1783.000000	24.880012
1782.000000	24.879302
1781.000000	24.857898
1780.000000	24.837204
1779.000000	24.834364
1778.000000	24.820771
1777.000000	24.786079
1776.000000	24.760010
1775.000000	24.734548
1774.000000	24.710406
1773.000000	24.684032
1772.000000	24.657861
1771.000000	24.633211
1770.000000	24.604707
1769.000000	24.585940
1768.000000	24.563421
1767.000000	24.526497
1766.000000	24.511079
1765.000000	24.489776
1764.000000	24.461779
1763.000000	24.439057
1762.000000	24.445853
1761.000000	24.463301
1760.000000	24.476285
1759.000000	24.511484
1758.000000	24.537554
1757.000000	24.565450
1756.000000	24.601765
1755.000000	24.625096
1754.000000	24.661715
1753.000000	24.690321
1752.000000	24.717202
1751.000000	24.734143
1750.000000	24.748445
1749.000000	24.765994
1748.000000	24.763256
1747.000000	24.766704
1746.000000	24.754430
1745.000000	24.721767
1744.000000	24.686974
1743.000000	24.649847
1742.000000	24.605011
1741.000000	24.551553
1740.000000	24.494443
1739.000000	24.449911
1738.000000	24.398989
1737.000000	24.346139
1736.000000	24.294304
1735.000000	24.243178
1734.000000	24.203617
1733.000000	24.162332
1732.000000	24.100555
1731.000000	24.087977
1730.000000	24.076819
1729.000000	24.048517
1728.000000	24.040808
1727.000000	24.038069
1726.000000	24.050140
1725.000000	24.058357
1724.000000	24.072051
1723.000000	24.119829
1722.000000	24.173591
1721.000000	24.238512
1720.000000	24.321591
1719.000000	24.435709
1718.000000	24.565754
1717.000000	24.690524
1716.000000	24.820264
1715.000000	24.964409
1714.000000	25.108046
1713.000000	25.250669
1712.000000	25.371280
1711.000000	25.473125
1710.000000	25.565637
1709.000000	25.660584
1708.000000	25.759588
1707.000000	25.823089
1706.000000	25.877359
1705.000000	25.920673
1704.000000	25.960640
1703.000000	25.955162
1702.000000	25.955365
1701.000000	25.971190
1700.000000	25.965408
1699.000000	25.955467
1698.000000	25.950192
1697.000000	25.925339
1696.000000	25.911543
1695.000000	25.879590
1694.000000	25.856665
1693.000000	25.831407
1692.000000	25.794990
1691.000000	25.773079
1690.000000	25.782108
1689.000000	25.802497
1688.000000	25.811931
1687.000000	25.854941
1686.000000	25.928890
1685.000000	26.033372
1684.000000	26.164735
1683.000000	26.276622
1682.000000	26.464182
1681.000000	26.624659
1680.000000	26.805727
1679.000000	26.972188
1678.000000	27.181761
1677.000000	27.375814
1676.000000	27.547347
1675.000000	27.723952
1674.000000	27.873574
1673.000000	28.056570
1672.000000	28.214206
1671.000000	28.368494
1670.000000	28.493264
1669.000000	28.631322
1668.000000	28.774148
1667.000000	28.906932
1666.000000	29.007356
1665.000000	29.127663
1664.000000	29.228797
1663.000000	29.303253
1662.000000	29.380043
1661.000000	29.475699
1660.000000	29.532708
1659.000000	29.594180
1658.000000	29.678577
1657.000000	29.703227
1656.000000	29.755671
1655.000000	29.786711
1654.000000	29.777480
1653.000000	29.803043
1652.000000	29.810955
1651.000000	29.800304
1650.000000	29.808520
1649.000000	29.762163
1648.000000	29.749889
1647.000000	29.735992
1646.000000	29.688822
1645.000000	29.669853
1644.000000	29.642769
1643.000000	29.607063
1642.000000	29.584848
1641.000000	29.532911
1640.000000	29.492437
1639.000000	29.487365
1638.000000	29.439790
1637.000000	29.393737
1636.000000	29.368783
1635.000000	29.326483
1634.000000	29.277184
1633.000000	29.218653
1632.000000	29.153327
1631.000000	29.132227
1630.000000	29.064365
1629.000000	28.994981
1628.000000	28.961912
1627.000000	28.889789
1626.000000	28.852966
1625.000000	28.769178
1624.000000	28.700808
1623.000000	28.635583
1622.000000	28.590747
1621.000000	28.513653
1620.000000	28.468614
1619.000000	28.402983
1618.000000	28.338265
1617.000000	28.302356
1616.000000	28.239667
1615.000000	28.176166
1614.000000	28.106985
1613.000000	28.039934
1612.000000	27.986374
1611.000000	27.919526
1610.000000	27.849533
1609.000000	27.785728
1608.000000	27.719387
1607.000000	27.628193
1606.000000	27.549274
1605.000000	27.478165
1604.000000	27.384943
1603.000000	27.297706
1602.000000	27.235219
1601.000000	27.166748
1600.000000	27.078699
1599.000000	26.999881
1598.000000	26.918831
1597.000000	26.842955
1596.000000	26.743444
1595.000000	26.674567
1594.000000	26.588344
1593.000000	26.519568
