PE UV       SUBTECH     SPECTRUM    ASCII       PEDS        4.00        
   -1
CICIMAUCR0232-1.Sample.ASC
24/06/13
15:52:31.00
24/06/13
15:52:31.00
Vinicio Soto Monge
C. resplendens. Sex M. Dorsal.
250,000000
1
Lambda 1050
1050L1511233
PerkinElmer UV WinLab 6.3.2.0749 / 2.02.05 Lambda 900 UV/VIS/NIR, Aug  7 2015 09:38:08

0
0
3350/servo 860,8/2
0
0
UV/VIS
1
1
1
DoubleDePol,CommonBeamDepol,RBeamAtt,SBeamAtt,60mm sphere, WB InGaAs Detector
0
0
0
0
Program
Program
3350/servo 860,8/2
3350/0,2 860,8/0,2
3350/0,2 860,8/0,2
0
15.00
 
 
 
0
 
860,8
319,2
860,8
Front
100
on
S:100 R:100
0
0
0
0
 
0
 
 
 
0
 
 
0
0
0
0
0
 
 
 
 
0
0


0
0
#HDR
-1
-1
#GR
nm
%R
1.0
0.0
2500,000000
-1,000000
2251
8
92,163900
5,790900
#DATA
2482.000000	8.282689
2481.000000	8.314713
2480.000000	8.248442
2479.000000	8.247230
2478.000000	8.308248
2477.000000	8.314915
2476.000000	8.293802
2475.000000	8.280669
2474.000000	8.345828
2473.000000	8.288245
2472.000000	8.317441
2471.000000	8.338959
2470.000000	8.343202
2469.000000	8.353809
2468.000000	8.355426
2467.000000	8.393815
2466.000000	8.384823
2465.000000	8.398158
2464.000000	8.428769
2463.000000	8.421798
2462.000000	8.416949
2461.000000	8.490696
2460.000000	8.552825
2459.000000	8.574646
2458.000000	8.639402
2457.000000	8.658495
2456.000000	8.725373
2455.000000	8.790836
2454.000000	8.825790
2453.000000	8.914387
2452.000000	8.935501
2451.000000	8.979850
2450.000000	9.061376
2449.000000	9.103704
2448.000000	9.209173
2447.000000	9.283526
2446.000000	9.352424
2445.000000	9.423039
2444.000000	9.509919
2443.000000	9.568209
2442.000000	9.602759
2441.000000	9.684083
2440.000000	9.774397
2439.000000	9.816928
2438.000000	9.921689
2437.000000	9.975130
2436.000000	10.035138
2435.000000	10.079184
2434.000000	10.144142
2433.000000	10.212838
2432.000000	10.291030
2431.000000	10.331035
2430.000000	10.368818
2429.000000	10.423168
2428.000000	10.489743
2427.000000	10.534193
2426.000000	10.579754
2425.000000	10.619153
2424.000000	10.669564
2423.000000	10.718358
2422.000000	10.762606
2421.000000	10.799480
2420.000000	10.836353
2419.000000	10.876459
2418.000000	10.914949
2417.000000	10.936164
2416.000000	10.980109
2415.000000	11.034561
2414.000000	11.048401
2413.000000	11.073556
2412.000000	11.111742
2411.000000	11.137200
2410.000000	11.170740
2409.000000	11.202360
2408.000000	11.225797
2407.000000	11.261257
2406.000000	11.293382
2405.000000	11.317628
2404.000000	11.339752
2403.000000	11.366220
2402.000000	11.398345
2401.000000	11.425520
2400.000000	11.461687
2399.000000	11.497752
2398.000000	11.513512
2397.000000	11.542000
2396.000000	11.567862
2395.000000	11.580187
2394.000000	11.606453
2393.000000	11.628577
2392.000000	11.641710
2391.000000	11.666360
2390.000000	11.683331
2389.000000	11.705759
2388.000000	11.728388
2387.000000	11.737884
2386.000000	11.751724
2385.000000	11.764655
2384.000000	11.771424
2383.000000	11.773545
2382.000000	11.790012
2381.000000	11.790315
2380.000000	11.766878
2379.000000	11.751926
2378.000000	11.751825
2377.000000	11.749199
2376.000000	11.734954
2375.000000	11.723337
2374.000000	11.719498
2373.000000	11.696465
2372.000000	11.655752
2371.000000	11.636659
2370.000000	11.617161
2369.000000	11.584430
2368.000000	11.555941
2367.000000	11.523008
2366.000000	11.500581
2365.000000	11.453706
2364.000000	11.389758
2363.000000	11.334094
2362.000000	11.288028
2361.000000	11.244588
2360.000000	11.188823
2359.000000	11.140433
2358.000000	11.087598
2357.000000	11.041127
2356.000000	11.005769
2355.000000	10.972229
2354.000000	10.934649
2353.000000	10.900907
2352.000000	10.891916
2351.000000	10.877267
2350.000000	10.874641
2349.000000	10.900806
2348.000000	10.914848
2347.000000	10.931416
2346.000000	10.960309
2345.000000	10.978594
2344.000000	11.012942
2343.000000	11.053957
2342.000000	11.104368
2341.000000	11.147302
2340.000000	11.168921
2339.000000	11.195592
2338.000000	11.212159
2337.000000	11.234182
2336.000000	11.257721
2335.000000	11.252771
2334.000000	11.226707
2333.000000	11.217109
2332.000000	11.199734
2331.000000	11.161042
2330.000000	11.134270
2329.000000	11.103964
2328.000000	11.062645
2327.000000	11.025266
2326.000000	10.958995
2325.000000	10.897472
2324.000000	10.843324
2323.000000	10.757353
2322.000000	10.672696
2321.000000	10.593089
2320.000000	10.500148
2319.000000	10.398317
2318.000000	10.296990
2317.000000	10.193442
2316.000000	10.096661
2315.000000	9.973716
2314.000000	9.861479
2313.000000	9.748434
2312.000000	9.642158
2311.000000	9.551540
2310.000000	9.469913
2309.000000	9.395661
2308.000000	9.335452
2307.000000	9.293931
2306.000000	9.267059
2305.000000	9.245036
2304.000000	9.258674
2303.000000	9.303023
2302.000000	9.328077
2301.000000	9.365557
2300.000000	9.433242
2299.000000	9.519112
2298.000000	9.597809
2297.000000	9.689740
2296.000000	9.783287
2295.000000	9.850266
2294.000000	9.935226
2293.000000	10.012812
2292.000000	10.068678
2291.000000	10.139192
2290.000000	10.164751
2289.000000	10.212838
2288.000000	10.235871
2287.000000	10.247590
2286.000000	10.251530
2285.000000	10.244963
2284.000000	10.222435
2283.000000	10.198796
2282.000000	10.162832
2281.000000	10.125655
2280.000000	10.063223
2279.000000	10.029279
2278.000000	9.991294
2277.000000	9.926740
2276.000000	9.897343
2275.000000	9.855620
2274.000000	9.839456
2273.000000	9.796723
2272.000000	9.793996
2271.000000	9.785611
2270.000000	9.806523
2269.000000	9.849761
2268.000000	9.873703
2267.000000	9.925023
2266.000000	10.009781
2265.000000	10.114643
2264.000000	10.240417
2263.000000	10.358614
2262.000000	10.501158
2261.000000	10.703205
2260.000000	10.877975
2259.000000	11.084668
2258.000000	11.296413
2257.000000	11.528867
2256.000000	11.754452
2255.000000	11.973268
2254.000000	12.221482
2253.000000	12.439187
2252.000000	12.672955
2251.000000	12.869950
2250.000000	13.094221
2249.000000	13.296167
2248.000000	13.498112
2247.000000	13.669851
2246.000000	13.844419
2245.000000	13.995853
2244.000000	14.139003
2243.000000	14.285689
2242.000000	14.393379
2241.000000	14.504808
2240.000000	14.601083
2239.000000	14.707562
2238.000000	14.801109
2237.000000	14.905466
2236.000000	14.956180
2235.000000	15.031947
2234.000000	15.092056
2233.000000	15.148326
2232.000000	15.200757
2231.000000	15.245510
2230.000000	15.261775
2229.000000	15.303194
2228.000000	15.319358
2227.000000	15.313297
2226.000000	15.324106
2225.000000	15.355322
2224.000000	15.344412
2223.000000	15.320166
2222.000000	15.304609
2221.000000	15.280565
2220.000000	15.273696
2219.000000	15.243288
2218.000000	15.205606
2217.000000	15.206616
2216.000000	15.165500
2215.000000	15.124282
2214.000000	15.093975
2213.000000	15.030432
2212.000000	15.025280
2211.000000	14.992649
2210.000000	14.984567
2209.000000	14.959614
2208.000000	14.927489
2207.000000	14.904759
2206.000000	14.891121
2205.000000	14.880109
2204.000000	14.843741
2203.000000	14.838690
2202.000000	14.802927
2201.000000	14.778480
2200.000000	14.780500
2199.000000	14.752416
2198.000000	14.734434
2197.000000	14.723422
2196.000000	14.713522
2195.000000	14.714633
2194.000000	14.698166
2193.000000	14.675133
2192.000000	14.648059
2191.000000	14.637350
2190.000000	14.634623
2189.000000	14.613105
2188.000000	14.606841
2187.000000	14.605326
2186.000000	14.581586
2185.000000	14.578252
2184.000000	14.585728
2183.000000	14.542591
2182.000000	14.521275
2181.000000	14.512688
2180.000000	14.483290
2179.000000	14.483290
2178.000000	14.457731
2177.000000	14.444194
2176.000000	14.452781
2175.000000	14.434395
2174.000000	14.436011
2173.000000	14.446114
2172.000000	14.444598
2171.000000	14.431667
2170.000000	14.449346
2169.000000	14.462176
2168.000000	14.474602
2167.000000	14.502687
2166.000000	14.507637
2165.000000	14.524912
2164.000000	14.538449
2163.000000	14.559866
2162.000000	14.590880
2161.000000	14.622399
2160.000000	14.649675
2159.000000	14.683720
2158.000000	14.714229
2157.000000	14.741505
2156.000000	14.777571
2155.000000	14.825355
2154.000000	14.872937
2153.000000	14.907891
2152.000000	14.954260
2151.000000	15.004267
2150.000000	15.045181
2149.000000	15.091349
2148.000000	15.141961
2147.000000	15.171460
2146.000000	15.224295
2145.000000	15.288243
2144.000000	15.330673
2143.000000	15.360575
2142.000000	15.401591
2141.000000	15.439980
2140.000000	15.462003
2139.000000	15.497563
2138.000000	15.532214
2137.000000	15.561915
2136.000000	15.602021
2135.000000	15.622023
2134.000000	15.658796
2133.000000	15.678697
2132.000000	15.691224
2131.000000	15.721531
2130.000000	15.736786
2129.000000	15.737796
2128.000000	15.747090
2127.000000	15.765779
2126.000000	15.769012
2125.000000	15.756687
2124.000000	15.765577
2123.000000	15.772548
2122.000000	15.755576
2121.000000	15.738099
2120.000000	15.729613
2119.000000	15.726279
2118.000000	15.697387
2117.000000	15.691123
2116.000000	15.667181
2115.000000	15.635258
2114.000000	15.616467
2113.000000	15.592121
2112.000000	15.570704
2111.000000	15.561309
2110.000000	15.526860
2109.000000	15.495542
2108.000000	15.466650
2107.000000	15.437959
2106.000000	15.421492
2105.000000	15.389064
2104.000000	15.350675
2103.000000	15.328450
2102.000000	15.299658
2101.000000	15.269655
2100.000000	15.252077
2099.000000	15.218234
2098.000000	15.186917
2097.000000	15.158630
2096.000000	15.148528
2095.000000	15.117615
2094.000000	15.097511
2093.000000	15.078519
2092.000000	15.057708
2091.000000	15.034271
2090.000000	15.006489
2089.000000	14.991538
2088.000000	14.987497
2087.000000	14.970828
2086.000000	14.943855
2085.000000	14.926176
2084.000000	14.897788
2083.000000	14.870916
2082.000000	14.853540
2081.000000	14.815757
2080.000000	14.783127
2079.000000	14.763023
2078.000000	14.721907
2077.000000	14.676244
2076.000000	14.647958
2075.000000	14.623005
2074.000000	14.580575
2073.000000	14.531781
2072.000000	14.490059
2071.000000	14.440456
2070.000000	14.394188
2069.000000	14.357819
2068.000000	14.294175
2067.000000	14.240026
2066.000000	14.203860
2065.000000	14.157692
2064.000000	14.115667
2063.000000	14.075561
2062.000000	14.022725
2061.000000	13.976356
2060.000000	13.939785
2059.000000	13.909883
2058.000000	13.892608
2057.000000	13.872201
2056.000000	13.839974
2055.000000	13.839065
2054.000000	13.841086
2053.000000	13.827852
2052.000000	13.841187
2051.000000	13.864725
2050.000000	13.907256
2049.000000	13.955646
2048.000000	14.000399
2047.000000	14.061821
2046.000000	14.134558
2045.000000	14.204971
2044.000000	14.287406
2043.000000	14.373680
2042.000000	14.451670
2041.000000	14.521174
2040.000000	14.615226
2039.000000	14.697762
2038.000000	14.773328
2037.000000	14.855561
2036.000000	14.926176
2035.000000	14.986386
2034.000000	15.046191
2033.000000	15.118827
2032.000000	15.179138
2031.000000	15.225811
2030.000000	15.271473
2029.000000	15.308852
2028.000000	15.352191
2027.000000	15.394519
2026.000000	15.445536
2025.000000	15.471499
2024.000000	15.497361
2023.000000	15.507160
2022.000000	15.526253
2021.000000	15.547367
2020.000000	15.568481
2019.000000	15.578280
2018.000000	15.596061
2017.000000	15.594040
2016.000000	15.592222
2015.000000	15.590100
2014.000000	15.584443
2013.000000	15.580806
2012.000000	15.563127
2011.000000	15.553227
2010.000000	15.544034
2009.000000	15.521505
2008.000000	15.510090
2007.000000	15.477156
2006.000000	15.435939
2005.000000	15.418260
2004.000000	15.370375
2003.000000	15.343806
2002.000000	15.289354
2001.000000	15.234499
2000.000000	15.211768
1999.000000	15.145497
1998.000000	15.075387
1997.000000	15.003964
1996.000000	14.957695
1995.000000	14.911729
1994.000000	14.854146
1993.000000	14.768681
1992.000000	14.707259
1991.000000	14.631996
1990.000000	14.556633
1989.000000	14.482886
1988.000000	14.395905
1987.000000	14.309934
1986.000000	14.232045
1985.000000	14.171634
1984.000000	14.076773
1983.000000	13.983528
1982.000000	13.901599
1981.000000	13.838257
1980.000000	13.744609
1979.000000	13.648333
1978.000000	13.578122
1977.000000	13.495687
1976.000000	13.413354
1975.000000	13.323443
1974.000000	13.228178
1973.000000	13.166150
1972.000000	13.067551
1971.000000	13.010069
1970.000000	12.917532
1969.000000	12.817923
1968.000000	12.764684
1967.000000	12.693361
1966.000000	12.596278
1965.000000	12.547686
1964.000000	12.466160
1963.000000	12.391302
1962.000000	12.336042
1961.000000	12.257850
1960.000000	12.175617
1959.000000	12.094496
1958.000000	12.020345
1957.000000	11.957609
1956.000000	11.901340
1955.000000	11.842241
1954.000000	11.774858
1953.000000	11.709598
1952.000000	11.652216
1951.000000	11.602816
1950.000000	11.509269
1949.000000	11.480477
1948.000000	11.412286
1947.000000	11.353188
1946.000000	11.304191
1945.000000	11.263984
1944.000000	11.231556
1943.000000	11.193874
1942.000000	11.167608
1941.000000	11.136796
1940.000000	11.124269
1939.000000	11.109217
1938.000000	11.093659
1937.000000	11.095781
1936.000000	11.092144
1935.000000	11.103458
1934.000000	11.112753
1933.000000	11.132856
1932.000000	11.149929
1931.000000	11.186904
1930.000000	11.258024
1929.000000	11.300555
1928.000000	11.345914
1927.000000	11.431481
1926.000000	11.504520
1925.000000	11.595239
1924.000000	11.687372
1923.000000	11.736369
1922.000000	11.853859
1921.000000	11.983875
1920.000000	12.105709
1919.000000	12.271590
1918.000000	12.413022
1917.000000	12.533240
1916.000000	12.683360
1915.000000	12.813781
1914.000000	12.960568
1913.000000	13.161402
1912.000000	13.379612
1911.000000	13.603378
1910.000000	13.779664
1909.000000	13.957666
1908.000000	14.107080
1907.000000	14.323168
1906.000000	14.550066
1905.000000	14.817475
1904.000000	15.123474
1903.000000	15.402803
1902.000000	15.654654
1901.000000	15.893473
1900.000000	16.189774
1899.000000	16.510320
1898.000000	16.844202
1897.000000	17.129795
1896.000000	17.474284
1895.000000	17.761695
1894.000000	18.034255
1893.000000	18.347124
1892.000000	18.685754
1891.000000	19.105505
1890.000000	19.494545
1889.000000	19.894193
1888.000000	20.285456
1887.000000	20.687831
1886.000000	21.102834
1885.000000	21.526122
1884.000000	21.976483
1883.000000	22.501702
1882.000000	23.048743
1881.000000	23.529512
1880.000000	24.014727
1879.000000	24.482767
1878.000000	24.949595
1877.000000	25.421778
1876.000000	25.872341
1875.000000	26.276434
1874.000000	26.700327
1873.000000	27.100985
1872.000000	27.495986
1871.000000	27.856537
1870.000000	28.187793
1869.000000	28.478537
1868.000000	28.762008
1867.000000	29.013758
1866.000000	29.206914
1865.000000	29.359358
1864.000000	29.515641
1863.000000	29.657377
1862.000000	29.771129
1861.000000	29.905894
1860.000000	30.032981
1859.000000	30.144208
1858.000000	30.247453
1857.000000	30.339485
1856.000000	30.395654
1855.000000	30.430002
1854.000000	30.470310
1853.000000	30.504355
1852.000000	30.503345
1851.000000	30.508497
1850.000000	30.528803
1849.000000	30.526984
1848.000000	30.538703
1847.000000	30.554059
1846.000000	30.518599
1845.000000	30.458188
1844.000000	30.433033
1843.000000	30.396765
1842.000000	30.404039
1841.000000	30.409090
1840.000000	30.416364
1839.000000	30.389492
1838.000000	30.341405
1837.000000	30.289378
1836.000000	30.267355
1835.000000	30.245635
1834.000000	30.189264
1833.000000	30.131075
1832.000000	30.068137
1831.000000	30.002169
1830.000000	29.968932
1829.000000	29.918724
1828.000000	29.848008
1827.000000	29.777291
1826.000000	29.721425
1825.000000	29.688391
1824.000000	29.621817
1823.000000	29.572618
1822.000000	29.541503
1821.000000	29.534331
1820.000000	29.542513
1819.000000	29.527764
1818.000000	29.475434
1817.000000	29.430075
1816.000000	29.411385
1815.000000	29.421589
1814.000000	29.410678
1813.000000	29.381482
1812.000000	29.371380
1811.000000	29.347640
1810.000000	29.319454
1809.000000	29.292885
1808.000000	29.266619
1807.000000	29.224593
1806.000000	29.189437
1805.000000	29.154483
1804.000000	29.099830
1803.000000	29.051642
1802.000000	29.010424
1801.000000	28.978804
1800.000000	28.937486
1799.000000	28.895864
1798.000000	28.845554
1797.000000	28.786254
1796.000000	28.738874
1795.000000	28.706749
1794.000000	28.665632
1793.000000	28.612393
1792.000000	28.573196
1791.000000	28.532383
1790.000000	28.469849
1789.000000	28.417519
1788.000000	28.382565
1787.000000	28.335185
1786.000000	28.284775
1785.000000	28.232647
1784.000000	28.163446
1783.000000	28.092730
1782.000000	28.030398
1781.000000	27.976250
1780.000000	27.916747
1779.000000	27.847951
1778.000000	27.783498
1777.000000	27.720560
1776.000000	27.643480
1775.000000	27.556398
1774.000000	27.470124
1773.000000	27.384254
1772.000000	27.286565
1771.000000	27.180692
1770.000000	27.073507
1769.000000	26.972686
1768.000000	26.873380
1767.000000	26.769528
1766.000000	26.690326
1765.000000	26.621226
1764.000000	26.551116
1763.000000	26.508181
1762.000000	26.500503
1761.000000	26.504544
1760.000000	26.523941
1759.000000	26.569401
1758.000000	26.613750
1757.000000	26.676688
1756.000000	26.741848
1755.000000	26.798623
1754.000000	26.840446
1753.000000	26.869642
1752.000000	26.920255
1751.000000	26.918941
1750.000000	26.911162
1749.000000	26.903182
1748.000000	26.859944
1747.000000	26.811554
1746.000000	26.753869
1745.000000	26.670929
1744.000000	26.574755
1743.000000	26.456962
1742.000000	26.308054
1741.000000	26.139951
1740.000000	25.963666
1739.000000	25.780006
1738.000000	25.580182
1737.000000	25.382783
1736.000000	25.213973
1735.000000	25.078198
1734.000000	24.957172
1733.000000	24.884233
1732.000000	24.867463
1731.000000	24.862715
1730.000000	24.887567
1729.000000	24.948383
1728.000000	25.023342
1727.000000	25.111030
1726.000000	25.206598
1725.000000	25.286205
1724.000000	25.343586
1723.000000	25.395512
1722.000000	25.438649
1721.000000	25.504516
1720.000000	25.525124
1719.000000	25.574121
1718.000000	25.635240
1717.000000	25.693328
1716.000000	25.780410
1715.000000	25.855773
1714.000000	25.934470
1713.000000	26.021451
1712.000000	26.101462
1711.000000	26.162379
1710.000000	26.234711
1709.000000	26.277141
1708.000000	26.285223
1707.000000	26.280677
1706.000000	26.266433
1705.000000	26.251279
1704.000000	26.230367
1703.000000	26.184402
1702.000000	26.097522
1701.000000	26.010844
1700.000000	25.914771
1699.000000	25.770510
1698.000000	25.645443
1697.000000	25.528761
1696.000000	25.429758
1695.000000	25.349243
1694.000000	25.318532
1693.000000	25.348031
1692.000000	25.417030
1691.000000	25.514416
1690.000000	25.631098
1689.000000	25.762024
1688.000000	25.866179
1687.000000	25.949927
1686.000000	26.008924
1685.000000	26.068124
1684.000000	26.123081
1683.000000	26.207132
1682.000000	26.393217
1681.000000	26.665272
1680.000000	26.983899
1679.000000	27.386881
1678.000000	27.842091
1677.000000	28.295180
1676.000000	28.725842
1675.000000	29.131551
1674.000000	29.455330
1673.000000	29.803153
1672.000000	30.090261
1671.000000	30.318473
1670.000000	30.508396
1669.000000	30.679024
1668.000000	30.858846
1667.000000	30.976437
1666.000000	31.104433
1665.000000	31.212528
1664.000000	31.305166
1663.000000	31.415786
1662.000000	31.493372
1661.000000	31.568634
1660.000000	31.622783
1659.000000	31.688044
1658.000000	31.718654
1657.000000	31.761387
1656.000000	31.798462
1655.000000	31.826345
1654.000000	31.836144
1653.000000	31.816343
1652.000000	31.812909
1651.000000	31.834932
1650.000000	31.791694
1649.000000	31.772701
1648.000000	31.742293
1647.000000	31.722998
1646.000000	31.690670
1645.000000	31.659353
1644.000000	31.613287
1643.000000	31.571059
1642.000000	31.509536
1641.000000	31.467712
1640.000000	31.414069
1639.000000	31.355678
1638.000000	31.314864
1637.000000	31.260009
1636.000000	31.203133
1635.000000	31.123829
1634.000000	31.071903
1633.000000	31.005127
1632.000000	30.932896
1631.000000	30.886021
1630.000000	30.790756
1629.000000	30.726707
1628.000000	30.663063
1627.000000	30.567596
1626.000000	30.482433
1625.000000	30.409191
1624.000000	30.346254
1623.000000	30.262910
1622.000000	30.185930
1621.000000	30.115618
1620.000000	30.029849
1619.000000	29.964285
1618.000000	29.894074
1617.000000	29.831844
1616.000000	29.764360
1615.000000	29.675763
1614.000000	29.621918
1613.000000	29.554434
1612.000000	29.475333
1611.000000	29.419366
1610.000000	29.365723
1609.000000	29.303897
1608.000000	29.220553
1607.000000	29.167919
1606.000000	29.086697
1605.000000	29.020224
1604.000000	28.934657
1603.000000	28.889702
