PE UV       SUBTECH     SPECTRUM    ASCII       PEDS        4.00        
   -1
CICIMAUCR0008-4.Sample.ASC
24/04/25
09:16:30.00
24/04/25
09:16:30.00
Vinicio Soto Monge
C. kalinini
250,000000
1
Lambda 1050
1050L1511233
PerkinElmer UV WinLab 6.3.2.0749 / 2.02.05 Lambda 900 UV/VIS/NIR, Aug  7 2015 09:38:08

0
0
3350/servo 860,8/2
0
0
UV/VIS
1
1
1
DoubleDePol,CommonBeamDepol,RBeamAtt,SBeamAtt,60mm sphere, WB InGaAs Detector
0
0
0
0
Program
Program
3350/servo 860,8/2
3350/0,2 860,8/0,2
3350/0,2 860,8/0,2
0
15.00
 
 
 
0
 
860,8
319,2
860,8
Front
100
on
S:100 R:100
0
0
0
0
 
0
 
 
 
0
 
 
0
0
0
0
0
 
 
 
 
0
0


0
0
#HDR
-1
-1
#GR
nm
%R
1.0
0.0
2500,000000
-1,000000
2251
8
94,238500
5,235800
#DATA
2482.000000	6.623411
2481.000000	6.568670
2480.000000	6.512290
2479.000000	6.561651
2478.000000	6.566096
2477.000000	6.519074
2476.000000	6.516618
2475.000000	6.584110
2474.000000	6.538959
2473.000000	6.555569
2472.000000	6.539544
2471.000000	6.571477
2470.000000	6.583876
2469.000000	6.596391
2468.000000	6.592180
2467.000000	6.569722
2466.000000	6.595339
2465.000000	6.600719
2464.000000	6.597912
2463.000000	6.607504
2462.000000	6.610428
2461.000000	6.653005
2460.000000	6.678504
2459.000000	6.683417
2458.000000	6.721432
2457.000000	6.756289
2456.000000	6.770793
2455.000000	6.817932
2454.000000	6.842613
2453.000000	6.855362
2452.000000	6.867410
2451.000000	6.887763
2450.000000	6.944142
2449.000000	6.982041
2448.000000	7.003329
2447.000000	7.033273
2446.000000	7.041344
2445.000000	7.079944
2444.000000	7.109772
2443.000000	7.128721
2442.000000	7.175859
2441.000000	7.224519
2440.000000	7.233993
2439.000000	7.274933
2438.000000	7.295519
2437.000000	7.316340
2436.000000	7.334120
2435.000000	7.366988
2434.000000	7.379738
2433.000000	7.398804
2432.000000	7.430152
2431.000000	7.456119
2430.000000	7.456821
2429.000000	7.487818
2428.000000	7.495304
2427.000000	7.507118
2426.000000	7.535775
2425.000000	7.554374
2424.000000	7.578235
2423.000000	7.562094
2422.000000	7.583616
2421.000000	7.603852
2420.000000	7.617771
2419.000000	7.643972
2418.000000	7.640931
2417.000000	7.651926
2416.000000	7.670291
2415.000000	7.665144
2414.000000	7.633796
2413.000000	7.563965
2412.000000	7.535074
2411.000000	7.523844
2410.000000	7.533319
2409.000000	7.535658
2408.000000	7.537179
2407.000000	7.533436
2406.000000	7.526535
2405.000000	7.534957
2404.000000	7.532500
2403.000000	7.530980
2402.000000	7.532500
2401.000000	7.521037
2400.000000	7.534021
2399.000000	7.541390
2398.000000	7.538232
2397.000000	7.523494
2396.000000	7.532851
2395.000000	7.539986
2394.000000	7.555309
2393.000000	7.562210
2392.000000	7.543612
2391.000000	7.534138
2390.000000	7.545250
2389.000000	7.542560
2388.000000	7.520686
2387.000000	7.528406
2386.000000	7.532383
2385.000000	7.503960
2384.000000	7.509808
2383.000000	7.513200
2382.000000	7.480917
2381.000000	7.475419
2380.000000	7.458341
2379.000000	7.444656
2378.000000	7.449686
2377.000000	7.443720
2376.000000	7.414010
2375.000000	7.403015
2374.000000	7.386639
2373.000000	7.359853
2372.000000	7.332014
2371.000000	7.320668
2370.000000	7.301017
2369.000000	7.269903
2368.000000	7.260896
2367.000000	7.233058
2366.000000	7.201008
2365.000000	7.181591
2364.000000	7.147085
2363.000000	7.106496
2362.000000	7.082752
2361.000000	7.053977
2360.000000	7.027191
2359.000000	6.998416
2358.000000	6.989293
2357.000000	6.974555
2356.000000	6.953266
2355.000000	6.941218
2354.000000	6.918994
2353.000000	6.921918
2352.000000	6.936422
2351.000000	6.939230
2350.000000	6.970227
2349.000000	6.988591
2348.000000	7.017833
2347.000000	7.049181
2346.000000	7.055264
2345.000000	7.051989
2344.000000	7.087664
2343.000000	7.119714
2342.000000	7.120182
2341.000000	7.122053
2340.000000	7.138546
2339.000000	7.145915
2338.000000	7.142406
2337.000000	7.137493
2336.000000	7.152816
2335.000000	7.152349
2334.000000	7.133049
2333.000000	7.125562
2332.000000	7.086144
2331.000000	7.055030
2330.000000	7.052807
2329.000000	7.029530
2328.000000	7.006721
2327.000000	6.972683
2326.000000	6.957243
2325.000000	6.928001
2324.000000	6.892559
2323.000000	6.835828
2322.000000	6.805884
2321.000000	6.779917
2320.000000	6.739445
2319.000000	6.710554
2318.000000	6.674644
2317.000000	6.629143
2316.000000	6.590543
2315.000000	6.553814
2314.000000	6.522116
2313.000000	6.494394
2312.000000	6.473573
2311.000000	6.459654
2310.000000	6.449360
2309.000000	6.432400
2308.000000	6.420001
2307.000000	6.452402
2306.000000	6.465151
2305.000000	6.473456
2304.000000	6.490534
2303.000000	6.516852
2302.000000	6.572296
2301.000000	6.604696
2300.000000	6.636512
2299.000000	6.668328
2298.000000	6.718508
2297.000000	6.765179
2296.000000	6.808107
2295.000000	6.825769
2294.000000	6.835361
2293.000000	6.864486
2292.000000	6.880979
2291.000000	6.898056
2290.000000	6.921684
2289.000000	6.911157
2288.000000	6.909636
2287.000000	6.899694
2286.000000	6.899577
2285.000000	6.890804
2284.000000	6.881798
2283.000000	6.880628
2282.000000	6.867878
2281.000000	6.837817
2280.000000	6.825886
2279.000000	6.805767
2278.000000	6.822962
2277.000000	6.807873
2276.000000	6.814072
2275.000000	6.822026
2274.000000	6.795123
2273.000000	6.787169
2272.000000	6.827407
2271.000000	6.811499
2270.000000	6.827173
2269.000000	6.875949
2268.000000	6.903788
2267.000000	6.951512
2266.000000	7.018769
2265.000000	7.062282
2264.000000	7.138312
2263.000000	7.227794
2262.000000	7.309205
2261.000000	7.388627
2260.000000	7.492263
2259.000000	7.632392
2258.000000	7.732051
2257.000000	7.849137
2256.000000	7.933005
2255.000000	8.057811
2254.000000	8.193028
2253.000000	8.303916
2252.000000	8.387432
2251.000000	8.523351
2250.000000	8.612833
2249.000000	8.695179
2248.000000	8.787001
2247.000000	8.883735
2246.000000	8.972164
2245.000000	9.052522
2244.000000	9.121651
2243.000000	9.188909
2242.000000	9.268448
2241.000000	9.361439
2240.000000	9.399454
2239.000000	9.451506
2238.000000	9.515605
2237.000000	9.537011
2236.000000	9.607894
2235.000000	9.642049
2234.000000	9.674801
2233.000000	9.742175
2232.000000	9.753288
2231.000000	9.780425
2230.000000	9.797736
2229.000000	9.833880
2228.000000	9.845694
2227.000000	9.878094
2226.000000	9.883241
2225.000000	9.872012
2224.000000	9.861368
2223.000000	9.916109
2222.000000	9.904179
2221.000000	9.881369
2220.000000	9.898681
2219.000000	9.892833
2218.000000	9.871310
2217.000000	9.858560
2216.000000	9.856689
2215.000000	9.835517
2214.000000	9.822417
2213.000000	9.851425
2212.000000	9.842886
2211.000000	9.787794
2210.000000	9.796099
2209.000000	9.810603
2208.000000	9.793876
2207.000000	9.762528
2206.000000	9.791888
2205.000000	9.775161
2204.000000	9.756914
2203.000000	9.771418
2202.000000	9.755510
2201.000000	9.772939
2200.000000	9.745802
2199.000000	9.742526
2198.000000	9.742994
2197.000000	9.753522
2196.000000	9.717729
2195.000000	9.714454
2194.000000	9.733988
2193.000000	9.712816
2192.000000	9.697376
2191.000000	9.707202
2190.000000	9.712582
2189.000000	9.709190
2188.000000	9.699715
2187.000000	9.675269
2186.000000	9.677959
2185.000000	9.656671
2184.000000	9.627779
2183.000000	9.627896
2182.000000	9.620527
2181.000000	9.600291
2180.000000	9.594560
2179.000000	9.587308
2178.000000	9.584734
2177.000000	9.567306
2176.000000	9.564148
2175.000000	9.558533
2174.000000	9.543912
2173.000000	9.563095
2172.000000	9.548474
2171.000000	9.573037
2170.000000	9.589179
2169.000000	9.572803
2168.000000	9.569411
2167.000000	9.573388
2166.000000	9.581342
2165.000000	9.611169
2164.000000	9.604619
2163.000000	9.610468
2162.000000	9.611169
2161.000000	9.620761
2160.000000	9.624504
2159.000000	9.646494
2158.000000	9.652460
2157.000000	9.670941
2156.000000	9.699248
2155.000000	9.717846
2154.000000	9.733052
2153.000000	9.727437
2152.000000	9.729309
2151.000000	9.753054
2150.000000	9.780892
2149.000000	9.789665
2148.000000	9.810837
2147.000000	9.835283
2146.000000	9.851776
2145.000000	9.858443
2144.000000	9.859496
2143.000000	9.877509
2142.000000	9.898447
2141.000000	9.893885
2140.000000	9.908506
2139.000000	9.911080
2138.000000	9.937047
2137.000000	9.947340
2136.000000	9.958336
2135.000000	9.957166
2134.000000	9.940088
2133.000000	9.961377
2132.000000	9.980326
2131.000000	10.006644
2130.000000	10.004071
2129.000000	9.988280
2128.000000	9.980560
2127.000000	9.981730
2126.000000	9.985239
2125.000000	9.996585
2124.000000	9.990268
2123.000000	9.975998
2122.000000	9.967576
2121.000000	9.972255
2120.000000	9.965237
2119.000000	9.956698
2118.000000	9.953774
2117.000000	9.932953
2116.000000	9.911314
2115.000000	9.908389
2114.000000	9.900553
2113.000000	9.894938
2112.000000	9.912600
2111.000000	9.905348
2110.000000	9.886516
2109.000000	9.892833
2108.000000	9.864409
2107.000000	9.852361
2106.000000	9.857274
2105.000000	9.842302
2104.000000	9.837506
2103.000000	9.817621
2102.000000	9.811305
2101.000000	9.812942
2100.000000	9.817036
2099.000000	9.819142
2098.000000	9.797385
2097.000000	9.801362
2096.000000	9.790601
2095.000000	9.791069
2094.000000	9.797502
2093.000000	9.788729
2092.000000	9.789197
2091.000000	9.784986
2090.000000	9.791654
2089.000000	9.809199
2088.000000	9.811772
2087.000000	9.798204
2086.000000	9.781009
2085.000000	9.798555
2084.000000	9.814931
2083.000000	9.815749
2082.000000	9.812942
2081.000000	9.809082
2080.000000	9.820077
2079.000000	9.830020
2078.000000	9.842886
2077.000000	9.837740
2076.000000	9.809784
2075.000000	9.801830
2074.000000	9.805339
2073.000000	9.821481
2072.000000	9.826394
2071.000000	9.800309
2070.000000	9.812474
2069.000000	9.813527
2068.000000	9.814814
2067.000000	9.820311
2066.000000	9.822417
2065.000000	9.835166
2064.000000	9.854233
2063.000000	9.857508
2062.000000	9.859847
2061.000000	9.869322
2060.000000	9.892599
2059.000000	9.919268
2058.000000	9.927573
2057.000000	9.957634
2056.000000	9.985823
2055.000000	10.012843
2054.000000	10.050274
2053.000000	10.084663
2052.000000	10.141393
2051.000000	10.191924
2050.000000	10.255907
2049.000000	10.320357
2048.000000	10.372525
2047.000000	10.440953
2046.000000	10.517802
2045.000000	10.617928
2044.000000	10.675828
2043.000000	10.759110
2042.000000	10.843446
2041.000000	10.915733
2040.000000	11.008022
2039.000000	11.074344
2038.000000	11.155170
2037.000000	11.229914
2036.000000	11.292141
2035.000000	11.364078
2034.000000	11.423849
2033.000000	11.467713
2032.000000	11.550762
2031.000000	11.598953
2030.000000	11.662000
2029.000000	11.697559
2028.000000	11.744814
2027.000000	11.778502
2026.000000	11.846344
2025.000000	11.899799
2024.000000	11.936879
2023.000000	11.979573
2022.000000	12.042853
2021.000000	12.053498
2020.000000	12.112333
2019.000000	12.152688
2018.000000	12.182632
2017.000000	12.201113
2016.000000	12.210822
2015.000000	12.253165
2014.000000	12.285682
2013.000000	12.311650
2012.000000	12.300187
2011.000000	12.338319
2010.000000	12.341594
2009.000000	12.343115
2008.000000	12.353291
2007.000000	12.350835
2006.000000	12.361362
2005.000000	12.345337
2004.000000	12.334225
2003.000000	12.310129
2002.000000	12.292116
2001.000000	12.278079
2000.000000	12.261119
1999.000000	12.268371
1998.000000	12.232110
1997.000000	12.206962
1996.000000	12.190820
1995.000000	12.138535
1994.000000	12.108005
1993.000000	12.062036
1992.000000	12.042619
1991.000000	11.990334
1990.000000	11.922257
1989.000000	11.894536
1988.000000	11.858158
1987.000000	11.787976
1986.000000	11.744230
1985.000000	11.716859
1984.000000	11.669252
1983.000000	11.623049
1982.000000	11.550177
1981.000000	11.516840
1980.000000	11.466660
1979.000000	11.406655
1978.000000	11.374020
1977.000000	11.309687
1976.000000	11.263016
1975.000000	11.234709
1974.000000	11.186518
1973.000000	11.150023
1972.000000	11.096451
1971.000000	11.040774
1970.000000	11.017614
1969.000000	10.970358
1968.000000	10.941817
1967.000000	10.899825
1966.000000	10.854324
1965.000000	10.819701
1964.000000	10.784727
1963.000000	10.763906
1962.000000	10.737237
1961.000000	10.679103
1960.000000	10.643193
1959.000000	10.605061
1958.000000	10.565175
1957.000000	10.544120
1956.000000	10.517568
1955.000000	10.487039
1954.000000	10.456276
1953.000000	10.425396
1952.000000	10.408786
1951.000000	10.393112
1950.000000	10.372876
1949.000000	10.357436
1948.000000	10.326790
1947.000000	10.334744
1946.000000	10.313690
1945.000000	10.306204
1944.000000	10.304332
1943.000000	10.291465
1942.000000	10.324217
1941.000000	10.311701
1940.000000	10.357904
1939.000000	10.358489
1938.000000	10.377555
1937.000000	10.410190
1936.000000	10.453585
1935.000000	10.483998
1934.000000	10.503415
1933.000000	10.581082
1932.000000	10.636409
1931.000000	10.675594
1930.000000	10.757473
1929.000000	10.830813
1928.000000	10.937372
1927.000000	11.009777
1926.000000	11.084520
1925.000000	11.151544
1924.000000	11.248629
1923.000000	11.360803
1922.000000	11.511577
1921.000000	11.616616
1920.000000	11.730661
1919.000000	11.833127
1918.000000	11.952904
1917.000000	12.075722
1916.000000	12.210471
1915.000000	12.363701
1914.000000	12.554830
1913.000000	12.737537
1912.000000	12.868426
1911.000000	12.996508
1910.000000	13.142603
1909.000000	13.305425
1908.000000	13.479125
1907.000000	13.669434
1906.000000	13.876237
1905.000000	14.093216
1904.000000	14.267852
1903.000000	14.424708
1902.000000	14.611743
1901.000000	14.797491
1900.000000	15.026049
1899.000000	15.235308
1898.000000	15.419302
1897.000000	15.598499
1896.000000	15.749858
1895.000000	15.944496
1894.000000	16.150597
1893.000000	16.370032
1892.000000	16.576834
1891.000000	16.787263
1890.000000	16.971373
1889.000000	17.196072
1888.000000	17.428023
1887.000000	17.709569
1886.000000	18.024452
1885.000000	18.388111
1884.000000	18.773175
1883.000000	19.199998
1882.000000	19.624598
1881.000000	20.005919
1880.000000	20.389697
1879.000000	20.788447
1878.000000	21.150000
1877.000000	21.483247
1876.000000	21.814271
1875.000000	22.118042
1874.000000	22.381925
1873.000000	22.622064
1872.000000	22.843020
1871.000000	23.022335
1870.000000	23.183402
1869.000000	23.321075
1868.000000	23.375232
1867.000000	23.399679
1866.000000	23.442022
1865.000000	23.453953
1864.000000	23.446116
1863.000000	23.465533
1862.000000	23.480154
1861.000000	23.462492
1860.000000	23.429506
1859.000000	23.391257
1858.000000	23.341194
1857.000000	23.262123
1856.000000	23.191122
1855.000000	23.111115
1854.000000	22.983969
1853.000000	22.876473
1852.000000	22.788629
1851.000000	22.697861
1850.000000	22.613058
1849.000000	22.513048
1848.000000	22.402044
1847.000000	22.285074
1846.000000	22.168222
1845.000000	22.083769
1844.000000	22.029612
1843.000000	21.994054
1842.000000	21.937908
1841.000000	21.850532
1840.000000	21.798129
1839.000000	21.755201
1838.000000	21.665954
1837.000000	21.562669
1836.000000	21.459385
1835.000000	21.348264
1834.000000	21.228136
1833.000000	21.115728
1832.000000	21.014783
1831.000000	20.917815
1830.000000	20.818040
1829.000000	20.701772
1828.000000	20.593692
1827.000000	20.494151
1826.000000	20.396598
1825.000000	20.319047
1824.000000	20.271791
1823.000000	20.257287
1822.000000	20.221845
1821.000000	20.179970
1820.000000	20.136457
1819.000000	20.103355
1818.000000	20.095050
1817.000000	20.071539
1816.000000	20.052824
1815.000000	20.035629
1814.000000	20.027208
1813.000000	20.011885
1812.000000	19.970594
1811.000000	19.908834
1810.000000	19.860292
1809.000000	19.815375
1808.000000	19.769055
1807.000000	19.716068
1806.000000	19.639804
1805.000000	19.578161
1804.000000	19.542719
1803.000000	19.493475
1802.000000	19.445283
1801.000000	19.375569
1800.000000	19.319307
1799.000000	19.294158
1798.000000	19.238715
1797.000000	19.184441
1796.000000	19.138705
1795.000000	19.082209
1794.000000	19.022788
1793.000000	18.951086
1792.000000	18.895408
1791.000000	18.839731
1790.000000	18.762414
1789.000000	18.695741
1788.000000	18.609066
1787.000000	18.526603
1786.000000	18.471276
1785.000000	18.378168
1784.000000	18.285762
1783.000000	18.208445
1782.000000	18.118963
1781.000000	18.036032
1780.000000	17.942456
1779.000000	17.839990
1778.000000	17.751912
1777.000000	17.638218
1776.000000	17.503819
1775.000000	17.372813
1774.000000	17.256545
1773.000000	17.115012
1772.000000	16.985760
1771.000000	16.841186
1770.000000	16.719069
1769.000000	16.616136
1768.000000	16.507237
1767.000000	16.415650
1766.000000	16.354241
1765.000000	16.314588
1764.000000	16.318565
1763.000000	16.343363
1762.000000	16.407462
1761.000000	16.481621
1760.000000	16.554142
1759.000000	16.640583
1758.000000	16.713104
1757.000000	16.768665
1756.000000	16.808668
1755.000000	16.830776
1754.000000	16.805978
1753.000000	16.810657
1752.000000	16.800012
1751.000000	16.736030
1750.000000	16.682458
1749.000000	16.615200
1748.000000	16.536597
1747.000000	16.389566
1746.000000	16.261718
1745.000000	16.115623
1744.000000	15.936074
1743.000000	15.723423
1742.000000	15.511006
1741.000000	15.288062
1740.000000	15.067925
1739.000000	14.862409
1738.000000	14.714091
1737.000000	14.589051
1736.000000	14.524249
1735.000000	14.480269
1734.000000	14.473134
1733.000000	14.545655
1732.000000	14.621334
1731.000000	14.724735
1730.000000	14.839951
1729.000000	14.957037
1728.000000	15.061140
1727.000000	15.143487
1726.000000	15.186766
1725.000000	15.279289
1724.000000	15.280108
1723.000000	15.288763
1722.000000	15.291805
1721.000000	15.264083
1720.000000	15.279757
1719.000000	15.261510
1718.000000	15.254491
1717.000000	15.307011
1716.000000	15.318591
1715.000000	15.348652
1714.000000	15.386901
1713.000000	15.444801
1712.000000	15.410997
1711.000000	15.420822
1710.000000	15.408774
1709.000000	15.389240
1708.000000	15.346313
1707.000000	15.280108
1706.000000	15.253322
1705.000000	15.172145
1704.000000	15.099039
1703.000000	15.025932
1702.000000	14.857496
1701.000000	14.724501
1700.000000	14.572558
1699.000000	14.426697
1698.000000	14.301422
1697.000000	14.253230
1696.000000	14.228199
1695.000000	14.282473
1694.000000	14.377452
1693.000000	14.525887
1692.000000	14.684381
1691.000000	14.812112
1690.000000	14.930485
1689.000000	14.978677
1688.000000	14.978794
1687.000000	14.971542
1686.000000	14.952125
1685.000000	15.021371
1684.000000	15.184660
1683.000000	15.505508
1682.000000	15.915370
1681.000000	16.453314
1680.000000	17.013014
1679.000000	17.570258
1678.000000	18.136977
1677.000000	18.631057
1676.000000	19.074957
1675.000000	19.438967
1674.000000	19.754551
1673.000000	20.049783
1672.000000	20.298109
1671.000000	20.524797
1670.000000	20.702708
1669.000000	20.842721
1668.000000	20.979575
1667.000000	21.089644
1666.000000	21.218427
1665.000000	21.287907
1664.000000	21.360896
1663.000000	21.422540
1662.000000	21.484767
1661.000000	21.530386
1660.000000	21.540796
1659.000000	21.572846
1658.000000	21.594251
1657.000000	21.601503
1656.000000	21.608872
1655.000000	21.617762
1654.000000	21.605012
1653.000000	21.575770
1652.000000	21.553429
1651.000000	21.528397
1650.000000	21.479738
1649.000000	21.434237
1648.000000	21.405462
1647.000000	21.363236
1646.000000	21.304517
1645.000000	21.251296
1644.000000	21.198893
1643.000000	21.135262
1642.000000	21.094907
1641.000000	21.034317
1640.000000	20.964603
1639.000000	20.920038
1638.000000	20.822368
1637.000000	20.763883
1636.000000	20.690192
1635.000000	20.604570
1634.000000	20.548308
1633.000000	20.483857
1632.000000	20.399873
1631.000000	20.314134
1630.000000	20.254480
1629.000000	20.169209
1628.000000	20.080663
1627.000000	19.981706
1626.000000	19.904389
1625.000000	19.821809
1624.000000	19.753147
1623.000000	19.682615
1622.000000	19.616059
1621.000000	19.531139
1620.000000	19.451366
1619.000000	19.359778
1618.000000	19.291000
1617.000000	19.211812
1616.000000	19.144086
1615.000000	19.070863
1614.000000	18.992376
1613.000000	18.939506
1612.000000	18.865698
1611.000000	18.798557
1610.000000	18.737850
1609.000000	18.679248
1608.000000	18.613277
1607.000000	18.533621
1606.000000	18.468586
1605.000000	18.421915
1604.000000	18.360623
1603.000000	18.300149
1602.000000	18.242015
1601.000000	18.174290
1600.000000	18.123408
1599.000000	18.064104
1598.000000	18.001409
1597.000000	17.954270
1596.000000	17.913330
1595.000000	17.876134
1594.000000	17.847360
1593.000000	17.799168
1592.000000	17.749339
1591.000000	17.714599
1590.000000	17.688164
1589.000000	17.648745
1588.000000	17.609677
1587.000000	17.599501
