PE UV       SUBTECH     SPECTRUM    ASCII       PEDS        4.00        
   -1
INBUCR0145-1.Sample.ASC
24/04/29
14:37:06.00
24/04/29
14:37:06.00
Vinicio Soto Monge
C. kalinini
250,000000
1
Lambda 1050
1050L1511233
PerkinElmer UV WinLab 6.3.2.0749 / 2.02.05 Lambda 900 UV/VIS/NIR, Aug  7 2015 09:38:08

0
0
3350/servo 860,8/2
0
0
UV/VIS
1
1
1
DoubleDePol,CommonBeamDepol,RBeamAtt,SBeamAtt,60mm sphere, WB InGaAs Detector
0
0
0
0
Program
Program
3350/servo 860,8/2
3350/0,2 860,8/0,2
3350/0,2 860,8/0,2
0
15.00
 
 
 
0
 
860,8
319,2
860,8
Front
100
on
S:100 R:100
0
0
0
0
 
0
 
 
 
0
 
 
0
0
0
0
0
 
 
 
 
0
0


0
0
#HDR
-1
-1
#GR
nm
%R
1.0
0.0
2500,000000
-1,000000
2251
8
92,587400
6,268400
#DATA
2482.000000	17.033084
2481.000000	17.160057
2480.000000	17.177485
2479.000000	17.172053
2478.000000	17.261115
2477.000000	17.167300
2476.000000	17.269150
2475.000000	17.309890
2474.000000	17.312267
2473.000000	17.412985
2472.000000	17.399632
2471.000000	17.443088
2470.000000	17.534640
2469.000000	17.548672
2468.000000	17.655615
2467.000000	17.703485
2466.000000	17.711746
2465.000000	17.769235
2464.000000	17.876064
2463.000000	17.913749
2462.000000	18.007451
2461.000000	18.070032
2460.000000	18.163621
2459.000000	18.223713
2458.000000	18.316623
2457.000000	18.397876
2456.000000	18.487957
2455.000000	18.578604
2454.000000	18.703087
2453.000000	18.797242
2452.000000	18.900337
2451.000000	18.990984
2450.000000	19.148286
2449.000000	19.249570
2448.000000	19.359116
2447.000000	19.474320
2446.000000	19.589750
2445.000000	19.709594
2444.000000	19.851844
2443.000000	19.988550
2442.000000	20.112694
2441.000000	20.214884
2440.000000	20.341744
2439.000000	20.493387
2438.000000	20.628735
2437.000000	20.715194
2436.000000	20.830285
2435.000000	20.956806
2434.000000	21.073820
2433.000000	21.178726
2432.000000	21.290648
2431.000000	21.420563
2430.000000	21.537917
2429.000000	21.633543
2428.000000	21.730641
2427.000000	21.834754
2426.000000	21.949279
2425.000000	22.041284
2424.000000	22.118237
2423.000000	22.220087
2422.000000	22.310055
2421.000000	22.379087
2420.000000	22.451966
2419.000000	22.531749
2418.000000	22.598970
2417.000000	22.662117
2416.000000	22.736354
2415.000000	22.791919
2414.000000	22.859141
2413.000000	22.930775
2412.000000	22.963820
2411.000000	23.008408
2410.000000	23.064878
2409.000000	23.101883
2408.000000	23.115577
2407.000000	23.171368
2406.000000	23.219690
2405.000000	23.234402
2404.000000	23.272652
2403.000000	23.301170
2402.000000	23.331952
2401.000000	23.347795
2400.000000	23.390459
2399.000000	23.445119
2398.000000	23.485632
2397.000000	23.493667
2396.000000	23.498646
2395.000000	23.506908
2394.000000	23.532144
2393.000000	23.563152
2392.000000	23.562133
2391.000000	23.570055
2390.000000	23.590085
2389.000000	23.580579
2388.000000	23.578316
2387.000000	23.586351
2386.000000	23.588954
2385.000000	23.574129
2384.000000	23.575374
2383.000000	23.568584
2382.000000	23.544140
2381.000000	23.536105
2380.000000	23.513245
2379.000000	23.491970
2378.000000	23.487443
2377.000000	23.468997
2376.000000	23.431765
2375.000000	23.400304
2374.000000	23.386159
2373.000000	23.382764
2372.000000	23.360809
2371.000000	23.338402
2370.000000	23.337610
2369.000000	23.320069
2368.000000	23.300604
2367.000000	23.283290
2366.000000	23.265749
2365.000000	23.255111
2364.000000	23.248887
2363.000000	23.246398
2362.000000	23.229083
2361.000000	23.200565
2360.000000	23.189588
2359.000000	23.195586
2358.000000	23.170576
2357.000000	23.145453
2356.000000	23.135607
2355.000000	23.098488
2354.000000	23.061822
2353.000000	23.054014
2352.000000	23.048582
2351.000000	23.023798
2350.000000	22.999354
2349.000000	22.970270
2348.000000	22.954767
2347.000000	22.935415
2346.000000	22.913234
2345.000000	22.865704
2344.000000	22.829491
2343.000000	22.836620
2342.000000	22.832659
2341.000000	22.821116
2340.000000	22.819532
2339.000000	22.796672
2338.000000	22.774492
2337.000000	22.764646
2336.000000	22.768154
2335.000000	22.773360
2334.000000	22.781395
2333.000000	22.784337
2332.000000	22.789430
2331.000000	22.804028
2330.000000	22.811950
2329.000000	22.851332
2328.000000	22.861857
2327.000000	22.880190
2326.000000	22.922061
2325.000000	22.959520
2324.000000	22.968686
2323.000000	22.975816
2322.000000	22.991546
2321.000000	22.999467
2320.000000	23.008521
2319.000000	23.006257
2318.000000	23.015650
2317.000000	23.002297
2316.000000	22.976042
2315.000000	22.951032
2314.000000	22.928738
2313.000000	22.903049
2312.000000	22.877587
2311.000000	22.840128
2310.000000	22.785808
2309.000000	22.749821
2308.000000	22.729678
2307.000000	22.695049
2306.000000	22.632807
2305.000000	22.596820
2304.000000	22.583353
2303.000000	22.552685
2302.000000	22.528580
2301.000000	22.527562
2300.000000	22.516811
2299.000000	22.505381
2298.000000	22.484558
2297.000000	22.500288
2296.000000	22.511152
2295.000000	22.516698
2294.000000	22.524506
2293.000000	22.538086
2292.000000	22.550421
2291.000000	22.560719
2290.000000	22.605307
2289.000000	22.651932
2288.000000	22.675923
2287.000000	22.739636
2286.000000	22.736581
2285.000000	22.781395
2284.000000	22.835715
2283.000000	22.885395
2282.000000	22.935528
2281.000000	22.964273
2280.000000	23.001504
2279.000000	23.092377
2278.000000	23.114105
2277.000000	23.135720
2276.000000	23.171255
2275.000000	23.219464
2274.000000	23.253640
2273.000000	23.286911
2272.000000	23.303207
2271.000000	23.374842
2270.000000	23.411847
2269.000000	23.459717
2268.000000	23.518451
2267.000000	23.585445
2266.000000	23.668963
2265.000000	23.740597
2264.000000	23.827849
2263.000000	23.932755
2262.000000	24.062331
2261.000000	24.188625
2260.000000	24.327707
2259.000000	24.473353
2258.000000	24.643782
2257.000000	24.807195
2256.000000	24.977964
2255.000000	25.160615
2254.000000	25.343606
2253.000000	25.537574
2252.000000	25.718980
2251.000000	25.897105
2250.000000	26.067647
2249.000000	26.262860
2248.000000	26.439740
2247.000000	26.614243
2246.000000	26.742348
2245.000000	26.886636
2244.000000	27.053783
2243.000000	27.170685
2242.000000	27.286907
2241.000000	27.382986
2240.000000	27.457902
2239.000000	27.560205
2238.000000	27.614978
2237.000000	27.676541
2236.000000	27.704040
2235.000000	27.724523
2234.000000	27.756550
2233.000000	27.786539
2232.000000	27.764132
2231.000000	27.755531
2230.000000	27.716149
2229.000000	27.688536
2228.000000	27.659566
2227.000000	27.623126
2226.000000	27.556357
2225.000000	27.487892
2224.000000	27.402224
2223.000000	27.323913
2222.000000	27.247638
2221.000000	27.171251
2220.000000	27.070193
2219.000000	26.974453
2218.000000	26.867511
2217.000000	26.779354
2216.000000	26.717904
2215.000000	26.603379
2214.000000	26.507414
2213.000000	26.427744
2212.000000	26.340945
2211.000000	26.254146
2210.000000	26.190320
2209.000000	26.107143
2208.000000	26.048862
2207.000000	25.974624
2206.000000	25.917928
2205.000000	25.853649
2204.000000	25.781788
2203.000000	25.757570
2202.000000	25.703137
2201.000000	25.657191
2200.000000	25.589970
2199.000000	25.547985
2198.000000	25.500229
2197.000000	25.464242
2196.000000	25.454170
2195.000000	25.413430
2194.000000	25.374727
2193.000000	25.333647
2192.000000	25.305921
2191.000000	25.275819
2190.000000	25.256015
2189.000000	25.226252
2188.000000	25.193433
2187.000000	25.184380
2186.000000	25.144658
2185.000000	25.141377
2184.000000	25.115235
2183.000000	25.096449
2182.000000	25.058425
2181.000000	25.024475
2180.000000	25.017572
2179.000000	24.993015
2178.000000	24.982377
2177.000000	24.969929
2176.000000	24.969929
2175.000000	24.977398
2174.000000	24.977511
2173.000000	24.985772
2172.000000	24.988036
2171.000000	25.018930
2170.000000	25.050504
2169.000000	25.082643
2168.000000	25.108898
2167.000000	25.156994
2166.000000	25.209503
2165.000000	25.271179
2164.000000	25.330705
2163.000000	25.400642
2162.000000	25.473974
2161.000000	25.552512
2160.000000	25.650288
2159.000000	25.735842
2158.000000	25.838598
2157.000000	25.946672
2156.000000	26.061989
2155.000000	26.186020
2154.000000	26.307335
2153.000000	26.445964
2152.000000	26.584594
2151.000000	26.707832
2150.000000	26.860042
2149.000000	27.010327
2148.000000	27.138206
2147.000000	27.279099
2146.000000	27.433006
2145.000000	27.575370
2144.000000	27.719091
2143.000000	27.855458
2142.000000	27.995105
2141.000000	28.132490
2140.000000	28.270101
2139.000000	28.400016
2138.000000	28.520200
2137.000000	28.628161
2136.000000	28.757058
2135.000000	28.868414
2134.000000	28.975244
2133.000000	29.094069
2132.000000	29.185621
2131.000000	29.292790
2130.000000	29.387850
2129.000000	29.465596
2128.000000	29.543681
2127.000000	29.620295
2126.000000	29.707094
2125.000000	29.755982
2124.000000	29.821392
2123.000000	29.898685
2122.000000	29.946781
2121.000000	30.001780
2120.000000	30.045349
2119.000000	30.092880
2118.000000	30.126943
2117.000000	30.154329
2116.000000	30.187940
2115.000000	30.196314
2114.000000	30.222116
2113.000000	30.245202
2112.000000	30.254821
2111.000000	30.261159
2110.000000	30.269533
2109.000000	30.278360
2108.000000	30.285716
2107.000000	30.290582
2106.000000	30.290016
2105.000000	30.298956
2104.000000	30.305746
2103.000000	30.294090
2102.000000	30.291261
2101.000000	30.300088
2100.000000	30.307444
2099.000000	30.315026
2098.000000	30.322495
2097.000000	30.321024
2096.000000	30.332114
2095.000000	30.362896
2094.000000	30.392206
2093.000000	30.403070
2092.000000	30.420611
2091.000000	30.448563
2090.000000	30.471423
2089.000000	30.509107
2088.000000	30.519405
2087.000000	30.528798
2086.000000	30.547018
2085.000000	30.531401
2084.000000	30.515784
2083.000000	30.499149
2082.000000	30.484776
2081.000000	30.459314
2080.000000	30.404315
2079.000000	30.349316
2078.000000	30.287527
2077.000000	30.204915
2076.000000	30.123208
2075.000000	30.033467
2074.000000	29.926977
2073.000000	29.813923
2072.000000	29.681292
2071.000000	29.567898
2070.000000	29.464464
2069.000000	29.315650
2068.000000	29.156311
2067.000000	29.002856
2066.000000	28.866490
2065.000000	28.723787
2064.000000	28.585723
2063.000000	28.437362
2062.000000	28.296695
2061.000000	28.165422
2060.000000	28.045804
2059.000000	27.947349
2058.000000	27.865982
2057.000000	27.787218
2056.000000	27.728711
2055.000000	27.704040
2054.000000	27.699174
2053.000000	27.718752
2052.000000	27.762661
2051.000000	27.829542
2050.000000	27.940219
2049.000000	28.060742
2048.000000	28.229021
2047.000000	28.373535
2046.000000	28.532988
2045.000000	28.720958
2044.000000	28.927261
2043.000000	29.129943
2042.000000	29.322440
2041.000000	29.525008
2040.000000	29.724069
2039.000000	29.921658
2038.000000	30.133846
2037.000000	30.302465
2036.000000	30.473686
2035.000000	30.641852
2034.000000	30.828351
2033.000000	30.974223
2032.000000	31.136731
2031.000000	31.271060
2030.000000	31.410255
2029.000000	31.549677
2028.000000	31.644058
2027.000000	31.781216
2026.000000	31.902191
2025.000000	32.002797
2024.000000	32.080995
2023.000000	32.179111
2022.000000	32.277453
2021.000000	32.340147
2020.000000	32.425249
2019.000000	32.495525
2018.000000	32.573497
2017.000000	32.609711
2016.000000	32.642868
2015.000000	32.699339
2014.000000	32.741776
2013.000000	32.750377
2012.000000	32.759657
2011.000000	32.765881
2010.000000	32.782630
2009.000000	32.775274
2008.000000	32.777763
2007.000000	32.749924
2006.000000	32.720048
2005.000000	32.660975
2004.000000	32.630646
2003.000000	32.572252
2002.000000	32.518611
2001.000000	32.455351
2000.000000	32.394241
1999.000000	32.310045
1998.000000	32.228791
1997.000000	32.153195
1996.000000	32.060285
1995.000000	31.967941
1994.000000	31.846400
1993.000000	31.770012
1992.000000	31.658543
1991.000000	31.519574
1990.000000	31.430965
1989.000000	31.334207
1988.000000	31.197954
1987.000000	31.083203
1986.000000	30.956343
1985.000000	30.830162
1984.000000	30.703415
1983.000000	30.593303
1982.000000	30.481381
1981.000000	30.365612
1980.000000	30.254482
1979.000000	30.116645
1978.000000	30.009136
1977.000000	29.865188
1976.000000	29.752134
1975.000000	29.643494
1974.000000	29.529988
1973.000000	29.438322
1972.000000	29.316329
1971.000000	29.208481
1970.000000	29.111157
1969.000000	29.014060
1968.000000	28.900553
1967.000000	28.791687
1966.000000	28.688818
1965.000000	28.582894
1964.000000	28.490210
1963.000000	28.385984
1962.000000	28.257313
1961.000000	28.164969
1960.000000	28.028376
1959.000000	27.923810
1958.000000	27.802043
1957.000000	27.706190
1956.000000	27.575143
1955.000000	27.463674
1954.000000	27.371896
1953.000000	27.248770
1952.000000	27.145109
1951.000000	27.048578
1950.000000	26.924094
1949.000000	26.868303
1948.000000	26.758192
1947.000000	26.672864
1946.000000	26.591723
1945.000000	26.530953
1944.000000	26.465316
1943.000000	26.393568
1942.000000	26.357355
1941.000000	26.295905
1940.000000	26.274403
1939.000000	26.270556
1938.000000	26.229816
1937.000000	26.226081
1936.000000	26.251770
1935.000000	26.261276
1934.000000	26.312880
1933.000000	26.331779
1932.000000	26.394926
1931.000000	26.460110
1930.000000	26.564676
1929.000000	26.660302
1928.000000	26.799611
1927.000000	26.930205
1926.000000	27.064534
1925.000000	27.220705
1924.000000	27.385023
1923.000000	27.550246
1922.000000	27.776241
1921.000000	28.050444
1920.000000	28.301109
1919.000000	28.540004
1918.000000	28.816018
1917.000000	29.107309
1916.000000	29.370196
1915.000000	29.693287
1914.000000	30.103970
1913.000000	30.534570
1912.000000	30.952948
1911.000000	31.330472
1910.000000	31.750887
1909.000000	32.151385
1908.000000	32.606995
1907.000000	33.128354
1906.000000	33.763786
1905.000000	34.409290
1904.000000	35.002963
1903.000000	35.613725
1902.000000	36.243838
1901.000000	36.903488
1900.000000	37.655821
1899.000000	38.423658
1898.000000	39.109110
1897.000000	39.798409
1896.000000	40.419808
1895.000000	41.048450
1894.000000	41.714211
1893.000000	42.422183
1892.000000	43.201563
1891.000000	43.942919
1890.000000	44.643422
1889.000000	45.286323
1888.000000	45.891879
1887.000000	46.458958
1886.000000	47.017663
1885.000000	47.613713
1884.000000	48.170720
1883.000000	48.652245
1882.000000	49.130149
1881.000000	49.576366
1880.000000	49.947553
1879.000000	50.312742
1878.000000	50.705658
1877.000000	51.057380
1876.000000	51.373455
1875.000000	51.681609
1874.000000	51.997458
1873.000000	52.304140
1872.000000	52.558878
1871.000000	52.801961
1870.000000	53.000795
1869.000000	53.194650
1868.000000	53.328526
1867.000000	53.428113
1866.000000	53.509027
1865.000000	53.615517
1864.000000	53.707183
1863.000000	53.800658
1862.000000	53.932498
1861.000000	54.043288
1860.000000	54.137896
1859.000000	54.205683
1858.000000	54.272338
1857.000000	54.326205
1856.000000	54.353365
1855.000000	54.417418
1854.000000	54.454989
1853.000000	54.466759
1852.000000	54.489618
1851.000000	54.524247
1850.000000	54.558650
1849.000000	54.578454
1848.000000	54.592826
1847.000000	54.559103
1846.000000	54.501388
1845.000000	54.450576
1844.000000	54.421152
1843.000000	54.435638
1842.000000	54.455555
1841.000000	54.424095
1840.000000	54.380073
1839.000000	54.335485
1838.000000	54.284334
1837.000000	54.236124
1836.000000	54.167432
1835.000000	54.078483
1834.000000	54.006735
1833.000000	53.967580
1832.000000	53.932950
1831.000000	53.904772
1830.000000	53.885194
1829.000000	53.848867
1828.000000	53.784023
1827.000000	53.735248
1826.000000	53.719065
1825.000000	53.696884
1824.000000	53.696319
1823.000000	53.724837
1822.000000	53.763879
1821.000000	53.795113
1820.000000	53.782552
1819.000000	53.747017
1818.000000	53.719405
1817.000000	53.702656
1816.000000	53.712841
1815.000000	53.689415
1814.000000	53.671535
1813.000000	53.674138
1812.000000	53.650260
1811.000000	53.603182
1810.000000	53.556444
1809.000000	53.538451
1808.000000	53.530982
1807.000000	53.514459
1806.000000	53.475983
1805.000000	53.440561
1804.000000	53.429697
1803.000000	53.413062
1802.000000	53.393371
1801.000000	53.355686
1800.000000	53.316983
1799.000000	53.299556
1798.000000	53.287107
1797.000000	53.260173
1796.000000	53.233013
1795.000000	53.211512
1794.000000	53.190010
1793.000000	53.168282
1792.000000	53.154589
1791.000000	53.150628
1790.000000	53.151081
1789.000000	53.156626
1788.000000	53.153004
1787.000000	53.156965
1786.000000	53.179259
1785.000000	53.176996
1784.000000	53.166924
1783.000000	53.165000
1782.000000	53.164887
1781.000000	53.149949
1780.000000	53.106832
1779.000000	53.090876
1778.000000	53.056134
1777.000000	53.019128
1776.000000	52.961866
1775.000000	52.907545
1774.000000	52.857978
1773.000000	52.810109
1772.000000	52.739493
1771.000000	52.672837
1770.000000	52.629268
1769.000000	52.575853
1768.000000	52.532397
1767.000000	52.479775
1766.000000	52.422852
1765.000000	52.393315
1764.000000	52.381206
1763.000000	52.351444
1762.000000	52.321115
1761.000000	52.296784
1760.000000	52.277206
1759.000000	52.265210
1758.000000	52.282072
1757.000000	52.270077
1756.000000	52.275509
1755.000000	52.241332
1754.000000	52.237258
1753.000000	52.215417
1752.000000	52.199008
1751.000000	52.181241
1750.000000	52.121941
1749.000000	52.055852
1748.000000	52.008548
1747.000000	51.935216
1746.000000	51.857357
1745.000000	51.762410
1744.000000	51.648904
1743.000000	51.561312
1742.000000	51.460028
1741.000000	51.346069
1740.000000	51.247953
1739.000000	51.166926
1738.000000	51.071300
1737.000000	50.982124
1736.000000	50.916488
1735.000000	50.857301
1734.000000	50.798681
1733.000000	50.716522
1732.000000	50.664578
1731.000000	50.606863
1730.000000	50.530589
1729.000000	50.486227
1728.000000	50.418327
1727.000000	50.372268
1726.000000	50.329378
1725.000000	50.320664
1724.000000	50.325304
1723.000000	50.387206
1722.000000	50.510332
1721.000000	50.656204
1720.000000	50.868279
1719.000000	51.125960
1718.000000	51.405029
1717.000000	51.696321
1716.000000	51.953549
1715.000000	52.220396
1714.000000	52.470269
1713.000000	52.710182
1712.000000	52.913543
1711.000000	53.081257
1710.000000	53.259381
1709.000000	53.392126
1708.000000	53.543656
1707.000000	53.613480
1706.000000	53.698356
1705.000000	53.782439
1704.000000	53.828950
1703.000000	53.874217
1702.000000	53.908620
1701.000000	53.920502
1700.000000	53.941098
1699.000000	53.962147
1698.000000	53.932158
1697.000000	53.925708
1696.000000	53.918691
1695.000000	53.852262
1694.000000	53.778478
1693.000000	53.682512
1692.000000	53.598316
1691.000000	53.501332
1690.000000	53.488318
1689.000000	53.475530
1688.000000	53.531661
1687.000000	53.641659
1686.000000	53.820123
1685.000000	54.027332
1684.000000	54.291689
1683.000000	54.566572
1682.000000	54.860240
1681.000000	55.128106
1680.000000	55.418492
1679.000000	55.692356
1678.000000	55.919368
1677.000000	56.178521
1676.000000	56.425224
1675.000000	56.639902
1674.000000	56.854693
1673.000000	57.070954
1672.000000	57.302381
1671.000000	57.523169
1670.000000	57.763309
1669.000000	57.965312
1668.000000	58.169126
1667.000000	58.413000
1666.000000	58.606516
1665.000000	58.788262
1664.000000	58.980419
1663.000000	59.134099
1662.000000	59.303058
1661.000000	59.438066
1660.000000	59.585635
1659.000000	59.701292
1658.000000	59.835055
1657.000000	59.933397
1656.000000	59.998242
1655.000000	60.075308
1654.000000	60.126573
1653.000000	60.167879
1652.000000	60.215975
1651.000000	60.240532
1650.000000	60.249925
1649.000000	60.272558
1648.000000	60.251622
1647.000000	60.264636
1646.000000	60.252188
1645.000000	60.240192
1644.000000	60.236118
1643.000000	60.224802
1642.000000	60.228197
1641.000000	60.224689
1640.000000	60.223444
1639.000000	60.220615
1638.000000	60.209637
1637.000000	60.192549
1636.000000	60.176932
1635.000000	60.157581
1634.000000	60.133929
1633.000000	60.093302
1632.000000	60.044414
1631.000000	60.011595
1630.000000	59.975042
1629.000000	59.930228
1628.000000	59.883830
1627.000000	59.835281
1626.000000	59.785375
1625.000000	59.758894
1624.000000	59.686693
1623.000000	59.646293
1622.000000	59.604534
1621.000000	59.561983
1620.000000	59.530976
1619.000000	59.504155
1618.000000	59.452664
1617.000000	59.418488
1616.000000	59.396760
1615.000000	59.339158
1614.000000	59.287780
1613.000000	59.243532
1612.000000	59.185930
1611.000000	59.118935
1610.000000	59.057599
1609.000000	58.990264
1608.000000	58.918177
1607.000000	58.831944
1606.000000	58.749898
