PE UV       SUBTECH     SPECTRUM    ASCII       PEDS        4.00        
   -1
CICIMAUCR0214-2.ASC
24/06/12
16:47:15.00
24/06/12
16:47:15.00
Vinicio Soto Monge
C. cupreomarginata. Sex M. Dorsal.
250,000000
1
Lambda 1050
1050L1511233
PerkinElmer UV WinLab 6.3.2.0749 / 2.02.05 Lambda 900 UV/VIS/NIR, Aug  7 2015 09:38:08

0
0
3350/servo 860,8/2
0
0
UV/VIS
1
1
1
DoubleDePol,CommonBeamDepol,RBeamAtt,SBeamAtt,60mm sphere, WB InGaAs Detector
0
0
0
0
Program
Program
3350/servo 860,8/2
3350/0,2 860,8/0,2
3350/0,2 860,8/0,2
0
15.00
 
 
 
0
 
860,8
319,2
860,8
Front
100
on
S:100 R:100
0
0
0
0
 
0
 
 
 
0
 
 
0
0
0
0
0
 
 
 
 
0
0


0
0
#HDR
-1
-1
#GR
nm
%R
1.0
0.0
2500,000000
-1,000000
2251
8
71,600900
6,115900
#DATA
2482.000000	14.582042
2481.000000	14.637347
2480.000000	14.537578
2479.000000	14.510276
2478.000000	14.431585
2477.000000	14.421548
2476.000000	14.486488
2475.000000	14.585355
2474.000000	14.510979
2473.000000	14.502749
2472.000000	14.631425
2471.000000	14.503953
2470.000000	14.626507
2469.000000	14.719753
2468.000000	14.625905
2467.000000	14.664649
2466.000000	14.737920
2465.000000	14.694559
2464.000000	14.742537
2463.000000	14.758697
2462.000000	14.796838
2461.000000	14.849233
2460.000000	14.936556
2459.000000	14.943883
2458.000000	15.050177
2457.000000	15.091531
2456.000000	15.176345
2455.000000	15.304721
2454.000000	15.415030
2453.000000	15.526643
2452.000000	15.560669
2451.000000	15.672484
2450.000000	15.771752
2449.000000	15.901432
2448.000000	16.019068
2447.000000	16.100972
2446.000000	16.217604
2445.000000	16.355013
2444.000000	16.496437
2443.000000	16.575832
2442.000000	16.708423
2441.000000	16.774468
2440.000000	16.896119
2439.000000	16.987357
2438.000000	17.099773
2437.000000	17.223833
2436.000000	17.332034
2435.000000	17.420462
2434.000000	17.523544
2433.000000	17.647403
2432.000000	17.720775
2431.000000	17.836905
2430.000000	17.925835
2429.000000	18.021289
2428.000000	18.060735
2427.000000	18.120456
2426.000000	18.219523
2425.000000	18.296709
2424.000000	18.347096
2423.000000	18.442349
2422.000000	18.495446
2421.000000	18.575844
2420.000000	18.627937
2419.000000	18.696692
2418.000000	18.766350
2417.000000	18.814328
2416.000000	18.849558
2415.000000	18.909781
2414.000000	18.961774
2413.000000	19.009451
2412.000000	19.036451
2411.000000	19.066864
2410.000000	19.116447
2409.000000	19.150473
2408.000000	19.159407
2407.000000	19.201462
2406.000000	19.222340
2405.000000	19.262890
2404.000000	19.292399
2403.000000	19.321909
2402.000000	19.366073
2401.000000	19.374303
2400.000000	19.401403
2399.000000	19.419571
2398.000000	19.445467
2397.000000	19.480697
2396.000000	19.521649
2395.000000	19.551660
2394.000000	19.590705
2393.000000	19.590906
2392.000000	19.601947
2391.000000	19.633162
2390.000000	19.659460
2389.000000	19.667490
2388.000000	19.668293
2387.000000	19.692984
2386.000000	19.710148
2385.000000	19.733936
2384.000000	19.714163
2383.000000	19.693486
2382.000000	19.686259
2381.000000	19.689973
2380.000000	19.664278
2379.000000	19.644103
2378.000000	19.639988
2377.000000	19.636776
2376.000000	19.600642
2375.000000	19.586891
2374.000000	19.573742
2373.000000	19.548047
2372.000000	19.517333
2371.000000	19.489229
2370.000000	19.470760
2369.000000	19.454801
2368.000000	19.422883
2367.000000	19.404916
2366.000000	19.387753
2365.000000	19.339173
2364.000000	19.286176
2363.000000	19.242816
2362.000000	19.211399
2361.000000	19.189518
2360.000000	19.147663
2359.000000	19.080916
2358.000000	19.036150
2357.000000	18.998310
2356.000000	18.932164
2355.000000	18.895027
2354.000000	18.867826
2353.000000	18.839019
2352.000000	18.813424
2351.000000	18.786224
2350.000000	18.784116
2349.000000	18.781606
2348.000000	18.769662
2347.000000	18.775484
2346.000000	18.798770
2345.000000	18.817138
2344.000000	18.824766
2343.000000	18.844138
2342.000000	18.876358
2341.000000	18.900547
2340.000000	18.911488
2339.000000	18.927447
2338.000000	18.942402
2337.000000	18.961473
2336.000000	18.966291
2335.000000	18.959967
2334.000000	18.945915
2333.000000	18.931964
2332.000000	18.912793
2331.000000	18.887499
2330.000000	18.867926
2329.000000	18.840123
2328.000000	18.811216
2327.000000	18.773075
2326.000000	18.728309
2325.000000	18.708235
2324.000000	18.660056
2323.000000	18.595918
2322.000000	18.551052
2321.000000	18.478182
2320.000000	18.402100
2319.000000	18.328327
2318.000000	18.225947
2317.000000	18.130794
2316.000000	18.052705
2315.000000	17.952534
2314.000000	17.846039
2313.000000	17.739846
2312.000000	17.644392
2311.000000	17.544923
2310.000000	17.462317
2309.000000	17.392659
2308.000000	17.304934
2307.000000	17.246517
2306.000000	17.217710
2305.000000	17.175454
2304.000000	17.156484
2303.000000	17.156684
2302.000000	17.168930
2301.000000	17.187197
2300.000000	17.232164
2299.000000	17.263982
2298.000000	17.337053
2297.000000	17.393863
2296.000000	17.431704
2295.000000	17.501261
2294.000000	17.583466
2293.000000	17.640979
2292.000000	17.698593
2291.000000	17.757411
2290.000000	17.791838
2289.000000	17.822552
2288.000000	17.880065
2287.000000	17.899939
2286.000000	17.900943
2285.000000	17.906062
2284.000000	17.915697
2283.000000	17.911381
2282.000000	17.906262
2281.000000	17.877957
2280.000000	17.849853
2279.000000	17.835902
2278.000000	17.808600
2277.000000	17.785615
2276.000000	17.748076
2275.000000	17.734526
2274.000000	17.708429
2273.000000	17.684039
2272.000000	17.682533
2271.000000	17.676210
2270.000000	17.692972
2269.000000	17.720474
2268.000000	17.752091
2267.000000	17.801474
2266.000000	17.893816
2265.000000	17.977326
2264.000000	18.105601
2263.000000	18.236486
2262.000000	18.378513
2261.000000	18.536699
2260.000000	18.733026
2259.000000	18.933570
2258.000000	19.137726
2257.000000	19.369586
2256.000000	19.584181
2255.000000	19.841234
2254.000000	20.052918
2253.000000	20.284577
2252.000000	20.522257
2251.000000	20.728120
2250.000000	20.980456
2249.000000	21.173170
2248.000000	21.361769
2247.000000	21.566829
2246.000000	21.730937
2245.000000	21.916625
2244.000000	22.054737
2243.000000	22.196763
2242.000000	22.304964
2241.000000	22.432437
2240.000000	22.532608
2239.000000	22.610898
2238.000000	22.711672
2237.000000	22.787352
2236.000000	22.860323
2235.000000	22.911512
2234.000000	22.948349
2233.000000	22.997330
2232.000000	23.027944
2231.000000	23.045007
2230.000000	23.058658
2229.000000	23.049524
2228.000000	23.030252
2227.000000	23.023527
2226.000000	23.012486
2225.000000	22.989301
2224.000000	22.971635
2223.000000	22.916430
2222.000000	22.882505
2221.000000	22.851289
2220.000000	22.768884
2219.000000	22.732348
2218.000000	22.644523
2217.000000	22.616820
2216.000000	22.566032
2215.000000	22.491656
2214.000000	22.421295
2213.000000	22.374422
2212.000000	22.321124
2211.000000	22.261303
2210.000000	22.220652
2209.000000	22.168057
2208.000000	22.108837
2207.000000	22.094384
2206.000000	22.043997
2205.000000	22.025830
2204.000000	21.985079
2203.000000	21.951755
2202.000000	21.922949
2201.000000	21.888119
2200.000000	21.883803
2199.000000	21.856101
2198.000000	21.826893
2197.000000	21.809227
2196.000000	21.795878
2195.000000	21.793770
2194.000000	21.771889
2193.000000	21.755327
2192.000000	21.740372
2191.000000	21.731338
2190.000000	21.715480
2189.000000	21.708955
2188.000000	21.686673
2187.000000	21.692796
2186.000000	21.670714
2185.000000	21.655758
2184.000000	21.631870
2183.000000	21.635985
2182.000000	21.615409
2181.000000	21.596238
2180.000000	21.574758
2179.000000	21.560706
2178.000000	21.557896
2177.000000	21.542940
2176.000000	21.540331
2175.000000	21.534107
2174.000000	21.531598
2173.000000	21.542238
2172.000000	21.538725
2171.000000	21.544847
2170.000000	21.554985
2169.000000	21.577870
2168.000000	21.591520
2167.000000	21.619524
2166.000000	21.635584
2165.000000	21.670112
2164.000000	21.690186
2163.000000	21.735454
2162.000000	21.783231
2161.000000	21.816153
2160.000000	21.857506
2159.000000	21.895547
2158.000000	21.978254
2157.000000	22.029644
2156.000000	22.110042
2155.000000	22.181306
2154.000000	22.256585
2153.000000	22.343507
2152.000000	22.425611
2151.000000	22.515746
2150.000000	22.599255
2149.000000	22.673028
2148.000000	22.748609
2147.000000	22.825092
2146.000000	22.904285
2145.000000	22.986189
2144.000000	23.052736
2143.000000	23.126911
2142.000000	23.205703
2141.000000	23.278071
2140.000000	23.364391
2139.000000	23.429934
2138.000000	23.499291
2137.000000	23.586715
2136.000000	23.638607
2135.000000	23.707763
2134.000000	23.743897
2133.000000	23.794585
2132.000000	23.851697
2131.000000	23.904994
2130.000000	23.947251
2129.000000	23.993522
2128.000000	24.043206
2127.000000	24.068701
2126.000000	24.093292
2125.000000	24.133140
2124.000000	24.164657
2123.000000	24.170578
2122.000000	24.193162
2121.000000	24.208720
2120.000000	24.211329
2119.000000	24.225482
2118.000000	24.241943
2117.000000	24.237426
2116.000000	24.224177
2115.000000	24.231504
2114.000000	24.218657
2113.000000	24.200790
2112.000000	24.187039
2111.000000	24.172285
2110.000000	24.158032
2109.000000	24.136051
2108.000000	24.125010
2107.000000	24.108649
2106.000000	24.091385
2105.000000	24.069102
2104.000000	24.046218
2103.000000	24.024236
2102.000000	23.992318
2101.000000	23.964314
2100.000000	23.942433
2099.000000	23.920050
2098.000000	23.896964
2097.000000	23.888031
2096.000000	23.877593
2095.000000	23.866451
2094.000000	23.858321
2093.000000	23.844671
2092.000000	23.828109
2091.000000	23.813154
2090.000000	23.800105
2089.000000	23.782540
2088.000000	23.767786
2087.000000	23.755942
2086.000000	23.743596
2085.000000	23.721916
2084.000000	23.699533
2083.000000	23.681667
2082.000000	23.641618
2081.000000	23.601770
2080.000000	23.565436
2079.000000	23.530807
2078.000000	23.480220
2077.000000	23.406948
2076.000000	23.348833
2075.000000	23.299851
2074.000000	23.244145
2073.000000	23.165152
2072.000000	23.084453
2071.000000	23.011182
2070.000000	22.937007
2069.000000	22.858315
2068.000000	22.772698
2067.000000	22.692099
2066.000000	22.603571
2065.000000	22.506110
2064.000000	22.409753
2063.000000	22.327950
2062.000000	22.250964
2061.000000	22.175786
2060.000000	22.103016
2059.000000	22.038477
2058.000000	21.977651
2057.000000	21.929774
2056.000000	21.902673
2055.000000	21.877580
2054.000000	21.863227
2053.000000	21.864331
2052.000000	21.887618
2051.000000	21.920841
2050.000000	21.978254
2049.000000	22.046808
2048.000000	22.131120
2047.000000	22.221154
2046.000000	22.306570
2045.000000	22.434645
2044.000000	22.535820
2043.000000	22.646430
2042.000000	22.783839
2041.000000	22.901877
2040.000000	23.004156
2039.000000	23.115870
2038.000000	23.224673
2037.000000	23.344818
2036.000000	23.448804
2035.000000	23.529101
2034.000000	23.630176
2033.000000	23.723722
2032.000000	23.800507
2031.000000	23.869262
2030.000000	23.952169
2029.000000	24.020221
2028.000000	24.077132
2027.000000	24.143779
2026.000000	24.181720
2025.000000	24.228493
2024.000000	24.284099
2023.000000	24.343720
2022.000000	24.372025
2021.000000	24.399326
2020.000000	24.434758
2019.000000	24.462761
2018.000000	24.481330
2017.000000	24.498293
2016.000000	24.522784
2015.000000	24.537338
2014.000000	24.535732
2013.000000	24.545568
2012.000000	24.545367
2011.000000	24.528806
2010.000000	24.514453
2009.000000	24.508129
2008.000000	24.482133
2007.000000	24.442687
2006.000000	24.407055
2005.000000	24.391698
2004.000000	24.358174
2003.000000	24.308289
2002.000000	24.250675
2001.000000	24.206913
2000.000000	24.150705
1999.000000	24.088775
1998.000000	24.022831
1997.000000	23.964916
1996.000000	23.886827
1995.000000	23.799804
1994.000000	23.732756
1993.000000	23.664503
1992.000000	23.569049
1991.000000	23.477610
1990.000000	23.401829
1989.000000	23.319524
1988.000000	23.222164
1987.000000	23.136145
1986.000000	23.052836
1985.000000	22.936505
1984.000000	22.858616
1983.000000	22.762359
1982.000000	22.664095
1981.000000	22.573660
1980.000000	22.477705
1979.000000	22.374020
1978.000000	22.296433
1977.000000	22.193953
1976.000000	22.102614
1975.000000	22.019205
1974.000000	21.916525
1973.000000	21.838134
1972.000000	21.748502
1971.000000	21.646524
1970.000000	21.574858
1969.000000	21.463546
1968.000000	21.405230
1967.000000	21.304858
1966.000000	21.219943
1965.000000	21.142958
1964.000000	21.037567
1963.000000	20.979753
1962.000000	20.916719
1961.000000	20.812031
1960.000000	20.750503
1959.000000	20.642302
1958.000000	20.572443
1957.000000	20.493852
1956.000000	20.412250
1955.000000	20.330246
1954.000000	20.244528
1953.000000	20.196450
1952.000000	20.111134
1951.000000	20.022003
1950.000000	19.959773
1949.000000	19.906074
1948.000000	19.816542
1947.000000	19.784021
1946.000000	19.713962
1945.000000	19.681943
1944.000000	19.633062
1943.000000	19.592512
1942.000000	19.542125
1941.000000	19.531184
1940.000000	19.491638
1939.000000	19.465240
1938.000000	19.468352
1937.000000	19.473872
1936.000000	19.491036
1935.000000	19.491236
1934.000000	19.513117
1933.000000	19.540820
1932.000000	19.576553
1931.000000	19.608672
1930.000000	19.673813
1929.000000	19.750598
1928.000000	19.824271
1927.000000	19.910591
1926.000000	20.027424
1925.000000	20.121271
1924.000000	20.226260
1923.000000	20.366982
1922.000000	20.484216
1921.000000	20.639793
1920.000000	20.819760
1919.000000	21.019902
1918.000000	21.159419
1917.000000	21.377126
1916.000000	21.555386
1915.000000	21.712067
1914.000000	21.909198
1913.000000	22.173276
1912.000000	22.457229
1911.000000	22.724419
1910.000000	22.943832
1909.000000	23.188338
1908.000000	23.422205
1907.000000	23.681767
1906.000000	24.017612
1905.000000	24.369014
1904.000000	24.731959
1903.000000	25.066298
1902.000000	25.431050
1901.000000	25.783857
1900.000000	26.138773
1899.000000	26.544376
1898.000000	26.961221
1897.000000	27.405066
1896.000000	27.778851
1895.000000	28.126339
1894.000000	28.482559
1893.000000	28.870898
1892.000000	29.262851
1891.000000	29.738915
1890.000000	30.215783
1889.000000	30.669163
1888.000000	31.056799
1887.000000	31.498537
1886.000000	31.918192
1885.000000	32.352301
1884.000000	32.798053
1883.000000	33.279738
1882.000000	33.708527
1881.000000	34.135710
1880.000000	34.561890
1879.000000	34.947218
1878.000000	35.333048
1877.000000	35.718677
1876.000000	36.093265
1875.000000	36.434630
1874.000000	36.778505
1873.000000	37.115955
1872.000000	37.445577
1871.000000	37.718589
1870.000000	37.978050
1869.000000	38.230285
1868.000000	38.483122
1867.000000	38.633680
1866.000000	38.770788
1865.000000	38.891034
1864.000000	39.015596
1863.000000	39.118577
1862.000000	39.213529
1861.000000	39.344916
1860.000000	39.469377
1859.000000	39.585909
1858.000000	39.665002
1857.000000	39.737571
1856.000000	39.797694
1855.000000	39.819475
1854.000000	39.850992
1853.000000	39.901679
1852.000000	39.902884
1851.000000	39.936709
1850.000000	39.944839
1849.000000	39.965416
1848.000000	39.995025
1847.000000	40.016204
1846.000000	39.994925
1845.000000	39.946144
1844.000000	39.903687
1843.000000	39.865947
1842.000000	39.870564
1841.000000	39.895557
1840.000000	39.916735
1839.000000	39.895858
1838.000000	39.848783
1837.000000	39.812148
1836.000000	39.774107
1835.000000	39.754333
1834.000000	39.692203
1833.000000	39.620136
1832.000000	39.560716
1831.000000	39.518760
1830.000000	39.470983
1829.000000	39.443281
1828.000000	39.392091
1827.000000	39.331466
1826.000000	39.284091
1825.000000	39.238020
1824.000000	39.188536
1823.000000	39.156417
1822.000000	39.159730
1821.000000	39.182012
1820.000000	39.198373
1819.000000	39.177897
1818.000000	39.128815
1817.000000	39.087562
1816.000000	39.071703
1815.000000	39.060763
1814.000000	39.051328
1813.000000	39.029045
1812.000000	39.021919
1811.000000	38.999837
1810.000000	38.964305
1809.000000	38.921748
1808.000000	38.882402
1807.000000	38.865841
1806.000000	38.841952
1805.000000	38.798491
1804.000000	38.759245
1803.000000	38.733851
1802.000000	38.702535
1801.000000	38.662587
1800.000000	38.611799
1799.000000	38.557699
1798.000000	38.512832
1797.000000	38.465657
1796.000000	38.430226
1795.000000	38.398609
1794.000000	38.361170
1793.000000	38.325638
1792.000000	38.273847
1791.000000	38.227575
1790.000000	38.202783
1789.000000	38.176586
1788.000000	38.141657
1787.000000	38.104920
1786.000000	38.075913
1785.000000	38.040281
1784.000000	37.998325
1783.000000	37.960686
1782.000000	37.906585
1781.000000	37.858909
1780.000000	37.818459
1779.000000	37.767570
1778.000000	37.709957
1777.000000	37.650737
1776.000000	37.590213
1775.000000	37.520153
1774.000000	37.445878
1773.000000	37.371904
1772.000000	37.294919
1771.000000	37.219840
1770.000000	37.134022
1769.000000	37.038870
1768.000000	36.964795
1767.000000	36.887509
1766.000000	36.818453
1765.000000	36.757928
1764.000000	36.707943
1763.000000	36.680441
1762.000000	36.659865
1761.000000	36.660166
1760.000000	36.669902
1759.000000	36.705936
1758.000000	36.736148
1757.000000	36.758832
1756.000000	36.796270
1755.000000	36.830698
1754.000000	36.845252
1753.000000	36.873557
1752.000000	36.878776
1751.000000	36.883193
1750.000000	36.891122
1749.000000	36.866029
1748.000000	36.820259
1747.000000	36.780713
1746.000000	36.718884
1745.000000	36.635475
1744.000000	36.550259
1743.000000	36.461229
1742.000000	36.338173
1741.000000	36.202871
1740.000000	36.049302
1739.000000	35.906674
1738.000000	35.758324
1737.000000	35.623123
1736.000000	35.512011
1735.000000	35.402907
1734.000000	35.312170
1733.000000	35.255360
1732.000000	35.232876
1731.000000	35.219728
1730.000000	35.225549
1729.000000	35.243014
1728.000000	35.257367
1727.000000	35.307051
1726.000000	35.340475
1725.000000	35.372795
1724.000000	35.393170
1723.000000	35.426293
1722.000000	35.473669
1721.000000	35.528873
1720.000000	35.606963
1719.000000	35.705729
1718.000000	35.813026
1717.000000	35.928956
1716.000000	36.069477
1715.000000	36.200462
1714.000000	36.326228
1713.000000	36.458719
1712.000000	36.582478
1711.000000	36.692486
1710.000000	36.775795
1709.000000	36.854587
1708.000000	36.898851
1707.000000	36.925349
1706.000000	36.940505
1705.000000	36.963791
1704.000000	36.964594
1703.000000	36.946527
1702.000000	36.898148
1701.000000	36.848364
1700.000000	36.783021
1699.000000	36.697304
1698.000000	36.612389
1697.000000	36.549757
1696.000000	36.450589
1695.000000	36.407731
1694.000000	36.391571
1693.000000	36.404519
1692.000000	36.410942
1691.000000	36.449084
1690.000000	36.490036
1689.000000	36.527073
1688.000000	36.597935
1687.000000	36.643404
1686.000000	36.695798
1685.000000	36.783624
1684.000000	36.884799
1683.000000	37.029535
1682.000000	37.231584
1681.000000	37.491648
1680.000000	37.785336
1679.000000	38.123991
1678.000000	38.485130
1677.000000	38.855201
1676.000000	39.168763
1675.000000	39.486240
1674.000000	39.748913
1673.000000	40.016706
1672.000000	40.253985
1671.000000	40.487049
1670.000000	40.672034
1669.000000	40.869466
1668.000000	41.029559
1667.000000	41.175099
1666.000000	41.321341
1665.000000	41.446204
1664.000000	41.574379
1663.000000	41.694825
1662.000000	41.814067
1661.000000	41.909420
1660.000000	41.989618
1659.000000	42.084871
1658.000000	42.172495
1657.000000	42.232417
1656.000000	42.293343
1655.000000	42.327269
1654.000000	42.359187
1653.000000	42.396526
1652.000000	42.401042
1651.000000	42.427139
1650.000000	42.435972
1649.000000	42.427239
1648.000000	42.419611
1647.000000	42.432760
1646.000000	42.396325
1645.000000	42.372637
1644.000000	42.365310
1643.000000	42.338511
1642.000000	42.323455
1641.000000	42.273068
1640.000000	42.263633
1639.000000	42.232819
1638.000000	42.206722
1637.000000	42.180826
1636.000000	42.149008
1635.000000	42.112874
1634.000000	42.090391
1633.000000	42.033279
1632.000000	41.987811
1631.000000	41.949168
1630.000000	41.883223
1629.000000	41.840665
1628.000000	41.792186
1627.000000	41.729955
1626.000000	41.669431
1625.000000	41.618040
1624.000000	41.563639
1623.000000	41.518973
1622.000000	41.462564
1621.000000	41.411776
1620.000000	41.366207
1619.000000	41.311203
1618.000000	41.251683
1617.000000	41.213541
1616.000000	41.159039
1615.000000	41.107850
1614.000000	41.068805
1613.000000	40.980879
1612.000000	40.954983
1611.000000	40.896667
1610.000000	40.843771
1609.000000	40.783146
1608.000000	40.712886
1607.000000	40.653867
