PE UV       SUBTECH     SPECTRUM    ASCII       PEDS        4.00        
   -1
CICIMAUCR0257-1.Sample.ASC
24/06/26
16:47:23.00
24/06/26
16:47:23.00
Vinicio Soto Monge
C. resplendens. Sex F. Ventral
250,000000
1
Lambda 1050
1050L1511233
PerkinElmer UV WinLab 6.3.2.0749 / 2.02.05 Lambda 900 UV/VIS/NIR, Aug  7 2015 09:38:08

0
0
3350/servo 860,8/2
0
0
UV/VIS
1
1
1
DoubleDePol,CommonBeamDepol,RBeamAtt,SBeamAtt,60mm sphere, WB InGaAs Detector
0
0
0
0
Program
Program
3350/servo 860,8/2
3350/0,2 860,8/0,2
3350/0,2 860,8/0,2
0
15.00
 
 
 
0
 
860,8
319,2
860,8
Front
100
on
S:100 R:100
0
0
0
0
 
0
 
 
 
0
 
 
0
0
0
0
0
 
 
 
 
0
0


0
0
#HDR
-1
-1
#GR
nm
%R
1.0
0.0
2500,000000
-1,000000
2251
8
48,927700
4,018200
#DATA
2482.000000	5.045208
2481.000000	5.032666
2480.000000	5.022585
2479.000000	4.969838
2478.000000	4.986249
2477.000000	4.979216
2476.000000	4.919787
2475.000000	4.961047
2474.000000	4.940417
2473.000000	4.942879
2472.000000	4.912168
2471.000000	4.924007
2470.000000	4.852740
2469.000000	4.872784
2468.000000	4.906659
2467.000000	4.865751
2466.000000	4.922718
2465.000000	4.931743
2464.000000	4.883567
2463.000000	4.907245
2462.000000	4.892476
2461.000000	4.902088
2460.000000	4.856373
2459.000000	4.871729
2458.000000	4.916271
2457.000000	4.905370
2456.000000	4.878058
2455.000000	4.922131
2454.000000	4.919670
2453.000000	4.909238
2452.000000	4.926820
2451.000000	4.937721
2450.000000	4.970073
2449.000000	4.982146
2448.000000	4.975816
2447.000000	5.008637
2446.000000	5.005589
2445.000000	5.006058
2444.000000	5.025516
2443.000000	5.041574
2442.000000	5.058688
2441.000000	5.060095
2440.000000	5.096783
2439.000000	5.144490
2438.000000	5.132065
2437.000000	5.121867
2436.000000	5.139333
2435.000000	5.149296
2434.000000	5.187274
2433.000000	5.186219
2432.000000	5.196182
2431.000000	5.222673
2430.000000	5.236270
2429.000000	5.236153
2428.000000	5.247640
2427.000000	5.230644
2426.000000	5.250102
2425.000000	5.250336
2424.000000	5.251977
2423.000000	5.257135
2422.000000	5.285384
2421.000000	5.291127
2420.000000	5.296871
2419.000000	5.310233
2418.000000	5.308124
2417.000000	5.317618
2416.000000	5.318204
2415.000000	5.316680
2414.000000	5.338834
2413.000000	5.355362
2412.000000	5.326175
2411.000000	5.336138
2410.000000	5.360050
2409.000000	5.368138
2408.000000	5.362863
2407.000000	5.380563
2406.000000	5.376695
2405.000000	5.384666
2404.000000	5.400607
2403.000000	5.403068
2402.000000	5.400607
2401.000000	5.419361
2400.000000	5.431083
2399.000000	5.423112
2398.000000	5.437178
2397.000000	5.453002
2396.000000	5.449720
2395.000000	5.463200
2394.000000	5.458863
2393.000000	5.449251
2392.000000	5.438116
2391.000000	5.446907
2390.000000	5.452651
2389.000000	5.455230
2388.000000	5.456167
2387.000000	5.457457
2386.000000	5.449838
2385.000000	5.454057
2384.000000	5.465896
2383.000000	5.460856
2382.000000	5.453120
2381.000000	5.464138
2380.000000	5.457574
2379.000000	5.438116
2378.000000	5.428387
2377.000000	5.421120
2376.000000	5.426980
2375.000000	5.418893
2374.000000	5.407405
2373.000000	5.406819
2372.000000	5.405882
2371.000000	5.397559
2370.000000	5.390057
2369.000000	5.383962
2368.000000	5.369193
2367.000000	5.355479
2366.000000	5.322307
2365.000000	5.306365
2364.000000	5.293589
2363.000000	5.271787
2362.000000	5.255845
2361.000000	5.232050
2360.000000	5.228886
2359.000000	5.221735
2358.000000	5.196300
2357.000000	5.181765
2356.000000	5.168050
2355.000000	5.166644
2354.000000	5.174263
2353.000000	5.158673
2352.000000	5.141091
2351.000000	5.137692
2350.000000	5.143318
2349.000000	5.166409
2348.000000	5.171801
2347.000000	5.176490
2346.000000	5.170981
2345.000000	5.179186
2344.000000	5.200754
2343.000000	5.215757
2342.000000	5.217398
2341.000000	5.220563
2340.000000	5.228886
2339.000000	5.234864
2338.000000	5.241428
2337.000000	5.237091
2336.000000	5.228534
2335.000000	5.209897
2334.000000	5.216695
2333.000000	5.222439
2332.000000	5.214820
2331.000000	5.201223
2330.000000	5.199113
2329.000000	5.181296
2328.000000	5.160783
2327.000000	5.155157
2326.000000	5.125384
2325.000000	5.109560
2324.000000	5.087640
2323.000000	5.057750
2322.000000	5.036534
2321.000000	5.016256
2320.000000	4.997970
2319.000000	4.979216
2318.000000	4.955772
2317.000000	4.948974
2316.000000	4.929164
2315.000000	4.915919
2314.000000	4.871846
2313.000000	4.843831
2312.000000	4.841018
2311.000000	4.822615
2310.000000	4.802220
2309.000000	4.801751
2308.000000	4.785458
2307.000000	4.779245
2306.000000	4.778776
2305.000000	4.772564
2304.000000	4.765883
2303.000000	4.774908
2302.000000	4.781707
2301.000000	4.799289
2300.000000	4.813238
2299.000000	4.826249
2298.000000	4.832930
2297.000000	4.862000
2296.000000	4.876417
2295.000000	4.882395
2294.000000	4.901150
2293.000000	4.918146
2292.000000	4.923772
2291.000000	4.927406
2290.000000	4.931978
2289.000000	4.939011
2288.000000	4.933970
2287.000000	4.948622
2286.000000	4.954600
2285.000000	4.923772
2284.000000	4.925413
2283.000000	4.910293
2282.000000	4.918615
2281.000000	4.920608
2280.000000	4.913106
2279.000000	4.871846
2278.000000	4.864578
2277.000000	4.866688
2276.000000	4.876183
2275.000000	4.867157
2274.000000	4.851685
2273.000000	4.849106
2272.000000	4.856725
2271.000000	4.835626
2270.000000	4.841018
2269.000000	4.869736
2268.000000	4.874893
2267.000000	4.873487
2266.000000	4.915567
2265.000000	4.920139
2264.000000	4.938307
2263.000000	4.978161
2262.000000	5.021999
2261.000000	5.073809
2260.000000	5.109325
2259.000000	5.173911
2258.000000	5.236973
2257.000000	5.287494
2256.000000	5.343523
2255.000000	5.402834
2254.000000	5.471757
2253.000000	5.560021
2252.000000	5.649339
2251.000000	5.716269
2250.000000	5.771009
2249.000000	5.814379
2248.000000	5.911786
2247.000000	5.969925
2246.000000	6.044357
2245.000000	6.100855
2244.000000	6.159228
2243.000000	6.193690
2242.000000	6.267888
2241.000000	6.305748
2240.000000	6.390964
2239.000000	6.415814
2238.000000	6.441836
2237.000000	6.484503
2236.000000	6.553660
2235.000000	6.587887
2234.000000	6.607814
2233.000000	6.658803
2232.000000	6.687521
2231.000000	6.727257
2230.000000	6.706392
2229.000000	6.772502
2228.000000	6.789030
2227.000000	6.807081
2226.000000	6.803916
2225.000000	6.822553
2224.000000	6.846231
2223.000000	6.856663
2222.000000	6.844238
2221.000000	6.844590
2220.000000	6.866275
2219.000000	6.860649
2218.000000	6.855022
2217.000000	6.846817
2216.000000	6.850099
2215.000000	6.830876
2214.000000	6.835095
2213.000000	6.834861
2212.000000	6.829586
2211.000000	6.845176
2210.000000	6.819271
2209.000000	6.822905
2208.000000	6.817161
2207.000000	6.811769
2206.000000	6.822553
2205.000000	6.833103
2204.000000	6.818099
2203.000000	6.813411
2202.000000	6.815286
2201.000000	6.817630
2200.000000	6.827828
2199.000000	6.805557
2198.000000	6.806143
2197.000000	6.793132
2196.000000	6.803330
2195.000000	6.830524
2194.000000	6.829469
2193.000000	6.812707
2192.000000	6.819506
2191.000000	6.804385
2190.000000	6.798524
2189.000000	6.793367
2188.000000	6.787037
2187.000000	6.805440
2186.000000	6.789147
2185.000000	6.776136
2184.000000	6.785630
2183.000000	6.766055
2182.000000	6.737455
2181.000000	6.748942
2180.000000	6.750231
2179.000000	6.737455
2178.000000	6.735931
2177.000000	6.759960
2176.000000	6.741557
2175.000000	6.734055
2174.000000	6.738861
2173.000000	6.729601
2172.000000	6.737103
2171.000000	6.717059
2170.000000	6.714480
2169.000000	6.725967
2168.000000	6.738627
2167.000000	6.749645
2166.000000	6.741792
2165.000000	6.735579
2164.000000	6.765235
2163.000000	6.768048
2162.000000	6.784224
2161.000000	6.797118
2160.000000	6.760429
2159.000000	6.780004
2158.000000	6.784224
2157.000000	6.789030
2156.000000	6.818685
2155.000000	6.845059
2154.000000	6.827828
2153.000000	6.837323
2152.000000	6.857015
2151.000000	6.855843
2150.000000	6.866744
2149.000000	6.878700
2148.000000	6.883857
2147.000000	6.892062
2146.000000	6.897103
2145.000000	6.911286
2144.000000	6.930392
2143.000000	6.941996
2142.000000	6.932033
2141.000000	6.937542
2140.000000	6.934260
2139.000000	6.945396
2138.000000	6.970714
2137.000000	6.964150
2136.000000	6.954890
2135.000000	6.968722
2134.000000	6.980912
2133.000000	6.983725
2132.000000	6.996853
2131.000000	7.000604
2130.000000	6.992399
2129.000000	6.985015
2128.000000	6.973762
2127.000000	6.989586
2126.000000	6.992282
2125.000000	6.969659
2124.000000	6.987007
2123.000000	6.978802
2122.000000	6.964854
2121.000000	6.969308
2120.000000	6.964150
2119.000000	6.950084
2118.000000	6.941762
2117.000000	6.926993
2116.000000	6.907183
2115.000000	6.899447
2114.000000	6.892766
2113.000000	6.879872
2112.000000	6.857835
2111.000000	6.848575
2110.000000	6.849982
2109.000000	6.838729
2108.000000	6.835916
2107.000000	6.826070
2106.000000	6.811066
2105.000000	6.821850
2104.000000	6.819389
2103.000000	6.790553
2102.000000	6.775081
2101.000000	6.766407
2100.000000	6.761484
2099.000000	6.735345
2098.000000	6.722334
2097.000000	6.741909
2096.000000	6.738861
2095.000000	6.715535
2094.000000	6.713191
2093.000000	6.701587
2092.000000	6.681777
2091.000000	6.667711
2090.000000	6.678026
2089.000000	6.689162
2088.000000	6.674627
2087.000000	6.665015
2086.000000	6.671345
2085.000000	6.667711
2084.000000	6.663843
2083.000000	6.666773
2082.000000	6.655286
2081.000000	6.642744
2080.000000	6.639110
2079.000000	6.638524
2078.000000	6.629968
2077.000000	6.627389
2076.000000	6.623755
2075.000000	6.612971
2074.000000	6.597968
2073.000000	6.591872
2072.000000	6.587535
2071.000000	6.579916
2070.000000	6.593279
2069.000000	6.594686
2068.000000	6.587301
2067.000000	6.579213
2066.000000	6.565733
2065.000000	6.550495
2064.000000	6.557645
2063.000000	6.563037
2062.000000	6.543697
2061.000000	6.530451
2060.000000	6.549089
2059.000000	6.562803
2058.000000	6.558114
2057.000000	6.561279
2056.000000	6.567726
2055.000000	6.578979
2054.000000	6.591286
2053.000000	6.632664
2052.000000	6.666773
2051.000000	6.679667
2050.000000	6.707447
2049.000000	6.734641
2048.000000	6.774495
2047.000000	6.827008
2046.000000	6.861938
2045.000000	6.904018
2044.000000	6.959696
2043.000000	7.019828
2042.000000	7.072692
2041.000000	7.109264
2040.000000	7.139974
2039.000000	7.191549
2038.000000	7.252619
2037.000000	7.298216
2036.000000	7.367021
2035.000000	7.413673
2034.000000	7.468765
2033.000000	7.509673
2032.000000	7.517527
2031.000000	7.567461
2030.000000	7.623607
2029.000000	7.638962
2028.000000	7.681394
2027.000000	7.722537
2026.000000	7.734845
2025.000000	7.771534
2024.000000	7.801072
2023.000000	7.841629
2022.000000	7.862962
2021.000000	7.898244
2020.000000	7.924149
2019.000000	7.927548
2018.000000	7.968222
2017.000000	7.997174
2016.000000	8.004559
2015.000000	8.026127
2014.000000	8.058947
2013.000000	8.075943
2012.000000	8.065863
2011.000000	8.066918
2010.000000	8.093995
2009.000000	8.103724
2008.000000	8.109467
2007.000000	8.087196
2006.000000	8.101848
2005.000000	8.106068
2004.000000	8.107357
2003.000000	8.095987
2002.000000	8.103020
2001.000000	8.076647
2000.000000	8.067738
1999.000000	8.065863
1998.000000	8.030932
1997.000000	8.006903
1996.000000	8.004324
1995.000000	7.992017
1994.000000	7.973497
1993.000000	7.945599
1992.000000	7.913013
1991.000000	7.888867
1990.000000	7.876325
1989.000000	7.845497
1988.000000	7.818537
1987.000000	7.775402
1986.000000	7.745277
1985.000000	7.725819
1984.000000	7.693819
1983.000000	7.660530
1982.000000	7.617512
1981.000000	7.610010
1980.000000	7.583871
1979.000000	7.521512
1978.000000	7.496545
1977.000000	7.465717
1976.000000	7.451300
1975.000000	7.413908
1974.000000	7.377571
1973.000000	7.333146
1972.000000	7.321073
1971.000000	7.273717
1970.000000	7.260003
1969.000000	7.226128
1968.000000	7.206670
1967.000000	7.156150
1966.000000	7.158143
1965.000000	7.124502
1964.000000	7.100121
1963.000000	7.095784
1962.000000	7.050773
1961.000000	7.037645
1960.000000	6.996385
1959.000000	6.964150
1958.000000	6.952311
1957.000000	6.906832
1956.000000	6.902377
1955.000000	6.870846
1954.000000	6.862290
1953.000000	6.827008
1952.000000	6.798759
1951.000000	6.797352
1950.000000	6.764063
1949.000000	6.743198
1948.000000	6.722217
1947.000000	6.701821
1946.000000	6.701352
1945.000000	6.685645
1944.000000	6.666187
1943.000000	6.652473
1942.000000	6.656224
1941.000000	6.624576
1940.000000	6.619067
1939.000000	6.604883
1938.000000	6.602891
1937.000000	6.631023
1936.000000	6.624927
1935.000000	6.613088
1934.000000	6.633718
1933.000000	6.663960
1932.000000	6.645088
1931.000000	6.666422
1930.000000	6.708854
1929.000000	6.717176
1928.000000	6.702407
1927.000000	6.752341
1926.000000	6.785396
1925.000000	6.833454
1924.000000	6.878700
1923.000000	6.905308
1922.000000	6.942231
1921.000000	6.995212
1920.000000	7.078553
1919.000000	7.132472
1918.000000	7.197058
1917.000000	7.275593
1916.000000	7.317791
1915.000000	7.395388
1914.000000	7.460442
1913.000000	7.539212
1912.000000	7.666977
1911.000000	7.739651
1910.000000	7.834127
1909.000000	7.903401
1908.000000	8.005731
1907.000000	8.087548
1906.000000	8.187181
1905.000000	8.322331
1904.000000	8.466976
1903.000000	8.589701
1902.000000	8.732470
1901.000000	8.822960
1900.000000	8.961041
1899.000000	9.132411
1898.000000	9.301670
1897.000000	9.437172
1896.000000	9.606315
1895.000000	9.718725
1894.000000	9.870519
1893.000000	10.018446
1892.000000	10.176687
1891.000000	10.341024
1890.000000	10.556115
1889.000000	10.727251
1888.000000	10.908584
1887.000000	11.131059
1886.000000	11.346619
1885.000000	11.594883
1884.000000	11.877608
1883.000000	12.229842
1882.000000	12.598134
1881.000000	12.975335
1880.000000	13.409268
1879.000000	13.775334
1878.000000	14.143040
1877.000000	14.558805
1876.000000	14.926042
1875.000000	15.282262
1874.000000	15.635082
1873.000000	15.941484
1872.000000	16.268399
1871.000000	16.541161
1870.000000	16.814860
1869.000000	17.092779
1868.000000	17.350420
1867.000000	17.524485
1866.000000	17.667020
1865.000000	17.787283
1864.000000	17.880704
1863.000000	17.957364
1862.000000	17.986199
1861.000000	18.069188
1860.000000	18.141158
1859.000000	18.179019
1858.000000	18.223678
1857.000000	18.239620
1856.000000	18.218052
1855.000000	18.195664
1854.000000	18.169759
1853.000000	18.147253
1852.000000	18.107634
1851.000000	18.053598
1850.000000	17.985144
1849.000000	17.924426
1848.000000	17.862536
1847.000000	17.824558
1846.000000	17.768294
1845.000000	17.702185
1844.000000	17.636309
1843.000000	17.577467
1842.000000	17.526243
1841.000000	17.508544
1840.000000	17.488969
1839.000000	17.451694
1838.000000	17.400354
1837.000000	17.363431
1836.000000	17.332251
1835.000000	17.271533
1834.000000	17.206713
1833.000000	17.130054
1832.000000	17.053863
1831.000000	16.989043
1830.000000	16.922230
1829.000000	16.860691
1828.000000	16.766684
1827.000000	16.676545
1826.000000	16.604575
1825.000000	16.545498
1824.000000	16.471769
1823.000000	16.415623
1822.000000	16.388311
1821.000000	16.356311
1820.000000	16.335095
1819.000000	16.300048
1818.000000	16.273791
1817.000000	16.252341
1816.000000	16.244487
1815.000000	16.250582
1814.000000	16.253278
1813.000000	16.237689
1812.000000	16.230890
1811.000000	16.221982
1810.000000	16.205689
1809.000000	16.162319
1808.000000	16.110041
1807.000000	16.073118
1806.000000	16.046392
1805.000000	16.009118
1804.000000	15.947697
1803.000000	15.903975
1802.000000	15.865997
1801.000000	15.809264
1800.000000	15.754407
1799.000000	15.704825
1798.000000	15.668488
1797.000000	15.619726
1796.000000	15.557133
1795.000000	15.513646
1794.000000	15.467697
1793.000000	15.429602
1792.000000	15.374393
1791.000000	15.307111
1790.000000	15.261866
1789.000000	15.200562
1788.000000	15.143595
1787.000000	15.071273
1786.000000	14.985705
1785.000000	14.924167
1784.000000	14.855830
1783.000000	14.775537
1782.000000	14.693486
1781.000000	14.610028
1780.000000	14.534893
1779.000000	14.459054
1778.000000	14.375245
1777.000000	14.291904
1776.000000	14.191450
1775.000000	14.078220
1774.000000	13.968623
1773.000000	13.858323
1772.000000	13.742865
1771.000000	13.614045
1770.000000	13.499525
1769.000000	13.382777
1768.000000	13.266968
1767.000000	13.169796
1766.000000	13.072859
1765.000000	12.983657
1764.000000	12.927276
1763.000000	12.882383
1762.000000	12.872419
1761.000000	12.886251
1760.000000	12.904302
1759.000000	12.949313
1758.000000	13.010617
1757.000000	13.087276
1756.000000	13.138031
1755.000000	13.180814
1754.000000	13.216331
1753.000000	13.223481
1752.000000	13.225825
1751.000000	13.229576
1750.000000	13.201327
1749.000000	13.168507
1748.000000	13.138148
1747.000000	13.064771
1746.000000	12.958221
1745.000000	12.853079
1744.000000	12.757899
1743.000000	12.620171
1742.000000	12.459819
1741.000000	12.288684
1740.000000	12.091410
1739.000000	11.904685
1738.000000	11.725696
1737.000000	11.549989
1736.000000	11.415894
1735.000000	11.279338
1734.000000	11.205609
1733.000000	11.181111
1732.000000	11.187792
1731.000000	11.218971
1730.000000	11.291411
1729.000000	11.359044
1728.000000	11.472041
1727.000000	11.552802
1726.000000	11.642941
1725.000000	11.721828
1724.000000	11.791337
1723.000000	11.826502
1722.000000	11.854868
1721.000000	11.861549
1720.000000	11.881476
1719.000000	11.893549
1718.000000	11.902692
1717.000000	11.891088
1716.000000	11.937857
1715.000000	11.971966
1714.000000	12.014164
1713.000000	12.055541
1712.000000	12.100318
1711.000000	12.124582
1710.000000	12.148376
1709.000000	12.171585
1708.000000	12.158809
1707.000000	12.137944
1706.000000	12.130560
1705.000000	12.106062
1704.000000	12.038662
1703.000000	12.005842
1702.000000	11.942428
1701.000000	11.841271
1700.000000	11.743278
1699.000000	11.633447
1698.000000	11.514473
1697.000000	11.402297
1696.000000	11.309462
1695.000000	11.249916
1694.000000	11.263982
1693.000000	11.305477
1692.000000	11.390107
1691.000000	11.505330
1690.000000	11.644700
1689.000000	11.773754
1688.000000	11.872216
1687.000000	11.914413
1686.000000	11.938912
1685.000000	11.944421
1684.000000	11.979117
1683.000000	12.069959
1682.000000	12.199483
1681.000000	12.451966
1680.000000	12.824712
1679.000000	13.289942
1678.000000	13.766074
1677.000000	14.274556
1676.000000	14.751508
1675.000000	15.187668
1674.000000	15.594173
1673.000000	15.957660
1672.000000	16.242963
1671.000000	16.519827
1670.000000	16.719329
1669.000000	16.909219
1668.000000	17.071680
1667.000000	17.255357
1666.000000	17.354405
1665.000000	17.462244
1664.000000	17.541130
1663.000000	17.627049
1662.000000	17.704998
1661.000000	17.768763
1660.000000	17.793730
1659.000000	17.829716
1658.000000	17.869335
1657.000000	17.893247
1656.000000	17.912118
1655.000000	17.924778
1654.000000	17.932397
1653.000000	17.918682
1652.000000	17.913525
1651.000000	17.865349
1650.000000	17.837335
1649.000000	17.813540
1648.000000	17.757979
1647.000000	17.740163
1646.000000	17.697965
1645.000000	17.633379
1644.000000	17.567621
1643.000000	17.539723
1642.000000	17.467167
1641.000000	17.392735
1640.000000	17.352412
1639.000000	17.289702
1638.000000	17.236955
1637.000000	17.141658
1636.000000	17.095240
1635.000000	17.034405
1634.000000	16.950244
1633.000000	16.884955
1632.000000	16.782157
1631.000000	16.715578
1630.000000	16.641380
1629.000000	16.555344
1628.000000	16.473879
1627.000000	16.428751
1626.000000	16.346582
1625.000000	16.249879
1624.000000	16.174744
1623.000000	16.083433
1622.000000	16.010055
1621.000000	15.922847
1620.000000	15.861074
1619.000000	15.795550
1618.000000	15.720298
1617.000000	15.630862
1616.000000	15.579521
1615.000000	15.492078
1614.000000	15.431478
1613.000000	15.365133
1612.000000	15.319067
1611.000000	15.242994
1610.000000	15.174775
1609.000000	15.122145
1608.000000	15.043141
1607.000000	14.972343
1606.000000	14.929793
1605.000000	14.884665
1604.000000	14.800504
1603.000000	14.742834
1602.000000	14.691376
1601.000000	14.634175
1600.000000	14.561501
1599.000000	14.506058
1598.000000	14.463391
1597.000000	14.409120
1596.000000	14.356256
1595.000000	14.300813
1594.000000	14.252168
1593.000000	14.229663
1592.000000	14.152417
1591.000000	14.114439
1590.000000	14.073414
1589.000000	14.037428
1588.000000	14.023128
1587.000000	13.973077
1586.000000	13.953385
1585.000000	13.920447
1584.000000	13.901575
1583.000000	13.879070
1582.000000	13.857854
1581.000000	13.837341
1580.000000	13.818117
