PE UV       SUBTECH     SPECTRUM    ASCII       PEDS        4.00        
   -1
CICIMAUCR0018-6.Sample.ASC
24/04/25
15:28:28.00
24/04/25
15:28:28.00
Vinicio Soto Monge
C. cupreomarginata
250,000000
1
Lambda 1050
1050L1511233
PerkinElmer UV WinLab 6.3.2.0749 / 2.02.05 Lambda 900 UV/VIS/NIR, Aug  7 2015 09:38:08

0
0
3350/servo 860,8/2
0
0
UV/VIS
1
1
1
DoubleDePol,CommonBeamDepol,RBeamAtt,SBeamAtt,60mm sphere, WB InGaAs Detector
0
0
0
0
Program
Program
3350/servo 860,8/2
3350/0,2 860,8/0,2
3350/0,2 860,8/0,2
0
15.00
 
 
 
0
 
860,8
319,2
860,8
Front
100
on
S:100 R:100
0
0
0
0
 
0
 
 
 
0
 
 
0
0
0
0
0
 
 
 
 
0
0


0
0
#HDR
-1
-1
#GR
nm
%R
1.0
0.0
2500,000000
-1,000000
2251
8
70,559000
5,550100
#DATA
2482.000000	7.022112
2481.000000	6.998345
2480.000000	7.002697
2479.000000	7.022782
2478.000000	6.993213
2477.000000	6.967325
2476.000000	6.967995
2475.000000	6.972235
2474.000000	6.969892
2473.000000	6.963197
2472.000000	7.003143
2471.000000	6.930280
2470.000000	6.976587
2469.000000	6.910418
2468.000000	6.905955
2467.000000	6.961746
2466.000000	6.997118
2465.000000	6.983393
2464.000000	6.976922
2463.000000	7.013521
2462.000000	7.046661
2461.000000	7.035056
2460.000000	7.069870
2459.000000	7.072325
2458.000000	7.164269
2457.000000	7.153557
2456.000000	7.188817
2455.000000	7.242265
2454.000000	7.273508
2453.000000	7.270942
2452.000000	7.327402
2451.000000	7.382747
2450.000000	7.415218
2449.000000	7.466769
2448.000000	7.485849
2447.000000	7.544430
2446.000000	7.593750
2445.000000	7.612607
2444.000000	7.664158
2443.000000	7.722293
2442.000000	7.776076
2441.000000	7.823164
2440.000000	7.855188
2439.000000	7.886542
2438.000000	7.924815
2437.000000	7.943003
2436.000000	8.001249
2435.000000	8.049118
2434.000000	8.090850
2433.000000	8.132470
2432.000000	8.153002
2431.000000	8.162932
2430.000000	8.218835
2429.000000	8.241040
2428.000000	8.258559
2427.000000	8.266816
2426.000000	8.294042
2425.000000	8.330418
2424.000000	8.359987
2423.000000	8.374158
2422.000000	8.379737
2421.000000	8.401273
2420.000000	8.412208
2419.000000	8.438764
2418.000000	8.458961
2417.000000	8.457957
2416.000000	8.479938
2415.000000	8.501362
2414.000000	8.521893
2413.000000	8.520443
2412.000000	8.525799
2411.000000	8.575899
2410.000000	8.629794
2409.000000	8.710133
2408.000000	8.793820
2407.000000	8.844479
2406.000000	8.883756
2405.000000	8.890785
2404.000000	8.906742
2403.000000	8.924372
2402.000000	8.934860
2401.000000	8.972687
2400.000000	9.044323
2399.000000	9.062288
2398.000000	9.072330
2397.000000	9.108929
2396.000000	9.153451
2395.000000	9.161931
2394.000000	9.198976
2393.000000	9.220958
2392.000000	9.243163
2391.000000	9.268269
2390.000000	9.287350
2389.000000	9.309220
2388.000000	9.310112
2387.000000	9.336669
2386.000000	9.349166
2385.000000	9.344703
2384.000000	9.348720
2383.000000	9.337115
2382.000000	9.343587
2381.000000	9.350952
2380.000000	9.335665
2379.000000	9.348832
2378.000000	9.362556
2377.000000	9.348385
2376.000000	9.338566
2375.000000	9.329193
2374.000000	9.306988
2373.000000	9.301074
2372.000000	9.302079
2371.000000	9.275076
2370.000000	9.245618
2369.000000	9.219619
2368.000000	9.198195
2367.000000	9.171081
2366.000000	9.152446
2365.000000	9.129126
2364.000000	9.084939
2363.000000	9.048786
2362.000000	9.009398
2361.000000	8.961529
2360.000000	8.927831
2359.000000	8.898931
2358.000000	8.882193
2357.000000	8.854298
2356.000000	8.811673
2355.000000	8.807768
2354.000000	8.803081
2353.000000	8.791700
2352.000000	8.792258
2351.000000	8.806875
2350.000000	8.810669
2349.000000	8.830754
2348.000000	8.864787
2347.000000	8.890339
2346.000000	8.930062
2345.000000	8.988197
2344.000000	9.021448
2343.000000	9.033946
2342.000000	9.063292
2341.000000	9.111272
2340.000000	9.135932
2339.000000	9.151442
2338.000000	9.166283
2337.000000	9.169853
2336.000000	9.170411
2335.000000	9.180454
2334.000000	9.170634
2333.000000	9.161261
2332.000000	9.152112
2331.000000	9.126224
2330.000000	9.073557
2329.000000	9.069764
2328.000000	9.046220
2327.000000	9.004042
2326.000000	8.965211
2325.000000	8.906295
2324.000000	8.864787
2323.000000	8.856083
2322.000000	8.796163
2321.000000	8.731222
2320.000000	8.666058
2319.000000	8.609932
2318.000000	8.545549
2317.000000	8.495560
2316.000000	8.432069
2315.000000	8.385316
2314.000000	8.319371
2313.000000	8.264361
2312.000000	8.214707
2311.000000	8.170520
2310.000000	8.129569
2309.000000	8.126556
2308.000000	8.098214
2307.000000	8.098103
2306.000000	8.082481
2305.000000	8.075228
2304.000000	8.135148
2303.000000	8.154675
2302.000000	8.208570
2301.000000	8.273176
2300.000000	8.308994
2299.000000	8.357644
2298.000000	8.427383
2297.000000	8.486856
2296.000000	8.575676
2295.000000	8.608593
2294.000000	8.664161
2293.000000	8.714373
2292.000000	8.738587
2291.000000	8.763135
2290.000000	8.801519
2289.000000	8.810223
2288.000000	8.828634
2287.000000	8.823055
2286.000000	8.837337
2285.000000	8.819038
2284.000000	8.795605
2283.000000	8.785005
2282.000000	8.761796
2281.000000	8.745505
2280.000000	8.703996
2279.000000	8.683911
2278.000000	8.675654
2277.000000	8.641175
2276.000000	8.611829
2275.000000	8.608035
2274.000000	8.616292
2273.000000	8.599443
2272.000000	8.625665
2271.000000	8.608370
2270.000000	8.630463
2269.000000	8.659028
2268.000000	8.709352
2267.000000	8.760345
2266.000000	8.832874
2265.000000	8.910535
2264.000000	8.999690
2263.000000	9.109487
2262.000000	9.250862
2261.000000	9.401052
2260.000000	9.544994
2259.000000	9.675434
2258.000000	9.839237
2257.000000	10.018438
2256.000000	10.176328
2255.000000	10.330535
2254.000000	10.524577
2253.000000	10.698534
2252.000000	10.837231
2251.000000	10.998245
2250.000000	11.152675
2249.000000	11.309560
2248.000000	11.418688
2247.000000	11.543214
2246.000000	11.695189
2245.000000	11.790592
2244.000000	11.907419
2243.000000	12.003827
2242.000000	12.084501
2241.000000	12.169527
2240.000000	12.257007
2239.000000	12.353526
2238.000000	12.424827
2237.000000	12.457075
2236.000000	12.536522
2235.000000	12.625564
2234.000000	12.672652
2233.000000	12.724761
2232.000000	12.764373
2231.000000	12.774639
2230.000000	12.830542
2229.000000	12.847279
2228.000000	12.888118
2227.000000	12.916014
2226.000000	12.907534
2225.000000	12.919138
2224.000000	12.903293
2223.000000	12.923267
2222.000000	12.916237
2221.000000	12.919584
2220.000000	12.890796
2219.000000	12.855871
2218.000000	12.851742
2217.000000	12.865802
2216.000000	12.844713
2215.000000	12.832439
2214.000000	12.811573
2213.000000	12.793496
2212.000000	12.804208
2211.000000	12.787359
2210.000000	12.742391
2209.000000	12.736701
2208.000000	12.741164
2207.000000	12.722418
2206.000000	12.714496
2205.000000	12.694969
2204.000000	12.691175
2203.000000	12.671536
2202.000000	12.677674
2201.000000	12.682472
2200.000000	12.674772
2199.000000	12.661606
2198.000000	12.632594
2197.000000	12.656696
2196.000000	12.611951
2195.000000	12.628242
2194.000000	12.614295
2193.000000	12.613625
2192.000000	12.608939
2191.000000	12.593875
2190.000000	12.592759
2189.000000	12.584502
2188.000000	12.589635
2187.000000	12.590528
2186.000000	12.553036
2185.000000	12.550358
2184.000000	12.543440
2183.000000	12.510634
2182.000000	12.531389
2181.000000	12.525363
2180.000000	12.506841
2179.000000	12.500480
2178.000000	12.485417
2177.000000	12.481846
2176.000000	12.483743
2175.000000	12.492112
2174.000000	12.490996
2173.000000	12.506283
2172.000000	12.489657
2171.000000	12.475709
2170.000000	12.511973
2169.000000	12.526033
2168.000000	12.527037
2167.000000	12.530161
2166.000000	12.549912
2165.000000	12.557276
2164.000000	12.569996
2163.000000	12.596330
2162.000000	12.598115
2161.000000	12.623668
2160.000000	12.610947
2159.000000	12.638396
2158.000000	12.655692
2157.000000	12.663949
2156.000000	12.707020
2155.000000	12.744511
2154.000000	12.734357
2153.000000	12.767497
2152.000000	12.785016
2151.000000	12.807221
2150.000000	12.848953
2149.000000	12.874282
2148.000000	12.895817
2147.000000	12.912890
2146.000000	12.916237
2145.000000	12.941231
2144.000000	12.969685
2143.000000	12.988431
2142.000000	12.991332
2141.000000	12.991667
2140.000000	13.010190
2139.000000	13.017777
2138.000000	13.056831
2137.000000	13.068436
2136.000000	13.072118
2135.000000	13.060290
2134.000000	13.068659
2133.000000	13.087516
2132.000000	13.073010
2131.000000	13.064530
2130.000000	13.064865
2129.000000	13.059732
2128.000000	13.052145
2127.000000	13.042883
2126.000000	13.036300
2125.000000	13.013091
2124.000000	12.994233
2123.000000	12.986199
2122.000000	12.956741
2121.000000	12.932974
2120.000000	12.923044
2119.000000	12.908426
2118.000000	12.883766
2117.000000	12.841142
2116.000000	12.809229
2115.000000	12.786243
2114.000000	12.771068
2113.000000	12.755558
2112.000000	12.743619
2111.000000	12.702891
2110.000000	12.666850
2109.000000	12.635942
2108.000000	12.603360
2107.000000	12.578142
2106.000000	12.546341
2105.000000	12.516548
2104.000000	12.497691
2103.000000	12.483520
2102.000000	12.457298
2101.000000	12.420476
2100.000000	12.392692
2099.000000	12.377963
2098.000000	12.341364
2097.000000	12.307666
2096.000000	12.295615
2095.000000	12.281779
2094.000000	12.256115
2093.000000	12.244175
2092.000000	12.224425
2091.000000	12.201886
2090.000000	12.201328
2089.000000	12.177337
2088.000000	12.163055
2087.000000	12.150111
2086.000000	12.127460
2085.000000	12.113624
2084.000000	12.099676
2083.000000	12.080037
2082.000000	12.060845
2081.000000	12.043104
2080.000000	12.030160
2079.000000	12.014092
2078.000000	11.991106
2077.000000	11.958189
2076.000000	11.945915
2075.000000	11.946473
2074.000000	11.916457
2073.000000	11.898269
2072.000000	11.907531
2071.000000	11.884210
2070.000000	11.855980
2069.000000	11.851182
2068.000000	11.849396
2067.000000	11.824290
2066.000000	11.811793
2065.000000	11.800970
2064.000000	11.795502
2063.000000	11.791597
2062.000000	11.778653
2061.000000	11.761358
2060.000000	11.749976
2059.000000	11.768499
2058.000000	11.791373
2057.000000	11.792378
2056.000000	11.814583
2055.000000	11.843817
2054.000000	11.890012
2053.000000	11.923041
2052.000000	11.966893
2051.000000	12.020676
2050.000000	12.082046
2049.000000	12.153794
2048.000000	12.208581
2047.000000	12.264483
2046.000000	12.349732
2045.000000	12.447813
2044.000000	12.532616
2043.000000	12.648997
2042.000000	12.749086
2041.000000	12.839580
2040.000000	12.922151
2039.000000	13.002602
2038.000000	13.105369
2037.000000	13.217175
2036.000000	13.290820
2035.000000	13.370155
2034.000000	13.454623
2033.000000	13.526593
2032.000000	13.611396
2031.000000	13.672655
2030.000000	13.749424
2029.000000	13.799859
2028.000000	13.850964
2027.000000	13.920703
2026.000000	13.967456
2025.000000	14.022578
2024.000000	14.068438
2023.000000	14.112402
2022.000000	14.186493
2021.000000	14.199101
2020.000000	14.240722
2019.000000	14.305998
2018.000000	14.336571
2017.000000	14.353755
2016.000000	14.416018
2015.000000	14.436214
2014.000000	14.462102
2013.000000	14.472032
2012.000000	14.518562
2011.000000	14.513987
2010.000000	14.524365
2009.000000	14.540767
2008.000000	14.526708
2007.000000	14.543557
2006.000000	14.546904
2005.000000	14.545900
2004.000000	14.546346
2003.000000	14.517112
2002.000000	14.522802
2001.000000	14.507627
2000.000000	14.491448
1999.000000	14.470135
1998.000000	14.455964
1997.000000	14.409881
1996.000000	14.395375
1995.000000	14.354536
1994.000000	14.320392
1993.000000	14.288144
1992.000000	14.238602
1991.000000	14.200552
1990.000000	14.154357
1989.000000	14.108943
1988.000000	14.072678
1987.000000	14.027488
1986.000000	13.971585
1985.000000	13.916574
1984.000000	13.883769
1983.000000	13.853084
1982.000000	13.791044
1981.000000	13.731794
1980.000000	13.675891
1979.000000	13.634717
1978.000000	13.594547
1977.000000	13.535520
1976.000000	13.474819
1975.000000	13.432083
1974.000000	13.401844
1973.000000	13.356542
1972.000000	13.293498
1971.000000	13.263705
1970.000000	13.237260
1969.000000	13.160603
1968.000000	13.119764
1967.000000	13.088855
1966.000000	13.049132
1965.000000	12.995126
1964.000000	12.956072
1963.000000	12.934090
1962.000000	12.888118
1961.000000	12.844713
1960.000000	12.807221
1959.000000	12.763704
1958.000000	12.718290
1957.000000	12.686489
1956.000000	12.652233
1955.000000	12.604810
1954.000000	12.552924
1953.000000	12.528376
1952.000000	12.490884
1951.000000	12.455847
1950.000000	12.441007
1949.000000	12.388452
1948.000000	12.373946
1947.000000	12.358994
1946.000000	12.319717
1945.000000	12.321725
1944.000000	12.279547
1943.000000	12.275418
1942.000000	12.296954
1941.000000	12.274414
1940.000000	12.291263
1939.000000	12.285461
1938.000000	12.274861
1937.000000	12.296731
1936.000000	12.320609
1935.000000	12.343930
1934.000000	12.360891
1933.000000	12.426055
1932.000000	12.465220
1931.000000	12.522574
1930.000000	12.570108
1929.000000	12.620097
1928.000000	12.698986
1927.000000	12.784570
1926.000000	12.835005
1925.000000	12.914452
1924.000000	13.020344
1923.000000	13.119875
1922.000000	13.191623
1921.000000	13.311239
1920.000000	13.433087
1919.000000	13.527040
1918.000000	13.663840
1917.000000	13.793834
1916.000000	13.916128
1915.000000	14.065760
1914.000000	14.214946
1913.000000	14.356879
1912.000000	14.517893
1911.000000	14.652127
1910.000000	14.802205
1909.000000	14.966008
1908.000000	15.158934
1907.000000	15.354650
1906.000000	15.532290
1905.000000	15.714504
1904.000000	15.893259
1903.000000	16.080160
1902.000000	16.299420
1901.000000	16.482861
1900.000000	16.687057
1899.000000	16.880207
1898.000000	17.104153
1897.000000	17.294290
1896.000000	17.486769
1895.000000	17.712724
1894.000000	17.930980
1893.000000	18.173560
1892.000000	18.413462
1891.000000	18.631941
1890.000000	18.850308
1889.000000	19.096794
1888.000000	19.391149
1887.000000	19.692087
1886.000000	20.007307
1885.000000	20.379882
1884.000000	20.782025
1883.000000	21.210948
1882.000000	21.650472
1881.000000	22.129831
1880.000000	22.592229
1879.000000	23.044361
1878.000000	23.479421
1877.000000	23.894620
1876.000000	24.272215
1875.000000	24.648695
1874.000000	24.990137
1873.000000	25.297882
1872.000000	25.578847
1871.000000	25.805694
1870.000000	25.974184
1869.000000	26.147695
1868.000000	26.259612
1867.000000	26.345531
1866.000000	26.434350
1865.000000	26.522724
1864.000000	26.596368
1863.000000	26.654168
1862.000000	26.734396
1861.000000	26.775681
1860.000000	26.799783
1859.000000	26.804470
1858.000000	26.781818
1857.000000	26.754369
1856.000000	26.740644
1855.000000	26.704603
1854.000000	26.628727
1853.000000	26.539126
1852.000000	26.483335
1851.000000	26.448968
1850.000000	26.421407
1849.000000	26.369744
1848.000000	26.274118
1847.000000	26.129507
1846.000000	25.997281
1845.000000	25.957781
1844.000000	25.951979
1843.000000	25.956442
1842.000000	25.923191
1841.000000	25.859812
1840.000000	25.793643
1839.000000	25.750349
1838.000000	25.705381
1837.000000	25.618905
1836.000000	25.519820
1835.000000	25.427429
1834.000000	25.332249
1833.000000	25.266639
1832.000000	25.202144
1831.000000	25.112655
1830.000000	25.027629
1829.000000	24.939814
1828.000000	24.826781
1827.000000	24.723232
1826.000000	24.630284
1825.000000	24.546374
1824.000000	24.506204
1823.000000	24.505311
1822.000000	24.502856
1821.000000	24.454876
1820.000000	24.400312
1819.000000	24.352443
1818.000000	24.335371
1817.000000	24.335929
1816.000000	24.324436
1815.000000	24.301450
1814.000000	24.278241
1813.000000	24.269203
1812.000000	24.271881
1811.000000	24.242758
1810.000000	24.175027
1809.000000	24.146239
1808.000000	24.125261
1807.000000	24.088327
1806.000000	24.043917
1805.000000	23.977637
1804.000000	23.933674
1803.000000	23.892277
1802.000000	23.845970
1801.000000	23.775227
1800.000000	23.703925
1799.000000	23.655610
1798.000000	23.614771
1797.000000	23.582747
1796.000000	23.539118
1795.000000	23.482323
1794.000000	23.422737
1793.000000	23.383460
1792.000000	23.324991
1791.000000	23.253244
1790.000000	23.205933
1789.000000	23.146236
1788.000000	23.075493
1787.000000	22.993703
1786.000000	22.916711
1785.000000	22.835813
1784.000000	22.748221
1783.000000	22.670002
1782.000000	22.586761
1781.000000	22.510662
1780.000000	22.421842
1779.000000	22.314834
1778.000000	22.222332
1777.000000	22.116999
1776.000000	22.009210
1775.000000	21.889482
1774.000000	21.757591
1773.000000	21.621237
1772.000000	21.477631
1771.000000	21.335921
1770.000000	21.219875
1769.000000	21.079616
1768.000000	20.958772
1767.000000	20.843284
1766.000000	20.756361
1765.000000	20.704698
1764.000000	20.665087
1763.000000	20.636968
1762.000000	20.678923
1761.000000	20.720878
1760.000000	20.785373
1759.000000	20.862141
1758.000000	20.943039
1757.000000	20.997379
1756.000000	21.051497
1755.000000	21.085864
1754.000000	21.093340
1753.000000	21.115322
1752.000000	21.095907
1751.000000	21.050716
1750.000000	20.998495
1749.000000	20.941811
1748.000000	20.863369
1747.000000	20.760936
1746.000000	20.647122
1745.000000	20.509987
1744.000000	20.354664
1743.000000	20.155489
1742.000000	19.958323
1741.000000	19.726119
1740.000000	19.493805
1739.000000	19.283472
1738.000000	19.062873
1737.000000	18.884564
1736.000000	18.781015
1735.000000	18.697105
1734.000000	18.699114
1733.000000	18.711946
1732.000000	18.744193
1731.000000	18.866264
1730.000000	18.971487
1729.000000	19.100141
1728.000000	19.208153
1727.000000	19.329109
1726.000000	19.443704
1725.000000	19.530850
1724.000000	19.582066
1723.000000	19.601035
1722.000000	19.616545
1721.000000	19.617326
1720.000000	19.649351
1719.000000	19.649016
1718.000000	19.661178
1717.000000	19.722549
1716.000000	19.787601
1715.000000	19.847075
1714.000000	19.891038
1713.000000	19.925406
1712.000000	19.963567
1711.000000	20.010767
1710.000000	19.998939
1709.000000	19.984879
1708.000000	19.965352
1707.000000	19.948950
1706.000000	19.897845
1705.000000	19.843504
1704.000000	19.780572
1703.000000	19.688070
1702.000000	19.566556
1701.000000	19.432881
1700.000000	19.282914
1699.000000	19.115317
1698.000000	18.986550
1697.000000	18.877869
1696.000000	18.824533
1695.000000	18.844283
1694.000000	18.929085
1693.000000	19.038213
1692.000000	19.194987
1691.000000	19.358678
1690.000000	19.520473
1689.000000	19.619893
1688.000000	19.693761
1687.000000	19.707039
1686.000000	19.711948
1685.000000	19.725896
1684.000000	19.825986
1683.000000	20.062206
1682.000000	20.412687
1681.000000	20.904654
1680.000000	21.405660
1679.000000	21.985554
1678.000000	22.540566
1677.000000	23.088213
1676.000000	23.569692
1675.000000	23.958892
1674.000000	24.331577
1673.000000	24.638987
1672.000000	24.935350
1671.000000	25.151374
1670.000000	25.353450
1669.000000	25.512009
1668.000000	25.655504
1667.000000	25.803909
1666.000000	25.904333
1665.000000	25.989359
1664.000000	26.055528
1663.000000	26.126271
1662.000000	26.169788
1661.000000	26.214086
1660.000000	26.252359
1659.000000	26.279139
1658.000000	26.289628
1657.000000	26.303687
1656.000000	26.304580
1655.000000	26.291859
1654.000000	26.262178
1653.000000	26.247115
1652.000000	26.218884
1651.000000	26.188422
1650.000000	26.137094
1649.000000	26.084204
1648.000000	26.030533
1647.000000	25.967824
1646.000000	25.904668
1645.000000	25.859254
1644.000000	25.780923
1643.000000	25.710626
1642.000000	25.644792
1641.000000	25.577062
1640.000000	25.505872
1639.000000	25.435463
1638.000000	25.347871
1637.000000	25.264184
1636.000000	25.181836
1635.000000	25.112878
1634.000000	25.037560
1633.000000	24.939256
1632.000000	24.858916
1631.000000	24.758380
1630.000000	24.676367
1629.000000	24.592904
1628.000000	24.505088
1627.000000	24.420509
1626.000000	24.318968
1625.000000	24.236509
1624.000000	24.165654
1623.000000	24.052621
1622.000000	23.981766
1621.000000	23.895959
1620.000000	23.803345
1619.000000	23.723676
1618.000000	23.629277
1617.000000	23.552954
1616.000000	23.479087
1615.000000	23.402876
1614.000000	23.307584
1613.000000	23.255587
1612.000000	23.173350
1611.000000	23.102830
1610.000000	23.038001
1609.000000	22.971944
1608.000000	22.903544
1607.000000	22.832577
1606.000000	22.770984
1605.000000	22.691314
1604.000000	22.628716
1603.000000	22.561543
1602.000000	22.507091
1601.000000	22.429653
1600.000000	22.360137
1599.000000	22.305573
1598.000000	22.248889
1597.000000	22.199346
1596.000000	22.142439
