PE UV       SUBTECH     SPECTRUM    ASCII       PEDS        4.00        
   -1
CICIMAUCR0014-2.Sample.ASC
24/04/12
11:08:00.00
24/04/12
11:08:00.00
Vinicio Soto Monge
C. cupreomarginata
250,000000
1
Lambda 1050
1050L1511233
PerkinElmer UV WinLab 6.3.2.0749 / 2.02.05 Lambda 900 UV/VIS/NIR, Aug  7 2015 09:38:08

0
0
3350/servo 860,8/2
0
0
UV/VIS
1
1
1
DoubleDePol,CommonBeamDepol,RBeamAtt,SBeamAtt,60mm sphere, WB InGaAs Detector
0
0
0
0
Program
Program
3350/servo 860,8/2
3350/0,2 860,8/0,2
3350/0,2 860,8/0,2
0
15.00
 
 
 
0
 
860,8
319,2
860,8
Front
100
on
S:100 R:100
0
0
0
0
 
0
 
 
 
0
 
 
0
0
0
0
0
 
 
 
 
0
0


0
0
#HDR
-1
-1
#GR
nm
%R
1.0
0.0
2500,000000
-1,000000
2251
8
42,998300
3,080100
#DATA
2482.000000	8.715680
2481.000000	8.727527
2480.000000	8.621667
2479.000000	8.697240
2478.000000	8.698196
2477.000000	8.722845
2476.000000	8.730584
2475.000000	8.750552
2474.000000	8.715680
2473.000000	8.714533
2472.000000	8.743578
2471.000000	8.759820
2470.000000	8.799183
2469.000000	8.803291
2468.000000	8.833865
2467.000000	8.891858
2466.000000	8.905712
2465.000000	8.917559
2464.000000	8.959979
2463.000000	9.013387
2462.000000	9.074725
2461.000000	9.113228
2460.000000	9.185649
2459.000000	9.243451
2458.000000	9.308133
2457.000000	9.366031
2456.000000	9.420012
2455.000000	9.513356
2454.000000	9.589407
2453.000000	9.668706
2452.000000	9.721541
2451.000000	9.786796
2450.000000	9.861796
2449.000000	9.938516
2448.000000	9.993834
2447.000000	10.084408
2446.000000	10.178325
2445.000000	10.230013
2444.000000	10.282943
2443.000000	10.358039
2442.000000	10.413930
2441.000000	10.485586
2440.000000	10.578262
2439.000000	10.622115
2438.000000	10.685555
2437.000000	10.755491
2436.000000	10.802116
2435.000000	10.880937
2434.000000	10.932816
2433.000000	11.001797
2432.000000	11.063708
2431.000000	11.104791
2430.000000	11.152657
2429.000000	11.183899
2428.000000	11.096001
2427.000000	10.980014
2426.000000	10.895937
2425.000000	10.836988
2424.000000	10.834217
2423.000000	10.885523
2422.000000	10.918294
2421.000000	10.938835
2420.000000	10.964727
2419.000000	10.941893
2418.000000	10.923071
2417.000000	10.948676
2416.000000	10.970078
2415.000000	10.933676
2414.000000	10.916574
2413.000000	10.945428
2412.000000	10.958039
2411.000000	10.961861
2410.000000	10.958613
2409.000000	10.938262
2408.000000	10.956320
2407.000000	10.962530
2406.000000	10.956702
2405.000000	10.971797
2404.000000	10.952211
2403.000000	10.966065
2402.000000	10.972753
2401.000000	10.951351
2400.000000	10.969218
2399.000000	10.982020
2398.000000	10.975428
2397.000000	10.992052
2396.000000	10.981351
2395.000000	10.979918
2394.000000	10.996065
2393.000000	10.989090
2392.000000	10.960237
2391.000000	10.969122
2390.000000	10.985460
2389.000000	10.967976
2388.000000	10.929855
2387.000000	10.923931
2386.000000	10.915619
2385.000000	10.889727
2384.000000	10.880555
2383.000000	10.867561
2382.000000	10.837179
2381.000000	10.804504
2380.000000	10.793803
2379.000000	10.776510
2378.000000	10.742307
2377.000000	10.707434
2376.000000	10.695109
2375.000000	10.653931
2374.000000	10.606160
2373.000000	10.589058
2372.000000	10.564695
2371.000000	10.522848
2370.000000	10.475650
2369.000000	10.426446
2368.000000	10.378580
2367.000000	10.320491
2366.000000	10.270236
2365.000000	10.219599
2364.000000	10.162752
2363.000000	10.101987
2362.000000	10.043229
2361.000000	9.988102
2360.000000	9.937560
2359.000000	9.881668
2358.000000	9.837337
2357.000000	9.807910
2356.000000	9.779535
2355.000000	9.740649
2354.000000	9.716191
2353.000000	9.701955
2352.000000	9.708643
2351.000000	9.696509
2350.000000	9.689821
2349.000000	9.726031
2348.000000	9.725171
2347.000000	9.732528
2346.000000	9.772751
2345.000000	9.793866
2344.000000	9.782687
2343.000000	9.788611
2342.000000	9.802942
2341.000000	9.790809
2340.000000	9.800840
2339.000000	9.767210
2338.000000	9.735490
2337.000000	9.719535
2336.000000	9.686477
2335.000000	9.651127
2334.000000	9.630681
2333.000000	9.582146
2332.000000	9.509534
2331.000000	9.456031
2330.000000	9.436063
2329.000000	9.408547
2328.000000	9.331063
2327.000000	9.250903
2326.000000	9.181158
2325.000000	9.146285
2324.000000	9.099948
2323.000000	9.036890
2322.000000	8.973260
2321.000000	8.879151
2320.000000	8.768419
2319.000000	8.695425
2318.000000	8.638578
2317.000000	8.571412
2316.000000	8.487527
2315.000000	8.398864
2314.000000	8.340393
2313.000000	8.251444
2312.000000	8.186093
2311.000000	8.141571
2310.000000	8.110042
2309.000000	8.098959
2308.000000	8.056061
2307.000000	8.049851
2306.000000	8.058832
2305.000000	8.075647
2304.000000	8.103641
2303.000000	8.145966
2302.000000	8.211889
2301.000000	8.248577
2300.000000	8.301221
2299.000000	8.336762
2298.000000	8.393036
2297.000000	8.471667
2296.000000	8.531571
2295.000000	8.534055
2294.000000	8.571125
2293.000000	8.611826
2292.000000	8.610966
2291.000000	8.620425
2290.000000	8.578769
2289.000000	8.576380
2288.000000	8.568355
2287.000000	8.558992
2286.000000	8.548864
2285.000000	8.484756
2284.000000	8.453609
2283.000000	8.403641
2282.000000	8.353577
2281.000000	8.307335
2280.000000	8.281635
2279.000000	8.257463
2278.000000	8.197080
2277.000000	8.159437
2276.000000	8.120838
2275.000000	8.128959
2274.000000	8.102685
2273.000000	8.067048
2272.000000	8.061411
2271.000000	8.113673
2270.000000	8.104596
2269.000000	8.156475
2268.000000	8.204819
2267.000000	8.282686
2266.000000	8.368482
2265.000000	8.458960
2264.000000	8.561476
2263.000000	8.710043
2262.000000	8.858228
2261.000000	9.003546
2260.000000	9.158324
2259.000000	9.343292
2258.000000	9.514598
2257.000000	9.687050
2256.000000	9.846796
2255.000000	10.029089
2254.000000	10.203548
2253.000000	10.387274
2252.000000	10.515300
2251.000000	10.680013
2250.000000	10.839759
2249.000000	10.959281
2248.000000	11.077084
2247.000000	11.198517
2246.000000	11.321479
2245.000000	11.435365
2244.000000	11.521257
2243.000000	11.627499
2242.000000	11.714633
2241.000000	11.785620
2240.000000	11.835015
2239.000000	11.886416
2238.000000	11.993041
2237.000000	12.052085
2236.000000	12.079123
2235.000000	12.159187
2234.000000	12.184028
2233.000000	12.212499
2232.000000	12.244792
2231.000000	12.274793
2230.000000	12.296767
2229.000000	12.343009
2228.000000	12.338901
2227.000000	12.356003
2226.000000	12.358296
2225.000000	12.353901
2224.000000	12.308614
2223.000000	12.321512
2222.000000	12.309761
2221.000000	12.306130
2220.000000	12.292754
2219.000000	12.241162
2218.000000	12.250143
2217.000000	12.216703
2216.000000	12.185079
2215.000000	12.161862
2214.000000	12.142276
2213.000000	12.122882
2212.000000	12.088009
2211.000000	12.074729
2210.000000	12.064888
2209.000000	12.050843
2208.000000	12.029346
2207.000000	12.008041
2206.000000	11.995620
2205.000000	11.975365
2204.000000	11.964283
2203.000000	11.969155
2202.000000	11.909251
2201.000000	11.906671
2200.000000	11.893391
2199.000000	11.885174
2198.000000	11.865970
2197.000000	11.836066
2196.000000	11.804537
2195.000000	11.807690
2194.000000	11.792594
2193.000000	11.767467
2192.000000	11.754091
2191.000000	11.737563
2190.000000	11.717499
2189.000000	11.696002
2188.000000	11.698391
2187.000000	11.682722
2186.000000	11.677562
2185.000000	11.658359
2184.000000	11.636671
2183.000000	11.638295
2182.000000	11.628932
2181.000000	11.610588
2180.000000	11.598550
2179.000000	11.577722
2178.000000	11.578295
2177.000000	11.564823
2176.000000	11.589951
2175.000000	11.602945
2174.000000	11.602085
2173.000000	11.603231
2172.000000	11.603900
2171.000000	11.594632
2170.000000	11.601416
2169.000000	11.644123
2168.000000	11.661703
2167.000000	11.659314
2166.000000	11.673454
2165.000000	11.692849
2164.000000	11.719219
2163.000000	11.741002
2162.000000	11.762499
2161.000000	11.789155
2160.000000	11.833391
2159.000000	11.857754
2158.000000	11.881161
2157.000000	11.899410
2156.000000	11.938200
2155.000000	11.990461
2154.000000	12.012627
2153.000000	12.049506
2152.000000	12.090206
2151.000000	12.093932
2150.000000	12.127085
2149.000000	12.154124
2148.000000	12.176289
2147.000000	12.209251
2146.000000	12.248328
2145.000000	12.258837
2144.000000	12.290652
2143.000000	12.323232
2142.000000	12.334793
2141.000000	12.375493
2140.000000	12.394888
2139.000000	12.414856
2138.000000	12.428805
2137.000000	12.436162
2136.000000	12.459092
2135.000000	12.474952
2134.000000	12.481735
2133.000000	12.491003
2132.000000	12.487277
2131.000000	12.488041
2130.000000	12.482691
2129.000000	12.482882
2128.000000	12.476672
2127.000000	12.441417
2126.000000	12.438933
2125.000000	12.420971
2124.000000	12.378168
2123.000000	12.361162
2122.000000	12.339283
2121.000000	12.321608
2120.000000	12.322181
2119.000000	12.312723
2118.000000	12.273455
2117.000000	12.237722
2116.000000	12.210684
2115.000000	12.187085
2114.000000	12.178200
2113.000000	12.157945
2112.000000	12.130429
2111.000000	12.103869
2110.000000	12.082563
2109.000000	12.068709
2108.000000	12.038805
2107.000000	12.003359
2106.000000	11.981193
2105.000000	11.966098
2104.000000	11.942308
2103.000000	11.910684
2102.000000	11.887658
2101.000000	11.889856
2100.000000	11.865588
2099.000000	11.835302
2098.000000	11.826130
2097.000000	11.804346
2096.000000	11.788773
2095.000000	11.787340
2094.000000	11.767467
2093.000000	11.751034
2092.000000	11.745206
2091.000000	11.734505
2090.000000	11.733741
2089.000000	11.727626
2088.000000	11.728677
2087.000000	11.730970
2086.000000	11.734505
2085.000000	11.712531
2084.000000	11.686543
2083.000000	11.683104
2082.000000	11.664473
2081.000000	11.645461
2080.000000	11.642881
2079.000000	11.627594
2078.000000	11.615843
2077.000000	11.605811
2076.000000	11.576384
2075.000000	11.539983
2074.000000	11.518581
2073.000000	11.506257
2072.000000	11.470524
2071.000000	11.453518
2070.000000	11.427626
2069.000000	11.397626
2068.000000	11.382721
2067.000000	11.352435
2066.000000	11.325683
2065.000000	11.305715
2064.000000	11.266638
2063.000000	11.250301
2062.000000	11.246575
2061.000000	11.228517
2060.000000	11.232148
2059.000000	11.247817
2058.000000	11.240556
2057.000000	11.233103
2056.000000	11.255938
2055.000000	11.296256
2054.000000	11.302658
2053.000000	11.330078
2052.000000	11.370874
2051.000000	11.425715
2050.000000	11.507976
2049.000000	11.596161
2048.000000	11.665811
2047.000000	11.745397
2046.000000	11.836830
2045.000000	11.928455
2044.000000	12.032213
2043.000000	12.136353
2042.000000	12.226066
2041.000000	12.313009
2040.000000	12.412563
2039.000000	12.515939
2038.000000	12.623424
2037.000000	12.713901
2036.000000	12.805335
2035.000000	12.887118
2034.000000	12.965462
2033.000000	13.054220
2032.000000	13.130653
2031.000000	13.194571
2030.000000	13.263361
2029.000000	13.347151
2028.000000	13.412883
2027.000000	13.458170
2026.000000	13.524189
2025.000000	13.581801
2024.000000	13.610845
2023.000000	13.675813
2022.000000	13.728266
2021.000000	13.786833
2020.000000	13.833075
2019.000000	13.878839
2018.000000	13.904540
2017.000000	13.931865
2016.000000	13.989858
2015.000000	14.015941
2014.000000	14.038489
2013.000000	14.056929
2012.000000	14.080623
2011.000000	14.084444
2010.000000	14.084540
2009.000000	14.119604
2008.000000	14.105941
2007.000000	14.114158
2006.000000	14.133171
2005.000000	14.136801
2004.000000	14.114253
2003.000000	14.096387
2002.000000	14.086260
2001.000000	14.068967
2000.000000	14.047279
1999.000000	14.027502
1998.000000	14.000272
1997.000000	13.971514
1996.000000	13.920304
1995.000000	13.875686
1994.000000	13.856865
1993.000000	13.813584
1992.000000	13.761514
1991.000000	13.733425
1990.000000	13.689667
1989.000000	13.646864
1988.000000	13.571291
1987.000000	13.542151
1986.000000	13.477469
1985.000000	13.427979
1984.000000	13.360335
1983.000000	13.290590
1982.000000	13.248361
1981.000000	13.196195
1980.000000	13.137915
1979.000000	13.073806
1978.000000	13.014571
1977.000000	12.964602
1976.000000	12.888265
1975.000000	12.834666
1974.000000	12.779156
1973.000000	12.724411
1972.000000	12.672054
1971.000000	12.602978
1970.000000	12.566863
1969.000000	12.510302
1968.000000	12.450684
1967.000000	12.368901
1966.000000	12.343869
1965.000000	12.274601
1964.000000	12.215748
1963.000000	12.183646
1962.000000	12.123455
1961.000000	12.067563
1960.000000	12.006799
1959.000000	11.963423
1958.000000	11.917945
1957.000000	11.856703
1956.000000	11.802340
1955.000000	11.732117
1954.000000	11.688072
1953.000000	11.654824
1952.000000	11.581448
1951.000000	11.529186
1950.000000	11.459919
1949.000000	11.426288
1948.000000	11.370874
1947.000000	11.313645
1946.000000	11.301224
1945.000000	11.281925
1944.000000	11.239409
1943.000000	11.222880
1942.000000	11.210460
1941.000000	11.165460
1940.000000	11.165173
1939.000000	11.171957
1938.000000	11.211033
1937.000000	11.216001
1936.000000	11.218485
1935.000000	11.221065
1934.000000	11.220205
1933.000000	11.251161
1932.000000	11.262148
1931.000000	11.302466
1930.000000	11.364091
1929.000000	11.460301
1928.000000	11.530429
1927.000000	11.619378
1926.000000	11.707276
1925.000000	11.794410
1924.000000	11.846671
1923.000000	11.899314
1922.000000	12.023996
1921.000000	12.207149
1920.000000	12.403105
1919.000000	12.556544
1918.000000	12.658678
1917.000000	12.718201
1916.000000	12.770749
1915.000000	12.891800
1914.000000	13.117946
1913.000000	13.396832
1912.000000	13.641418
1911.000000	13.817788
1910.000000	13.934731
1909.000000	13.999890
1908.000000	14.091706
1907.000000	14.321579
1906.000000	14.608872
1905.000000	14.968490
1904.000000	15.266293
1903.000000	15.439032
1902.000000	15.603841
1901.000000	15.790434
1900.000000	16.089574
1899.000000	16.443842
1898.000000	16.763620
1897.000000	17.002474
1896.000000	17.123334
1895.000000	17.239512
1894.000000	17.413302
1893.000000	17.679481
1892.000000	18.019131
1891.000000	18.379896
1890.000000	18.684387
1889.000000	18.917508
1888.000000	19.146043
1887.000000	19.336553
1886.000000	19.572158
1885.000000	19.896522
1884.000000	20.299898
1883.000000	20.634867
1882.000000	20.936969
1881.000000	21.227797
1880.000000	21.446588
1879.000000	21.667384
1878.000000	21.900410
1877.000000	22.139455
1876.000000	22.364455
1875.000000	22.615634
1874.000000	22.818182
1873.000000	23.071462
1872.000000	23.350348
1871.000000	23.592068
1870.000000	23.828533
1869.000000	23.985986
1868.000000	24.064807
1867.000000	24.083056
1866.000000	24.048374
1865.000000	23.983979
1864.000000	23.900094
1863.000000	23.813151
1862.000000	23.784966
1861.000000	23.829489
1860.000000	23.912896
1859.000000	24.025253
1858.000000	24.105413
1857.000000	24.035763
1856.000000	23.924744
1855.000000	23.925794
1854.000000	23.970508
1853.000000	23.969935
1852.000000	23.922451
1851.000000	23.776368
1850.000000	23.571240
1849.000000	23.532641
1848.000000	23.718183
1847.000000	23.940126
1846.000000	23.961623
1845.000000	23.728692
1844.000000	23.432323
1843.000000	23.259775
1842.000000	23.316908
1841.000000	23.475030
1840.000000	23.510284
1839.000000	23.452100
1838.000000	23.374424
1837.000000	23.378628
1836.000000	23.428214
1835.000000	23.411781
1834.000000	23.266845
1833.000000	23.066016
1832.000000	22.923851
1831.000000	22.895475
1830.000000	22.934265
1829.000000	22.911526
1828.000000	22.826589
1827.000000	22.780538
1826.000000	22.774901
1825.000000	22.724073
1824.000000	22.601971
1823.000000	22.456652
1822.000000	22.427226
1821.000000	22.547226
1820.000000	22.660634
1819.000000	22.650029
1818.000000	22.537958
1817.000000	22.440219
1816.000000	22.432385
1815.000000	22.439742
1814.000000	22.414519
1813.000000	22.383659
1812.000000	22.382990
1811.000000	22.405347
1810.000000	22.389487
1809.000000	22.325952
1808.000000	22.255060
1807.000000	22.237767
1806.000000	22.222385
1805.000000	22.204232
1804.000000	22.161334
1803.000000	22.104200
1802.000000	22.084709
1801.000000	22.098945
1800.000000	22.079550
1799.000000	22.029200
1798.000000	21.977607
1797.000000	21.928690
1796.000000	21.917225
1795.000000	21.894391
1794.000000	21.856365
1793.000000	21.817193
1792.000000	21.780601
1791.000000	21.741046
1790.000000	21.709995
1789.000000	21.685632
1788.000000	21.657257
1787.000000	21.602320
1786.000000	21.574995
1785.000000	21.518435
1784.000000	21.469613
1783.000000	21.423753
1782.000000	21.367479
1781.000000	21.321428
1780.000000	21.274422
1779.000000	21.222543
1778.000000	21.148689
1777.000000	21.079135
1776.000000	21.009676
1775.000000	20.931523
1774.000000	20.829771
1773.000000	20.715217
1772.000000	20.625313
1771.000000	20.535026
1770.000000	20.445981
1769.000000	20.362191
1768.000000	20.263879
1767.000000	20.180567
1766.000000	20.112446
1765.000000	20.060471
1764.000000	20.031044
1763.000000	20.005917
1762.000000	20.020439
1761.000000	20.035726
1760.000000	20.071458
1759.000000	20.088083
1758.000000	20.125917
1757.000000	20.164420
1756.000000	20.166140
1755.000000	20.179229
1754.000000	20.176650
1753.000000	20.164802
1752.000000	20.131650
1751.000000	20.080821
1750.000000	20.045758
1749.000000	19.996076
1748.000000	19.936172
1747.000000	19.871203
1746.000000	19.769834
1745.000000	19.669133
1744.000000	19.541012
1743.000000	19.392923
1742.000000	19.241680
1741.000000	19.078973
1740.000000	18.870884
1739.000000	18.718590
1738.000000	18.559705
1737.000000	18.427189
1736.000000	18.313590
1735.000000	18.246615
1734.000000	18.204195
1733.000000	18.193972
1732.000000	18.217666
1731.000000	18.270501
1730.000000	18.312443
1729.000000	18.377030
1728.000000	18.435023
1727.000000	18.500947
1726.000000	18.540214
1725.000000	18.587699
1724.000000	18.618654
1723.000000	18.631552
1722.000000	18.654195
1721.000000	18.658208
1720.000000	18.683145
1719.000000	18.724418
1718.000000	18.770756
1717.000000	18.813081
1716.000000	18.868877
1715.000000	18.962412
1714.000000	19.023655
1713.000000	19.069897
1712.000000	19.144610
1711.000000	19.187795
1710.000000	19.233273
1709.000000	19.227922
1708.000000	19.222285
1707.000000	19.222763
1706.000000	19.220948
1705.000000	19.195534
1704.000000	19.154833
1703.000000	19.104387
1702.000000	19.021266
1701.000000	18.941775
1700.000000	18.834864
1699.000000	18.732348
1698.000000	18.633750
1697.000000	18.558941
1696.000000	18.515565
1695.000000	18.521584
1694.000000	18.555501
1693.000000	18.623909
1692.000000	18.720692
1691.000000	18.837444
1690.000000	18.881871
1689.000000	18.957540
1688.000000	18.991648
1687.000000	18.992126
1686.000000	18.999005
1685.000000	19.043718
1684.000000	19.136298
1683.000000	19.313336
1682.000000	19.587636
1681.000000	19.913337
1680.000000	20.308592
1679.000000	20.704039
1678.000000	21.079039
1677.000000	21.450600
1676.000000	21.747352
1675.000000	22.003595
1674.000000	22.247799
1673.000000	22.459328
1672.000000	22.636653
1671.000000	22.794201
1670.000000	22.926717
1669.000000	23.067163
1668.000000	23.193755
1667.000000	23.373087
1666.000000	23.487163
1665.000000	23.575444
1664.000000	23.651113
1663.000000	23.755922
1662.000000	23.835317
1661.000000	23.909743
1660.000000	23.961240
1659.000000	24.006814
1658.000000	24.049616
1657.000000	24.101686
1656.000000	24.132260
1655.000000	24.144107
1654.000000	24.145636
1653.000000	24.167419
1652.000000	24.146782
1651.000000	24.118502
1650.000000	24.122037
1649.000000	24.111241
1648.000000	24.087928
1647.000000	24.059075
1646.000000	24.023151
1645.000000	23.995922
1644.000000	23.954457
1643.000000	23.930380
1642.000000	23.906208
1641.000000	23.868756
1640.000000	23.812578
1639.000000	23.749903
1638.000000	23.707673
1637.000000	23.674043
1636.000000	23.624457
1635.000000	23.588820
1634.000000	23.537036
1633.000000	23.493374
1632.000000	23.441399
1631.000000	23.403851
1630.000000	23.349870
1629.000000	23.273246
1628.000000	23.210380
1627.000000	23.169392
1626.000000	23.105284
1625.000000	23.036494
1624.000000	22.983660
1623.000000	22.919169
1622.000000	22.875029
1621.000000	22.825347
1620.000000	22.762385
1619.000000	22.713850
1618.000000	22.664933
1617.000000	22.606462
1616.000000	22.547608
1615.000000	22.497162
1614.000000	22.442130
1613.000000	22.381079
1612.000000	22.335315
1611.000000	22.275028
1610.000000	22.217321
1609.000000	22.192958
1608.000000	22.139359
1607.000000	22.089486
1606.000000	22.030824
1605.000000	21.943786
1604.000000	21.879773
1603.000000	21.844996
1602.000000	21.808117
1601.000000	21.751556
1600.000000	21.692320
