PE UV       SUBTECH     SPECTRUM    ASCII       PEDS        4.00        
   -1
CICIMAUCR0234-1.Sample.ASC
24/06/19
13:27:33.00
24/06/19
13:27:33.00
Vinicio Soto Monge
C. resplendens. Sex M. Ventral
250,000000
1
Lambda 1050
1050L1511233
PerkinElmer UV WinLab 6.3.2.0749 / 2.02.05 Lambda 900 UV/VIS/NIR, Aug  7 2015 09:38:08

0
0
3350/servo 860,8/2
0
0
UV/VIS
1
1
1
DoubleDePol,CommonBeamDepol,RBeamAtt,SBeamAtt,60mm sphere, WB InGaAs Detector
0
0
0
0
Program
Program
3350/servo 860,8/2
3350/0,2 860,8/0,2
3350/0,2 860,8/0,2
0
15.00
 
 
 
0
 
860,8
319,2
860,8
Front
100
on
S:100 R:100
0
0
0
0
 
0
 
 
 
0
 
 
0
0
0
0
0
 
 
 
 
0
0


0
0
#HDR
-1
-1
#GR
nm
%R
1.0
0.0
2500,000000
-1,000000
2251
8
65,898400
4,395000
#DATA
2482.000000	8.387233
2481.000000	8.336763
2480.000000	8.390130
2479.000000	8.392024
2478.000000	8.321165
2477.000000	8.335983
2476.000000	8.292643
2475.000000	8.318602
2474.000000	8.288187
2473.000000	8.267464
2472.000000	8.298437
2471.000000	8.322948
2470.000000	8.351247
2469.000000	8.349576
2468.000000	8.331861
2467.000000	8.306458
2466.000000	8.359937
2465.000000	8.390576
2464.000000	8.353475
2463.000000	8.398375
2462.000000	8.413416
2461.000000	8.442049
2460.000000	8.485723
2459.000000	8.486949
2458.000000	8.531626
2457.000000	8.559479
2456.000000	8.650393
2455.000000	8.654961
2454.000000	8.662091
2453.000000	8.706657
2452.000000	8.759356
2451.000000	8.813168
2450.000000	8.862413
2449.000000	8.932047
2448.000000	8.965917
2447.000000	9.004132
2446.000000	9.055716
2445.000000	9.107747
2444.000000	9.172032
2443.000000	9.236875
2442.000000	9.280327
2441.000000	9.309740
2440.000000	9.375920
2439.000000	9.433966
2438.000000	9.465942
2437.000000	9.499032
2436.000000	9.541815
2435.000000	9.600084
2434.000000	9.645653
2433.000000	9.683422
2432.000000	9.736566
2431.000000	9.766648
2430.000000	9.805532
2429.000000	9.865584
2428.000000	9.884524
2427.000000	9.922405
2426.000000	9.961511
2425.000000	9.979783
2424.000000	10.008416
2423.000000	10.040615
2422.000000	10.078050
2421.000000	10.116265
2420.000000	10.148352
2419.000000	10.181108
2418.000000	10.212303
2417.000000	10.239934
2416.000000	10.269236
2415.000000	10.296421
2414.000000	10.322826
2413.000000	10.340652
2412.000000	10.366834
2411.000000	10.368283
2410.000000	10.392125
2409.000000	10.428223
2408.000000	10.438473
2407.000000	10.490504
2406.000000	10.513009
2405.000000	10.527159
2404.000000	10.562923
2403.000000	10.603366
2402.000000	10.629994
2401.000000	10.656733
2400.000000	10.684141
2399.000000	10.712997
2398.000000	10.727815
2397.000000	10.754332
2396.000000	10.777617
2395.000000	10.812824
2394.000000	10.827419
2393.000000	10.840232
2392.000000	10.854381
2391.000000	10.890368
2390.000000	10.908751
2389.000000	10.906523
2388.000000	10.932371
2387.000000	10.946186
2386.000000	10.952426
2385.000000	10.963901
2384.000000	10.960893
2383.000000	10.968358
2382.000000	10.969360
2381.000000	10.974708
2380.000000	10.977382
2379.000000	10.969472
2378.000000	10.975265
2377.000000	10.964792
2376.000000	10.945518
2375.000000	10.933151
2374.000000	10.931814
2373.000000	10.923458
2372.000000	10.896607
2371.000000	10.882346
2370.000000	10.871093
2369.000000	10.833101
2368.000000	10.805136
2367.000000	10.798117
2366.000000	10.780068
2365.000000	10.757006
2364.000000	10.720796
2363.000000	10.685478
2362.000000	10.667763
2361.000000	10.629882
2360.000000	10.580860
2359.000000	10.547993
2358.000000	10.518246
2357.000000	10.493401
2356.000000	10.469001
2355.000000	10.446830
2354.000000	10.436134
2353.000000	10.439810
2352.000000	10.428001
2351.000000	10.414520
2350.000000	10.431120
2349.000000	10.454517
2348.000000	10.486939
2347.000000	10.505767
2346.000000	10.524039
2345.000000	10.553787
2344.000000	10.585540
2343.000000	10.612502
2342.000000	10.636902
2341.000000	10.663641
2340.000000	10.686815
2339.000000	10.715560
2338.000000	10.721687
2337.000000	10.712440
2336.000000	10.734946
2335.000000	10.735391
2334.000000	10.723581
2333.000000	10.725698
2332.000000	10.705087
2331.000000	10.692386
2330.000000	10.682358
2329.000000	10.648489
2328.000000	10.618852
2327.000000	10.576738
2326.000000	10.529944
2325.000000	10.493401
2324.000000	10.435131
2323.000000	10.383435
2322.000000	10.334302
2321.000000	10.268679
2320.000000	10.201831
2319.000000	10.131194
2318.000000	10.056770
2317.000000	9.990924
2316.000000	9.911263
2315.000000	9.843969
2314.000000	9.775338
2313.000000	9.686096
2312.000000	9.642756
2311.000000	9.584821
2310.000000	9.523209
2309.000000	9.488782
2308.000000	9.451013
2307.000000	9.427059
2306.000000	9.433855
2305.000000	9.422379
2304.000000	9.442545
2303.000000	9.451793
2302.000000	9.481651
2301.000000	9.525326
2300.000000	9.555185
2299.000000	9.618579
2298.000000	9.676180
2297.000000	9.716289
2296.000000	9.763863
2295.000000	9.840070
2294.000000	9.895331
2293.000000	9.952041
2292.000000	9.983237
2291.000000	10.033707
2290.000000	10.064791
2289.000000	10.074930
2288.000000	10.083843
2287.000000	10.090862
2286.000000	10.087074
2285.000000	10.090305
2284.000000	10.079164
2283.000000	10.059889
2282.000000	10.030142
2281.000000	9.989921
2280.000000	9.964630
2279.000000	9.944353
2278.000000	9.900345
2277.000000	9.869260
2276.000000	9.837173
2275.000000	9.818567
2274.000000	9.793387
2273.000000	9.771327
2272.000000	9.776564
2271.000000	9.774447
2270.000000	9.805866
2269.000000	9.818010
2268.000000	9.860347
2267.000000	9.923964
2266.000000	9.976775
2265.000000	10.040058
2264.000000	10.162167
2263.000000	10.255978
2262.000000	10.369843
2261.000000	10.531281
2260.000000	10.683027
2259.000000	10.823743
2258.000000	11.007353
2257.000000	11.187620
2256.000000	11.372790
2255.000000	11.541136
2254.000000	11.723186
2253.000000	11.917046
2252.000000	12.101102
2251.000000	12.287832
2250.000000	12.429996
2249.000000	12.583190
2248.000000	12.746857
2247.000000	12.939825
2246.000000	13.051016
2245.000000	13.179477
2244.000000	13.286768
2243.000000	13.393725
2242.000000	13.515167
2241.000000	13.621455
2240.000000	13.706910
2239.000000	13.757826
2238.000000	13.840718
2237.000000	13.918485
2236.000000	13.967507
2235.000000	14.038366
2234.000000	14.081706
2233.000000	14.110451
2232.000000	14.158693
2231.000000	14.190891
2230.000000	14.203815
2229.000000	14.206712
2228.000000	14.245707
2227.000000	14.230889
2226.000000	14.253283
2225.000000	14.227658
2224.000000	14.209163
2223.000000	14.190557
2222.000000	14.182424
2221.000000	14.168052
2220.000000	14.113236
2219.000000	14.112456
2218.000000	14.078586
2217.000000	14.034689
2216.000000	14.021431
2215.000000	13.991683
2214.000000	13.950795
2213.000000	13.908123
2212.000000	13.879713
2211.000000	13.861998
2210.000000	13.844840
2209.000000	13.812641
2208.000000	13.787908
2207.000000	13.778883
2206.000000	13.762171
2205.000000	13.742451
2204.000000	13.707578
2203.000000	13.709027
2202.000000	13.707355
2201.000000	13.692760
2200.000000	13.681730
2199.000000	13.654879
2198.000000	13.656773
2197.000000	13.646078
2196.000000	13.634045
2195.000000	13.609534
2194.000000	13.600064
2193.000000	13.612988
2192.000000	13.606972
2191.000000	13.577893
2190.000000	13.574662
2189.000000	13.572656
2188.000000	13.562183
2187.000000	13.537338
2186.000000	13.502688
2185.000000	13.514721
2184.000000	13.497006
2183.000000	13.494889
2182.000000	13.486199
2181.000000	13.470044
2180.000000	13.461019
2179.000000	13.436954
2178.000000	13.404198
2177.000000	13.425924
2176.000000	13.429155
2175.000000	13.417345
2174.000000	13.394171
2173.000000	13.408543
2172.000000	13.419239
2171.000000	13.425478
2170.000000	13.422359
2169.000000	13.436843
2168.000000	13.449432
2167.000000	13.457231
2166.000000	13.455672
2165.000000	13.483079
2164.000000	13.493998
2163.000000	13.505028
2162.000000	13.516392
2161.000000	13.542463
2160.000000	13.553716
2159.000000	13.605412
2158.000000	13.624352
2157.000000	13.642513
2156.000000	13.707355
2155.000000	13.732423
2154.000000	13.746796
2153.000000	13.801054
2152.000000	13.839492
2151.000000	13.881718
2150.000000	13.923610
2149.000000	13.956031
2148.000000	14.004719
2147.000000	14.024551
2146.000000	14.061874
2145.000000	14.115130
2144.000000	14.156242
2143.000000	14.185098
2142.000000	14.221642
2141.000000	14.244816
2140.000000	14.281137
2139.000000	14.331161
2138.000000	14.359461
2137.000000	14.378624
2136.000000	14.404695
2135.000000	14.434553
2134.000000	14.458507
2133.000000	14.489815
2132.000000	14.497725
2131.000000	14.515551
2130.000000	14.539728
2129.000000	14.540619
2128.000000	14.562234
2127.000000	14.570256
2126.000000	14.576829
2125.000000	14.583848
2124.000000	14.569587
2123.000000	14.565019
2122.000000	14.579503
2121.000000	14.563348
2120.000000	14.541288
2119.000000	14.542179
2118.000000	14.531818
2117.000000	14.513546
2116.000000	14.496500
2115.000000	14.469537
2114.000000	14.456502
2113.000000	14.442352
2112.000000	14.424192
2111.000000	14.400461
2110.000000	14.368596
2109.000000	14.356341
2108.000000	14.349099
2107.000000	14.326816
2106.000000	14.300411
2105.000000	14.281359
2104.000000	14.252392
2103.000000	14.229775
2102.000000	14.198690
2101.000000	14.163149
2100.000000	14.154905
2099.000000	14.142872
2098.000000	14.107442
2097.000000	14.079366
2096.000000	14.057863
2095.000000	14.030010
2094.000000	14.006502
2093.000000	13.986001
2092.000000	13.979539
2091.000000	13.967618
2090.000000	13.937314
2089.000000	13.900770
2088.000000	13.879824
2087.000000	13.868126
2086.000000	13.841275
2085.000000	13.816541
2084.000000	13.790470
2083.000000	13.766850
2082.000000	13.743008
2081.000000	13.721505
2080.000000	13.683401
2079.000000	13.633488
2078.000000	13.603295
2077.000000	13.577893
2076.000000	13.531879
2075.000000	13.483414
2074.000000	13.444864
2073.000000	13.398739
2072.000000	13.353616
2071.000000	13.305040
2070.000000	13.251784
2069.000000	13.208556
2068.000000	13.163099
2067.000000	13.116528
2066.000000	13.054582
2065.000000	13.004557
2064.000000	12.969907
2063.000000	12.918880
2062.000000	12.872754
2061.000000	12.838885
2060.000000	12.817939
2059.000000	12.790420
2058.000000	12.767357
2057.000000	12.759001
2056.000000	12.740172
2055.000000	12.724797
2054.000000	12.748082
2053.000000	12.782175
2052.000000	12.797439
2051.000000	12.833871
2050.000000	12.879328
2049.000000	12.919325
2048.000000	12.977483
2047.000000	13.045557
2046.000000	13.114411
2045.000000	13.179142
2044.000000	13.259026
2043.000000	13.328437
2042.000000	13.392834
2041.000000	13.453777
2040.000000	13.543131
2039.000000	13.621455
2038.000000	13.680170
2037.000000	13.738774
2036.000000	13.791473
2035.000000	13.847403
2034.000000	13.893862
2033.000000	13.949123
2032.000000	13.986001
2031.000000	14.030010
2030.000000	14.062877
2029.000000	14.088725
2028.000000	14.101203
2027.000000	14.127497
2026.000000	14.162815
2025.000000	14.167829
2024.000000	14.172397
2023.000000	14.191337
2022.000000	14.202701
2021.000000	14.209052
2020.000000	14.228661
2019.000000	14.234231
2018.000000	14.227992
2017.000000	14.213174
2016.000000	14.209275
2015.000000	14.212283
2014.000000	14.218411
2013.000000	14.211057
2012.000000	14.187438
2011.000000	14.155350
2010.000000	14.145100
2009.000000	14.115241
2008.000000	14.080480
2007.000000	14.055078
2006.000000	14.041151
2005.000000	13.987450
2004.000000	13.949680
2003.000000	13.923498
2002.000000	13.884726
2001.000000	13.848851
2000.000000	13.805622
1999.000000	13.758717
1998.000000	13.689863
1997.000000	13.640061
1996.000000	13.582238
1995.000000	13.522408
1994.000000	13.473386
1993.000000	13.406649
1992.000000	13.363978
1991.000000	13.277855
1990.000000	13.245434
1989.000000	13.173126
1988.000000	13.095359
1987.000000	13.028957
1986.000000	12.954198
1985.000000	12.882893
1984.000000	12.817493
1983.000000	12.746857
1982.000000	12.673881
1981.000000	12.615834
1980.000000	12.540073
1979.000000	12.464868
1978.000000	12.399357
1977.000000	12.344764
1976.000000	12.290394
1975.000000	12.202043
1974.000000	12.136309
1973.000000	12.067010
1972.000000	11.999604
1971.000000	11.941223
1970.000000	11.885851
1969.000000	11.808864
1968.000000	11.754605
1967.000000	11.694999
1966.000000	11.653887
1965.000000	11.587707
1964.000000	11.546707
1963.000000	11.452674
1962.000000	11.419027
1961.000000	11.368668
1960.000000	11.306387
1959.000000	11.240207
1958.000000	11.215919
1957.000000	11.166897
1956.000000	11.107291
1955.000000	11.045679
1954.000000	11.020834
1953.000000	10.964347
1952.000000	10.906300
1951.000000	10.860175
1950.000000	10.822963
1949.000000	10.784859
1948.000000	10.755780
1947.000000	10.720239
1946.000000	10.680687
1945.000000	10.649714
1944.000000	10.615844
1943.000000	10.605037
1942.000000	10.590888
1941.000000	10.574176
1940.000000	10.529164
1939.000000	10.530947
1938.000000	10.552450
1937.000000	10.546322
1936.000000	10.522591
1935.000000	10.540974
1934.000000	10.556684
1933.000000	10.568271
1932.000000	10.585094
1931.000000	10.662750
1930.000000	10.669657
1929.000000	10.727927
1928.000000	10.778954
1927.000000	10.846805
1926.000000	10.924795
1925.000000	10.974151
1924.000000	11.058714
1923.000000	11.129685
1922.000000	11.202438
1921.000000	11.310844
1920.000000	11.439304
1919.000000	11.551832
1918.000000	11.657229
1917.000000	11.747363
1916.000000	11.878720
1915.000000	11.999827
1914.000000	12.137869
1913.000000	12.310337
1912.000000	12.488934
1911.000000	12.667084
1910.000000	12.836991
1909.000000	12.952749
1908.000000	13.135134
1907.000000	13.302700
1906.000000	13.520960
1905.000000	13.772421
1904.000000	14.019426
1903.000000	14.253617
1902.000000	14.487586
1901.000000	14.748295
1900.000000	15.022596
1899.000000	15.337006
1898.000000	15.633255
1897.000000	15.944322
1896.000000	16.231213
1895.000000	16.517324
1894.000000	16.823935
1893.000000	17.141910
1892.000000	17.534978
1891.000000	17.978070
1890.000000	18.403671
1889.000000	18.819913
1888.000000	19.276376
1887.000000	19.721363
1886.000000	20.195429
1885.000000	20.697682
1884.000000	21.268344
1883.000000	21.869310
1882.000000	22.468716
1881.000000	23.023112
1880.000000	23.575947
1879.000000	24.109062
1878.000000	24.648082
1877.000000	25.188774
1876.000000	25.703951
1875.000000	26.222026
1874.000000	26.730630
1873.000000	27.205698
1872.000000	27.684109
1871.000000	28.109822
1870.000000	28.543221
1869.000000	28.919912
1868.000000	29.297382
1867.000000	29.570234
1866.000000	29.791502
1865.000000	29.974666
1864.000000	30.155825
1863.000000	30.342109
1862.000000	30.510121
1861.000000	30.705318
1860.000000	30.891825
1859.000000	31.062957
1858.000000	31.208575
1857.000000	31.320657
1856.000000	31.419592
1855.000000	31.484658
1854.000000	31.561756
1853.000000	31.616461
1852.000000	31.625931
1851.000000	31.639523
1850.000000	31.645317
1849.000000	31.656013
1848.000000	31.699018
1847.000000	31.730994
1846.000000	31.705480
1845.000000	31.642197
1844.000000	31.604985
1843.000000	31.582145
1842.000000	31.588050
1841.000000	31.608662
1840.000000	31.587716
1839.000000	31.575349
1838.000000	31.549724
1837.000000	31.505492
1836.000000	31.468503
1835.000000	31.441875
1834.000000	31.369011
1833.000000	31.287567
1832.000000	31.217488
1831.000000	31.156322
1830.000000	31.099612
1829.000000	31.048919
1828.000000	30.975497
1827.000000	30.895056
1826.000000	30.824531
1825.000000	30.758017
1824.000000	30.685710
1823.000000	30.633679
1822.000000	30.618973
1821.000000	30.624878
1820.000000	30.590116
1819.000000	30.555244
1818.000000	30.514355
1817.000000	30.474692
1816.000000	30.438371
1815.000000	30.432466
1814.000000	30.419096
1813.000000	30.393248
1812.000000	30.371300
1811.000000	30.338321
1810.000000	30.289745
1809.000000	30.234149
1808.000000	30.197605
1807.000000	30.151592
1806.000000	30.104575
1805.000000	30.055664
1804.000000	29.996058
1803.000000	29.947147
1802.000000	29.893446
1801.000000	29.844089
1800.000000	29.788382
1799.000000	29.721089
1798.000000	29.661148
1797.000000	29.602878
1796.000000	29.551405
1795.000000	29.509068
1794.000000	29.444559
1793.000000	29.394646
1792.000000	29.358437
1791.000000	29.294039
1790.000000	29.225520
1789.000000	29.170370
1788.000000	29.124467
1787.000000	29.058176
1786.000000	29.001689
1785.000000	28.946317
1784.000000	28.879468
1783.000000	28.808164
1782.000000	28.721595
1781.000000	28.646391
1780.000000	28.581771
1779.000000	28.502778
1778.000000	28.407854
1777.000000	28.316717
1776.000000	28.240287
1775.000000	28.140572
1774.000000	28.019911
1773.000000	27.916964
1772.000000	27.807110
1771.000000	27.680767
1770.000000	27.565899
1769.000000	27.434654
1768.000000	27.315107
1767.000000	27.206033
1766.000000	27.114896
1765.000000	27.033230
1764.000000	26.969501
1763.000000	26.911566
1762.000000	26.902096
1761.000000	26.913906
1760.000000	26.940199
1759.000000	26.995572
1758.000000	27.068214
1757.000000	27.121470
1756.000000	27.179182
1755.000000	27.244916
1754.000000	27.299955
1753.000000	27.331039
1752.000000	27.343963
1751.000000	27.344520
1750.000000	27.318338
1749.000000	27.298395
1748.000000	27.264302
1747.000000	27.202579
1746.000000	27.117681
1745.000000	27.032004
1744.000000	26.923264
1743.000000	26.792576
1742.000000	26.643616
1741.000000	26.445745
1740.000000	26.247539
1739.000000	26.039975
1738.000000	25.844667
1737.000000	25.652144
1736.000000	25.486026
1735.000000	25.350101
1734.000000	25.245372
1733.000000	25.211836
1732.000000	25.187771
1731.000000	25.214176
1730.000000	25.281581
1729.000000	25.349544
1728.000000	25.443911
1727.000000	25.549086
1726.000000	25.655375
1725.000000	25.727794
1724.000000	25.802775
1723.000000	25.881545
1722.000000	25.918089
1721.000000	25.973796
1720.000000	26.048332
1719.000000	26.097131
1718.000000	26.132003
1717.000000	26.197849
1716.000000	26.312159
1715.000000	26.413546
1714.000000	26.520615
1713.000000	26.621110
1712.000000	26.698543
1711.000000	26.757926
1710.000000	26.817310
1709.000000	26.872014
1708.000000	26.868337
1707.000000	26.880481
1706.000000	26.872905
1705.000000	26.835359
1704.000000	26.778092
1703.000000	26.716035
1702.000000	26.625455
1701.000000	26.527634
1700.000000	26.405858
1699.000000	26.260909
1698.000000	26.124650
1697.000000	25.991288
1696.000000	25.895249
1695.000000	25.835865
1694.000000	25.824835
1693.000000	25.907393
1692.000000	25.991065
1691.000000	26.151835
1690.000000	26.319067
1689.000000	26.470033
1688.000000	26.615205
1687.000000	26.727287
1686.000000	26.817867
1685.000000	26.905772
1684.000000	27.002257
1683.000000	27.186647
1682.000000	27.445127
1681.000000	27.810230
1680.000000	28.258782
1679.000000	28.757916
1678.000000	29.314428
1677.000000	29.845538
1676.000000	30.346677
1675.000000	30.804254
1674.000000	31.246010
1673.000000	31.578803
1672.000000	31.900455
1671.000000	32.196147
1670.000000	32.420089
1669.000000	32.649935
1668.000000	32.826192
1667.000000	33.039995
1666.000000	33.164222
1665.000000	33.322764
1664.000000	33.425821
1663.000000	33.526651
1662.000000	33.630489
1661.000000	33.709147
1660.000000	33.763517
1659.000000	33.807637
1658.000000	33.895988
1657.000000	33.934314
1656.000000	33.938659
1655.000000	33.969187
1654.000000	33.949801
1653.000000	33.956820
1652.000000	33.954926
1651.000000	33.930080
1650.000000	33.920499
1649.000000	33.877939
1648.000000	33.832482
1647.000000	33.788139
1646.000000	33.739006
1645.000000	33.681293
1644.000000	33.631937
1643.000000	33.555953
1642.000000	33.504814
1641.000000	33.453229
1640.000000	33.404987
1639.000000	33.336467
1638.000000	33.262266
1637.000000	33.206002
1636.000000	33.083892
1635.000000	33.034870
1634.000000	32.989748
1633.000000	32.878334
1632.000000	32.807363
1631.000000	32.733607
1630.000000	32.642359
1629.000000	32.522589
1628.000000	32.440812
1627.000000	32.367613
1626.000000	32.257647
1625.000000	32.176649
1624.000000	32.077157
1623.000000	31.992371
1622.000000	31.903463
1621.000000	31.797062
1620.000000	31.711385
1619.000000	31.627602
1618.000000	31.533792
1617.000000	31.461707
1616.000000	31.375807
1615.000000	31.286787
1614.000000	31.198770
1613.000000	31.109416
1612.000000	31.043236
1611.000000	30.952546
1610.000000	30.877564
1609.000000	30.796455
1608.000000	30.701307
1607.000000	30.624320
1606.000000	30.525608
1605.000000	30.429792
1604.000000	30.363946
1603.000000	30.251753
