PE UV       SUBTECH     SPECTRUM    ASCII       PEDS        4.00        
   -1
CICIMAUCR0019-2.Sample.ASC
24/04/17
13:53:15.00
24/04/17
13:53:15.00
Vinicio Soto Monge
C. cupreomarginata
250,000000
1
Lambda 1050
1050L1511233
PerkinElmer UV WinLab 6.3.2.0749 / 2.02.05 Lambda 900 UV/VIS/NIR, Aug  7 2015 09:38:08

0
0
3350/servo 860,8/2
0
0
UV/VIS
1
1
1
DoubleDePol,CommonBeamDepol,RBeamAtt,SBeamAtt,60mm sphere, WB InGaAs Detector
0
0
0
0
Program
Program
3350/servo 860,8/2
3350/0,2 860,8/0,2
3350/0,2 860,8/0,2
0
15.00
 
 
 
0
 
860,8
319,2
860,8
Front
100
on
S:100 R:100
0
0
0
0
 
0
 
 
 
0
 
 
0
0
0
0
0
 
 
 
 
0
0


0
0
#HDR
-1
-1
#GR
nm
%R
1.0
0.0
2500,000000
-1,000000
2251
8
31,978300
2,304500
#DATA
2482.000000	5.436905
2481.000000	5.419008
2480.000000	5.407012
2479.000000	5.385280
2478.000000	5.349781
2477.000000	5.353714
2476.000000	5.331688
2475.000000	5.327459
2474.000000	5.370431
2473.000000	5.331786
2472.000000	5.335326
2471.000000	5.351256
2470.000000	5.333949
2469.000000	5.335916
2468.000000	5.384296
2467.000000	5.351944
2466.000000	5.363450
2465.000000	5.337489
2464.000000	5.397867
2463.000000	5.404652
2462.000000	5.428449
2461.000000	5.413895
2460.000000	5.468372
2459.000000	5.464242
2458.000000	5.511344
2457.000000	5.534551
2456.000000	5.573787
2455.000000	5.601714
2454.000000	5.615480
2453.000000	5.661501
2452.000000	5.669073
2451.000000	5.712536
2450.000000	5.771635
2449.000000	5.796612
2448.000000	5.818836
2447.000000	5.848828
2446.000000	5.876853
2445.000000	5.908812
2444.000000	5.934084
2443.000000	5.964076
2442.000000	6.011571
2441.000000	6.037433
2440.000000	6.075783
2439.000000	6.114724
2438.000000	6.140979
2437.000000	6.169693
2436.000000	6.188671
2435.000000	6.216205
2434.000000	6.235773
2433.000000	6.271567
2432.000000	6.291332
2431.000000	6.307951
2430.000000	6.338828
2429.000000	6.340499
2428.000000	6.368820
2427.000000	6.387503
2426.000000	6.380915
2425.000000	6.406088
2424.000000	6.441882
2423.000000	6.457911
2422.000000	6.462336
2421.000000	6.466957
2420.000000	6.454666
2419.000000	6.453092
2418.000000	6.431065
2417.000000	6.420839
2416.000000	6.439719
2415.000000	6.461352
2414.000000	6.475808
2413.000000	6.474431
2412.000000	6.490754
2411.000000	6.491836
2410.000000	6.497834
2409.000000	6.502653
2408.000000	6.512880
2407.000000	6.517993
2406.000000	6.530285
2405.000000	6.527433
2404.000000	6.534316
2403.000000	6.553295
2402.000000	6.561260
2401.000000	6.574240
2400.000000	6.579354
2399.000000	6.574142
2398.000000	6.589187
2397.000000	6.600594
2396.000000	6.609346
2395.000000	6.621637
2394.000000	6.645041
2393.000000	6.650843
2392.000000	6.644156
2391.000000	6.646713
2390.000000	6.632454
2389.000000	6.633044
2388.000000	6.627341
2387.000000	6.617212
2386.000000	6.619277
2385.000000	6.623997
2384.000000	6.605117
2383.000000	6.590170
2382.000000	6.582009
2381.000000	6.572569
2380.000000	6.564898
2379.000000	6.557425
2378.000000	6.555852
2377.000000	6.544543
2376.000000	6.531858
2375.000000	6.518288
2374.000000	6.492328
2373.000000	6.482199
2372.000000	6.468826
2371.000000	6.441882
2370.000000	6.428115
2369.000000	6.390453
2368.000000	6.366460
2367.000000	6.348268
2366.000000	6.316309
2365.000000	6.285334
2364.000000	6.243935
2363.000000	6.216893
2362.000000	6.184246
2361.000000	6.153861
2360.000000	6.134882
2359.000000	6.100662
2358.000000	6.084830
2357.000000	6.061427
2356.000000	6.029861
2355.000000	6.027010
2354.000000	6.030746
2353.000000	6.035368
2352.000000	6.033205
2351.000000	6.051102
2350.000000	6.067228
2349.000000	6.072735
2348.000000	6.085814
2347.000000	6.109119
2346.000000	6.122296
2345.000000	6.138127
2344.000000	6.143831
2343.000000	6.143732
2342.000000	6.171561
2341.000000	6.174019
2340.000000	6.153566
2339.000000	6.136456
2338.000000	6.140586
2337.000000	6.147666
2336.000000	6.129277
2335.000000	6.133014
2334.000000	6.103022
2333.000000	6.076767
2332.000000	6.059263
2331.000000	6.035368
2330.000000	6.005868
2329.000000	5.976859
2328.000000	5.953161
2327.000000	5.932314
2326.000000	5.900355
2325.000000	5.859645
2324.000000	5.828571
2323.000000	5.795137
2322.000000	5.754919
2321.000000	5.708996
2320.000000	5.665828
2319.000000	5.627084
2318.000000	5.591585
2317.000000	5.542516
2316.000000	5.507903
2315.000000	5.458539
2314.000000	5.444379
2313.000000	5.415960
2312.000000	5.383706
2311.000000	5.364433
2310.000000	5.346241
2309.000000	5.332966
2308.000000	5.338079
2307.000000	5.335129
2306.000000	5.350174
2305.000000	5.360991
2304.000000	5.405242
2303.000000	5.440445
2302.000000	5.469552
2301.000000	5.502298
2300.000000	5.510656
2299.000000	5.557365
2298.000000	5.601124
2297.000000	5.625216
2296.000000	5.638982
2295.000000	5.678611
2294.000000	5.705358
2293.000000	5.703981
2292.000000	5.699851
2291.000000	5.728565
2290.000000	5.740267
2289.000000	5.742332
2288.000000	5.730040
2287.000000	5.707620
2286.000000	5.707915
2285.000000	5.672318
2284.000000	5.663074
2283.000000	5.635147
2282.000000	5.639572
2281.000000	5.623347
2280.000000	5.594240
2279.000000	5.563363
2278.000000	5.557660
2277.000000	5.534060
2276.000000	5.520096
2275.000000	5.532093
2274.000000	5.519703
2273.000000	5.511246
2272.000000	5.531306
2271.000000	5.530126
2270.000000	5.566903
2269.000000	5.585095
2268.000000	5.635147
2267.000000	5.679398
2266.000000	5.724927
2265.000000	5.793564
2264.000000	5.878623
2263.000000	5.923267
2262.000000	6.026715
2261.000000	6.124066
2260.000000	6.211682
2259.000000	6.294479
2258.000000	6.422805
2257.000000	6.545133
2256.000000	6.642976
2255.000000	6.747505
2254.000000	6.863146
2253.000000	6.971609
2252.000000	7.075745
2251.000000	7.171425
2250.000000	7.253239
2249.000000	7.319614
2248.000000	7.417850
2247.000000	7.497206
2246.000000	7.564762
2245.000000	7.658770
2244.000000	7.718262
2243.000000	7.786211
2242.000000	7.834296
2241.000000	7.890249
2240.000000	7.922797
2239.000000	8.004316
2238.000000	8.053189
2237.000000	8.105994
2236.000000	8.140411
2235.000000	8.191938
2234.000000	8.228125
2233.000000	8.233140
2232.000000	8.265197
2231.000000	8.315643
2230.000000	8.330688
2229.000000	8.362942
2228.000000	8.368153
2227.000000	8.387230
2226.000000	8.402669
2225.000000	8.395589
2224.000000	8.411224
2223.000000	8.414272
2222.000000	8.402275
2221.000000	8.424696
2220.000000	8.429809
2219.000000	8.418304
2218.000000	8.414469
2217.000000	8.410044
2216.000000	8.375627
2215.000000	8.386149
2214.000000	8.377594
2213.000000	8.379659
2212.000000	8.372480
2211.000000	8.355370
2210.000000	8.334523
2209.000000	8.348192
2208.000000	8.331376
2207.000000	8.309350
2206.000000	8.330098
2205.000000	8.311611
2204.000000	8.303449
2203.000000	8.289683
2202.000000	8.294993
2201.000000	8.275621
2200.000000	8.267852
2199.000000	8.283684
2198.000000	8.258019
2197.000000	8.248481
2196.000000	8.237565
2195.000000	8.246416
2194.000000	8.224192
2193.000000	8.211704
2192.000000	8.193512
2191.000000	8.175221
2190.000000	8.174336
2189.000000	8.158210
2188.000000	8.162241
2187.000000	8.151425
2186.000000	8.141394
2185.000000	8.137559
2184.000000	8.126448
2183.000000	8.105306
2182.000000	8.105207
2181.000000	8.087901
2180.000000	8.083279
2179.000000	8.079247
2178.000000	8.088589
2177.000000	8.098422
2176.000000	8.084262
2175.000000	8.062629
2174.000000	8.060760
2173.000000	8.068922
2172.000000	8.082001
2171.000000	8.085344
2170.000000	8.088687
2169.000000	8.090359
2168.000000	8.111599
2167.000000	8.115238
2166.000000	8.125268
2165.000000	8.129496
2164.000000	8.142673
2163.000000	8.164995
2162.000000	8.179548
2161.000000	8.199313
2160.000000	8.192627
2159.000000	8.219275
2158.000000	8.241400
2157.000000	8.260182
2156.000000	8.270802
2155.000000	8.285749
2154.000000	8.311906
2153.000000	8.328918
2152.000000	8.351043
2151.000000	8.383100
2150.000000	8.391164
2149.000000	8.408372
2148.000000	8.415551
2147.000000	8.430104
2146.000000	8.450656
2145.000000	8.468258
2144.000000	8.490383
2143.000000	8.501003
2142.000000	8.508182
2141.000000	8.523030
2140.000000	8.519195
2139.000000	8.531683
2138.000000	8.541320
2137.000000	8.543975
2136.000000	8.538075
2135.000000	8.537583
2134.000000	8.553022
2133.000000	8.548499
2132.000000	8.546434
2131.000000	8.536895
2130.000000	8.504641
2129.000000	8.482615
2128.000000	8.486351
2127.000000	8.473961
2126.000000	8.446526
2125.000000	8.433152
2124.000000	8.420369
2123.000000	8.383887
2122.000000	8.354485
2121.000000	8.357828
2120.000000	8.359402
2119.000000	8.330688
2118.000000	8.308759
2117.000000	8.300499
2116.000000	8.280341
2115.000000	8.260871
2114.000000	8.247104
2113.000000	8.236385
2112.000000	8.228715
2111.000000	8.216325
2110.000000	8.198723
2109.000000	8.188890
2108.000000	8.174238
2107.000000	8.144934
2106.000000	8.142574
2105.000000	8.144738
2104.000000	8.126251
2103.000000	8.119466
2102.000000	8.112484
2101.000000	8.084852
2100.000000	8.058400
2099.000000	8.057122
2098.000000	8.062235
2097.000000	8.054565
2096.000000	8.053090
2095.000000	8.055844
2094.000000	8.038733
2093.000000	8.039028
2092.000000	8.054467
2091.000000	8.054664
2090.000000	8.056925
2089.000000	8.076592
2088.000000	8.071479
2087.000000	8.070004
2086.000000	8.070692
2085.000000	8.073544
2084.000000	8.088294
2083.000000	8.086032
2082.000000	8.075019
2081.000000	8.087114
2080.000000	8.092817
2079.000000	8.082787
2078.000000	8.084066
2077.000000	8.086819
2076.000000	8.073445
2075.000000	8.067152
2074.000000	8.052500
2073.000000	8.043847
2072.000000	8.043847
2071.000000	8.041388
2070.000000	8.027032
2069.000000	8.007561
2068.000000	7.987895
2067.000000	7.972456
2066.000000	7.973538
2065.000000	7.975996
2064.000000	7.969801
2063.000000	7.947479
2062.000000	7.941186
2061.000000	7.955051
2060.000000	7.951806
2059.000000	7.952199
2058.000000	7.946299
2057.000000	7.934892
2056.000000	7.955838
2055.000000	7.983175
2054.000000	8.013658
2053.000000	8.038930
2052.000000	8.060465
2051.000000	8.095472
2050.000000	8.135494
2049.000000	8.192823
2048.000000	8.242875
2047.000000	8.293223
2046.000000	8.338653
2045.000000	8.402865
2044.000000	8.450754
2043.000000	8.555579
2042.000000	8.618709
2041.000000	8.689215
2040.000000	8.743594
2039.000000	8.789024
2038.000000	8.842715
2037.000000	8.917154
2036.000000	8.986578
2035.000000	9.037417
2034.000000	9.097106
2033.000000	9.150993
2032.000000	9.186590
2031.000000	9.227694
2030.000000	9.273518
2029.000000	9.315801
2028.000000	9.380800
2027.000000	9.403712
2026.000000	9.426919
2025.000000	9.479135
2024.000000	9.509913
2023.000000	9.535284
2022.000000	9.566161
2021.000000	9.611689
2020.000000	9.627030
2019.000000	9.650728
2018.000000	9.697535
2017.000000	9.719562
2016.000000	9.751422
2015.000000	9.758798
2014.000000	9.783676
2013.000000	9.781906
2012.000000	9.798131
2011.000000	9.814356
2010.000000	9.825468
2009.000000	9.838055
2008.000000	9.831467
2007.000000	9.838940
2006.000000	9.817208
2005.000000	9.819667
2004.000000	9.805703
2003.000000	9.807965
2002.000000	9.796263
2001.000000	9.784955
2000.000000	9.749751
1999.000000	9.722709
1998.000000	9.725561
1997.000000	9.714252
1996.000000	9.668625
1995.000000	9.661250
1994.000000	9.607068
1993.000000	9.574617
1992.000000	9.539020
1991.000000	9.517583
1990.000000	9.484150
1989.000000	9.447963
1988.000000	9.409022
1987.000000	9.364280
1986.000000	9.319046
1985.000000	9.257686
1984.000000	9.230644
1983.000000	9.198095
1982.000000	9.149026
1981.000000	9.109988
1980.000000	9.073702
1979.000000	9.031025
1978.000000	8.989036
1977.000000	8.949408
1976.000000	8.905551
1975.000000	8.843403
1974.000000	8.811445
1973.000000	8.737989
1972.000000	8.718224
1971.000000	8.680463
1970.000000	8.644965
1969.000000	8.593929
1968.000000	8.549974
1967.000000	8.495988
1966.000000	8.459408
1965.000000	8.407192
1964.000000	8.387525
1963.000000	8.352617
1962.000000	8.284766
1961.000000	8.237565
1960.000000	8.229404
1959.000000	8.166076
1958.000000	8.136281
1957.000000	8.085934
1956.000000	8.025360
1955.000000	7.975996
1954.000000	7.963901
1953.000000	7.928796
1952.000000	7.872450
1951.000000	7.855143
1950.000000	7.812073
1949.000000	7.755137
1948.000000	7.740289
1947.000000	7.732815
1946.000000	7.686106
1945.000000	7.655721
1944.000000	7.638021
1943.000000	7.609799
1942.000000	7.614027
1941.000000	7.592492
1940.000000	7.572530
1939.000000	7.567417
1938.000000	7.602916
1937.000000	7.604587
1936.000000	7.612061
1935.000000	7.602326
1934.000000	7.617076
1933.000000	7.612356
1932.000000	7.609406
1931.000000	7.637431
1930.000000	7.689942
1929.000000	7.721310
1928.000000	7.778442
1927.000000	7.833805
1926.000000	7.895067
1925.000000	7.942169
1924.000000	7.958296
1923.000000	7.988976
1922.000000	8.089769
1921.000000	8.184858
1920.000000	8.326361
1919.000000	8.428629
1918.000000	8.498741
1917.000000	8.513885
1916.000000	8.555579
1915.000000	8.620381
1914.000000	8.749002
1913.000000	8.911746
1912.000000	9.095041
1911.000000	9.238216
1910.000000	9.299675
1909.000000	9.317965
1908.000000	9.395747
1907.000000	9.528597
1906.000000	9.718284
1905.000000	9.979755
1904.000000	10.191960
1903.000000	10.313010
1902.000000	10.437108
1901.000000	10.575661
1900.000000	10.752663
1899.000000	11.000564
1898.000000	11.245219
1897.000000	11.402456
1896.000000	11.505117
1895.000000	11.592143
1894.000000	11.733154
1893.000000	11.923038
1892.000000	12.169267
1891.000000	12.446177
1890.000000	12.675296
1889.000000	12.875996
1888.000000	13.046114
1887.000000	13.175817
1886.000000	13.376321
1885.000000	13.641037
1884.000000	13.917652
1883.000000	14.208819
1882.000000	14.465767
1881.000000	14.710423
1880.000000	14.907878
1879.000000	15.076817
1878.000000	15.302986
1877.000000	15.517944
1876.000000	15.717662
1875.000000	15.948354
1874.000000	16.136959
1873.000000	16.359195
1872.000000	16.611324
1871.000000	16.780951
1870.000000	16.964246
1869.000000	17.150589
1868.000000	17.230142
1867.000000	17.220112
1866.000000	17.192185
1865.000000	17.122564
1864.000000	17.040750
1863.000000	16.956084
1862.000000	16.924519
1861.000000	16.945267
1860.000000	16.986371
1859.000000	17.097587
1858.000000	17.175173
1857.000000	17.136724
1856.000000	17.049305
1855.000000	17.024918
1854.000000	17.021378
1853.000000	17.010266
1852.000000	16.975653
1851.000000	16.870337
1850.000000	16.718803
1849.000000	16.664523
1848.000000	16.774166
1847.000000	16.923240
1846.000000	16.943399
1845.000000	16.789407
1844.000000	16.574350
1843.000000	16.412984
1842.000000	16.411115
1841.000000	16.507581
1840.000000	16.544555
1839.000000	16.529215
1838.000000	16.496863
1837.000000	16.490373
1836.000000	16.496961
1835.000000	16.451727
1834.000000	16.344936
1833.000000	16.185831
1832.000000	16.053277
1831.000000	15.989359
1830.000000	15.980608
1829.000000	15.943044
1828.000000	15.884830
1827.000000	15.860148
1826.000000	15.848446
1825.000000	15.806654
1824.000000	15.697208
1823.000000	15.547346
1822.000000	15.501523
1821.000000	15.578518
1820.000000	15.694455
1819.000000	15.747063
1818.000000	15.670166
1817.000000	15.572323
1816.000000	15.529745
1815.000000	15.518928
1814.000000	15.511258
1813.000000	15.483429
1812.000000	15.461304
1811.000000	15.477726
1810.000000	15.480086
1809.000000	15.428657
1808.000000	15.364248
1807.000000	15.339566
1806.000000	15.333174
1805.000000	15.315474
1804.000000	15.263947
1803.000000	15.243100
1802.000000	15.241330
1801.000000	15.234053
1800.000000	15.224613
1799.000000	15.184984
1798.000000	15.133851
1797.000000	15.087830
1796.000000	15.076915
1795.000000	15.068458
1794.000000	15.046333
1793.000000	15.012506
1792.000000	14.977302
1791.000000	14.969829
1790.000000	14.932364
1789.000000	14.892735
1788.000000	14.863824
1787.000000	14.847599
1786.000000	14.820361
1785.000000	14.784469
1784.000000	14.750740
1783.000000	14.722420
1782.000000	14.667156
1781.000000	14.632837
1780.000000	14.596945
1779.000000	14.552105
1778.000000	14.493399
1777.000000	14.453475
1776.000000	14.379036
1775.000000	14.325641
1774.000000	14.238516
1773.000000	14.157292
1772.000000	14.087868
1771.000000	14.027983
1770.000000	13.933188
1769.000000	13.842721
1768.000000	13.769560
1767.000000	13.700038
1766.000000	13.651657
1765.000000	13.595607
1764.000000	13.573186
1763.000000	13.541228
1762.000000	13.523626
1761.000000	13.554601
1760.000000	13.576726
1759.000000	13.599343
1758.000000	13.625697
1757.000000	13.662474
1756.000000	13.682534
1755.000000	13.668079
1754.000000	13.686271
1753.000000	13.675257
1752.000000	13.639365
1751.000000	13.630614
1750.000000	13.596983
1749.000000	13.571711
1748.000000	13.526969
1747.000000	13.466789
1746.000000	13.395201
1745.000000	13.309650
1744.000000	13.203154
1743.000000	13.111605
1742.000000	12.985049
1741.000000	12.857312
1740.000000	12.708238
1739.000000	12.589941
1738.000000	12.452175
1737.000000	12.338107
1736.000000	12.243608
1735.000000	12.174282
1734.000000	12.131408
1733.000000	12.103678
1732.000000	12.106530
1731.000000	12.157172
1730.000000	12.154222
1729.000000	12.222368
1728.000000	12.266618
1727.000000	12.326209
1726.000000	12.345187
1725.000000	12.369771
1724.000000	12.398288
1723.000000	12.419921
1722.000000	12.423756
1721.000000	12.416283
1720.000000	12.424248
1719.000000	12.444800
1718.000000	12.483249
1717.000000	12.511372
1716.000000	12.567718
1715.000000	12.613148
1714.000000	12.671657
1713.000000	12.768615
1712.000000	12.787495
1711.000000	12.832040
1710.000000	12.829680
1709.000000	12.868228
1708.000000	12.854362
1707.000000	12.875111
1706.000000	12.868031
1705.000000	12.860557
1704.000000	12.852494
1703.000000	12.832040
1702.000000	12.789757
1701.000000	12.736460
1700.000000	12.637044
1699.000000	12.583648
1698.000000	12.512946
1697.000000	12.429558
1696.000000	12.410776
1695.000000	12.405368
1694.000000	12.431820
1693.000000	12.485412
1692.000000	12.561424
1691.000000	12.648844
1690.000000	12.700371
1689.000000	12.714334
1688.000000	12.731543
1687.000000	12.733706
1686.000000	12.754750
1685.000000	12.739705
1684.000000	12.749046
1683.000000	12.882191
1682.000000	13.078663
1681.000000	13.323417
1680.000000	13.638284
1679.000000	13.950889
1678.000000	14.248448
1677.000000	14.558201
1676.000000	14.825867
1675.000000	15.061476
1674.000000	15.241527
1673.000000	15.399550
1672.000000	15.576060
1671.000000	15.697208
1670.000000	15.806064
1669.000000	15.923574
1668.000000	16.037248
1667.000000	16.134402
1666.000000	16.200286
1665.000000	16.295867
1664.000000	16.380533
1663.000000	16.450646
1662.000000	16.513088
1661.000000	16.571794
1660.000000	16.630597
1659.000000	16.691663
1658.000000	16.746337
1657.000000	16.797569
1656.000000	16.820776
1655.000000	16.841328
1654.000000	16.853325
1653.000000	16.868370
1652.000000	16.873385
1651.000000	16.873385
1650.000000	16.854898
1649.000000	16.849195
1648.000000	16.835723
1647.000000	16.809173
1646.000000	16.784491
1645.000000	16.761185
1644.000000	16.728342
1643.000000	16.710642
1642.000000	16.688418
1641.000000	16.653116
1640.000000	16.604441
1639.000000	16.571204
1638.000000	16.547800
1637.000000	16.497158
1636.000000	16.460872
1635.000000	16.431765
1634.000000	16.392923
1633.000000	16.354671
1632.000000	16.320746
1631.000000	16.279544
1630.000000	16.210808
1629.000000	16.171966
1628.000000	16.129781
1627.000000	16.080319
1626.000000	16.032430
1625.000000	15.987983
1624.000000	15.945797
1623.000000	15.907545
1622.000000	15.858771
1621.000000	15.791707
1620.000000	15.752472
1619.000000	15.690718
1618.000000	15.643222
1617.000000	15.597497
1616.000000	15.558852
1615.000000	15.516764
1614.000000	15.468876
1613.000000	15.433279
1612.000000	15.379981
1611.000000	15.336321
1610.000000	15.304854
1609.000000	15.268765
1608.000000	15.213010
1607.000000	15.172693
1606.000000	15.132671
1605.000000	15.083405
1604.000000	15.050365
1603.000000	14.998641
1602.000000	14.957635
1601.000000	14.914467
1600.000000	14.870511
1599.000000	14.834914
1598.000000	14.807676
1597.000000	14.765785
1596.000000	14.731663
1595.000000	14.697836
1594.000000	14.666566
1593.000000	14.651914
1592.000000	14.620840
1591.000000	14.594388
1590.000000	14.568133
1589.000000	14.530078
1588.000000	14.510706
1587.000000	14.491727
1586.000000	14.480616
1585.000000	14.451804
1584.000000	14.413945
1583.000000	14.392901
1582.000000	14.385133
1581.000000	14.366941
1580.000000	14.363893
