PE UV       SUBTECH     SPECTRUM    ASCII       PEDS        4.00        
   -1
CICIMAUCR0158-4.Sample.ASC
24/04/25
13:19:11.00
24/04/25
13:19:11.00
Vinicio Soto Monge
C. cupreomarginata
250,000000
1
Lambda 1050
1050L1511233
PerkinElmer UV WinLab 6.3.2.0749 / 2.02.05 Lambda 900 UV/VIS/NIR, Aug  7 2015 09:38:08

0
0
3350/servo 860,8/2
0
0
UV/VIS
1
1
1
DoubleDePol,CommonBeamDepol,RBeamAtt,SBeamAtt,60mm sphere, WB InGaAs Detector
0
0
0
0
Program
Program
3350/servo 860,8/2
3350/0,2 860,8/0,2
3350/0,2 860,8/0,2
0
15.00
 
 
 
0
 
860,8
319,2
860,8
Front
100
on
S:100 R:100
0
0
0
0
 
0
 
 
 
0
 
 
0
0
0
0
0
 
 
 
 
0
0


0
0
#HDR
-1
-1
#GR
nm
%R
1.0
0.0
2500,000000
-1,000000
2251
8
71,606100
5,632000
#DATA
2482.000000	17.737590
2481.000000	17.653251
2480.000000	17.687543
2479.000000	17.723341
2478.000000	17.753578
2477.000000	17.730755
2476.000000	17.757401
2475.000000	17.826563
2474.000000	17.776400
2473.000000	17.858538
2472.000000	17.883677
2471.000000	17.925731
2470.000000	17.967321
2469.000000	18.020149
2468.000000	18.047374
2467.000000	18.092787
2466.000000	18.150828
2465.000000	18.232966
2464.000000	18.317536
2463.000000	18.329585
2462.000000	18.375346
2461.000000	18.426204
2460.000000	18.466288
2459.000000	18.573102
2458.000000	18.635313
2457.000000	18.684086
2456.000000	18.778388
2455.000000	18.873154
2454.000000	18.976145
2453.000000	19.065002
2452.000000	19.174133
2451.000000	19.248856
2450.000000	19.324274
2449.000000	19.424948
2448.000000	19.545085
2447.000000	19.656649
2446.000000	19.774237
2445.000000	19.885684
2444.000000	19.985663
2443.000000	20.099312
2442.000000	20.206474
2441.000000	20.343061
2440.000000	20.436089
2439.000000	20.535372
2438.000000	20.628632
2437.000000	20.759079
2436.000000	20.876783
2435.000000	20.975835
2434.000000	21.070137
2433.000000	21.162122
2432.000000	21.263607
2431.000000	21.359762
2430.000000	21.466576
2429.000000	21.548598
2428.000000	21.649851
2427.000000	21.735464
2426.000000	21.804743
2425.000000	21.871009
2424.000000	21.960677
2423.000000	22.050229
2422.000000	22.123215
2421.000000	22.187975
2420.000000	22.265711
2419.000000	22.326184
2418.000000	22.379591
2417.000000	22.462424
2416.000000	22.540739
2415.000000	22.588006
2414.000000	22.654156
2413.000000	22.713587
2412.000000	22.764330
2411.000000	22.836157
2410.000000	22.926868
2409.000000	23.043529
2408.000000	23.156251
2407.000000	23.257620
2406.000000	23.283223
2405.000000	23.312185
2404.000000	23.363855
2403.000000	23.408225
2402.000000	23.453638
2401.000000	23.501485
2400.000000	23.558019
2399.000000	23.574354
2398.000000	23.627298
2397.000000	23.680357
2396.000000	23.715923
2395.000000	23.768751
2394.000000	23.796323
2393.000000	23.805475
2392.000000	23.837566
2391.000000	23.899546
2390.000000	23.934417
2389.000000	23.945654
2388.000000	23.955038
2387.000000	23.949477
2386.000000	23.982263
2385.000000	24.013195
2384.000000	24.025823
2383.000000	24.052005
2382.000000	24.047486
2381.000000	24.045285
2380.000000	24.052931
2379.000000	24.074595
2378.000000	24.065675
2377.000000	24.067876
2376.000000	24.086412
2375.000000	24.073900
2374.000000	24.060462
2373.000000	24.064980
2372.000000	24.082242
2371.000000	24.072974
2370.000000	24.083748
2369.000000	24.102863
2368.000000	24.092205
2367.000000	24.084906
2366.000000	24.089772
2365.000000	24.108540
2364.000000	24.123368
2363.000000	24.142368
2362.000000	24.148160
2361.000000	24.136344
2360.000000	24.142136
2359.000000	24.157312
2358.000000	24.144569
2357.000000	24.129393
2356.000000	24.142136
2355.000000	24.152215
2354.000000	24.129277
2353.000000	24.118387
2352.000000	24.131362
2351.000000	24.130899
2350.000000	24.109466
2349.000000	24.104601
2348.000000	24.114332
2347.000000	24.111204
2346.000000	24.119198
2345.000000	24.119893
2344.000000	24.120704
2343.000000	24.136459
2342.000000	24.133679
2341.000000	24.113174
2340.000000	24.140514
2339.000000	24.157197
2338.000000	24.155806
2337.000000	24.181062
2336.000000	24.200409
2335.000000	24.229487
2334.000000	24.273510
2333.000000	24.307338
2332.000000	24.316375
2331.000000	24.315564
2330.000000	24.357154
2329.000000	24.412762
2328.000000	24.437902
2327.000000	24.461883
2326.000000	24.494668
2325.000000	24.529076
2324.000000	24.590013
2323.000000	24.600439
2322.000000	24.596964
2321.000000	24.611329
2320.000000	24.653035
2319.000000	24.638554
2318.000000	24.649097
2317.000000	24.645853
2316.000000	24.618860
2315.000000	24.597080
2314.000000	24.583757
2313.000000	24.564989
2312.000000	24.528844
2311.000000	24.499302
2310.000000	24.460724
2309.000000	24.421335
2308.000000	24.384726
2307.000000	24.357038
2306.000000	24.316606
2305.000000	24.305485
2304.000000	24.283589
2303.000000	24.268644
2302.000000	24.231688
2301.000000	24.236206
2300.000000	24.240840
2299.000000	24.233310
2298.000000	24.238871
2297.000000	24.241188
2296.000000	24.242462
2295.000000	24.259029
2294.000000	24.276059
2293.000000	24.306180
2292.000000	24.347654
2291.000000	24.369434
2290.000000	24.402451
2289.000000	24.428749
2288.000000	24.480534
2287.000000	24.528844
2286.000000	24.565221
2285.000000	24.597311
2284.000000	24.666242
2283.000000	24.705400
2282.000000	24.751508
2281.000000	24.813488
2280.000000	24.857511
2279.000000	24.868864
2278.000000	24.916131
2277.000000	24.967105
2276.000000	25.005683
2275.000000	25.044841
2274.000000	25.077279
2273.000000	25.127789
2272.000000	25.154087
2271.000000	25.184556
2270.000000	25.231012
2269.000000	25.274456
2268.000000	25.333308
2267.000000	25.390306
2266.000000	25.451359
2265.000000	25.537088
2264.000000	25.641238
2263.000000	25.721638
2262.000000	25.848146
2261.000000	25.938972
2260.000000	26.060383
2259.000000	26.234970
2258.000000	26.364722
2257.000000	26.516022
2256.000000	26.670335
2255.000000	26.870060
2254.000000	27.010587
2253.000000	27.155863
2252.000000	27.324425
2251.000000	27.494261
2250.000000	27.673597
2249.000000	27.834050
2248.000000	27.963223
2247.000000	28.106182
2246.000000	28.251574
2245.000000	28.344022
2244.000000	28.478640
2243.000000	28.583369
2242.000000	28.656586
2241.000000	28.764559
2240.000000	28.859092
2239.000000	28.892573
2238.000000	28.927791
2237.000000	28.949571
2236.000000	29.024990
2235.000000	29.039123
2234.000000	29.043526
2233.000000	29.048739
2232.000000	29.059397
2231.000000	29.030087
2230.000000	29.021051
2229.000000	28.976101
2228.000000	28.958955
2227.000000	28.881683
2226.000000	28.832794
2225.000000	28.798039
2224.000000	28.736059
2223.000000	28.650678
2222.000000	28.572595
2221.000000	28.509456
2220.000000	28.412722
2219.000000	28.360010
2218.000000	28.275323
2217.000000	28.185887
2216.000000	28.109194
2215.000000	28.013270
2214.000000	27.933333
2213.000000	27.876451
2212.000000	27.783539
2211.000000	27.729785
2210.000000	27.650659
2209.000000	27.591807
2208.000000	27.545004
2207.000000	27.476189
2206.000000	27.420696
2205.000000	27.384088
2204.000000	27.353387
2203.000000	27.303108
2202.000000	27.270207
2201.000000	27.226184
2200.000000	27.191313
2199.000000	27.153314
2198.000000	27.114273
2197.000000	27.100371
2196.000000	27.054378
2195.000000	27.058549
2194.000000	27.016263
2193.000000	27.013135
2192.000000	26.974557
2191.000000	26.952893
2190.000000	26.923004
2189.000000	26.899950
2188.000000	26.901340
2187.000000	26.871798
2186.000000	26.841330
2185.000000	26.847701
2184.000000	26.819666
2183.000000	26.798233
2182.000000	26.779350
2181.000000	26.764173
2180.000000	26.729998
2179.000000	26.730461
2178.000000	26.729882
2177.000000	26.704742
2176.000000	26.705669
2175.000000	26.698602
2174.000000	26.727333
2173.000000	26.722931
2172.000000	26.716211
2171.000000	26.735790
2170.000000	26.765679
2169.000000	26.794294
2168.000000	26.823720
2167.000000	26.855347
2166.000000	26.891145
2165.000000	26.945131
2164.000000	26.996105
2163.000000	27.027269
2162.000000	27.117169
2161.000000	27.192356
2160.000000	27.270670
2159.000000	27.330797
2158.000000	27.404130
2157.000000	27.505151
2156.000000	27.607447
2155.000000	27.726425
2154.000000	27.831965
2153.000000	27.915029
2152.000000	28.039105
2151.000000	28.149973
2150.000000	28.277177
2149.000000	28.401832
2148.000000	28.521505
2147.000000	28.617081
2146.000000	28.731889
2145.000000	28.829319
2144.000000	28.939724
2143.000000	29.047001
2142.000000	29.165400
2141.000000	29.292140
2140.000000	29.412972
2139.000000	29.508664
2138.000000	29.625325
2137.000000	29.726578
2136.000000	29.829453
2135.000000	29.916109
2134.000000	30.008674
2133.000000	30.086525
2132.000000	30.170632
2131.000000	30.264587
2130.000000	30.321933
2129.000000	30.390052
2128.000000	30.477751
2127.000000	30.539847
2126.000000	30.591284
2125.000000	30.641795
2124.000000	30.692537
2123.000000	30.736560
2122.000000	30.785681
2121.000000	30.840594
2120.000000	30.880562
2119.000000	30.903500
2118.000000	30.940688
2117.000000	30.970925
2116.000000	31.005680
2115.000000	31.036149
2114.000000	31.030241
2113.000000	31.039740
2112.000000	31.064648
2111.000000	31.085038
2110.000000	31.098824
2109.000000	31.099519
2108.000000	31.094306
2107.000000	31.096970
2106.000000	31.090599
2105.000000	31.099056
2104.000000	31.106354
2103.000000	31.095464
2102.000000	31.103805
2101.000000	31.102647
2100.000000	31.097550
2099.000000	31.107744
2098.000000	31.112726
2097.000000	31.104964
2096.000000	31.118403
2095.000000	31.129640
2094.000000	31.125122
2093.000000	31.130567
2092.000000	31.130799
2091.000000	31.149682
2090.000000	31.158487
2089.000000	31.151536
2088.000000	31.165206
2087.000000	31.161846
2086.000000	31.135780
2085.000000	31.117244
2084.000000	31.107049
2083.000000	31.093842
2082.000000	31.051094
2081.000000	31.007997
2080.000000	30.955517
2079.000000	30.897476
2078.000000	30.832832
2077.000000	30.757182
2076.000000	30.680373
2075.000000	30.607387
2074.000000	30.520268
2073.000000	30.409399
2072.000000	30.293897
2071.000000	30.194845
2070.000000	30.072507
2069.000000	29.958163
2068.000000	29.839880
2067.000000	29.723914
2066.000000	29.596595
2065.000000	29.468117
2064.000000	29.369412
2063.000000	29.265495
2062.000000	29.142230
2061.000000	29.032752
2060.000000	28.952236
2059.000000	28.878555
2058.000000	28.800240
2057.000000	28.745212
2056.000000	28.700030
2055.000000	28.686128
2054.000000	28.699451
2053.000000	28.709298
2052.000000	28.726560
2051.000000	28.788308
2050.000000	28.869287
2049.000000	28.944358
2048.000000	29.038544
2047.000000	29.158565
2046.000000	29.283336
2045.000000	29.409033
2044.000000	29.535542
2043.000000	29.667958
2042.000000	29.830496
2041.000000	29.952370
2040.000000	30.075751
2039.000000	30.202723
2038.000000	30.323439
2037.000000	30.462459
2036.000000	30.561279
2035.000000	30.669831
2034.000000	30.775949
2033.000000	30.858203
2032.000000	30.959804
2031.000000	31.030936
2030.000000	31.115622
2029.000000	31.193705
2028.000000	31.267733
2027.000000	31.342920
2026.000000	31.384626
2025.000000	31.425753
2024.000000	31.489818
2023.000000	31.538591
2022.000000	31.580066
2021.000000	31.610534
2020.000000	31.618991
2019.000000	31.661740
2018.000000	31.675642
2017.000000	31.679928
2016.000000	31.713988
2015.000000	31.712482
2014.000000	31.722098
2013.000000	31.694757
2012.000000	31.683288
2011.000000	31.676569
2010.000000	31.665100
2009.000000	31.611229
2008.000000	31.579950
2007.000000	31.532219
2006.000000	31.494105
2005.000000	31.447881
2004.000000	31.379992
2003.000000	31.329250
2002.000000	31.265880
2001.000000	31.196022
2000.000000	31.126280
1999.000000	31.036728
1998.000000	30.968840
1997.000000	30.851600
1996.000000	30.772242
1995.000000	30.670642
1994.000000	30.572864
1993.000000	30.477635
1992.000000	30.371748
1991.000000	30.281617
1990.000000	30.160785
1989.000000	30.053392
1988.000000	29.946462
1987.000000	29.822271
1986.000000	29.715804
1985.000000	29.589991
1984.000000	29.488159
1983.000000	29.364778
1982.000000	29.249044
1981.000000	29.143736
1980.000000	29.037733
1979.000000	28.923042
1978.000000	28.810667
1977.000000	28.701188
1976.000000	28.605033
1975.000000	28.490573
1974.000000	28.384222
1973.000000	28.283201
1972.000000	28.182411
1971.000000	28.076524
1970.000000	27.971448
1969.000000	27.846562
1968.000000	27.774735
1967.000000	27.674292
1966.000000	27.552418
1965.000000	27.475841
1964.000000	27.355589
1963.000000	27.264183
1962.000000	27.182740
1961.000000	27.075115
1960.000000	26.959497
1959.000000	26.848165
1958.000000	26.738339
1957.000000	26.638360
1956.000000	26.570472
1955.000000	26.467829
1954.000000	26.343869
1953.000000	26.235549
1952.000000	26.174264
1951.000000	26.052158
1950.000000	25.952759
1949.000000	25.882901
1948.000000	25.792770
1947.000000	25.720131
1946.000000	25.649347
1945.000000	25.569526
1944.000000	25.492138
1943.000000	25.443365
1942.000000	25.409074
1941.000000	25.378721
1940.000000	25.330875
1939.000000	25.297047
1938.000000	25.283724
1937.000000	25.276889
1936.000000	25.254993
1935.000000	25.266230
1934.000000	25.309558
1933.000000	25.340722
1932.000000	25.379532
1931.000000	25.446146
1930.000000	25.498858
1929.000000	25.594782
1928.000000	25.684218
1927.000000	25.786514
1926.000000	25.880932
1925.000000	26.029567
1924.000000	26.151905
1923.000000	26.313980
1922.000000	26.485322
1921.000000	26.712504
1920.000000	26.897864
1919.000000	27.091914
1918.000000	27.335199
1917.000000	27.545119
1916.000000	27.748900
1915.000000	28.034471
1914.000000	28.380747
1913.000000	28.705822
1912.000000	29.028697
1911.000000	29.322377
1910.000000	29.662861
1909.000000	29.979364
1908.000000	30.372443
1907.000000	30.807808
1906.000000	31.307238
1905.000000	31.804815
1904.000000	32.294977
1903.000000	32.756640
1902.000000	33.253753
1901.000000	33.779829
1900.000000	34.388042
1899.000000	34.952349
1898.000000	35.542026
1897.000000	36.137612
1896.000000	36.630670
1895.000000	37.130796
1894.000000	37.682938
1893.000000	38.277481
1892.000000	38.938638
1891.000000	39.550211
1890.000000	40.120773
1889.000000	40.639318
1888.000000	41.175589
1887.000000	41.675135
1886.000000	42.175608
1885.000000	42.681989
1884.000000	43.195321
1883.000000	43.630454
1882.000000	44.031180
1881.000000	44.422638
1880.000000	44.756866
1879.000000	45.093063
1878.000000	45.447217
1877.000000	45.753872
1876.000000	46.041760
1875.000000	46.347489
1874.000000	46.645108
1873.000000	46.931258
1872.000000	47.191110
1871.000000	47.415512
1870.000000	47.644432
1869.000000	47.868370
1868.000000	47.996037
1867.000000	48.111540
1866.000000	48.179659
1865.000000	48.275931
1864.000000	48.351002
1863.000000	48.426073
1862.000000	48.533350
1861.000000	48.658816
1860.000000	48.782891
1859.000000	48.865608
1858.000000	48.938594
1857.000000	49.015519
1856.000000	49.044018
1855.000000	49.102870
1854.000000	49.151179
1853.000000	49.171453
1852.000000	49.216634
1851.000000	49.223006
1850.000000	49.258688
1849.000000	49.314528
1848.000000	49.378825
1847.000000	49.406860
1846.000000	49.355655
1845.000000	49.283712
1844.000000	49.236213
1843.000000	49.259962
1842.000000	49.323448
1841.000000	49.338625
1840.000000	49.310473
1839.000000	49.274096
1838.000000	49.249768
1837.000000	49.246640
1836.000000	49.244439
1835.000000	49.193928
1834.000000	49.120247
1833.000000	49.046451
1832.000000	49.016214
1831.000000	49.028262
1830.000000	49.008915
1829.000000	48.981343
1828.000000	48.941722
1827.000000	48.912412
1826.000000	48.898046
1825.000000	48.877541
1824.000000	48.847072
1823.000000	48.874992
1822.000000	48.931295
1821.000000	48.947051
1820.000000	48.936277
1819.000000	48.895614
1818.000000	48.852749
1817.000000	48.834561
1816.000000	48.829347
1815.000000	48.822049
1814.000000	48.815098
1813.000000	48.803165
1812.000000	48.803513
1811.000000	48.770843
1810.000000	48.722418
1809.000000	48.710253
1808.000000	48.717436
1807.000000	48.712107
1806.000000	48.683029
1805.000000	48.630317
1804.000000	48.604250
1803.000000	48.609695
1802.000000	48.598110
1801.000000	48.586989
1800.000000	48.567526
1799.000000	48.531265
1798.000000	48.500333
1797.000000	48.492339
1796.000000	48.478090
1795.000000	48.464883
1794.000000	48.466157
1793.000000	48.453529
1792.000000	48.430359
1791.000000	48.429780
1790.000000	48.406610
1789.000000	48.412055
1788.000000	48.403019
1787.000000	48.401397
1786.000000	48.413561
1785.000000	48.405567
1784.000000	48.420628
1783.000000	48.407537
1782.000000	48.405336
1781.000000	48.400702
1780.000000	48.385062
1779.000000	48.367568
1778.000000	48.347411
1777.000000	48.299912
1776.000000	48.271297
1775.000000	48.241176
1774.000000	48.203756
1773.000000	48.179891
1772.000000	48.128801
1771.000000	48.101692
1770.000000	48.067169
1769.000000	48.024652
1768.000000	48.001250
1767.000000	47.974952
1766.000000	47.931624
1765.000000	47.898607
1764.000000	47.877290
1763.000000	47.857712
1762.000000	47.835237
1761.000000	47.830719
1760.000000	47.816585
1759.000000	47.813573
1758.000000	47.800250
1757.000000	47.797122
1756.000000	47.793763
1755.000000	47.803494
1754.000000	47.787043
1753.000000	47.775458
1752.000000	47.774068
1751.000000	47.769086
1750.000000	47.733405
1749.000000	47.697839
1748.000000	47.650803
1747.000000	47.616859
1746.000000	47.570867
1745.000000	47.517692
1744.000000	47.457102
1743.000000	47.397671
1742.000000	47.356660
1741.000000	47.298271
1740.000000	47.239419
1739.000000	47.181958
1738.000000	47.164696
1737.000000	47.121600
1736.000000	47.086150
1735.000000	47.058925
1734.000000	47.013975
1733.000000	46.983506
1732.000000	46.951184
1731.000000	46.939136
1730.000000	46.899515
1729.000000	46.882948
1728.000000	46.863370
1727.000000	46.864992
1726.000000	46.854797
1725.000000	46.842632
1724.000000	46.892216
1723.000000	46.937977
1722.000000	47.031932
1721.000000	47.141178
1720.000000	47.294796
1719.000000	47.460346
1718.000000	47.639218
1717.000000	47.815195
1716.000000	47.990824
1715.000000	48.168770
1714.000000	48.321228
1713.000000	48.455035
1712.000000	48.578648
1711.000000	48.719290
1710.000000	48.783007
1709.000000	48.898973
1708.000000	48.973465
1707.000000	49.068810
1706.000000	49.126735
1705.000000	49.127198
1704.000000	49.155581
1703.000000	49.183733
1702.000000	49.185702
1701.000000	49.198562
1700.000000	49.206556
1699.000000	49.184196
1698.000000	49.207714
1697.000000	49.173422
1696.000000	49.155118
1695.000000	49.118741
1694.000000	49.094528
1693.000000	49.040311
1692.000000	49.001269
1691.000000	48.963502
1690.000000	48.945313
1689.000000	48.943460
1688.000000	48.986093
1687.000000	49.059889
1686.000000	49.177825
1685.000000	49.346039
1684.000000	49.521668
1683.000000	49.705059
1682.000000	49.889029
1681.000000	50.086438
1680.000000	50.263457
1679.000000	50.439897
1678.000000	50.610891
1677.000000	50.756631
1676.000000	50.919401
1675.000000	51.095609
1674.000000	51.221654
1673.000000	51.387783
1672.000000	51.536998
1671.000000	51.690963
1670.000000	51.839251
1669.000000	51.972131
1668.000000	52.115554
1667.000000	52.276585
1666.000000	52.395679
1665.000000	52.528096
1664.000000	52.632477
1663.000000	52.756205
1662.000000	52.868116
1661.000000	52.959059
1660.000000	53.010149
1659.000000	53.084988
1658.000000	53.163650
1657.000000	53.230032
1656.000000	53.275562
1655.000000	53.304872
1654.000000	53.328853
1653.000000	53.371949
1652.000000	53.385967
1651.000000	53.391064
1650.000000	53.378900
1649.000000	53.386430
1648.000000	53.378668
1647.000000	53.376815
1646.000000	53.356077
1645.000000	53.341944
1644.000000	53.325261
1643.000000	53.330243
1642.000000	53.317499
1641.000000	53.302902
1640.000000	53.292939
1639.000000	53.274867
1638.000000	53.279501
1637.000000	53.266409
1636.000000	53.245441
1635.000000	53.220185
1634.000000	53.179753
1633.000000	53.128084
1632.000000	53.103640
1631.000000	53.087653
1630.000000	53.034709
1629.000000	53.000186
1628.000000	52.966010
1627.000000	52.920712
1626.000000	52.881208
1625.000000	52.841239
1624.000000	52.814825
1623.000000	52.784009
1622.000000	52.744157
1621.000000	52.716237
1620.000000	52.691445
1619.000000	52.664336
1618.000000	52.619850
1617.000000	52.583473
1616.000000	52.563894
1615.000000	52.523230
1614.000000	52.490792
1613.000000	52.465305
1612.000000	52.431941
1611.000000	52.384442
1610.000000	52.330803
1609.000000	52.287012
1608.000000	52.241135
1607.000000	52.179966
