PE UV       SUBTECH     SPECTRUM    ASCII       PEDS        4.00        
   -1
CICIMAUCR0071-1.Sample.ASC
24/04/18
15:05:09.00
24/04/18
15:05:09.00
Vinicio Soto Monge
C. resplendens
250,000000
1
Lambda 1050
1050L1511233
PerkinElmer UV WinLab 6.3.2.0749 / 2.02.05 Lambda 900 UV/VIS/NIR, Aug  7 2015 09:38:08

0
0
3350/servo 860,8/2
0
0
UV/VIS
1
1
1
DoubleDePol,CommonBeamDepol,RBeamAtt,SBeamAtt,60mm sphere, WB InGaAs Detector
0
0
0
0
Program
Program
3350/servo 860,8/2
3350/0,2 860,8/0,2
3350/0,2 860,8/0,2
0
15.00
 
 
 
0
 
860,8
319,2
860,8
Front
100
on
S:100 R:100
0
0
0
0
 
0
 
 
 
0
 
 
0
0
0
0
0
 
 
 
 
0
0


0
0
#HDR
-1
-1
#GR
nm
%R
1.0
0.0
2500,000000
-1,000000
2251
8
93,363700
5,885500
#DATA
2482.000000	15.441109
2481.000000	15.435535
2480.000000	15.468154
2479.000000	15.498089
2478.000000	15.501082
2477.000000	15.525237
2476.000000	15.557030
2475.000000	15.557959
2474.000000	15.607919
2473.000000	15.628668
2472.000000	15.626810
2471.000000	15.696279
2470.000000	15.731685
2469.000000	15.748821
2468.000000	15.799297
2467.000000	15.838316
2466.000000	15.872999
2465.000000	15.900044
2464.000000	15.972611
2463.000000	16.024636
2462.000000	16.068609
2461.000000	16.127034
2460.000000	16.175550
2459.000000	16.245845
2458.000000	16.319444
2457.000000	16.399443
2456.000000	16.467777
2455.000000	16.543028
2454.000000	16.639130
2453.000000	16.713142
2452.000000	16.810688
2451.000000	16.881707
2450.000000	16.976879
2449.000000	17.097445
2448.000000	17.204489
2447.000000	17.300281
2446.000000	17.393802
2445.000000	17.505491
2444.000000	17.602728
2443.000000	17.694391
2442.000000	17.820428
2441.000000	17.924994
2440.000000	18.044425
2439.000000	18.151984
2438.000000	18.244783
2437.000000	18.362768
2436.000000	18.475076
2435.000000	18.569217
2434.000000	18.650454
2433.000000	18.750995
2432.000000	18.866503
2431.000000	18.965804
2430.000000	19.058293
2429.000000	19.161827
2428.000000	19.226446
2427.000000	19.331321
2426.000000	19.424636
2425.000000	19.513512
2424.000000	19.596298
2423.000000	19.668349
2422.000000	19.700967
2421.000000	19.737922
2420.000000	19.756089
2419.000000	19.800166
2418.000000	19.863029
2417.000000	19.920938
2416.000000	19.978434
2415.000000	20.023130
2414.000000	20.052756
2413.000000	20.098690
2412.000000	20.147206
2411.000000	20.177038
2410.000000	20.193450
2409.000000	20.222250
2408.000000	20.251875
2407.000000	20.285836
2406.000000	20.304726
2405.000000	20.311745
2404.000000	20.322894
2403.000000	20.356854
2402.000000	20.394634
2401.000000	20.392363
2400.000000	20.405163
2399.000000	20.427150
2398.000000	20.432311
2397.000000	20.461937
2396.000000	20.450582
2395.000000	20.443356
2394.000000	20.480723
2393.000000	20.484233
2392.000000	20.465137
2391.000000	20.481549
2390.000000	20.483510
2389.000000	20.473704
2388.000000	20.487949
2387.000000	20.496826
2386.000000	20.485265
2385.000000	20.474530
2384.000000	20.487020
2383.000000	20.477730
2382.000000	20.453472
2381.000000	20.455537
2380.000000	20.436853
2379.000000	20.426324
2378.000000	20.418376
2377.000000	20.411563
2376.000000	20.398660
2375.000000	20.363977
2374.000000	20.346635
2373.000000	20.344261
2372.000000	20.308855
2371.000000	20.284391
2370.000000	20.284391
2369.000000	20.275617
2368.000000	20.266636
2367.000000	20.258275
2366.000000	20.248985
2365.000000	20.224624
2364.000000	20.213476
2363.000000	20.202431
2362.000000	20.188908
2361.000000	20.191696
2360.000000	20.176831
2359.000000	20.151851
2358.000000	20.121297
2357.000000	20.090123
2356.000000	20.079284
2355.000000	20.061014
2354.000000	20.039337
2353.000000	20.016008
2352.000000	19.986486
2351.000000	19.961815
2350.000000	19.911132
2349.000000	19.879029
2348.000000	19.861481
2347.000000	19.848268
2346.000000	19.812450
2345.000000	19.784063
2344.000000	19.783650
2343.000000	19.772192
2342.000000	19.747212
2341.000000	19.747418
2340.000000	19.731728
2339.000000	19.711600
2338.000000	19.698696
2337.000000	19.687135
2336.000000	19.681045
2335.000000	19.677019
2334.000000	19.688064
2333.000000	19.688993
2332.000000	19.684761
2331.000000	19.687445
2330.000000	19.707161
2329.000000	19.705406
2328.000000	19.707367
2327.000000	19.705303
2326.000000	19.723057
2325.000000	19.743083
2324.000000	19.757328
2323.000000	19.762489
2322.000000	19.747418
2321.000000	19.760631
2320.000000	19.744528
2319.000000	19.726361
2318.000000	19.701174
2317.000000	19.652452
2316.000000	19.616220
2315.000000	19.589795
2314.000000	19.539318
2313.000000	19.486055
2312.000000	19.444868
2311.000000	19.402546
2310.000000	19.338960
2309.000000	19.316767
2308.000000	19.282600
2307.000000	19.249774
2306.000000	19.221078
2305.000000	19.201569
2304.000000	19.183711
2303.000000	19.163066
2302.000000	19.157905
2301.000000	19.149337
2300.000000	19.141698
2299.000000	19.142524
2298.000000	19.137879
2297.000000	19.148821
2296.000000	19.156150
2295.000000	19.160176
2294.000000	19.173801
2293.000000	19.203427
2292.000000	19.219013
2291.000000	19.245852
2290.000000	19.275167
2289.000000	19.307167
2288.000000	19.335244
2287.000000	19.358160
2286.000000	19.404817
2285.000000	19.435268
2284.000000	19.465616
2283.000000	19.490080
2282.000000	19.533538
2281.000000	19.546234
2280.000000	19.614466
2279.000000	19.629639
2278.000000	19.648942
2277.000000	19.669071
2276.000000	19.691368
2275.000000	19.712529
2274.000000	19.722851
2273.000000	19.767341
2272.000000	19.781998
2271.000000	19.818437
2270.000000	19.828862
2269.000000	19.876449
2268.000000	19.909480
2267.000000	19.948809
2266.000000	20.011156
2265.000000	20.060704
2264.000000	20.140909
2263.000000	20.208728
2262.000000	20.291307
2261.000000	20.381835
2260.000000	20.489497
2259.000000	20.624721
2258.000000	20.737132
2257.000000	20.860382
2256.000000	21.020380
2255.000000	21.165410
2254.000000	21.333975
2253.000000	21.468992
2252.000000	21.611855
2251.000000	21.781349
2250.000000	21.960443
2249.000000	22.101241
2248.000000	22.210349
2247.000000	22.355173
2246.000000	22.486680
2245.000000	22.606317
2244.000000	22.724199
2243.000000	22.835888
2242.000000	22.912171
2241.000000	22.992582
2240.000000	23.063704
2239.000000	23.126671
2238.000000	23.176218
2237.000000	23.200166
2236.000000	23.247856
2235.000000	23.278204
2234.000000	23.285429
2233.000000	23.295855
2232.000000	23.295752
2231.000000	23.277688
2230.000000	23.249198
2229.000000	23.198308
2228.000000	23.179625
2227.000000	23.135445
2226.000000	23.099523
2225.000000	23.060710
2224.000000	23.008066
2223.000000	22.933332
2222.000000	22.844456
2221.000000	22.761050
2220.000000	22.681877
2219.000000	22.611994
2218.000000	22.529622
2217.000000	22.456332
2216.000000	22.356102
2215.000000	22.290967
2214.000000	22.178453
2213.000000	22.102892
2212.000000	22.054274
2211.000000	21.977991
2210.000000	21.902947
2209.000000	21.826664
2208.000000	21.765659
2207.000000	21.685247
2206.000000	21.628887
2205.000000	21.578307
2204.000000	21.517301
2203.000000	21.458670
2202.000000	21.420580
2201.000000	21.376400
2200.000000	21.315911
2199.000000	21.264092
2198.000000	21.228067
2197.000000	21.178106
2196.000000	21.138262
2195.000000	21.096456
2194.000000	21.063011
2193.000000	21.037515
2192.000000	21.003761
2191.000000	20.981361
2190.000000	20.939349
2189.000000	20.911788
2188.000000	20.905182
2187.000000	20.893517
2186.000000	20.853466
2185.000000	20.819609
2184.000000	20.805777
2183.000000	20.772538
2182.000000	20.747352
2181.000000	20.740126
2180.000000	20.705752
2179.000000	20.675920
2178.000000	20.670140
2177.000000	20.664772
2176.000000	20.660230
2175.000000	20.652282
2174.000000	20.652489
2173.000000	20.643405
2172.000000	20.664050
2171.000000	20.677675
2170.000000	20.699352
2169.000000	20.721236
2168.000000	20.739610
2167.000000	20.762526
2166.000000	20.825699
2165.000000	20.856253
2164.000000	20.901053
2163.000000	20.962058
2162.000000	21.009851
2161.000000	21.058263
2160.000000	21.137643
2159.000000	21.203190
2158.000000	21.278957
2157.000000	21.371136
2156.000000	21.448244
2155.000000	21.552707
2154.000000	21.647157
2153.000000	21.746149
2152.000000	21.851025
2151.000000	21.958688
2150.000000	22.062325
2149.000000	22.192078
2148.000000	22.324928
2147.000000	22.417417
2146.000000	22.529622
2145.000000	22.645439
2144.000000	22.759708
2143.000000	22.866855
2142.000000	22.980505
2141.000000	23.083110
2140.000000	23.186850
2139.000000	23.286255
2138.000000	23.389686
2137.000000	23.483207
2136.000000	23.569709
2135.000000	23.675101
2134.000000	23.774093
2133.000000	23.851718
2132.000000	23.911897
2131.000000	23.986116
2130.000000	24.076953
2129.000000	24.147146
2128.000000	24.195764
2127.000000	24.264924
2126.000000	24.309827
2125.000000	24.358549
2124.000000	24.420483
2123.000000	24.461876
2122.000000	24.503476
2121.000000	24.535475
2120.000000	24.566133
2119.000000	24.598029
2118.000000	24.635190
2117.000000	24.649641
2116.000000	24.671009
2115.000000	24.685460
2114.000000	24.694750
2113.000000	24.708995
2112.000000	24.713331
2111.000000	24.723963
2110.000000	24.735730
2109.000000	24.740375
2108.000000	24.738104
2107.000000	24.730259
2106.000000	24.737588
2105.000000	24.733356
2104.000000	24.729124
2103.000000	24.726027
2102.000000	24.720143
2101.000000	24.717563
2100.000000	24.720143
2099.000000	24.710647
2098.000000	24.708582
2097.000000	24.715085
2096.000000	24.723756
2095.000000	24.730569
2094.000000	24.742543
2093.000000	24.762878
2092.000000	24.777433
2091.000000	24.798697
2090.000000	24.810361
2089.000000	24.824090
2088.000000	24.845354
2087.000000	24.842877
2086.000000	24.851135
2085.000000	24.855780
2084.000000	24.839471
2083.000000	24.805716
2082.000000	24.781459
2081.000000	24.761330
2080.000000	24.735421
2079.000000	24.700634
2078.000000	24.647164
2077.000000	24.585229
2076.000000	24.509566
2075.000000	24.438135
2074.000000	24.358652
2073.000000	24.258524
2072.000000	24.159223
2071.000000	24.067973
2070.000000	23.956387
2069.000000	23.834479
2068.000000	23.728881
2067.000000	23.619153
2066.000000	23.485168
2065.000000	23.361093
2064.000000	23.245895
2063.000000	23.127187
2062.000000	23.010337
2061.000000	22.892352
2060.000000	22.770547
2059.000000	22.705206
2058.000000	22.620459
2057.000000	22.540150
2056.000000	22.476564
2055.000000	22.438887
2054.000000	22.402140
2053.000000	22.403791
2052.000000	22.421133
2051.000000	22.462939
2050.000000	22.499274
2049.000000	22.579066
2048.000000	22.674032
2047.000000	22.771579
2046.000000	22.884919
2045.000000	23.016117
2044.000000	23.144115
2043.000000	23.287184
2042.000000	23.431801
2041.000000	23.562380
2040.000000	23.707617
2039.000000	23.853473
2038.000000	23.975484
2037.000000	24.109159
2036.000000	24.229931
2035.000000	24.332949
2034.000000	24.459605
2033.000000	24.568817
2032.000000	24.666570
2031.000000	24.755240
2030.000000	24.844012
2029.000000	24.932063
2028.000000	24.997507
2027.000000	25.059441
2026.000000	25.137273
2025.000000	25.196110
2024.000000	25.257632
2023.000000	25.326483
2022.000000	25.366430
2021.000000	25.407204
2020.000000	25.455100
2019.000000	25.481113
2018.000000	25.503512
2017.000000	25.518686
2016.000000	25.524983
2015.000000	25.552750
2014.000000	25.553163
2013.000000	25.525809
2012.000000	25.521370
2011.000000	25.498867
2010.000000	25.496699
2009.000000	25.466145
2008.000000	25.418042
2007.000000	25.391927
2006.000000	25.365398
2005.000000	25.309967
2004.000000	25.259800
2003.000000	25.175053
2002.000000	25.102383
2001.000000	25.044061
2000.000000	24.943417
1999.000000	24.869715
1998.000000	24.802310
1997.000000	24.700531
1996.000000	24.611345
1995.000000	24.515656
1994.000000	24.423890
1993.000000	24.309724
1992.000000	24.183171
1991.000000	24.097908
1990.000000	23.984154
1989.000000	23.873704
1988.000000	23.753655
1987.000000	23.663333
1986.000000	23.536884
1985.000000	23.418795
1984.000000	23.309790
1983.000000	23.198102
1982.000000	23.040169
1981.000000	22.938906
1980.000000	22.837849
1979.000000	22.725644
1978.000000	22.598679
1977.000000	22.493287
1976.000000	22.383559
1975.000000	22.268464
1974.000000	22.149137
1973.000000	22.048287
1972.000000	21.967462
1971.000000	21.842974
1970.000000	21.760188
1969.000000	21.645299
1968.000000	21.520708
1967.000000	21.433174
1966.000000	21.349149
1965.000000	21.240041
1964.000000	21.146726
1963.000000	21.068689
1962.000000	20.964123
1961.000000	20.885569
1960.000000	20.775635
1959.000000	20.677159
1958.000000	20.589728
1957.000000	20.490633
1956.000000	20.401034
1955.000000	20.306481
1954.000000	20.220289
1953.000000	20.127077
1952.000000	20.047182
1951.000000	19.947673
1950.000000	19.871184
1949.000000	19.769095
1948.000000	19.747418
1947.000000	19.661536
1946.000000	19.598879
1945.000000	19.554286
1944.000000	19.494416
1943.000000	19.457978
1942.000000	19.422159
1941.000000	19.384688
1940.000000	19.380456
1939.000000	19.366005
1938.000000	19.356095
1937.000000	19.346289
1936.000000	19.347528
1935.000000	19.375192
1934.000000	19.392740
1933.000000	19.436920
1932.000000	19.468506
1931.000000	19.564711
1930.000000	19.638207
1929.000000	19.727290
1928.000000	19.846927
1927.000000	19.936938
1926.000000	20.055027
1925.000000	20.161967
1924.000000	20.287694
1923.000000	20.428285
1922.000000	20.637624
1921.000000	20.830860
1920.000000	21.057437
1919.000000	21.254079
1918.000000	21.450515
1917.000000	21.631880
1916.000000	21.870844
1915.000000	22.129731
1914.000000	22.439300
1913.000000	22.790985
1912.000000	23.117793
1911.000000	23.437169
1910.000000	23.764596
1909.000000	24.067044
1908.000000	24.445051
1907.000000	24.867960
1906.000000	25.355076
1905.000000	25.937054
1904.000000	26.478259
1903.000000	26.941529
1902.000000	27.471070
1901.000000	28.004636
1900.000000	28.623568
1899.000000	29.267997
1898.000000	29.866492
1897.000000	30.499566
1896.000000	31.075970
1895.000000	31.628633
1894.000000	32.237965
1893.000000	32.872795
1892.000000	33.562745
1891.000000	34.260438
1890.000000	34.888248
1889.000000	35.474459
1888.000000	36.080178
1887.000000	36.639654
1886.000000	37.184575
1885.000000	37.720412
1884.000000	38.273384
1883.000000	38.785583
1882.000000	39.224389
1881.000000	39.669182
1880.000000	40.087241
1879.000000	40.484138
1878.000000	40.860700
1877.000000	41.231998
1876.000000	41.600611
1875.000000	41.941458
1874.000000	42.251337
1873.000000	42.550687
1872.000000	42.830012
1871.000000	43.066912
1870.000000	43.257361
1869.000000	43.407758
1868.000000	43.564246
1867.000000	43.688735
1866.000000	43.767804
1865.000000	43.848732
1864.000000	43.953092
1863.000000	44.081090
1862.000000	44.210843
1861.000000	44.328312
1860.000000	44.448465
1859.000000	44.541573
1858.000000	44.605160
1857.000000	44.654914
1856.000000	44.709829
1855.000000	44.758241
1854.000000	44.795092
1853.000000	44.788073
1852.000000	44.798395
1851.000000	44.852278
1850.000000	44.940019
1849.000000	45.009489
1848.000000	44.994831
1847.000000	44.923710
1846.000000	44.828537
1845.000000	44.774241
1844.000000	44.794679
1843.000000	44.838137
1842.000000	44.873749
1841.000000	44.847530
1840.000000	44.787350
1839.000000	44.735222
1838.000000	44.695997
1837.000000	44.641082
1836.000000	44.564386
1835.000000	44.490787
1834.000000	44.409653
1833.000000	44.355357
1832.000000	44.333577
1831.000000	44.324080
1830.000000	44.282584
1829.000000	44.239643
1828.000000	44.187618
1827.000000	44.129193
1826.000000	44.094716
1825.000000	44.048781
1824.000000	44.029788
1823.000000	44.071077
1822.000000	44.133734
1821.000000	44.142921
1820.000000	44.104832
1819.000000	44.052600
1818.000000	44.011207
1817.000000	44.008111
1816.000000	44.010588
1815.000000	43.986227
1814.000000	43.955363
1813.000000	43.949169
1812.000000	43.939983
1811.000000	43.902306
1810.000000	43.852861
1809.000000	43.822926
1808.000000	43.798875
1807.000000	43.777198
1806.000000	43.751495
1805.000000	43.697922
1804.000000	43.661174
1803.000000	43.666748
1802.000000	43.678206
1801.000000	43.644452
1800.000000	43.580143
1799.000000	43.531111
1798.000000	43.513563
1797.000000	43.502208
1796.000000	43.480738
1795.000000	43.466493
1794.000000	43.434287
1793.000000	43.408997
1792.000000	43.389075
1791.000000	43.382262
1790.000000	43.380714
1789.000000	43.383088
1788.000000	43.371114
1787.000000	43.384326
1786.000000	43.398158
1785.000000	43.397023
1784.000000	43.387010
1783.000000	43.380920
1782.000000	43.377926
1781.000000	43.363578
1780.000000	43.341901
1779.000000	43.317127
1778.000000	43.288844
1777.000000	43.251786
1776.000000	43.208329
1775.000000	43.157852
1774.000000	43.112331
1773.000000	43.067531
1772.000000	43.001158
1771.000000	42.960901
1770.000000	42.899689
1769.000000	42.857986
1768.000000	42.802555
1767.000000	42.761368
1766.000000	42.697163
1765.000000	42.641215
1764.000000	42.621602
1763.000000	42.612932
1762.000000	42.592803
1761.000000	42.603435
1760.000000	42.609938
1759.000000	42.619125
1758.000000	42.618609
1757.000000	42.631615
1756.000000	42.656183
1755.000000	42.671769
1754.000000	42.678789
1753.000000	42.679614
1752.000000	42.691382
1751.000000	42.686014
1750.000000	42.671357
1749.000000	42.648028
1748.000000	42.621499
1747.000000	42.583719
1746.000000	42.520339
1745.000000	42.440960
1744.000000	42.353013
1743.000000	42.285401
1742.000000	42.178874
1741.000000	42.076269
1740.000000	41.968090
1739.000000	41.857846
1738.000000	41.751319
1737.000000	41.633953
1736.000000	41.548690
1735.000000	41.457233
1734.000000	41.335944
1733.000000	41.255636
1732.000000	41.154270
1731.000000	41.060955
1730.000000	40.983640
1729.000000	40.906841
1728.000000	40.841191
1727.000000	40.787617
1726.000000	40.743231
1725.000000	40.717115
1724.000000	40.702251
1723.000000	40.728470
1722.000000	40.810120
1721.000000	40.934299
1720.000000	41.105238
1719.000000	41.314061
1718.000000	41.548380
1717.000000	41.809434
1716.000000	42.056966
1715.000000	42.291904
1714.000000	42.537475
1713.000000	42.757136
1712.000000	42.953468
1711.000000	43.115634
1710.000000	43.263864
1709.000000	43.422106
1708.000000	43.548866
1707.000000	43.660864
1706.000000	43.754901
1705.000000	43.840371
1704.000000	43.902822
1703.000000	43.959595
1702.000000	44.018330
1701.000000	44.053736
1700.000000	44.073864
1699.000000	44.104109
1698.000000	44.128883
1697.000000	44.111644
1696.000000	44.089348
1695.000000	44.019362
1694.000000	43.952782
1693.000000	43.879080
1692.000000	43.784630
1691.000000	43.672735
1690.000000	43.595420
1689.000000	43.533176
1688.000000	43.525021
1687.000000	43.565485
1686.000000	43.681406
1685.000000	43.817042
1684.000000	44.012033
1683.000000	44.232210
1682.000000	44.468800
1681.000000	44.716435
1680.000000	44.972948
1679.000000	45.202725
1678.000000	45.399677
1677.000000	45.610151
1676.000000	45.803490
1675.000000	45.987332
1674.000000	46.159097
1673.000000	46.338708
1672.000000	46.532460
1671.000000	46.714754
1670.000000	46.895190
1669.000000	47.083264
1668.000000	47.315106
1667.000000	47.483671
1666.000000	47.649140
1665.000000	47.834530
1664.000000	47.993186
1663.000000	48.165983
1662.000000	48.322162
1661.000000	48.454495
1660.000000	48.606132
1659.000000	48.738465
1658.000000	48.860992
1657.000000	48.953688
1656.000000	49.049686
1655.000000	49.138769
1654.000000	49.190690
1653.000000	49.240135
1652.000000	49.281218
1651.000000	49.325295
1650.000000	49.355436
1649.000000	49.367823
1648.000000	49.377320
1647.000000	49.375255
1646.000000	49.369578
1645.000000	49.374326
1644.000000	49.370094
1643.000000	49.361733
1642.000000	49.367720
1641.000000	49.374017
1640.000000	49.369785
1639.000000	49.363075
1638.000000	49.357914
1637.000000	49.329734
1636.000000	49.319824
1635.000000	49.308779
1634.000000	49.282663
1633.000000	49.255206
1632.000000	49.222587
1631.000000	49.174071
1630.000000	49.150227
1629.000000	49.109969
1628.000000	49.080963
1627.000000	49.030074
1626.000000	48.980423
1625.000000	48.942849
1624.000000	48.900940
1623.000000	48.860579
1622.000000	48.808038
1621.000000	48.765407
1620.000000	48.735884
1619.000000	48.697898
1618.000000	48.667653
1617.000000	48.603344
1616.000000	48.558442
1615.000000	48.511578
1614.000000	48.470701
1613.000000	48.422702
1612.000000	48.379554
1611.000000	48.339607
1610.000000	48.276846
1609.000000	48.201183
1608.000000	48.127894
1607.000000	48.056153
1606.000000	47.983896
