PE UV       SUBTECH     SPECTRUM    ASCII       PEDS        4.00        
   -1
CICIMAUCR0001-3.Sample.ASC
24/04/11
16:53:49.00
24/04/11
16:53:49.00
Vinicio Soto Monge
C. kalinini
250,000000
1
Lambda 1050
1050L1511233
PerkinElmer UV WinLab 6.3.2.0749 / 2.02.05 Lambda 900 UV/VIS/NIR, Aug  7 2015 09:38:08

0
0
3350/2 860,8/2
0
0
UV/VIS
1
1
1
DoubleDePol,CommonBeamDepol,RBeamAtt,SBeamAtt,60mm sphere, WB InGaAs Detector
0
0
0
0
Program
Program
3350/2 860,8/2
3350/0,2 860,8/0,2
3350/0,2 860,8/0,2
0
15.00
 
 
 
0
 
860,8
319,2
860,8
Front
100
on
S:100 R:100
0
0
0
0
 
0
 
 
 
0
 
 
0
0
0
0
0
 
 
 
 
0
0


0
0
#HDR
-1
-1
#GR
nm
%R
1.0
0.0
2400,000000
-1,000000
2151
8
102,016800
5,507100
#DATA
2382.000000	24.508764
2381.000000	23.482340
2380.000000	23.016786
2379.000000	23.607640
2378.000000	24.111221
2377.000000	23.685977
2376.000000	23.030487
2375.000000	23.314844
2374.000000	22.759435
2373.000000	23.827162
2372.000000	23.172864
2371.000000	23.285852
2370.000000	23.584407
2369.000000	23.475092
2368.000000	24.144779
2367.000000	23.222905
2366.000000	23.315638
2365.000000	23.229160
2364.000000	23.332318
2363.000000	23.633752
2362.000000	23.553826
2361.000000	22.989879
2360.000000	23.194707
2359.000000	23.446498
2358.000000	23.036842
2357.000000	22.399820
2356.000000	23.278306
2355.000000	23.015793
2354.000000	22.989184
2353.000000	23.294093
2352.000000	23.071195
2351.000000	22.156568
2350.000000	23.350091
2349.000000	23.408967
2348.000000	23.617469
2347.000000	23.563259
2346.000000	23.213870
2345.000000	22.717437
2344.000000	23.080925
2343.000000	22.821986
2342.000000	22.629966
2341.000000	23.002389
2340.000000	22.978362
2339.000000	22.580521
2338.000000	22.603258
2337.000000	22.658461
2336.000000	22.615271
2335.000000	22.524027
2334.000000	22.461179
2333.000000	22.433974
2332.000000	22.416004
2331.000000	22.484908
2330.000000	22.518964
2329.000000	22.098585
2328.000000	22.232919
2327.000000	22.130059
2326.000000	22.600180
2325.000000	22.712572
2324.000000	22.797363
2323.000000	22.600279
2322.000000	22.882650
2321.000000	22.636320
2320.000000	22.650121
2319.000000	22.786938
2318.000000	22.739975
2317.000000	22.577543
2316.000000	22.411734
2315.000000	22.328433
2314.000000	22.477164
2313.000000	22.131250
2312.000000	22.126683
2311.000000	22.184765
2310.000000	22.091833
2309.000000	22.474285
2308.000000	22.392175
2307.000000	22.437449
2306.000000	22.154582
2305.000000	21.736189
2304.000000	21.606521
2303.000000	21.814427
2302.000000	21.554793
2301.000000	21.784144
2300.000000	21.744331
2299.000000	21.691907
2298.000000	21.575544
2297.000000	21.804995
2296.000000	21.907061
2295.000000	21.779577
2294.000000	21.592124
2293.000000	21.469804
2292.000000	21.527092
2291.000000	21.725764
2290.000000	21.721793
2289.000000	21.742246
2288.000000	21.421153
2287.000000	21.498795
2286.000000	21.660533
2285.000000	21.590139
2284.000000	21.696872
2283.000000	21.776797
2282.000000	21.928110
2281.000000	22.122811
2280.000000	22.170766
2279.000000	22.112683
2278.000000	22.129562
2277.000000	22.152398
2276.000000	22.123307
2275.000000	22.012007
2274.000000	21.847291
2273.000000	21.846596
2272.000000	21.860496
2271.000000	22.020843
2270.000000	22.226466
2269.000000	22.327639
2268.000000	22.125193
2267.000000	22.035637
2266.000000	22.092628
2265.000000	22.389693
2264.000000	22.722104
2263.000000	22.948278
2262.000000	22.727962
2261.000000	22.237486
2260.000000	22.542892
2259.000000	22.956122
2258.000000	22.945300
2257.000000	23.039026
2256.000000	23.228266
2255.000000	23.374416
2254.000000	23.602377
2253.000000	23.650929
2252.000000	23.637823
2251.000000	23.987112
2250.000000	24.253002
2249.000000	24.383563
2248.000000	24.676061
2247.000000	24.678841
2246.000000	24.843756
2245.000000	25.032797
2244.000000	24.908491
2243.000000	25.084923
2242.000000	25.159586
2241.000000	25.217669
2240.000000	25.343366
2239.000000	25.260858
2238.000000	25.403136
2237.000000	25.503614
2236.000000	25.490806
2235.000000	25.425475
2234.000000	25.405320
2233.000000	25.411178
2232.000000	25.467970
2231.000000	25.769702
2230.000000	25.792041
2229.000000	25.728101
2228.000000	25.534194
2227.000000	25.494678
2226.000000	25.250831
2225.000000	25.159983
2224.000000	25.111929
2223.000000	24.936490
2222.000000	25.169217
2221.000000	25.055038
2220.000000	25.018401
2219.000000	25.031209
2218.000000	25.214392
2217.000000	24.950886
2216.000000	24.810396
2215.000000	24.677054
2214.000000	24.477290
2213.000000	24.140411
2212.000000	24.322899
2211.000000	24.301751
2210.000000	24.234534
2209.000000	24.343650
2208.000000	24.324389
2207.000000	24.197500
2206.000000	24.379790
2205.000000	23.730258
2204.000000	23.801248
2203.000000	24.033579
2202.000000	23.892095
2201.000000	23.668602
2200.000000	23.866976
2199.000000	23.786653
2198.000000	23.584704
2197.000000	23.787348
2196.000000	23.762824
2195.000000	23.759647
2194.000000	23.853473
2193.000000	23.826070
2192.000000	23.520466
2191.000000	23.598704
2190.000000	23.598605
2189.000000	23.431803
2188.000000	23.185275
2187.000000	23.601186
2186.000000	23.181304
2185.000000	23.806808
2184.000000	23.557798
2183.000000	23.839374
2182.000000	23.613994
2181.000000	23.572790
2180.000000	23.560876
2179.000000	23.708217
2178.000000	23.808000
2177.000000	23.924761
2176.000000	23.567726
2175.000000	23.645865
2174.000000	23.502495
2173.000000	23.401819
2172.000000	23.636135
2171.000000	23.663637
2170.000000	23.932207
2169.000000	23.940249
2168.000000	23.438654
2167.000000	23.790525
2166.000000	23.827758
2165.000000	23.992772
2164.000000	24.062074
2163.000000	24.115291
2162.000000	24.164140
2161.000000	24.136439
2160.000000	24.075477
2159.000000	24.224705
2158.000000	24.531302
2157.000000	24.265512
2156.000000	24.525344
2155.000000	24.881882
2154.000000	24.530706
2153.000000	24.887740
2152.000000	25.228193
2151.000000	24.961510
2150.000000	25.115404
2149.000000	25.339990
2148.000000	25.706357
2147.000000	25.610148
2146.000000	25.883682
2145.000000	25.361237
2144.000000	25.876137
2143.000000	25.804849
2142.000000	26.343180
2141.000000	26.529243
2140.000000	26.189584
2139.000000	25.995975
2138.000000	26.232377
2137.000000	26.794934
2136.000000	26.373463
2135.000000	26.425290
2134.000000	27.031930
2133.000000	26.721759
2132.000000	26.641040
2131.000000	26.943069
2130.000000	27.445955
2129.000000	27.188406
2128.000000	27.436523
2127.000000	27.041164
2126.000000	27.008102
2125.000000	27.113445
2124.000000	27.556560
2123.000000	27.069957
2122.000000	27.482989
2121.000000	27.587140
2120.000000	27.291465
2119.000000	27.821853
2118.000000	27.441288
2117.000000	27.242219
2116.000000	27.397602
2115.000000	27.506917
2114.000000	27.419148
2113.000000	27.434636
2112.000000	27.489641
2111.000000	27.526079
2110.000000	27.498378
2109.000000	27.560829
2108.000000	27.549610
2107.000000	27.379731
2106.000000	27.202505
2105.000000	27.450621
2104.000000	27.422325
2103.000000	27.487457
2102.000000	27.650882
2101.000000	27.555567
2100.000000	27.469585
2099.000000	27.378242
2098.000000	27.365731
2097.000000	27.801003
2096.000000	27.361264
2095.000000	27.076311
2094.000000	26.872774
2093.000000	27.211440
2092.000000	27.315890
2091.000000	27.289579
2090.000000	27.380426
2089.000000	27.389262
2088.000000	27.302883
2087.000000	27.408127
2086.000000	27.227028
2085.000000	27.388964
2084.000000	27.240730
2083.000000	27.313606
2082.000000	27.188704
2081.000000	27.207469
2080.000000	27.120196
2079.000000	27.073333
2078.000000	26.992117
2077.000000	26.877540
2076.000000	26.814989
2075.000000	26.864732
2074.000000	26.861257
2073.000000	26.532917
2072.000000	26.532619
2071.000000	26.454778
2070.000000	26.455473
2069.000000	26.265340
2068.000000	26.126041
2067.000000	26.075603
2066.000000	25.893611
2065.000000	25.464495
2064.000000	25.481672
2063.000000	25.547499
2062.000000	25.346741
2061.000000	25.304247
2060.000000	25.223130
2059.000000	25.013139
2058.000000	24.972531
2057.000000	24.923086
2056.000000	24.882180
2055.000000	24.856167
2054.000000	24.758171
2053.000000	24.773461
2052.000000	24.864706
2051.000000	24.898066
2050.000000	25.073902
2049.000000	25.127815
2048.000000	25.146977
2047.000000	25.320927
2046.000000	25.352401
2045.000000	25.483161
2044.000000	25.705860
2043.000000	25.887356
2042.000000	25.948715
2041.000000	26.053363
2040.000000	26.219171
2039.000000	26.465104
2038.000000	26.563100
2037.000000	26.608871
2036.000000	26.787289
2035.000000	26.824322
2034.000000	26.931850
2033.000000	27.137670
2032.000000	27.304968
2031.000000	27.320159
2030.000000	27.318570
2029.000000	27.485570
2028.000000	27.660017
2027.000000	27.649393
2026.000000	27.639564
2025.000000	27.732198
2024.000000	27.869610
2023.000000	27.860476
2022.000000	27.831683
2021.000000	27.914289
2020.000000	28.035021
2019.000000	28.065304
2018.000000	28.130634
2017.000000	28.104423
2016.000000	28.115741
2015.000000	28.070864
2014.000000	28.009008
2013.000000	28.017845
2012.000000	28.108891
2011.000000	28.161612
2010.000000	28.121004
2009.000000	28.042964
2008.000000	27.983988
2007.000000	27.992924
2006.000000	27.960755
2005.000000	27.901481
2004.000000	27.876362
2003.000000	27.866334
2002.000000	27.730808
2001.000000	27.641649
2000.000000	27.614543
1999.000000	27.585850
1998.000000	27.538688
1997.000000	27.473159
1996.000000	27.384497
1995.000000	27.215213
1994.000000	27.143032
1993.000000	27.105700
1992.000000	26.965706
1991.000000	26.819358
1990.000000	26.745489
1989.000000	26.601126
1988.000000	26.438694
1987.000000	26.448722
1986.000000	26.399178
1985.000000	26.216292
1984.000000	26.086128
1983.000000	25.974629
1982.000000	25.879314
1981.000000	25.783701
1980.000000	25.635665
1979.000000	25.491203
1978.000000	25.386257
1977.000000	25.289949
1976.000000	25.194237
1975.000000	25.066952
1974.000000	25.024457
1973.000000	24.948007
1972.000000	24.798779
1971.000000	24.647467
1970.000000	24.545698
1969.000000	24.490495
1968.000000	24.419505
1967.000000	24.308801
1966.000000	24.204252
1965.000000	24.089775
1964.000000	23.955142
1963.000000	23.850693
1962.000000	23.798071
1961.000000	23.670984
1960.000000	23.554621
1959.000000	23.493162
1958.000000	23.375607
1957.000000	23.235117
1956.000000	23.089166
1955.000000	23.045778
1954.000000	23.010729
1953.000000	22.877189
1952.000000	22.711480
1951.000000	22.620633
1950.000000	22.524027
1949.000000	22.393962
1948.000000	22.327043
1947.000000	22.247217
1946.000000	22.162525
1945.000000	22.129761
1944.000000	22.036233
1943.000000	21.916096
1942.000000	21.874793
1941.000000	21.891572
1940.000000	21.894551
1939.000000	21.842525
1938.000000	21.815320
1937.000000	21.767167
1936.000000	21.673242
1935.000000	21.638888
1934.000000	21.704020
1933.000000	21.810555
1932.000000	21.792286
1931.000000	21.895047
1930.000000	22.044672
1929.000000	22.016971
1928.000000	22.087167
1927.000000	22.276307
1926.000000	22.285343
1925.000000	22.374204
1924.000000	22.501390
1923.000000	22.615966
1922.000000	22.741564
1921.000000	23.260137
1920.000000	23.433690
1919.000000	23.212579
1918.000000	23.415719
1917.000000	23.832821
1916.000000	24.160665
1915.000000	24.280107
1914.000000	24.657296
1913.000000	24.951383
1912.000000	25.196819
1911.000000	25.438780
1910.000000	25.833245
1909.000000	26.151855
1908.000000	26.541356
1907.000000	27.064596
1906.000000	27.709362
1905.000000	28.141556
1904.000000	28.421742
1903.000000	28.890374
1902.000000	29.331603
1901.000000	30.008340
1900.000000	30.679814
1899.000000	31.398946
1898.000000	31.755583
1897.000000	32.227392
1896.000000	32.750036
1895.000000	33.451495
1894.000000	34.077298
1893.000000	34.791068
1892.000000	35.491038
1891.000000	36.071069
1890.000000	36.610492
1889.000000	37.196183
1888.000000	37.683382
1887.000000	38.368856
1886.000000	38.960404
1885.000000	39.530706
1884.000000	40.126623
1883.000000	40.482664
1882.000000	40.910093
1881.000000	41.356485
1880.000000	41.778154
1879.000000	42.133997
1878.000000	42.520519
1877.000000	43.193284
1876.000000	43.286415
1875.000000	43.666285
1874.000000	44.060253
1873.000000	44.428507
1872.000000	44.471895
1871.000000	44.761712
1870.000000	44.924741
1869.000000	45.079925
1868.000000	45.451058
1867.000000	45.325858
1866.000000	45.249308
1865.000000	45.527012
1864.000000	45.812163
1863.000000	45.656780
1862.000000	45.793199
1861.000000	46.149340
1860.000000	46.521465
1859.000000	46.258952
1858.000000	46.173169
1857.000000	46.580442
1856.000000	46.495552
1855.000000	46.440646
1854.000000	46.690451
1853.000000	46.766802
1852.000000	46.413938
1851.000000	46.572995
1850.000000	46.808006
1849.000000	46.951078
1848.000000	47.316154
1847.000000	47.085413
1846.000000	46.567435
1845.000000	46.504289
1844.000000	46.646467
1843.000000	46.887535
1842.000000	47.063570
1841.000000	46.916030
1840.000000	46.712493
1839.000000	46.650538
1838.000000	46.783979
1837.000000	46.938270
1836.000000	46.817041
1835.000000	46.499027
1834.000000	46.319815
1833.000000	46.350991
1832.000000	46.533281
1831.000000	46.498431
1830.000000	46.344438
1829.000000	46.334807
1828.000000	46.345530
1827.000000	46.328850
1826.000000	46.360621
1825.000000	46.100789
1824.000000	46.057103
1823.000000	46.215167
1822.000000	46.374124
1821.000000	46.450178
1820.000000	46.349998
1819.000000	46.115682
1818.000000	46.159268
1817.000000	46.214869
1816.000000	46.239194
1815.000000	46.233237
1814.000000	46.106349
1813.000000	46.122632
1812.000000	46.196402
1811.000000	46.127795
1810.000000	46.000509
1809.000000	45.951958
1808.000000	45.978468
1807.000000	45.994453
1806.000000	45.965759
1805.000000	45.833410
1804.000000	45.815936
1803.000000	45.894174
1802.000000	45.877791
1801.000000	45.845424
1800.000000	45.746138
1799.000000	45.679218
1798.000000	45.646255
1797.000000	45.627987
1796.000000	45.624512
1795.000000	45.605051
1794.000000	45.556500
1793.000000	45.541905
1792.000000	45.522942
1791.000000	45.511325
1790.000000	45.471908
1789.000000	45.438548
1788.000000	45.452845
1787.000000	45.473596
1786.000000	45.459100
1785.000000	45.456916
1784.000000	45.472405
1783.000000	45.426733
1782.000000	45.426832
1781.000000	45.409457
1780.000000	45.362693
1779.000000	45.349687
1778.000000	45.309972
1777.000000	45.276513
1776.000000	45.226075
1775.000000	45.185963
1774.000000	45.138107
1773.000000	45.084294
1772.000000	45.032268
1771.000000	44.983816
1770.000000	44.916500
1769.000000	44.883537
1768.000000	44.825553
1767.000000	44.778591
1766.000000	44.754762
1765.000000	44.690226
1764.000000	44.647930
1763.000000	44.663121
1762.000000	44.638597
1761.000000	44.579224
1760.000000	44.572472
1759.000000	44.520545
1758.000000	44.494036
1757.000000	44.533850
1756.000000	44.543679
1755.000000	44.519155
1754.000000	44.497511
1753.000000	44.487086
1752.000000	44.491653
1751.000000	44.468321
1750.000000	44.408947
1749.000000	44.409642
1748.000000	44.360694
1747.000000	44.298640
1746.000000	44.266372
1745.000000	44.202432
1744.000000	44.154873
1743.000000	44.099273
1742.000000	44.038113
1741.000000	43.964243
1740.000000	43.868333
1739.000000	43.789896
1738.000000	43.725062
1737.000000	43.683461
1736.000000	43.644839
1735.000000	43.585366
1734.000000	43.540489
1733.000000	43.504349
1732.000000	43.482903
1731.000000	43.430479
1730.000000	43.403970
1729.000000	43.375375
1728.000000	43.327817
1727.000000	43.311534
1726.000000	43.313321
1725.000000	43.314513
1724.000000	43.310343
1723.000000	43.335363
1722.000000	43.403573
1721.000000	43.514079
1720.000000	43.687830
1719.000000	43.888587
1718.000000	44.109698
1717.000000	44.345603
1716.000000	44.556487
1715.000000	44.790009
1714.000000	44.992851
1713.000000	45.174942
1712.000000	45.363190
1711.000000	45.522147
1710.000000	45.652411
1709.000000	45.767981
1708.000000	45.857140
1707.000000	45.978865
1706.000000	46.036948
1705.000000	46.097711
1704.000000	46.188260
1703.000000	46.241577
1702.000000	46.235918
1701.000000	46.247733
1700.000000	46.292114
1699.000000	46.297277
1698.000000	46.286057
1697.000000	46.285561
1696.000000	46.285859
1695.000000	46.282682
1694.000000	46.202657
1693.000000	46.140603
1692.000000	46.108533
1691.000000	46.060181
1690.000000	45.960100
1689.000000	45.924059
1688.000000	45.935675
1687.000000	46.031090
1686.000000	46.142886
1685.000000	46.292213
1684.000000	46.465666
1683.000000	46.667814
1682.000000	46.891804
1681.000000	47.113809
1680.000000	47.322111
1679.000000	47.526542
1678.000000	47.745668
1677.000000	47.952481
1676.000000	48.116403
1675.000000	48.235348
1674.000000	48.408703
1673.000000	48.605488
1672.000000	48.792147
1671.000000	48.988535
1670.000000	49.153450
1669.000000	49.297316
1668.000000	49.459153
1667.000000	49.654450
1666.000000	49.795536
1665.000000	49.942083
1664.000000	50.074729
1663.000000	50.199135
1662.000000	50.322945
1661.000000	50.428487
1660.000000	50.543262
1659.000000	50.612167
1658.000000	50.725354
1657.000000	50.821761
1656.000000	50.859490
1655.000000	50.886495
1654.000000	50.941202
1653.000000	50.977541
1652.000000	50.994618
1651.000000	50.993030
1650.000000	51.019142
1649.000000	51.053396
1648.000000	51.011696
1647.000000	50.987668
1646.000000	50.982009
1645.000000	50.948053
1644.000000	50.914792
1643.000000	50.898410
1642.000000	50.867929
1641.000000	50.892750
1640.000000	50.863759
1639.000000	50.860681
1638.000000	50.822654
1637.000000	50.826427
1636.000000	50.806073
1635.000000	50.769834
1634.000000	50.731311
1633.000000	50.732403
1632.000000	50.692390
1631.000000	50.645924
1630.000000	50.560737
1629.000000	50.541276
1628.000000	50.511193
1627.000000	50.486768
1626.000000	50.433153
1625.000000	50.417268
1624.000000	50.360774
1623.000000	50.328803
1622.000000	50.260991
1621.000000	50.259700
1620.000000	50.229418
1619.000000	50.187122
1618.000000	50.167463
1617.000000	50.109777
1616.000000	50.090218
1615.000000	50.081084
1614.000000	50.045440
1613.000000	49.994307
1612.000000	49.942182
1611.000000	49.908722
1610.000000	49.873674
1609.000000	49.806755
1608.000000	49.761282
1607.000000	49.740333
1606.000000	49.646408
1605.000000	49.597161
1604.000000	49.516839
1603.000000	49.487946
1602.000000	49.393624
1601.000000	49.344577
1600.000000	49.276963
1599.000000	49.236156
1598.000000	49.169932
1597.000000	49.098843
1596.000000	49.042647
1595.000000	48.983174
1594.000000	48.947133
1593.000000	48.944452
1592.000000	48.860158
1591.000000	48.836031
1590.000000	48.788970
1589.000000	48.746376
1588.000000	48.713611
1587.000000	48.674492
1586.000000	48.629218
1585.000000	48.629516
1584.000000	48.567462
1583.000000	48.525066
1582.000000	48.481976
1581.000000	48.477806
1580.000000	48.458048
1579.000000	48.432631
1578.000000	48.407610
1577.000000	48.375839
1576.000000	48.391129
1575.000000	48.394703
1574.000000	48.376037
1573.000000	48.394107
1572.000000	48.388349
1571.000000	48.384973
1570.000000	48.407710
1569.000000	48.434815
1568.000000	48.442460
1567.000000	48.464998
1566.000000	48.482572
1565.000000	48.472345
1564.000000	48.482175
1563.000000	48.490415
1562.000000	48.480784
1561.000000	48.482075
1560.000000	48.473934
1559.000000	48.441666
1558.000000	48.424588
1557.000000	48.407015
1556.000000	48.336521
1555.000000	48.283899
1554.000000	48.221051
1553.000000	48.152643
1552.000000	48.062590
1551.000000	47.982764
1550.000000	47.912072
1549.000000	47.795807
1548.000000	47.718959
1547.000000	47.624935
1546.000000	47.558711
1545.000000	47.497451
1544.000000	47.432220
1543.000000	47.372450
1542.000000	47.320523
1541.000000	47.274255
1540.000000	47.223222
1539.000000	47.183805
1538.000000	47.140219
1537.000000	47.107752
1536.000000	47.068037
1535.000000	47.022664
1534.000000	46.957829
1533.000000	46.899846
1532.000000	46.851394
1531.000000	46.787454
1530.000000	46.728081
1529.000000	46.680622
1528.000000	46.628397
1527.000000	46.544897
1526.000000	46.513820
1525.000000	46.461000
1524.000000	46.391003
1523.000000	46.319616
1522.000000	46.261335
1521.000000	46.198189
1520.000000	46.140305
1519.000000	46.087385
1518.000000	46.007360
1517.000000	45.961589
1516.000000	45.912442
1515.000000	45.825269
1514.000000	45.773640
1513.000000	45.685970
1512.000000	45.609519
1511.000000	45.553919
1510.000000	45.504971
1509.000000	45.445399
1508.000000	45.378579
1507.000000	45.316823
1506.000000	45.269761
