PE UV       SUBTECH     SPECTRUM    ASCII       PEDS        4.00        
   -1
CICIMAUCR0008-2.Sample.ASC
24/04/12
14:36:05.00
24/04/12
14:36:05.00
Vinicio Soto Monge
C. kalinini
250,000000
1
Lambda 1050
1050L1511233
PerkinElmer UV WinLab 6.3.2.0749 / 2.02.05 Lambda 900 UV/VIS/NIR, Aug  7 2015 09:38:08

0
0
3350/servo 860,8/2
0
0
UV/VIS
1
1
1
DoubleDePol,CommonBeamDepol,RBeamAtt,SBeamAtt,60mm sphere, WB InGaAs Detector
0
0
0
0
Program
Program
3350/servo 860,8/2
3350/0,2 860,8/0,2
3350/0,2 860,8/0,2
0
15.00
 
 
 
0
 
860,8
319,2
860,8
Front
100
on
S:100 R:100
0
0
0
0
 
0
 
 
 
0
 
 
0
0
0
0
0
 
 
 
 
0
0


0
0
#HDR
-1
-1
#GR
nm
%R
1.0
0.0
2500,000000
-1,000000
2251
8
20,801700
1,178000
#DATA
2482.000000	4.385375
2481.000000	4.356714
2480.000000	4.393882
2479.000000	4.388134
2478.000000	4.383536
2477.000000	4.366063
2476.000000	4.379704
2475.000000	4.388671
2474.000000	4.442622
2473.000000	4.423770
2472.000000	4.464233
2471.000000	4.451971
2470.000000	4.466379
2469.000000	4.457183
2468.000000	4.475269
2467.000000	4.499179
2466.000000	4.545466
2465.000000	4.582711
2464.000000	4.607081
2463.000000	4.602177
2462.000000	4.628692
2461.000000	4.666167
2460.000000	4.699197
2459.000000	4.722647
2458.000000	4.746251
2457.000000	4.792768
2456.000000	4.813460
2455.000000	4.833692
2454.000000	4.863503
2453.000000	4.894693
2452.000000	4.929103
2451.000000	4.962209
2450.000000	4.975007
2449.000000	5.016084
2448.000000	5.049803
2447.000000	5.094098
2446.000000	5.111954
2445.000000	5.129657
2444.000000	5.164066
2443.000000	5.196866
2442.000000	5.207059
2441.000000	5.248058
2440.000000	5.285533
2439.000000	5.301013
2438.000000	5.321935
2437.000000	5.354658
2436.000000	5.390370
2435.000000	5.411751
2434.000000	5.437424
2433.000000	5.468461
2432.000000	5.527087
2431.000000	5.556285
2430.000000	5.569467
2429.000000	5.576057
2428.000000	5.555749
2427.000000	5.580655
2426.000000	5.601194
2425.000000	5.623418
2424.000000	5.632461
2423.000000	5.650317
2422.000000	5.679821
2421.000000	5.693539
2420.000000	5.694689
2419.000000	5.709326
2418.000000	5.719212
2417.000000	5.731857
2416.000000	5.766266
2415.000000	5.766879
2414.000000	5.767416
2413.000000	5.784122
2412.000000	5.797993
2411.000000	5.800445
2410.000000	5.810101
2409.000000	5.823359
2408.000000	5.830640
2407.000000	5.846350
2406.000000	5.858688
2405.000000	5.866658
2404.000000	5.870030
2403.000000	5.872789
2402.000000	5.877081
2401.000000	5.883365
2400.000000	5.891335
2399.000000	5.899841
2398.000000	5.904056
2397.000000	5.917544
2396.000000	5.923138
2395.000000	5.918310
2394.000000	5.912486
2393.000000	5.910877
2392.000000	5.917851
2391.000000	5.919077
2390.000000	5.917774
2389.000000	5.912793
2388.000000	5.913865
2387.000000	5.916854
2386.000000	5.920839
2385.000000	5.912793
2384.000000	5.900838
2383.000000	5.898845
2382.000000	5.898309
2381.000000	5.902447
2380.000000	5.904056
2379.000000	5.886430
2378.000000	5.882062
2377.000000	5.892254
2376.000000	5.872176
2375.000000	5.850948
2374.000000	5.852251
2373.000000	5.846197
2372.000000	5.836081
2371.000000	5.828954
2370.000000	5.823206
2369.000000	5.810791
2368.000000	5.803357
2367.000000	5.807266
2366.000000	5.795464
2365.000000	5.777531
2364.000000	5.762817
2363.000000	5.751552
2362.000000	5.743582
2361.000000	5.735918
2360.000000	5.730631
2359.000000	5.726109
2358.000000	5.712545
2357.000000	5.692466
2356.000000	5.688864
2355.000000	5.691163
2354.000000	5.680664
2353.000000	5.678978
2352.000000	5.686949
2351.000000	5.691317
2350.000000	5.692390
2349.000000	5.693079
2348.000000	5.689861
2347.000000	5.689707
2346.000000	5.690550
2345.000000	5.698674
2344.000000	5.703272
2343.000000	5.702429
2342.000000	5.701509
2341.000000	5.696605
2340.000000	5.703808
2339.000000	5.697448
2338.000000	5.688711
2337.000000	5.687485
2336.000000	5.680818
2335.000000	5.685416
2334.000000	5.690244
2333.000000	5.688175
2332.000000	5.692006
2331.000000	5.693309
2330.000000	5.691777
2329.000000	5.694152
2328.000000	5.701739
2327.000000	5.701433
2326.000000	5.703425
2325.000000	5.701739
2324.000000	5.705648
2323.000000	5.703195
2322.000000	5.703655
2321.000000	5.704728
2320.000000	5.704651
2319.000000	5.705341
2318.000000	5.700513
2317.000000	5.696681
2316.000000	5.707333
2315.000000	5.701126
2314.000000	5.714154
2313.000000	5.713158
2312.000000	5.717833
2311.000000	5.737298
2310.000000	5.739750
2309.000000	5.757300
2308.000000	5.766573
2307.000000	5.774849
2306.000000	5.800369
2305.000000	5.820524
2304.000000	5.843131
2303.000000	5.876774
2302.000000	5.891028
2301.000000	5.915858
2300.000000	5.949807
2299.000000	5.963832
2298.000000	5.993643
2297.000000	6.007054
2296.000000	6.035256
2295.000000	6.055487
2294.000000	6.058476
2293.000000	6.069971
2292.000000	6.073957
2291.000000	6.079321
2290.000000	6.088747
2289.000000	6.076945
2288.000000	6.064224
2287.000000	6.080394
2286.000000	6.081697
2285.000000	6.069282
2284.000000	6.044375
2283.000000	6.038704
2282.000000	6.029585
2281.000000	6.012189
2280.000000	6.016710
2279.000000	5.979312
2278.000000	5.970882
2277.000000	5.956551
2276.000000	5.959770
2275.000000	5.957624
2274.000000	5.939692
2273.000000	5.957011
2272.000000	5.970346
2271.000000	5.985136
2270.000000	6.003452
2269.000000	6.038551
2268.000000	6.052729
2267.000000	6.072117
2266.000000	6.124766
2265.000000	6.170594
2264.000000	6.222629
2263.000000	6.270679
2262.000000	6.315434
2261.000000	6.391226
2260.000000	6.443645
2259.000000	6.492232
2258.000000	6.564039
2257.000000	6.637532
2256.000000	6.692250
2255.000000	6.755321
2254.000000	6.809502
2253.000000	6.870810
2252.000000	6.932348
2251.000000	6.982544
2250.000000	7.038105
2249.000000	7.073050
2248.000000	7.133745
2247.000000	7.180263
2246.000000	7.227087
2245.000000	7.253296
2244.000000	7.296289
2243.000000	7.331234
2242.000000	7.367483
2241.000000	7.400513
2240.000000	7.440363
2239.000000	7.487570
2238.000000	7.491939
2237.000000	7.514316
2236.000000	7.546426
2235.000000	7.577693
2234.000000	7.597772
2233.000000	7.612562
2232.000000	7.638005
2231.000000	7.659463
2230.000000	7.655555
2229.000000	7.667740
2228.000000	7.700770
2227.000000	7.697091
2226.000000	7.710119
2225.000000	7.704908
2224.000000	7.709123
2223.000000	7.734259
2222.000000	7.728588
2221.000000	7.730504
2220.000000	7.736558
2219.000000	7.730274
2218.000000	7.745141
2217.000000	7.727898
2216.000000	7.720465
2215.000000	7.718932
2214.000000	7.714794
2213.000000	7.686515
2212.000000	7.697781
2211.000000	7.690424
2210.000000	7.665364
2209.000000	7.660076
2208.000000	7.647815
2207.000000	7.650037
2206.000000	7.645745
2205.000000	7.650497
2204.000000	7.629652
2203.000000	7.625514
2202.000000	7.622218
2201.000000	7.622602
2200.000000	7.607964
2199.000000	7.599994
2198.000000	7.598538
2197.000000	7.582981
2196.000000	7.603060
2195.000000	7.580606
2194.000000	7.577847
2193.000000	7.568574
2192.000000	7.565202
2191.000000	7.570796
2190.000000	7.577004
2189.000000	7.554933
2188.000000	7.552940
2187.000000	7.526501
2186.000000	7.541215
2185.000000	7.538226
2184.000000	7.512553
2183.000000	7.508492
2182.000000	7.489716
2181.000000	7.487111
2180.000000	7.482359
2179.000000	7.456686
2178.000000	7.454081
2177.000000	7.435842
2176.000000	7.443199
2175.000000	7.422890
2174.000000	7.412621
2173.000000	7.397524
2172.000000	7.406260
2171.000000	7.388787
2170.000000	7.388481
2169.000000	7.364034
2168.000000	7.359666
2167.000000	7.357903
2166.000000	7.345565
2165.000000	7.339588
2164.000000	7.332614
2163.000000	7.324491
2162.000000	7.311233
2161.000000	7.297668
2160.000000	7.291691
2159.000000	7.284947
2158.000000	7.259657
2157.000000	7.266784
2156.000000	7.265711
2155.000000	7.244866
2154.000000	7.235824
2153.000000	7.233141
2152.000000	7.230766
2151.000000	7.217891
2150.000000	7.199039
2149.000000	7.188923
2148.000000	7.189689
2147.000000	7.180570
2146.000000	7.179037
2145.000000	7.167235
2144.000000	7.156659
2143.000000	7.154054
2142.000000	7.138190
2141.000000	7.126005
2140.000000	7.115430
2139.000000	7.115123
2138.000000	7.107766
2137.000000	7.091826
2136.000000	7.080407
2135.000000	7.073740
2134.000000	7.044619
2133.000000	7.041936
2132.000000	7.037798
2131.000000	7.028832
2130.000000	7.024770
2129.000000	7.014194
2128.000000	6.996415
2127.000000	6.986452
2126.000000	6.961086
2125.000000	6.945376
2124.000000	6.942694
2123.000000	6.922692
2122.000000	6.906752
2121.000000	6.900698
2120.000000	6.886214
2119.000000	6.871193
2118.000000	6.873569
2117.000000	6.857858
2116.000000	6.838623
2115.000000	6.824905
2114.000000	6.824675
2113.000000	6.830270
2112.000000	6.818161
2111.000000	6.806283
2110.000000	6.798313
2109.000000	6.789960
2108.000000	6.793408
2107.000000	6.793562
2106.000000	6.791033
2105.000000	6.793485
2104.000000	6.790803
2103.000000	6.785668
2102.000000	6.793868
2101.000000	6.790190
2100.000000	6.787431
2099.000000	6.791186
2098.000000	6.801302
2097.000000	6.822836
2096.000000	6.834868
2095.000000	6.832799
2094.000000	6.833948
2093.000000	6.835021
2092.000000	6.846210
2091.000000	6.864756
2090.000000	6.868817
2089.000000	6.874258
2088.000000	6.881156
2087.000000	6.886597
2086.000000	6.909741
2085.000000	6.913112
2084.000000	6.914262
2083.000000	6.926064
2082.000000	6.929819
2081.000000	6.944150
2080.000000	6.958481
2079.000000	6.967600
2078.000000	6.984690
2077.000000	7.003006
2076.000000	7.014348
2075.000000	7.028985
2074.000000	7.042856
2073.000000	7.066919
2072.000000	7.075579
2071.000000	7.097803
2070.000000	7.112058
2069.000000	7.124396
2068.000000	7.158422
2067.000000	7.171373
2066.000000	7.188769
2065.000000	7.222566
2064.000000	7.240652
2063.000000	7.251227
2062.000000	7.282111
2061.000000	7.311233
2060.000000	7.318206
2059.000000	7.347711
2058.000000	7.372311
2057.000000	7.400283
2056.000000	7.436914
2055.000000	7.456073
2054.000000	7.480443
2053.000000	7.512247
2052.000000	7.553170
2051.000000	7.578843
2050.000000	7.611566
2049.000000	7.660689
2048.000000	7.694869
2047.000000	7.740697
2046.000000	7.786065
2045.000000	7.813960
2044.000000	7.843694
2043.000000	7.892664
2042.000000	7.942401
2041.000000	7.977193
2040.000000	8.008230
2039.000000	8.037505
2038.000000	8.072604
2037.000000	8.109312
2036.000000	8.166099
2035.000000	8.190009
2034.000000	8.218900
2033.000000	8.247026
2032.000000	8.280362
2031.000000	8.313852
2030.000000	8.327339
2029.000000	8.342207
2028.000000	8.363435
2027.000000	8.382593
2026.000000	8.407883
2025.000000	8.433326
2024.000000	8.445741
2023.000000	8.465513
2022.000000	8.480763
2021.000000	8.499232
2020.000000	8.511724
2019.000000	8.511724
2018.000000	8.531342
2017.000000	8.544217
2016.000000	8.557552
2015.000000	8.565982
2014.000000	8.566441
2013.000000	8.583378
2012.000000	8.587516
2011.000000	8.575178
2010.000000	8.573798
2009.000000	8.567974
2008.000000	8.568894
2007.000000	8.555099
2006.000000	8.567821
2005.000000	8.557475
2004.000000	8.543144
2003.000000	8.529503
2002.000000	8.520537
2001.000000	8.513410
2000.000000	8.498696
1999.000000	8.484135
1998.000000	8.468042
1997.000000	8.458156
1996.000000	8.444898
1995.000000	8.413861
1994.000000	8.386272
1993.000000	8.383206
1992.000000	8.372401
1991.000000	8.349487
1990.000000	8.332780
1989.000000	8.307567
1988.000000	8.281741
1987.000000	8.248328
1986.000000	8.243194
1985.000000	8.216372
1984.000000	8.186637
1983.000000	8.165639
1982.000000	8.145484
1981.000000	8.115290
1980.000000	8.082336
1979.000000	8.062181
1978.000000	8.034133
1977.000000	8.004552
1976.000000	7.980642
1975.000000	7.963475
1974.000000	7.942554
1973.000000	7.918414
1972.000000	7.881246
1971.000000	7.860324
1970.000000	7.824382
1969.000000	7.801008
1968.000000	7.777635
1967.000000	7.758706
1966.000000	7.745295
1965.000000	7.705598
1964.000000	7.685289
1963.000000	7.662145
1962.000000	7.621299
1961.000000	7.598538
1960.000000	7.584131
1959.000000	7.549492
1958.000000	7.522746
1957.000000	7.505350
1956.000000	7.477148
1955.000000	7.452855
1954.000000	7.430477
1953.000000	7.382657
1952.000000	7.345335
1951.000000	7.332920
1950.000000	7.336829
1949.000000	7.317057
1948.000000	7.295906
1947.000000	7.262723
1946.000000	7.233371
1945.000000	7.199345
1944.000000	7.185168
1943.000000	7.174132
1942.000000	7.170454
1941.000000	7.159801
1940.000000	7.120411
1939.000000	7.111981
1938.000000	7.077342
1937.000000	7.062321
1936.000000	7.048144
1935.000000	7.053202
1934.000000	7.054275
1933.000000	7.060635
1932.000000	7.071594
1931.000000	7.091673
1930.000000	7.090446
1929.000000	7.090753
1928.000000	7.084469
1927.000000	7.083549
1926.000000	7.090600
1925.000000	7.124856
1924.000000	7.166392
1923.000000	7.227624
1922.000000	7.256668
1921.000000	7.255366
1920.000000	7.285713
1919.000000	7.295906
1918.000000	7.347711
1917.000000	7.436531
1916.000000	7.537843
1915.000000	7.595396
1914.000000	7.643830
1913.000000	7.672644
1912.000000	7.720312
1911.000000	7.768515
1910.000000	7.884847
1909.000000	8.005855
1908.000000	8.117129
1907.000000	8.196140
1906.000000	8.293313
1905.000000	8.353625
1904.000000	8.419072
1903.000000	8.529120
1902.000000	8.650434
1901.000000	8.780867
1900.000000	8.868154
1899.000000	8.952300
1898.000000	9.030851
1897.000000	9.165806
1896.000000	9.303443
1895.000000	9.440007
1894.000000	9.570516
1893.000000	9.682557
1892.000000	9.772144
1891.000000	9.858282
1890.000000	9.919896
1889.000000	9.991780
1888.000000	10.117615
1887.000000	10.226361
1886.000000	10.347061
1885.000000	10.428755
1884.000000	10.505237
1883.000000	10.576507
1882.000000	10.639195
1881.000000	10.724413
1880.000000	10.829097
1879.000000	10.921519
1878.000000	11.008577
1877.000000	11.084446
1876.000000	11.134795
1875.000000	11.176331
1874.000000	11.227754
1873.000000	11.251051
1872.000000	11.256415
1871.000000	11.271053
1870.000000	11.275191
1869.000000	11.275651
1868.000000	11.303086
1867.000000	11.339948
1866.000000	11.373820
1865.000000	11.413288
1864.000000	11.451835
1863.000000	11.490153
1862.000000	11.533375
1861.000000	11.541652
1860.000000	11.528164
1859.000000	11.515059
1858.000000	11.493065
1857.000000	11.499502
1856.000000	11.529160
1855.000000	11.524255
1854.000000	11.504407
1853.000000	11.485401
1852.000000	11.476512
1851.000000	11.495057
1850.000000	11.537667
1849.000000	11.551461
1848.000000	11.500269
1847.000000	11.416276
1846.000000	11.351136
1845.000000	11.367766
1844.000000	11.438577
1843.000000	11.486474
1842.000000	11.485248
1841.000000	11.437198
1840.000000	11.391983
1839.000000	11.381024
1838.000000	11.379798
1837.000000	11.347764
1836.000000	11.304006
1835.000000	11.282701
1834.000000	11.288066
1833.000000	11.308451
1832.000000	11.315194
1831.000000	11.307071
1830.000000	11.281781
1829.000000	11.254499
1828.000000	11.236490
1827.000000	11.231892
1826.000000	11.208595
1825.000000	11.192731
1824.000000	11.217331
1823.000000	11.248752
1822.000000	11.258101
1821.000000	11.226298
1820.000000	11.172270
1819.000000	11.144374
1818.000000	11.163073
1817.000000	11.193804
1816.000000	11.204073
1815.000000	11.193191
1814.000000	11.191658
1813.000000	11.213499
1812.000000	11.209361
1811.000000	11.184225
1810.000000	11.175029
1809.000000	11.178247
1808.000000	11.181466
1807.000000	11.191275
1806.000000	11.181543
1805.000000	11.158169
1804.000000	11.159855
1803.000000	11.164070
1802.000000	11.160545
1801.000000	11.145984
1800.000000	11.122687
1799.000000	11.112264
1798.000000	11.107819
1797.000000	11.116786
1796.000000	11.106593
1795.000000	11.096554
1794.000000	11.087818
1793.000000	11.078775
1792.000000	11.079694
1791.000000	11.070115
1790.000000	11.074636
1789.000000	11.070268
1788.000000	11.059539
1787.000000	11.049960
1786.000000	11.044979
1785.000000	11.041070
1784.000000	11.017773
1783.000000	11.012409
1782.000000	11.013481
1781.000000	10.996775
1780.000000	10.987962
1779.000000	10.977233
1778.000000	10.961983
1777.000000	10.942671
1776.000000	10.934471
1775.000000	10.914009
1774.000000	10.896919
1773.000000	10.889562
1772.000000	10.875385
1771.000000	10.858525
1770.000000	10.851858
1769.000000	10.837450
1768.000000	10.823963
1767.000000	10.821127
1766.000000	10.804727
1765.000000	10.798136
1764.000000	10.799209
1763.000000	10.800819
1762.000000	10.803271
1761.000000	10.804880
1760.000000	10.812850
1759.000000	10.843504
1758.000000	10.867032
1757.000000	10.864426
1756.000000	10.873469
1755.000000	10.869177
1754.000000	10.879906
1753.000000	10.896459
1752.000000	10.891555
1751.000000	10.894544
1750.000000	10.898912
1749.000000	10.883968
1748.000000	10.876534
1747.000000	10.873086
1746.000000	10.864579
1745.000000	10.843351
1744.000000	10.833619
1743.000000	10.825572
1742.000000	10.797830
1741.000000	10.769551
1740.000000	10.752079
1739.000000	10.728628
1738.000000	10.719125
1737.000000	10.707937
1736.000000	10.682187
1735.000000	10.670079
1734.000000	10.661496
1733.000000	10.664255
1732.000000	10.678969
1731.000000	10.689621
1730.000000	10.684333
1729.000000	10.700350
1728.000000	10.719815
1727.000000	10.721118
1726.000000	10.745871
1725.000000	10.753611
1724.000000	10.751466
1723.000000	10.745181
1722.000000	10.745641
1721.000000	10.751925
1720.000000	10.769475
1719.000000	10.789170
1718.000000	10.796757
1717.000000	10.800972
1716.000000	10.801049
1715.000000	10.834155
1714.000000	10.820054
1713.000000	10.850555
1712.000000	10.847030
1711.000000	10.845727
1710.000000	10.870403
1709.000000	10.857146
1708.000000	10.854540
1707.000000	10.841895
1706.000000	10.845574
1705.000000	10.854387
1704.000000	10.844501
1703.000000	10.834155
1702.000000	10.840899
1701.000000	10.827334
1700.000000	10.831779
1699.000000	10.809249
1698.000000	10.816835
1697.000000	10.807026
1696.000000	10.802658
1695.000000	10.812544
1694.000000	10.827488
1693.000000	10.850402
1692.000000	10.849329
1691.000000	10.871630
1690.000000	10.891555
1689.000000	10.911786
1688.000000	10.929949
1687.000000	10.932938
1686.000000	10.947269
1685.000000	10.951560
1684.000000	10.983977
1683.000000	11.004132
1682.000000	11.039078
1681.000000	11.095481
1680.000000	11.142075
1679.000000	11.201238
1678.000000	11.251204
1677.000000	11.310750
1676.000000	11.342477
1675.000000	11.390144
1674.000000	11.434362
1673.000000	11.467469
1672.000000	11.501341
1671.000000	11.536211
1670.000000	11.551078
1669.000000	11.563799
1668.000000	11.584031
1667.000000	11.620356
1666.000000	11.642580
1665.000000	11.642963
1664.000000	11.644036
1663.000000	11.659440
1662.000000	11.676300
1661.000000	11.672085
1660.000000	11.677909
1659.000000	11.685573
1658.000000	11.679135
1657.000000	11.686186
1656.000000	11.694079
1655.000000	11.686645
1654.000000	11.686032
1653.000000	11.667946
1652.000000	11.678982
1651.000000	11.662505
1650.000000	11.653079
1649.000000	11.643730
1648.000000	11.630472
1647.000000	11.627330
1646.000000	11.626793
1645.000000	11.608248
1644.000000	11.601197
1643.000000	11.588093
1642.000000	11.577823
1641.000000	11.564336
1640.000000	11.546939
1639.000000	11.524025
1638.000000	11.510844
1637.000000	11.503027
1636.000000	11.490766
1635.000000	11.466856
1634.000000	11.451682
1633.000000	11.434516
1632.000000	11.423020
1631.000000	11.409532
1630.000000	11.389607
1629.000000	11.364624
1628.000000	11.358340
1627.000000	11.347535
1626.000000	11.321249
1625.000000	11.297492
1624.000000	11.285000
1623.000000	11.263159
1622.000000	11.254959
1621.000000	11.234957
1620.000000	11.208288
1619.000000	11.194571
1618.000000	11.167212
1617.000000	11.152728
1616.000000	11.134872
1615.000000	11.100539
1614.000000	11.084369
1613.000000	11.069962
1612.000000	11.038694
1611.000000	11.017007
1610.000000	11.001603
1609.000000	10.972865
1608.000000	10.955775
1607.000000	10.925504
1606.000000	10.911327
1605.000000	10.893547
1604.000000	10.873775
1603.000000	10.831933
1602.000000	10.801892
1601.000000	10.790243
1600.000000	10.770165
1599.000000	10.754454
1598.000000	10.738361
1597.000000	10.722421
1596.000000	10.706174
1595.000000	10.669926
1594.000000	10.652453
1593.000000	10.631991
1592.000000	10.614978
1591.000000	10.596509
1590.000000	10.577887
1589.000000	10.565472
1588.000000	10.568537
1587.000000	10.547003
1586.000000	10.529990
1585.000000	10.528150
1584.000000	10.521330
1583.000000	10.519874
1582.000000	10.520793
1581.000000	10.510908
1580.000000	10.505160
1579.000000	10.493128
