PE UV       SUBTECH     SPECTRUM    ASCII       PEDS        4.00        
   -1
CICIMAUCR0233-2.ASC
24/06/14
13:27:51.00
24/06/14
13:27:51.00
Vinicio Soto Monge
C. resplendens. Sex F. Ventral 
250,000000
1
Lambda 1050
1050L1511233
PerkinElmer UV WinLab 6.3.2.0749 / 2.02.05 Lambda 900 UV/VIS/NIR, Aug  7 2015 09:38:08

0
0
3350/servo 860,8/2
0
0
UV/VIS
1
1
1
DoubleDePol,CommonBeamDepol,RBeamAtt,SBeamAtt,60mm sphere, WB InGaAs Detector
0
0
0
0
Program
Program
3350/servo 860,8/2
3350/0,2 860,8/0,2
3350/0,2 860,8/0,2
0
15.00
 
 
 
0
 
860,8
319,2
860,8
Front
100
on
S:100 R:100
0
0
0
0
 
0
 
 
 
0
 
 
0
0
0
0
0
 
 
 
 
0
0


0
0
#HDR
-1
-1
#GR
nm
%R
1.0
0.0
2500,000000
-1,000000
2251
8
52,740500
4,101400
#DATA
2482.000000	4.904619
2481.000000	4.887155
2480.000000	4.916888
2479.000000	4.876876
2478.000000	4.905945
2477.000000	4.942863
2476.000000	4.895666
2475.000000	4.853774
2474.000000	4.907714
2473.000000	4.915783
2472.000000	4.888592
2471.000000	4.830342
2470.000000	4.867922
2469.000000	4.837858
2468.000000	4.852116
2467.000000	4.857090
2466.000000	4.867149
2465.000000	4.867038
2464.000000	4.849685
2463.000000	4.830452
2462.000000	4.865159
2461.000000	4.860185
2460.000000	4.862506
2459.000000	4.851232
2458.000000	4.883065
2457.000000	4.911582
2456.000000	4.864164
2455.000000	4.879418
2454.000000	4.918988
2453.000000	4.924846
2452.000000	4.922746
2451.000000	4.928162
2450.000000	4.945184
2449.000000	4.937557
2448.000000	4.964638
2447.000000	4.966959
2446.000000	4.985970
2445.000000	4.995476
2444.000000	5.030183
2443.000000	5.029851
2442.000000	5.017693
2441.000000	5.051515
2440.000000	5.055605
2439.000000	5.087880
2438.000000	5.100702
2437.000000	5.096612
2436.000000	5.115071
2435.000000	5.106781
2434.000000	5.138504
2433.000000	5.163263
2432.000000	5.165142
2431.000000	5.165031
2430.000000	5.166137
2429.000000	5.184706
2428.000000	5.203607
2427.000000	5.203386
2426.000000	5.227482
2425.000000	5.231571
2424.000000	5.248483
2423.000000	5.267715
2422.000000	5.253346
2421.000000	5.239530
2420.000000	5.275895
2419.000000	5.299438
2418.000000	5.293580
2417.000000	5.308059
2416.000000	5.302864
2415.000000	5.308501
2414.000000	5.326076
2413.000000	5.333703
2412.000000	5.342435
2411.000000	5.332597
2410.000000	5.354814
2409.000000	5.345751
2408.000000	5.337682
2407.000000	5.355588
2406.000000	5.372610
2405.000000	5.380900
2404.000000	5.381231
2403.000000	5.389521
2402.000000	5.403448
2401.000000	5.376589
2400.000000	5.387863
2399.000000	5.398364
2398.000000	5.394827
2397.000000	5.395821
2396.000000	5.395490
2395.000000	5.406985
2394.000000	5.405438
2393.000000	5.405438
2392.000000	5.413285
2391.000000	5.420802
2390.000000	5.433955
2389.000000	5.420691
2388.000000	5.439371
2387.000000	5.431081
2386.000000	5.408311
2385.000000	5.429091
2384.000000	5.446224
2383.000000	5.445340
2382.000000	5.425444
2381.000000	5.416712
2380.000000	5.428318
2379.000000	5.454735
2378.000000	5.440476
2377.000000	5.432076
2376.000000	5.433955
2375.000000	5.431634
2374.000000	5.426218
2373.000000	5.412401
2372.000000	5.414059
2371.000000	5.407096
2370.000000	5.402785
2369.000000	5.398806
2368.000000	5.389963
2367.000000	5.382005
2366.000000	5.372941
2365.000000	5.372057
2364.000000	5.375484
2363.000000	5.372499
2362.000000	5.358904
2361.000000	5.355146
2360.000000	5.334255
2359.000000	5.338345
2358.000000	5.322760
2357.000000	5.292474
2356.000000	5.303306
2355.000000	5.306622
2354.000000	5.296011
2353.000000	5.276337
2352.000000	5.266721
2351.000000	5.281421
2350.000000	5.286395
2349.000000	5.274568
2348.000000	5.283963
2347.000000	5.292695
2346.000000	5.288053
2345.000000	5.298333
2344.000000	5.302533
2343.000000	5.309607
2342.000000	5.299438
2341.000000	5.312149
2340.000000	5.328397
2339.000000	5.329834
2338.000000	5.330939
2337.000000	5.337682
2336.000000	5.330055
2335.000000	5.335029
2334.000000	5.343540
2333.000000	5.341771
2332.000000	5.340224
2331.000000	5.331160
2330.000000	5.322207
2329.000000	5.306180
2328.000000	5.310491
2327.000000	5.289048
2326.000000	5.276226
2325.000000	5.273242
2324.000000	5.261857
2323.000000	5.255999
2322.000000	5.239751
2321.000000	5.225824
2320.000000	5.203386
2319.000000	5.192112
2318.000000	5.185369
2317.000000	5.171663
2316.000000	5.144804
2315.000000	5.113966
2314.000000	5.106229
2313.000000	5.084233
2312.000000	5.085780
2311.000000	5.071964
2310.000000	5.042783
2309.000000	5.030404
2308.000000	5.048310
2307.000000	5.025319
2306.000000	5.017472
2305.000000	5.018909
2304.000000	5.007192
2303.000000	5.002771
2302.000000	5.008077
2301.000000	5.016587
2300.000000	5.020788
2299.000000	5.033499
2298.000000	5.065664
2297.000000	5.069864
2296.000000	5.073843
2295.000000	5.080806
2294.000000	5.094402
2293.000000	5.111866
2292.000000	5.110429
2291.000000	5.125461
2290.000000	5.141709
2289.000000	5.143146
2288.000000	5.155968
2287.000000	5.152320
2286.000000	5.134635
2285.000000	5.170226
2284.000000	5.170890
2283.000000	5.144473
2282.000000	5.157957
2281.000000	5.138946
2280.000000	5.111976
2279.000000	5.127893
2278.000000	5.119161
2277.000000	5.115734
2276.000000	5.102913
2275.000000	5.090312
2274.000000	5.080475
2273.000000	5.085338
2272.000000	5.080917
2271.000000	5.067985
2270.000000	5.076606
2269.000000	5.066437
2268.000000	5.095949
2267.000000	5.098270
2266.000000	5.093849
2265.000000	5.117171
2264.000000	5.146131
2263.000000	5.150110
2262.000000	5.174427
2261.000000	5.206370
2260.000000	5.249146
2259.000000	5.295790
2258.000000	5.317897
2257.000000	5.363325
2256.000000	5.418812
2255.000000	5.477725
2254.000000	5.512874
2253.000000	5.561287
2252.000000	5.611026
2251.000000	5.691383
2250.000000	5.718353
2249.000000	5.773397
2248.000000	5.816394
2247.000000	5.864254
2246.000000	5.912778
2245.000000	5.947264
2244.000000	5.970807
2243.000000	6.013914
2242.000000	6.030162
2241.000000	6.069180
2240.000000	6.104329
2239.000000	6.117261
2238.000000	6.161142
2237.000000	6.185570
2236.000000	6.194633
2235.000000	6.221824
2234.000000	6.234204
2233.000000	6.254541
2232.000000	6.274769
2231.000000	6.274879
2230.000000	6.292675
2229.000000	6.277532
2228.000000	6.289248
2227.000000	6.331803
2226.000000	6.303396
2225.000000	6.310360
2224.000000	6.309365
2223.000000	6.302512
2222.000000	6.297759
2221.000000	6.320971
2220.000000	6.329371
2219.000000	6.297870
2218.000000	6.283169
2217.000000	6.267916
2216.000000	6.280627
2215.000000	6.241057
2214.000000	6.263716
2213.000000	6.248904
2212.000000	6.271011
2211.000000	6.261063
2210.000000	6.213866
2209.000000	6.242494
2208.000000	6.229230
2207.000000	6.227461
2206.000000	6.230114
2205.000000	6.196623
2204.000000	6.205465
2203.000000	6.207787
2202.000000	6.212429
2201.000000	6.192423
2200.000000	6.198502
2199.000000	6.197839
2198.000000	6.188444
2197.000000	6.191760
2196.000000	6.188001
2195.000000	6.187117
2194.000000	6.187449
2193.000000	6.172527
2192.000000	6.185791
2191.000000	6.164127
2190.000000	6.166779
2189.000000	6.173190
2188.000000	6.162800
2187.000000	6.160258
2186.000000	6.162690
2185.000000	6.157274
2184.000000	6.145999
2183.000000	6.147547
2182.000000	6.142905
2181.000000	6.127872
2180.000000	6.133067
2179.000000	6.135388
2178.000000	6.141689
2177.000000	6.126877
2176.000000	6.125330
2175.000000	6.123672
2174.000000	6.141247
2173.000000	6.151305
2172.000000	6.124114
2171.000000	6.140141
2170.000000	6.160369
2169.000000	6.141578
2168.000000	6.149094
2167.000000	6.143347
2166.000000	6.145005
2165.000000	6.154400
2164.000000	6.160037
2163.000000	6.172748
2162.000000	6.191760
2161.000000	6.193639
2160.000000	6.222598
2159.000000	6.188554
2158.000000	6.198170
2157.000000	6.223261
2156.000000	6.235641
2155.000000	6.248131
2154.000000	6.263052
2153.000000	6.275211
2152.000000	6.281732
2151.000000	6.287369
2150.000000	6.283722
2149.000000	6.322518
2148.000000	6.302070
2147.000000	6.298644
2146.000000	6.348493
2145.000000	6.364852
2144.000000	6.354130
2143.000000	6.359104
2142.000000	6.371152
2141.000000	6.385300
2140.000000	6.391822
2139.000000	6.393369
2138.000000	6.403428
2137.000000	6.405638
2136.000000	6.416360
2135.000000	6.423323
2134.000000	6.448414
2133.000000	6.450293
2132.000000	6.453940
2131.000000	6.452614
2130.000000	6.459909
2129.000000	6.459246
2128.000000	6.475715
2127.000000	6.458693
2126.000000	6.448856
2125.000000	6.460241
2124.000000	6.451619
2123.000000	6.451730
2122.000000	6.451509
2121.000000	6.457256
2120.000000	6.434929
2119.000000	6.428850
2118.000000	6.420670
2117.000000	6.410612
2116.000000	6.407959
2115.000000	6.384858
2114.000000	6.383311
2113.000000	6.387732
2112.000000	6.377342
2111.000000	6.362862
2110.000000	6.354683
2109.000000	6.354794
2108.000000	6.345509
2107.000000	6.329371
2106.000000	6.307707
2105.000000	6.305386
2104.000000	6.315334
2103.000000	6.304281
2102.000000	6.298754
2101.000000	6.288585
2100.000000	6.268690
2099.000000	6.267805
2098.000000	6.272005
2097.000000	6.248683
2096.000000	6.253657
2095.000000	6.257526
2094.000000	6.244373
2093.000000	6.230003
2092.000000	6.217182
2091.000000	6.213866
2090.000000	6.205023
2089.000000	6.201818
2088.000000	6.201155
2087.000000	6.192423
2086.000000	6.174738
2085.000000	6.163684
2084.000000	6.177833
2083.000000	6.173964
2082.000000	6.153516
2081.000000	6.151858
2080.000000	6.147878
2079.000000	6.133399
2078.000000	6.122677
2077.000000	6.126104
2076.000000	6.118367
2075.000000	6.100239
2074.000000	6.082002
2073.000000	6.063322
2072.000000	6.066859
2071.000000	6.073270
2070.000000	6.045305
2069.000000	6.016346
2068.000000	6.012477
2067.000000	6.014246
2066.000000	5.993576
2065.000000	5.969702
2064.000000	5.977660
2063.000000	5.960306
2062.000000	5.946490
2061.000000	5.932121
2060.000000	5.921620
2059.000000	5.918304
2058.000000	5.910457
2057.000000	5.909683
2056.000000	5.897967
2055.000000	5.883708
2054.000000	5.897635
2053.000000	5.907583
2052.000000	5.889566
2051.000000	5.882934
2050.000000	5.906809
2049.000000	5.928363
2048.000000	5.932231
2047.000000	5.935105
2046.000000	5.961522
2045.000000	5.982192
2044.000000	5.977218
2043.000000	5.993687
2042.000000	6.023973
2041.000000	6.019220
2040.000000	6.042984
2039.000000	6.072385
2038.000000	6.076143
2037.000000	6.087639
2036.000000	6.104218
2035.000000	6.112619
2034.000000	6.117703
2033.000000	6.149426
2032.000000	6.152079
2031.000000	6.128867
2030.000000	6.137267
2029.000000	6.164127
2028.000000	6.177722
2027.000000	6.169543
2026.000000	6.170980
2025.000000	6.179491
2024.000000	6.179380
2023.000000	6.184464
2022.000000	6.191096
2021.000000	6.190102
2020.000000	6.191096
2019.000000	6.174517
2018.000000	6.177280
2017.000000	6.181480
2016.000000	6.180264
2015.000000	6.182917
2014.000000	6.172416
2013.000000	6.165342
2012.000000	6.152852
2011.000000	6.148542
2010.000000	6.125441
2009.000000	6.131520
2008.000000	6.126104
2007.000000	6.110298
2006.000000	6.112729
2005.000000	6.087197
2004.000000	6.040994
2003.000000	6.055585
2002.000000	6.060669
2001.000000	6.038894
2000.000000	6.031710
1999.000000	5.997003
1998.000000	5.996782
1997.000000	5.979649
1996.000000	5.962185
1995.000000	5.940521
1994.000000	5.930131
1993.000000	5.902609
1992.000000	5.902388
1991.000000	5.886361
1990.000000	5.850548
1989.000000	5.842259
1988.000000	5.818163
1987.000000	5.794288
1986.000000	5.793735
1985.000000	5.765660
1984.000000	5.744107
1983.000000	5.723548
1982.000000	5.729737
1981.000000	5.696799
1980.000000	5.671598
1979.000000	5.666071
1978.000000	5.649160
1977.000000	5.623959
1976.000000	5.604395
1975.000000	5.579635
1974.000000	5.561287
1973.000000	5.555871
1972.000000	5.530781
1971.000000	5.531444
1970.000000	5.515748
1969.000000	5.495742
1968.000000	5.482589
1967.000000	5.463577
1966.000000	5.468220
1965.000000	5.444787
1964.000000	5.428981
1963.000000	5.413838
1962.000000	5.403338
1961.000000	5.409748
1960.000000	5.380236
1959.000000	5.368189
1958.000000	5.361557
1957.000000	5.349067
1956.000000	5.329392
1955.000000	5.338456
1954.000000	5.327181
1953.000000	5.290595
1952.000000	5.292474
1951.000000	5.282416
1950.000000	5.275784
1949.000000	5.241740
1948.000000	5.244946
1947.000000	5.254562
1946.000000	5.268378
1945.000000	5.244725
1944.000000	5.234114
1943.000000	5.233340
1942.000000	5.222066
1941.000000	5.222508
1940.000000	5.204049
1939.000000	5.199075
1938.000000	5.211123
1937.000000	5.213002
1936.000000	5.215987
1935.000000	5.211234
1934.000000	5.216981
1933.000000	5.224940
1932.000000	5.255888
1931.000000	5.243288
1930.000000	5.251799
1929.000000	5.254230
1928.000000	5.280758
1927.000000	5.295901
1926.000000	5.295459
1925.000000	5.291259
1924.000000	5.318118
1923.000000	5.333703
1922.000000	5.369846
1921.000000	5.378247
1920.000000	5.383552
1919.000000	5.422017
1918.000000	5.454514
1917.000000	5.477062
1916.000000	5.502927
1915.000000	5.531775
1914.000000	5.538960
1913.000000	5.600194
1912.000000	5.632359
1911.000000	5.669056
1910.000000	5.709510
1909.000000	5.743333
1908.000000	5.752728
1907.000000	5.823026
1906.000000	5.861933
1905.000000	5.931126
1904.000000	5.977770
1903.000000	6.033589
1902.000000	6.073049
1901.000000	6.145115
1900.000000	6.218729
1899.000000	6.274106
1898.000000	6.362862
1897.000000	6.424981
1896.000000	6.508212
1895.000000	6.564583
1894.000000	6.657319
1893.000000	6.741323
1892.000000	6.843122
1891.000000	6.972555
1890.000000	7.110830
1889.000000	7.204229
1888.000000	7.337088
1887.000000	7.495480
1886.000000	7.639281
1885.000000	7.807621
1884.000000	7.978392
1883.000000	8.181218
1882.000000	8.411234
1881.000000	8.606322
1880.000000	8.806827
1879.000000	9.012416
1878.000000	9.239779
1877.000000	9.469906
1876.000000	9.696164
1875.000000	9.939223
1874.000000	10.175429
1873.000000	10.425231
1872.000000	10.641651
1871.000000	10.887584
1870.000000	11.107100
1869.000000	11.324737
1868.000000	11.551106
1867.000000	11.695128
1866.000000	11.849651
1865.000000	11.982289
1864.000000	12.091273
1863.000000	12.205010
1862.000000	12.333890
1861.000000	12.456359
1860.000000	12.569323
1859.000000	12.691018
1858.000000	12.782538
1857.000000	12.865990
1856.000000	12.949662
1855.000000	13.002164
1854.000000	13.066604
1853.000000	13.100869
1852.000000	13.125628
1851.000000	13.158125
1850.000000	13.172273
1849.000000	13.198469
1848.000000	13.216043
1847.000000	13.252740
1846.000000	13.266335
1845.000000	13.244892
1844.000000	13.236823
1843.000000	13.227428
1842.000000	13.237155
1841.000000	13.243676
1840.000000	13.253845
1839.000000	13.265230
1838.000000	13.243565
1837.000000	13.213059
1836.000000	13.203553
1835.000000	13.199132
1834.000000	13.176583
1833.000000	13.140439
1832.000000	13.099874
1831.000000	13.073789
1830.000000	13.049030
1829.000000	13.003933
1828.000000	12.974089
1827.000000	12.945020
1826.000000	12.903681
1825.000000	12.863558
1824.000000	12.822882
1823.000000	12.798234
1822.000000	12.785191
1821.000000	12.758774
1820.000000	12.752142
1819.000000	12.735894
1818.000000	12.711798
1817.000000	12.691460
1816.000000	12.665264
1815.000000	12.650895
1814.000000	12.643268
1813.000000	12.620278
1812.000000	12.625694
1811.000000	12.618067
1810.000000	12.591318
1809.000000	12.564901
1808.000000	12.537490
1807.000000	12.499356
1806.000000	12.482776
1805.000000	12.469181
1804.000000	12.437016
1803.000000	12.399988
1802.000000	12.365945
1801.000000	12.348591
1800.000000	12.316095
1799.000000	12.267240
1798.000000	12.249002
1797.000000	12.211200
1796.000000	12.171851
1795.000000	12.164666
1794.000000	12.136923
1793.000000	12.102106
1792.000000	12.071157
1791.000000	12.035897
1790.000000	12.005833
1789.000000	11.970462
1788.000000	11.939514
1787.000000	11.909670
1786.000000	11.879053
1785.000000	11.853299
1784.000000	11.822129
1783.000000	11.781453
1782.000000	11.734367
1781.000000	11.695018
1780.000000	11.651026
1779.000000	11.624167
1778.000000	11.590013
1777.000000	11.539942
1776.000000	11.503024
1775.000000	11.464780
1774.000000	11.403435
1773.000000	11.352370
1772.000000	11.301415
1771.000000	11.262286
1770.000000	11.213874
1769.000000	11.137717
1768.000000	11.090078
1767.000000	11.046639
1766.000000	10.998558
1765.000000	10.974131
1764.000000	10.930802
1763.000000	10.904717
1762.000000	10.895653
1761.000000	10.903832
1760.000000	10.936550
1759.000000	10.960867
1758.000000	10.986178
1757.000000	11.030060
1756.000000	11.071619
1755.000000	11.084552
1754.000000	11.111411
1753.000000	11.148107
1752.000000	11.174303
1751.000000	11.181377
1750.000000	11.198620
1749.000000	11.206357
1748.000000	11.187457
1747.000000	11.168998
1746.000000	11.153744
1745.000000	11.124564
1744.000000	11.092510
1743.000000	11.022101
1742.000000	10.952466
1741.000000	10.887253
1740.000000	10.807670
1739.000000	10.710181
1738.000000	10.603518
1737.000000	10.500392
1736.000000	10.406330
1735.000000	10.346090
1734.000000	10.286624
1733.000000	10.258438
1732.000000	10.246169
1731.000000	10.245175
1730.000000	10.260538
1729.000000	10.299114
1728.000000	10.345537
1727.000000	10.381350
1726.000000	10.434294
1725.000000	10.472096
1724.000000	10.518630
1723.000000	10.564279
1722.000000	10.594012
1721.000000	10.616892
1720.000000	10.667626
1719.000000	10.695038
1718.000000	10.716371
1717.000000	10.740135
1716.000000	10.788658
1715.000000	10.821155
1714.000000	10.858404
1713.000000	10.921849
1712.000000	10.966172
1711.000000	10.997895
1710.000000	11.035807
1709.000000	11.053934
1708.000000	11.071509
1707.000000	11.073941
1706.000000	11.053161
1705.000000	11.026191
1704.000000	11.008064
1703.000000	10.973799
1702.000000	10.932018
1701.000000	10.884710
1700.000000	10.807670
1699.000000	10.737261
1698.000000	10.670611
1697.000000	10.600755
1696.000000	10.534436
1695.000000	10.492765
1694.000000	10.455627
1693.000000	10.476407
1692.000000	10.518630
1691.000000	10.555547
1690.000000	10.642094
1689.000000	10.706755
1688.000000	10.763347
1687.000000	10.821818
1686.000000	10.886368
1685.000000	10.917428
1684.000000	10.944619
1683.000000	10.990600
1682.000000	11.082120
1681.000000	11.232664
1680.000000	11.420457
1679.000000	11.654232
1678.000000	11.907791
1677.000000	12.192078
1676.000000	12.451385
1675.000000	12.748494
1674.000000	12.969115
1673.000000	13.176915
1672.000000	13.338733
1671.000000	13.521884
1670.000000	13.676518
1669.000000	13.811587
1668.000000	13.917256
1667.000000	14.013418
1666.000000	14.090680
1665.000000	14.153793
1664.000000	14.211159
1663.000000	14.274715
1662.000000	14.324122
1661.000000	14.359493
1660.000000	14.406579
1659.000000	14.419401
1658.000000	14.469250
1657.000000	14.474224
1656.000000	14.498320
1655.000000	14.527611
1654.000000	14.490141
1653.000000	14.516005
1652.000000	14.494452
1651.000000	14.477209
1650.000000	14.459192
1649.000000	14.434654
1648.000000	14.417411
1647.000000	14.388010
1646.000000	14.350871
1645.000000	14.321912
1644.000000	14.291958
1643.000000	14.276262
1642.000000	14.204969
1641.000000	14.173689
1640.000000	14.120965
1639.000000	14.109802
1638.000000	14.076090
1637.000000	13.996949
1636.000000	13.969427
1635.000000	13.914271
1634.000000	13.886417
1633.000000	13.835352
1632.000000	13.783733
1631.000000	13.756874
1630.000000	13.680497
1629.000000	13.620036
1628.000000	13.597377
1627.000000	13.519231
1626.000000	13.479993
1625.000000	13.442964
1624.000000	13.368024
1623.000000	13.315632
1622.000000	13.262687
1621.000000	13.206095
1620.000000	13.163098
1619.000000	13.119881
1618.000000	13.068152
1617.000000	13.008686
1616.000000	12.962815
1615.000000	12.929324
1614.000000	12.865437
1613.000000	12.831835
1612.000000	12.797570
1611.000000	12.755900
1610.000000	12.709919
1609.000000	12.653548
1608.000000	12.600603
1607.000000	12.557606
1606.000000	12.516710
1605.000000	12.482997
1604.000000	12.438785
1603.000000	12.376445
1602.000000	12.326595
1601.000000	12.300068
1600.000000	12.248781
1599.000000	12.213853
1598.000000	12.146208
1597.000000	12.110395
1596.000000	12.064856
1595.000000	12.016112
1594.000000	11.984168
1593.000000	11.952446
1592.000000	11.919176
1591.000000	11.880821
1590.000000	11.839593
1589.000000	11.805439
1588.000000	11.756031
1587.000000	11.731714
1586.000000	11.698334
1585.000000	11.664069
1584.000000	11.630578
1583.000000	11.606040
1582.000000	11.570117
1581.000000	11.567133
1580.000000	11.527120
1579.000000	11.490976
