PE UV       SUBTECH     SPECTRUM    ASCII       PEDS        4.00        
   -1
2-STRIGIDIA BELTI INBIO0004211063.ASC
23/11/17
10:41:59.00
23/11/17
10:41:59.00
Vinicio Soto Monge

250,000000
1
Lambda 1050
1050L1511233
PerkinElmer UV WinLab 6.3.2.0749 / 2.02.05 Lambda 900 UV/VIS/NIR, Aug  7 2015 09:38:08

0
0
3350/servo 860,8/2
0
0
UV/VIS
1
1
1
DoubleDePol,CommonBeamDepol,RBeamAtt,SBeamAtt,60mm sphere, WB InGaAs Detector
0
0
0
0
Program
Program
3350/servo 860,8/2
3350/0,4 860,8/0,4
3350/0,4 860,8/0,4
0
20.00
 
 
 
0
 
860,8
319,2
860,8
Front
100
on
S:100 R:100
0
0
0
0
 
0
 
 
 
0
 
 
0
0
0
0
0
 
 
 
 
0
0


0
0
#HDR
-1
-1
#GR
nm
%R
1.0
0.0
2200,000000
-1,000000
1951
8
108,797053
5,244670
#DATA
250.000000	3.618111
251.000000	3.612002
252.000000	3.551293
253.000000	3.530790
254.000000	3.531353
255.000000	3.479353
256.000000	3.495866
257.000000	3.444573
258.000000	3.456915
259.000000	3.452160
260.000000	3.447353
261.000000	3.415679
262.000000	3.384130
263.000000	3.420682
264.000000	3.369382
265.000000	3.370411
266.000000	3.394615
267.000000	3.333607
268.000000	3.355004
269.000000	3.325689
270.000000	3.326700
271.000000	3.328985
272.000000	3.346338
273.000000	3.338450
274.000000	3.253453
275.000000	3.277940
276.000000	3.267707
277.000000	3.301019
278.000000	3.282921
279.000000	3.294700
280.000000	3.295406
281.000000	3.277513
282.000000	3.283517
283.000000	3.252796
284.000000	3.245666
285.000000	3.247370
286.000000	3.240800
287.000000	3.263914
288.000000	3.220745
289.000000	3.250549
290.000000	3.215930
291.000000	3.242206
292.000000	3.240931
293.000000	3.214237
294.000000	3.208773
295.000000	3.204373
296.000000	3.179409
297.000000	3.197001
298.000000	3.207657
299.000000	3.206482
300.000000	3.243383
301.000000	3.217780
302.000000	3.193764
303.000000	3.192636
304.000000	3.208431
305.000000	3.237471
306.000000	3.178101
307.000000	3.152753
308.000000	3.191495
309.000000	3.201476
310.000000	3.129120
311.000000	3.132527
312.000000	3.111587
313.000000	3.136645
314.000000	3.126564
315.000000	3.086426
316.000000	3.127168
317.000000	3.278866
318.000000	3.326275
319.000000	3.258349
320.000000	3.272786
321.000000	3.191101
322.000000	3.332801
323.000000	3.141304
324.000000	3.264874
325.000000	3.280994
326.000000	3.317612
327.000000	3.218471
328.000000	3.163257
329.000000	3.134693
330.000000	3.204052
331.000000	3.157183
332.000000	3.169088
333.000000	3.120662
334.000000	3.174104
335.000000	3.163308
336.000000	3.185184
337.000000	3.226729
338.000000	3.216014
339.000000	3.163928
340.000000	3.188754
341.000000	3.199301
342.000000	3.175254
343.000000	3.165761
344.000000	3.186650
345.000000	3.176249
346.000000	3.178741
347.000000	3.171251
348.000000	3.183064
349.000000	3.161647
350.000000	3.148036
351.000000	3.196591
352.000000	3.198065
353.000000	3.149158
354.000000	3.156636
355.000000	3.203802
356.000000	3.172179
357.000000	3.176176
358.000000	3.193515
359.000000	3.176936
360.000000	3.149388
361.000000	3.159282
362.000000	3.141791
363.000000	3.166689
364.000000	3.168432
365.000000	3.141325
366.000000	3.146037
367.000000	3.179619
368.000000	3.135388
369.000000	3.141490
370.000000	3.163206
371.000000	3.143287
372.000000	3.145039
373.000000	3.133356
374.000000	3.139007
375.000000	3.131595
376.000000	3.064028
377.000000	2.985755
378.000000	2.982592
379.000000	2.985403
380.000000	2.981664
381.000000	2.972737
382.000000	2.969843
383.000000	2.964876
384.000000	2.965974
385.000000	2.962286
386.000000	2.956092
387.000000	2.956080
388.000000	2.961011
389.000000	2.964310
390.000000	2.962188
391.000000	2.961098
392.000000	2.963946
393.000000	2.961417
394.000000	2.954292
395.000000	2.956629
396.000000	2.963041
397.000000	2.960517
398.000000	2.953755
399.000000	2.950471
400.000000	2.950873
401.000000	2.954047
402.000000	2.952695
403.000000	2.955925
404.000000	2.960692
405.000000	2.953806
406.000000	2.950310
407.000000	2.961428
408.000000	2.962762
409.000000	2.963694
410.000000	2.962240
411.000000	2.956981
412.000000	2.961314
413.000000	2.963389
414.000000	2.968034
415.000000	2.966646
416.000000	2.963282
417.000000	2.962319
418.000000	2.962701
419.000000	2.958323
420.000000	2.963487
421.000000	2.969907
422.000000	2.966814
423.000000	2.969307
424.000000	2.970221
425.000000	2.971434
426.000000	2.976573
427.000000	2.980569
428.000000	2.976212
429.000000	2.979331
430.000000	2.985639
431.000000	2.986465
432.000000	2.985257
433.000000	2.985326
434.000000	2.984125
435.000000	2.986985
436.000000	2.988004
437.000000	2.978333
438.000000	2.980189
439.000000	2.984930
440.000000	2.983724
441.000000	2.986372
442.000000	2.986744
443.000000	2.990295
444.000000	3.002115
445.000000	3.003312
446.000000	2.999671
447.000000	3.009185
448.000000	3.008641
449.000000	3.004739
450.000000	3.003683
451.000000	3.008783
452.000000	3.014598
453.000000	3.011894
454.000000	3.008948
455.000000	3.007804
456.000000	3.007075
457.000000	3.012617
458.000000	3.014791
459.000000	3.015744
460.000000	3.018169
461.000000	3.014837
462.000000	3.016750
463.000000	3.023987
464.000000	3.026103
465.000000	3.028585
466.000000	3.036606
467.000000	3.035575
468.000000	3.037716
469.000000	3.041695
470.000000	3.038131
471.000000	3.040802
472.000000	3.048703
473.000000	3.051308
474.000000	3.058164
475.000000	3.063011
476.000000	3.070656
477.000000	3.080601
478.000000	3.092231
479.000000	3.102345
480.000000	3.110850
481.000000	3.123952
482.000000	3.142700
483.000000	3.163884
484.000000	3.187861
485.000000	3.211817
486.000000	3.236495
487.000000	3.262424
488.000000	3.293798
489.000000	3.337298
490.000000	3.375265
491.000000	3.414894
492.000000	3.463551
493.000000	3.519604
494.000000	3.573722
495.000000	3.637225
496.000000	3.702068
497.000000	3.773121
498.000000	3.850425
499.000000	3.936623
500.000000	4.025339
501.000000	4.121535
502.000000	4.225280
503.000000	4.334803
504.000000	4.451166
505.000000	4.579269
506.000000	4.704257
507.000000	4.835688
508.000000	4.972826
509.000000	5.127259
510.000000	5.278944
511.000000	5.434834
512.000000	5.592515
513.000000	5.767004
514.000000	5.940458
515.000000	6.111808
516.000000	6.290238
517.000000	6.461431
518.000000	6.642913
519.000000	6.822358
520.000000	7.002881
521.000000	7.180879
522.000000	7.355953
523.000000	7.517229
524.000000	7.684486
525.000000	7.831638
526.000000	7.972356
527.000000	8.109780
528.000000	8.231886
529.000000	8.338675
530.000000	8.442280
531.000000	8.534826
532.000000	8.600281
533.000000	8.657616
534.000000	8.695426
535.000000	8.727799
536.000000	8.739968
537.000000	8.749804
538.000000	8.727800
539.000000	8.709119
540.000000	8.666324
541.000000	8.600901
542.000000	8.530183
543.000000	8.447896
544.000000	8.354937
545.000000	8.261881
546.000000	8.162952
547.000000	8.051805
548.000000	7.935096
549.000000	7.820938
550.000000	7.705176
551.000000	7.586479
552.000000	7.458251
553.000000	7.361902
554.000000	7.285019
555.000000	7.205911
556.000000	7.146316
557.000000	7.084384
558.000000	7.062062
559.000000	7.065615
560.000000	7.076024
561.000000	7.127860
562.000000	7.204625
563.000000	7.301769
564.000000	7.418431
565.000000	7.542272
566.000000	7.707303
567.000000	7.872886
568.000000	8.051863
569.000000	8.235603
570.000000	8.423304
571.000000	8.622112
572.000000	8.818699
573.000000	9.008604
574.000000	9.197882
575.000000	9.362443
576.000000	9.538097
577.000000	9.700291
578.000000	9.844655
579.000000	9.977376
580.000000	10.126850
581.000000	10.249293
582.000000	10.359205
583.000000	10.482097
584.000000	10.601324
585.000000	10.709197
586.000000	10.825921
587.000000	10.927169
588.000000	11.065278
589.000000	11.193959
590.000000	11.345865
591.000000	11.489696
592.000000	11.633563
593.000000	11.806125
594.000000	11.987916
595.000000	12.186985
596.000000	12.379726
597.000000	12.583198
598.000000	12.776419
599.000000	12.980367
600.000000	13.197356
601.000000	13.425294
602.000000	13.646902
603.000000	13.863108
604.000000	14.075304
605.000000	14.273646
606.000000	14.474152
607.000000	14.675656
608.000000	14.864712
609.000000	15.054960
610.000000	15.241644
611.000000	15.428324
612.000000	15.579169
613.000000	15.753810
614.000000	15.905938
615.000000	16.091462
616.000000	16.228418
617.000000	16.388483
618.000000	16.552037
619.000000	16.722497
620.000000	16.882612
621.000000	17.053474
622.000000	17.223559
623.000000	17.420958
624.000000	17.607985
625.000000	17.790151
626.000000	17.990023
627.000000	18.187165
628.000000	18.383736
629.000000	18.574061
630.000000	18.780448
631.000000	18.985232
632.000000	19.184070
633.000000	19.388533
634.000000	19.598958
635.000000	19.792618
636.000000	19.974875
637.000000	20.174408
638.000000	20.374227
639.000000	20.570835
640.000000	20.776949
641.000000	20.960758
642.000000	21.173263
643.000000	21.379646
644.000000	21.585720
645.000000	21.782933
646.000000	21.970668
647.000000	22.171163
648.000000	22.393407
649.000000	22.603485
650.000000	22.802217
651.000000	23.024665
652.000000	23.233515
653.000000	23.451577
654.000000	23.655967
655.000000	23.871471
656.000000	24.097995
657.000000	24.305726
658.000000	24.521257
659.000000	24.739889
660.000000	24.958899
661.000000	25.198361
662.000000	25.429039
663.000000	25.631021
664.000000	25.844050
665.000000	26.038198
666.000000	26.222876
667.000000	26.422956
668.000000	26.624556
669.000000	26.838367
670.000000	27.048316
671.000000	27.266513
672.000000	27.493705
673.000000	27.650591
674.000000	27.827691
675.000000	28.018212
676.000000	28.195514
677.000000	28.413137
678.000000	28.592852
679.000000	28.766295
680.000000	28.956617
681.000000	29.156975
682.000000	29.342188
683.000000	29.547614
684.000000	29.729948
685.000000	29.920215
686.000000	30.133274
687.000000	30.293114
688.000000	30.435934
689.000000	30.629096
690.000000	30.825146
691.000000	31.007663
692.000000	31.184624
693.000000	31.364675
694.000000	31.534441
695.000000	31.706597
696.000000	31.871733
697.000000	32.029676
698.000000	32.205610
699.000000	32.380404
700.000000	32.559565
701.000000	32.739596
702.000000	32.887113
703.000000	33.043338
704.000000	33.199948
705.000000	33.363324
706.000000	33.553596
707.000000	33.713629
708.000000	33.861157
709.000000	34.016757
710.000000	34.155673
711.000000	34.316049
712.000000	34.494434
713.000000	34.680222
714.000000	34.846954
715.000000	34.986717
716.000000	35.158625
717.000000	35.301325
718.000000	35.402781
719.000000	35.533089
720.000000	35.692210
721.000000	35.842460
722.000000	36.023375
723.000000	36.195282
724.000000	36.340998
725.000000	36.475699
726.000000	36.619612
727.000000	36.744514
728.000000	36.883967
729.000000	37.025211
730.000000	37.160642
731.000000	37.303002
732.000000	37.462632
733.000000	37.604855
734.000000	37.716266
735.000000	37.850408
736.000000	38.018995
737.000000	38.164127
738.000000	38.287585
739.000000	38.434294
740.000000	38.560018
741.000000	38.664870
742.000000	38.827141
743.000000	38.984575
744.000000	39.096124
745.000000	39.253480
746.000000	39.407820
747.000000	39.524400
748.000000	39.670448
749.000000	39.800376
750.000000	39.911206
751.000000	40.010178
752.000000	40.137006
753.000000	40.231298
754.000000	40.379863
755.000000	40.563816
756.000000	40.648922
757.000000	40.714475
758.000000	40.834588
759.000000	41.049069
760.000000	41.160693
761.000000	41.254577
762.000000	41.398783
763.000000	41.503357
764.000000	41.658792
765.000000	41.774291
766.000000	41.834862
767.000000	41.965426
768.000000	42.115419
769.000000	42.329488
770.000000	42.402969
771.000000	42.523840
772.000000	42.663612
773.000000	42.769948
774.000000	42.890625
775.000000	42.983277
776.000000	43.071008
777.000000	43.231162
778.000000	43.303035
779.000000	43.393237
780.000000	43.537032
781.000000	43.603141
782.000000	43.722535
783.000000	43.783545
784.000000	43.897116
785.000000	44.095330
786.000000	44.128664
787.000000	44.293746
788.000000	44.446488
789.000000	44.475004
790.000000	44.560215
791.000000	44.714632
792.000000	44.825316
793.000000	44.883302
794.000000	44.998548
795.000000	45.052410
796.000000	45.115247
797.000000	45.264928
798.000000	45.390265
799.000000	45.582568
800.000000	45.615673
801.000000	45.720334
802.000000	45.865587
803.000000	46.039401
804.000000	46.085426
805.000000	46.126530
806.000000	46.221863
807.000000	46.339890
808.000000	46.312350
809.000000	46.524012
810.000000	46.658843
811.000000	46.735495
812.000000	46.863172
813.000000	47.013967
814.000000	47.035872
815.000000	47.101860
816.000000	47.230014
817.000000	47.237445
818.000000	47.370258
819.000000	47.394209
820.000000	47.595199
821.000000	47.685507
822.000000	47.628175
823.000000	47.795339
824.000000	47.832985
825.000000	48.005438
826.000000	48.200804
827.000000	48.214396
828.000000	48.173626
829.000000	48.332370
830.000000	48.437228
831.000000	48.476227
832.000000	48.450348
833.000000	48.698859
834.000000	48.621136
835.000000	48.817907
836.000000	48.815002
837.000000	48.973964
838.000000	49.011408
839.000000	49.136660
840.000000	49.111038
841.000000	49.399805
842.000000	49.457154
843.000000	49.337243
844.000000	49.467737
845.000000	49.618228
846.000000	49.642740
847.000000	49.862240
848.000000	49.787909
849.000000	50.002386
850.000000	50.318452
851.000000	50.055471
852.000000	49.885535
853.000000	50.113658
854.000000	50.056567
855.000000	50.288147
856.000000	50.415567
857.000000	50.522233
858.000000	50.408649
859.000000	50.662971
860.000000	50.036200
861.000000	51.073883
862.000000	50.663899
863.000000	50.307811
864.000000	50.303426
865.000000	49.837360
866.000000	50.005412
867.000000	50.829200
868.000000	51.017345
869.000000	50.665532
870.000000	51.070434
871.000000	50.911645
872.000000	50.680530
873.000000	51.133209
874.000000	50.490896
875.000000	51.347986
876.000000	51.366086
877.000000	51.488321
878.000000	51.439062
879.000000	50.761972
880.000000	50.659069
881.000000	51.698905
882.000000	51.692803
883.000000	51.424158
884.000000	52.118533
885.000000	51.762911
886.000000	51.622121
887.000000	51.790344
888.000000	51.575798
889.000000	51.818115
890.000000	51.817383
891.000000	52.065194
892.000000	51.731879
893.000000	51.118625
894.000000	51.692907
895.000000	52.000563
896.000000	52.095126
897.000000	52.383458
898.000000	52.282231
899.000000	52.309306
900.000000	52.730174
901.000000	52.741456
902.000000	52.713449
903.000000	52.045143
904.000000	52.192683
905.000000	52.374862
906.000000	52.736745
907.000000	52.098878
908.000000	52.391227
909.000000	52.388871
910.000000	52.770312
911.000000	52.669428
912.000000	52.634089
913.000000	53.345397
914.000000	53.572857
915.000000	52.713992
916.000000	52.920332
917.000000	52.227869
918.000000	52.681621
919.000000	52.915495
920.000000	53.029528
921.000000	53.125139
922.000000	52.529346
923.000000	52.600873
924.000000	52.698718
925.000000	53.191091
926.000000	53.691331
927.000000	54.073484
928.000000	53.197097
929.000000	53.042043
930.000000	53.308872
931.000000	53.751383
932.000000	53.436687
933.000000	53.459189
934.000000	54.002069
935.000000	53.881356
936.000000	53.663098
937.000000	53.575519
938.000000	53.286842
939.000000	54.061594
940.000000	53.723980
941.000000	54.267041
942.000000	53.706940
943.000000	53.345438
944.000000	53.603566
945.000000	54.397623
946.000000	54.681072
947.000000	54.295568
948.000000	53.763652
949.000000	54.152957
950.000000	53.968786
951.000000	54.044821
952.000000	53.766596
953.000000	53.599868
954.000000	53.695139
955.000000	53.973420
956.000000	53.972162
957.000000	53.755543
958.000000	53.799243
959.000000	53.904064
960.000000	54.015895
961.000000	53.965486
962.000000	53.867067
963.000000	54.412788
964.000000	54.824263
965.000000	54.313417
966.000000	54.113953
967.000000	53.968256
968.000000	54.053699
969.000000	54.638686
970.000000	54.517175
971.000000	54.442256
972.000000	54.238951
973.000000	54.023277
974.000000	53.927062
975.000000	54.026553
976.000000	54.299598
977.000000	54.491375
978.000000	54.382308
979.000000	54.570777
980.000000	55.096335
981.000000	54.998079
982.000000	54.905746
983.000000	55.070006
984.000000	54.684628
985.000000	54.399934
986.000000	54.501034
987.000000	54.613215
988.000000	54.646828
989.000000	54.188370
990.000000	54.157117
991.000000	54.765223
992.000000	54.943033
993.000000	55.052907
994.000000	54.932992
995.000000	55.013551
996.000000	54.863312
997.000000	54.490796
998.000000	54.547915
999.000000	55.096196
1000.000000	54.757828
1001.000000	54.506297
1002.000000	54.722243
1003.000000	54.612362
1004.000000	54.724819
1005.000000	55.195049
1006.000000	55.337893
1007.000000	55.628504
1008.000000	55.379016
1009.000000	54.678181
1010.000000	54.983845
1011.000000	55.109330
1012.000000	55.041275
1013.000000	55.373426
1014.000000	55.318598
1015.000000	55.357636
1016.000000	55.025430
1017.000000	54.766754
1018.000000	54.777431
1019.000000	54.863132
1020.000000	55.238404
1021.000000	55.481366
1022.000000	55.221632
1023.000000	55.678010
1024.000000	55.695606
1025.000000	55.259587
1026.000000	55.004658
1027.000000	55.045363
1028.000000	54.651241
1029.000000	54.988906
1030.000000	54.993323
1031.000000	54.834695
1032.000000	55.513806
1033.000000	55.425879
1034.000000	55.116285
1035.000000	55.139423
1036.000000	55.258300
1037.000000	55.296157
1038.000000	55.172628
1039.000000	55.465506
1040.000000	55.357294
1041.000000	55.062886
1042.000000	55.699613
1043.000000	55.415814
1044.000000	55.266708
1045.000000	55.698005
1046.000000	55.709548
1047.000000	55.617566
1048.000000	55.237769
1049.000000	54.977563
1050.000000	55.164999
1051.000000	54.885042
1052.000000	54.931615
1053.000000	55.085421
1054.000000	55.393739
1055.000000	55.641815
1056.000000	54.931697
1057.000000	54.834878
1058.000000	55.094298
1059.000000	55.578840
1060.000000	55.582718
1061.000000	55.259524
1062.000000	55.364989
1063.000000	54.976773
1064.000000	55.165495
1065.000000	55.834845
1066.000000	56.180476
1067.000000	55.556571
1068.000000	55.580568
1069.000000	55.562966
1070.000000	55.793391
1071.000000	55.463893
1072.000000	55.209643
1073.000000	55.457793
1074.000000	55.769375
1075.000000	55.323387
1076.000000	55.659816
1077.000000	55.049166
1078.000000	55.599127
1079.000000	56.126797
1080.000000	55.735494
1081.000000	55.439417
1082.000000	55.463472
1083.000000	54.946435
1084.000000	55.867803
1085.000000	55.656618
1086.000000	56.116072
1087.000000	55.994211
1088.000000	55.459695
1089.000000	55.614417
1090.000000	55.571829
1091.000000	55.592822
1092.000000	55.231672
1093.000000	56.156810
1094.000000	55.644295
1095.000000	56.303117
1096.000000	55.900398
1097.000000	55.954456
1098.000000	56.150321
1099.000000	55.527842
1100.000000	55.503658
1101.000000	55.356025
1102.000000	54.816309
1103.000000	55.535578
1104.000000	56.060650
1105.000000	55.148015
1106.000000	55.565747
1107.000000	55.471688
1108.000000	55.257780
1109.000000	56.100785
1110.000000	56.316204
1111.000000	55.547240
1112.000000	55.816497
1113.000000	55.596881
1114.000000	55.714850
1115.000000	56.340257
1116.000000	55.552127
1117.000000	55.735601
1118.000000	56.094485
1119.000000	55.476409
1120.000000	56.673373
1121.000000	55.480593
1122.000000	56.319383
1123.000000	56.087025
1124.000000	55.528268
1125.000000	56.801849
1126.000000	55.963162
1127.000000	55.869321
1128.000000	56.171233
1129.000000	55.676407
1130.000000	56.184007
1131.000000	55.982890
1132.000000	56.046721
1133.000000	55.630111
1134.000000	56.153779
1135.000000	55.863928
1136.000000	55.166373
1137.000000	55.892045
1138.000000	56.207841
1139.000000	55.273962
1140.000000	55.407926
1141.000000	56.737434
1142.000000	56.282030
1143.000000	55.272647
1144.000000	56.176133
1145.000000	54.929910
1146.000000	55.782744
1147.000000	55.058760
1148.000000	55.672138
1149.000000	55.794767
1150.000000	55.138332
1151.000000	55.791492
1152.000000	56.016555
1153.000000	55.079690
1154.000000	55.904202
1155.000000	55.562842
1156.000000	55.779876
1157.000000	55.335864
1158.000000	54.604616
1159.000000	55.413508
1160.000000	55.207588
1161.000000	55.744846
1162.000000	54.924278
1163.000000	54.776378
1164.000000	54.965869
1165.000000	54.341437
1166.000000	54.856546
1167.000000	55.321761
1168.000000	55.727682
1169.000000	55.527579
1170.000000	55.012593
1171.000000	55.231698
1172.000000	55.364292
1173.000000	55.532925
1174.000000	55.503653
1175.000000	55.285897
