PE UV       SUBTECH     SPECTRUM    ASCII       PEDS        4.00        
   -1
CICIMAUCR0257-3.ASC
24/06/27
11:37:05.00
24/06/27
11:37:05.00
Vinicio Soto Monge
C. resplendens. Sex F. Ventral
250,000000
1
Lambda 1050
1050L1511233
PerkinElmer UV WinLab 6.3.2.0749 / 2.02.05 Lambda 900 UV/VIS/NIR, Aug  7 2015 09:38:08

0
0
3350/servo 860,8/2
0
0
UV/VIS
1
1
1
DoubleDePol,CommonBeamDepol,RBeamAtt,SBeamAtt,60mm sphere, WB InGaAs Detector
0
0
0
0
Program
Program
3350/servo 860,8/2
3350/0,2 860,8/0,2
3350/0,2 860,8/0,2
0
15.00
 
 
 
0
 
860,8
319,2
860,8
Front
100
on
S:100 R:100
0
0
0
0
 
0
 
 
 
0
 
 
0
0
0
0
0
 
 
 
 
0
0


0
0
#HDR
-1
-1
#GR
nm
%R
1.0
0.0
2500,000000
-1,000000
2251
8
58,099400
4,428400
#DATA
2482.000000	5.726082
2481.000000	5.650234
2480.000000	5.704345
2479.000000	5.745738
2478.000000	5.705848
2477.000000	5.643412
2476.000000	5.716138
2475.000000	5.659484
2474.000000	5.686539
2473.000000	5.750131
2472.000000	5.701917
2471.000000	5.708161
2470.000000	5.651159
2469.000000	5.682145
2468.000000	5.637168
2467.000000	5.685267
2466.000000	5.659137
2465.000000	5.683995
2464.000000	5.697639
2463.000000	5.690933
2462.000000	5.661449
2461.000000	5.704576
2460.000000	5.728626
2459.000000	5.716601
2458.000000	5.720648
2457.000000	5.756491
2456.000000	5.728048
2455.000000	5.767590
2454.000000	5.811874
2453.000000	5.787015
2452.000000	5.818349
2451.000000	5.839276
2450.000000	5.883097
2449.000000	5.896278
2448.000000	5.913390
2447.000000	5.931659
2446.000000	5.933971
2445.000000	5.950389
2444.000000	5.998488
2443.000000	6.048322
2442.000000	6.051443
2441.000000	6.063006
2440.000000	6.087402
2439.000000	6.145329
2438.000000	6.155041
2437.000000	6.146485
2436.000000	6.161400
2435.000000	6.198284
2434.000000	6.225686
2433.000000	6.233202
2432.000000	6.250429
2431.000000	6.260373
2430.000000	6.282804
2429.000000	6.299222
2428.000000	6.318531
2427.000000	6.343505
2426.000000	6.355415
2425.000000	6.371602
2424.000000	6.378655
2423.000000	6.366514
2422.000000	6.393107
2421.000000	6.393570
2420.000000	6.403976
2419.000000	6.418313
2418.000000	6.436813
2417.000000	6.458665
2416.000000	6.454619
2415.000000	6.448028
2414.000000	6.464909
2413.000000	6.487802
2412.000000	6.514164
2411.000000	6.500752
2410.000000	6.504914
2409.000000	6.525958
2408.000000	6.537867
2407.000000	6.551741
2406.000000	6.560529
2405.000000	6.556482
2404.000000	6.562379
2403.000000	6.581341
2402.000000	6.596140
2401.000000	6.603078
2400.000000	6.606778
2399.000000	6.623427
2398.000000	6.665629
2397.000000	6.680891
2396.000000	6.694766
2395.000000	6.696038
2394.000000	6.703553
2393.000000	6.720319
2392.000000	6.733268
2391.000000	6.746449
2390.000000	6.763215
2389.000000	6.769111
2388.000000	6.761249
2387.000000	6.763793
2386.000000	6.778361
2385.000000	6.786802
2384.000000	6.784027
2383.000000	6.784720
2382.000000	6.779170
2381.000000	6.766221
2380.000000	6.763561
2379.000000	6.762405
2378.000000	6.757896
2377.000000	6.768880
2376.000000	6.753849
2375.000000	6.733962
2374.000000	6.735118
2373.000000	6.737778
2372.000000	6.738125
2371.000000	6.720666
2370.000000	6.700200
2369.000000	6.672914
2368.000000	6.660773
2367.000000	6.660311
2366.000000	6.638805
2365.000000	6.605159
2364.000000	6.580878
2363.000000	6.572206
2362.000000	6.555672
2361.000000	6.516014
2360.000000	6.492427
2359.000000	6.491618
2358.000000	6.477974
2357.000000	6.453231
2356.000000	6.429066
2355.000000	6.404901
2354.000000	6.389523
2353.000000	6.401548
2352.000000	6.395767
2351.000000	6.387211
2350.000000	6.418082
2349.000000	6.438778
2348.000000	6.443866
2347.000000	6.443634
2346.000000	6.452075
2345.000000	6.462481
2344.000000	6.473118
2343.000000	6.509308
2342.000000	6.529311
2341.000000	6.544457
2340.000000	6.555557
2339.000000	6.569547
2338.000000	6.588162
2337.000000	6.582959
2336.000000	6.577063
2335.000000	6.565847
2334.000000	6.554979
2333.000000	6.556251
2332.000000	6.547348
2331.000000	6.528386
2330.000000	6.521333
2329.000000	6.506880
2328.000000	6.478437
2327.000000	6.452537
2326.000000	6.432419
2325.000000	6.400276
2324.000000	6.375995
2323.000000	6.346743
2322.000000	6.318531
2321.000000	6.283035
2320.000000	6.233433
2319.000000	6.200481
2318.000000	6.172037
2317.000000	6.148797
2316.000000	6.104283
2315.000000	6.074568
2314.000000	6.045315
2313.000000	6.026469
2312.000000	5.987504
2311.000000	5.955824
2310.000000	5.918940
2309.000000	5.908765
2308.000000	5.892347
2307.000000	5.859279
2306.000000	5.874194
2305.000000	5.871304
2304.000000	5.886335
2303.000000	5.912581
2302.000000	5.894775
2301.000000	5.928652
2300.000000	5.932468
2299.000000	5.961605
2298.000000	5.989007
2297.000000	6.005310
2296.000000	6.027163
2295.000000	6.068902
2294.000000	6.088789
2293.000000	6.102433
2292.000000	6.103589
2291.000000	6.124285
2290.000000	6.134576
2289.000000	6.154116
2288.000000	6.136079
2287.000000	6.142207
2286.000000	6.123823
2285.000000	6.126020
2284.000000	6.130760
2283.000000	6.100352
2282.000000	6.098155
2281.000000	6.082083
2280.000000	6.064624
2279.000000	6.048206
2278.000000	6.032481
2277.000000	6.023463
2276.000000	6.023347
2275.000000	6.015947
2274.000000	6.000685
2273.000000	5.986348
2272.000000	6.010051
2271.000000	5.993170
2270.000000	6.011207
2269.000000	6.042540
2268.000000	6.035141
2267.000000	6.044159
2266.000000	6.074337
2265.000000	6.122667
2264.000000	6.151919
2263.000000	6.213430
2262.000000	6.280954
2261.000000	6.335065
2260.000000	6.399698
2259.000000	6.496243
2258.000000	6.558794
2257.000000	6.659039
2256.000000	6.753965
2255.000000	6.845769
2254.000000	6.958270
2253.000000	7.036661
2252.000000	7.134709
2251.000000	7.262009
2250.000000	7.367226
2249.000000	7.433246
2248.000000	7.529907
2247.000000	7.610033
2246.000000	7.683453
2245.000000	7.776298
2244.000000	7.833068
2243.000000	7.944413
2242.000000	7.995287
2241.000000	8.088709
2240.000000	8.148486
2239.000000	8.181554
2238.000000	8.261680
2237.000000	8.299605
2236.000000	8.360769
2235.000000	8.391062
2234.000000	8.411874
2233.000000	8.468991
2232.000000	8.509112
2231.000000	8.546227
2230.000000	8.568773
2229.000000	8.587042
2228.000000	8.601957
2227.000000	8.623116
2226.000000	8.634678
2225.000000	8.655028
2224.000000	8.656878
2223.000000	8.654218
2222.000000	8.680927
2221.000000	8.691102
2220.000000	8.659537
2219.000000	8.656184
2218.000000	8.652715
2217.000000	8.660462
2216.000000	8.627163
2215.000000	8.621844
2214.000000	8.640459
2213.000000	8.632019
2212.000000	8.625082
2211.000000	8.603807
2210.000000	8.618260
2209.000000	8.582301
2208.000000	8.591551
2207.000000	8.607391
2206.000000	8.584151
2205.000000	8.559177
2204.000000	8.587736
2203.000000	8.575364
2202.000000	8.560102
2201.000000	8.559292
2200.000000	8.558946
2199.000000	8.570045
2198.000000	8.586348
2197.000000	8.554783
2196.000000	8.561027
2195.000000	8.560911
2194.000000	8.553396
2193.000000	8.553743
2192.000000	8.567155
2191.000000	8.557558
2190.000000	8.533855
2189.000000	8.534549
2188.000000	8.535359
2187.000000	8.513853
2186.000000	8.515125
2185.000000	8.508650
2184.000000	8.505181
2183.000000	8.505528
2182.000000	8.493735
2181.000000	8.499863
2180.000000	8.491769
2179.000000	8.491191
2178.000000	8.468182
2177.000000	8.484022
2176.000000	8.488878
2175.000000	8.501944
2174.000000	8.465060
2173.000000	8.456504
2172.000000	8.478126
2171.000000	8.476044
2170.000000	8.477201
2169.000000	8.474772
2168.000000	8.486219
2167.000000	8.519403
2166.000000	8.527728
2165.000000	8.530156
2164.000000	8.531890
2163.000000	8.533277
2162.000000	8.554783
2161.000000	8.550852
2160.000000	8.578254
2159.000000	8.590857
2158.000000	8.585654
2157.000000	8.616757
2156.000000	8.617335
2155.000000	8.662543
2154.000000	8.681968
2153.000000	8.684858
2152.000000	8.716886
2151.000000	8.717579
2150.000000	8.736079
2149.000000	8.749954
2148.000000	8.767297
2147.000000	8.794700
2146.000000	8.797821
2145.000000	8.814240
2144.000000	8.825108
2143.000000	8.838174
2142.000000	8.863842
2141.000000	8.870317
2140.000000	8.875404
2139.000000	8.894944
2138.000000	8.899222
2137.000000	8.912287
2136.000000	8.910438
2135.000000	8.915409
2134.000000	8.927434
2133.000000	8.916219
2132.000000	8.918878
2131.000000	8.940037
2130.000000	8.930787
2129.000000	8.940152
2128.000000	8.945818
2127.000000	8.918994
2126.000000	8.925006
2125.000000	8.926740
2124.000000	8.912634
2123.000000	8.907894
2122.000000	8.882457
2121.000000	8.869276
2120.000000	8.866039
2119.000000	8.845573
2118.000000	8.839445
2117.000000	8.832046
2116.000000	8.804874
2115.000000	8.804065
2114.000000	8.788918
2113.000000	8.756775
2112.000000	8.743941
2111.000000	8.723707
2110.000000	8.706364
2109.000000	8.690986
2108.000000	8.681968
2107.000000	8.655606
2106.000000	8.646356
2105.000000	8.637800
2104.000000	8.620341
2103.000000	8.586811
2102.000000	8.564495
2101.000000	8.557558
2100.000000	8.551430
2099.000000	8.528884
2098.000000	8.513853
2097.000000	8.485525
2096.000000	8.456851
2095.000000	8.463788
2094.000000	8.460320
2093.000000	8.432802
2092.000000	8.419736
2091.000000	8.417193
2090.000000	8.411065
2089.000000	8.396612
2088.000000	8.385974
2087.000000	8.380771
2086.000000	8.372678
2085.000000	8.359150
2084.000000	8.339494
2083.000000	8.329320
2082.000000	8.325966
2081.000000	8.302380
2080.000000	8.279139
2079.000000	8.275671
2078.000000	8.276480
2077.000000	8.271740
2076.000000	8.251159
2075.000000	8.231387
2074.000000	8.218438
2073.000000	8.205604
2072.000000	8.198666
2071.000000	8.180976
2070.000000	8.152995
2069.000000	8.139236
2068.000000	8.136346
2067.000000	8.140624
2066.000000	8.128021
2065.000000	8.121431
2064.000000	8.119812
2063.000000	8.118193
2062.000000	8.108596
2061.000000	8.086859
2060.000000	8.082003
2059.000000	8.085125
2058.000000	8.099000
2057.000000	8.112643
2056.000000	8.108712
2055.000000	8.129987
2054.000000	8.166870
2053.000000	8.177970
2052.000000	8.210922
2051.000000	8.246303
2050.000000	8.274746
2049.000000	8.320185
2048.000000	8.369440
2047.000000	8.417424
2046.000000	8.472229
2045.000000	8.540446
2044.000000	8.604616
2043.000000	8.653640
2042.000000	8.709370
2041.000000	8.777703
2040.000000	8.855401
2039.000000	8.918878
2038.000000	8.965011
2037.000000	9.022591
2036.000000	9.077627
2035.000000	9.141567
2034.000000	9.192556
2033.000000	9.236493
2032.000000	9.291760
2031.000000	9.356393
2030.000000	9.376511
2029.000000	9.395936
2028.000000	9.482306
2027.000000	9.522774
2026.000000	9.543817
2025.000000	9.583360
2024.000000	9.603362
2023.000000	9.632962
2022.000000	9.667070
2021.000000	9.697826
2020.000000	9.722107
2019.000000	9.746503
2018.000000	9.761534
2017.000000	9.791249
2016.000000	9.808592
2015.000000	9.817032
2014.000000	9.831254
2013.000000	9.860391
2012.000000	9.867906
2011.000000	9.876462
2010.000000	9.907334
2009.000000	9.880972
2008.000000	9.880278
2007.000000	9.855650
2006.000000	9.831370
2005.000000	9.853916
2004.000000	9.853222
2003.000000	9.849522
2002.000000	9.812176
2001.000000	9.788474
2000.000000	9.777374
1999.000000	9.754365
1998.000000	9.727656
1997.000000	9.712972
1996.000000	9.674123
1995.000000	9.644986
1994.000000	9.621168
1993.000000	9.579775
1992.000000	9.525433
1991.000000	9.505083
1990.000000	9.462187
1989.000000	9.418251
1988.000000	9.389923
1987.000000	9.351652
1986.000000	9.275804
1985.000000	9.255339
1984.000000	9.197065
1983.000000	9.143763
1982.000000	9.121795
1981.000000	9.053925
1980.000000	9.023747
1979.000000	8.980736
1978.000000	8.945934
1977.000000	8.889972
1976.000000	8.855633
1975.000000	8.827074
1974.000000	8.771113
1973.000000	8.732379
1972.000000	8.696074
1971.000000	8.664856
1970.000000	8.596638
1969.000000	8.576751
1968.000000	8.521715
1967.000000	8.495700
1966.000000	8.471304
1965.000000	8.408636
1964.000000	8.412336
1963.000000	8.370134
1962.000000	8.329666
1961.000000	8.287349
1960.000000	8.254512
1959.000000	8.219131
1958.000000	8.197973
1957.000000	8.162939
1956.000000	8.113568
1955.000000	8.112296
1954.000000	8.041998
1953.000000	8.016792
1952.000000	8.007427
1951.000000	7.962103
1950.000000	7.947997
1949.000000	7.904639
1948.000000	7.883480
1947.000000	7.861974
1946.000000	7.850065
1945.000000	7.827865
1944.000000	7.823356
1943.000000	7.797572
1942.000000	7.789132
1941.000000	7.784276
1940.000000	7.772020
1939.000000	7.748548
1938.000000	7.774679
1937.000000	7.751092
1936.000000	7.783235
1935.000000	7.792832
1934.000000	7.832143
1933.000000	7.826825
1932.000000	7.841393
1931.000000	7.864749
1930.000000	7.919091
1929.000000	7.895851
1928.000000	7.986499
1927.000000	8.029395
1926.000000	8.082697
1925.000000	8.134611
1924.000000	8.140971
1923.000000	8.221328
1922.000000	8.294170
1921.000000	8.361000
1920.000000	8.439276
1919.000000	8.533624
1918.000000	8.590048
1917.000000	8.702549
1916.000000	8.786490
1915.000000	8.857020
1914.000000	8.921653
1913.000000	9.066065
1912.000000	9.198684
1911.000000	9.324944
1910.000000	9.439525
1909.000000	9.524508
1908.000000	9.649727
1907.000000	9.772402
1906.000000	9.898084
1905.000000	10.095220
1904.000000	10.274781
1903.000000	10.432606
1902.000000	10.594593
1901.000000	10.772767
1900.000000	10.923885
1899.000000	11.151661
1898.000000	11.367066
1897.000000	11.535875
1896.000000	11.729658
1895.000000	11.894882
1894.000000	12.064616
1893.000000	12.261521
1892.000000	12.472184
1891.000000	12.755691
1890.000000	13.014453
1889.000000	13.256798
1888.000000	13.502727
1887.000000	13.767502
1886.000000	14.088238
1885.000000	14.448055
1884.000000	14.831574
1883.000000	15.274639
1882.000000	15.790431
1881.000000	16.257892
1880.000000	16.779002
1879.000000	17.250510
1878.000000	17.710687
1877.000000	18.217575
1876.000000	18.706196
1875.000000	19.154232
1874.000000	19.571860
1873.000000	19.984516
1872.000000	20.386651
1871.000000	20.758261
1870.000000	21.094954
1869.000000	21.431530
1868.000000	21.730992
1867.000000	21.954143
1866.000000	22.121333
1865.000000	22.260890
1864.000000	22.368418
1863.000000	22.453863
1862.000000	22.508321
1861.000000	22.602785
1860.000000	22.702451
1859.000000	22.771015
1858.000000	22.823392
1857.000000	22.879238
1856.000000	22.869294
1855.000000	22.842932
1854.000000	22.828827
1853.000000	22.819114
1852.000000	22.750666
1851.000000	22.689617
1850.000000	22.629378
1849.000000	22.555495
1848.000000	22.501615
1847.000000	22.468547
1846.000000	22.429004
1845.000000	22.330032
1844.000000	22.253143
1843.000000	22.163304
1842.000000	22.113240
1841.000000	22.109309
1840.000000	22.091156
1839.000000	22.056007
1838.000000	21.989177
1837.000000	21.926972
1836.000000	21.880839
1835.000000	21.833202
1834.000000	21.762095
1833.000000	21.658728
1832.000000	21.540447
1831.000000	21.445289
1830.000000	21.372794
1829.000000	21.273937
1828.000000	21.193811
1827.000000	21.100619
1826.000000	21.008006
1825.000000	20.941523
1824.000000	20.854575
1823.000000	20.774448
1822.000000	20.729356
1821.000000	20.708428
1820.000000	20.690622
1819.000000	20.674666
1818.000000	20.639517
1817.000000	20.587371
1816.000000	20.562859
1815.000000	20.554535
1814.000000	20.556731
1813.000000	20.544129
1812.000000	20.534416
1811.000000	20.510251
1810.000000	20.468743
1809.000000	20.434056
1808.000000	20.378673
1807.000000	20.309415
1806.000000	20.266751
1805.000000	20.215183
1804.000000	20.147197
1803.000000	20.099445
1802.000000	20.044871
1801.000000	19.991338
1800.000000	19.938036
1799.000000	19.867969
1798.000000	19.792005
1797.000000	19.737894
1796.000000	19.683205
1795.000000	19.630712
1794.000000	19.582382
1793.000000	19.520986
1792.000000	19.464216
1791.000000	19.379696
1790.000000	19.309051
1789.000000	19.239330
1788.000000	19.153770
1787.000000	19.078384
1786.000000	18.991205
1785.000000	18.900904
1784.000000	18.815574
1783.000000	18.705039
1782.000000	18.606529
1781.000000	18.509059
1780.000000	18.404074
1779.000000	18.327764
1778.000000	18.246481
1777.000000	18.128084
1776.000000	18.006449
1775.000000	17.876605
1774.000000	17.727221
1773.000000	17.586277
1772.000000	17.449959
1771.000000	17.307049
1770.000000	17.135928
1769.000000	16.971282
1768.000000	16.829529
1767.000000	16.705466
1766.000000	16.595047
1765.000000	16.495033
1764.000000	16.410282
1763.000000	16.353280
1762.000000	16.352818
1761.000000	16.373977
1760.000000	16.434100
1759.000000	16.488559
1758.000000	16.541051
1757.000000	16.611696
1756.000000	16.686967
1755.000000	16.751021
1754.000000	16.779002
1753.000000	16.791720
1752.000000	16.783396
1751.000000	16.774840
1750.000000	16.749518
1749.000000	16.680492
1748.000000	16.620368
1747.000000	16.548451
1746.000000	16.449247
1745.000000	16.309460
1744.000000	16.159382
1743.000000	16.005026
1742.000000	15.796327
1741.000000	15.565198
1740.000000	15.327941
1739.000000	15.064207
1738.000000	14.831574
1737.000000	14.622298
1736.000000	14.434412
1735.000000	14.300752
1734.000000	14.231032
1733.000000	14.175071
1732.000000	14.195883
1731.000000	14.277050
1730.000000	14.339948
1729.000000	14.453605
1728.000000	14.552809
1727.000000	14.678490
1726.000000	14.806716
1725.000000	14.911238
1724.000000	14.986508
1723.000000	15.043163
1722.000000	15.070566
1721.000000	15.076578
1720.000000	15.097968
1719.000000	15.099934
1718.000000	15.117277
1717.000000	15.141327
1716.000000	15.150345
1715.000000	15.202607
1714.000000	15.278455
1713.000000	15.337885
1712.000000	15.395580
1711.000000	15.434661
1710.000000	15.450501
1709.000000	15.465879
1708.000000	15.455241
1707.000000	15.411652
1706.000000	15.388643
1705.000000	15.351759
1704.000000	15.302504
1703.000000	15.236600
1702.000000	15.134852
1701.000000	15.036342
1700.000000	14.886033
1699.000000	14.719652
1698.000000	14.558359
1697.000000	14.432909
1696.000000	14.321102
1695.000000	14.254850
1694.000000	14.267800
1693.000000	14.342954
1692.000000	14.475458
1691.000000	14.629467
1690.000000	14.793882
1689.000000	14.966506
1688.000000	15.097159
1687.000000	15.195438
1686.000000	15.197404
1685.000000	15.214978
1684.000000	15.248509
1683.000000	15.336035
1682.000000	15.578842
1681.000000	15.927212
1680.000000	16.398836
1679.000000	17.007472
1678.000000	17.614027
1677.000000	18.232259
1676.000000	18.822858
1675.000000	19.396114
1674.000000	19.858488
1673.000000	20.276000
1672.000000	20.667729
1671.000000	20.953201
1670.000000	21.218670
1669.000000	21.445058
1668.000000	21.639304
1667.000000	21.808806
1666.000000	21.980505
1665.000000	22.109540
1664.000000	22.215334
1663.000000	22.309335
1662.000000	22.404955
1661.000000	22.466004
1660.000000	22.533874
1659.000000	22.587291
1658.000000	22.621747
1657.000000	22.649959
1656.000000	22.661868
1655.000000	22.680714
1654.000000	22.659440
1653.000000	22.653196
1652.000000	22.613538
1651.000000	22.618394
1650.000000	22.561970
1649.000000	22.544396
1648.000000	22.459529
1647.000000	22.427039
1646.000000	22.365181
1645.000000	22.306445
1644.000000	22.211403
1643.000000	22.185735
1642.000000	22.118558
1641.000000	22.026176
1640.000000	21.954375
1639.000000	21.852164
1638.000000	21.783138
1637.000000	21.715268
1636.000000	21.611554
1635.000000	21.538134
1634.000000	21.456505
1633.000000	21.376610
1632.000000	21.264803
1631.000000	21.160511
1630.000000	21.078882
1629.000000	20.970891
1628.000000	20.880937
1627.000000	20.791792
1626.000000	20.699525
1625.000000	20.599396
1624.000000	20.494064
1623.000000	20.379136
1622.000000	20.289644
1621.000000	20.198533
1620.000000	20.073314
1619.000000	19.997119
1618.000000	19.920115
1617.000000	19.831664
1616.000000	19.729569
1615.000000	19.661352
1614.000000	19.567351
1613.000000	19.488381
1612.000000	19.403398
1611.000000	19.316450
1610.000000	19.267426
1609.000000	19.177357
1608.000000	19.099890
1607.000000	18.999067
1606.000000	18.940446
1605.000000	18.866217
1604.000000	18.764585
1603.000000	18.700761
1602.000000	18.616819
1601.000000	18.548602
1600.000000	18.465007
1599.000000	18.391587
1598.000000	18.331348
1597.000000	18.247290
1596.000000	18.181386
1595.000000	18.137333
1594.000000	18.073857
1593.000000	17.998240
1592.000000	17.943204
1591.000000	17.891867
1590.000000	17.836484
1589.000000	17.780754
1588.000000	17.740980
1587.000000	17.693459
1586.000000	17.642123
1585.000000	17.599574
1584.000000	17.574599
1583.000000	17.551244
1582.000000	17.503260
1581.000000	17.473083
