PE UV       SUBTECH     SPECTRUM    ASCII       PEDS        4.00        
   -1
CICIMAUCR0234-2.Sample.ASC
24/06/19
14:18:19.00
24/06/19
14:18:19.00
Vinicio Soto Monge
C. resplendens. Sex M. Ventral 
250,000000
1
Lambda 1050
1050L1511233
PerkinElmer UV WinLab 6.3.2.0749 / 2.02.05 Lambda 900 UV/VIS/NIR, Aug  7 2015 09:38:08

0
0
3350/servo 860,8/2
0
0
UV/VIS
1
1
1
DoubleDePol,CommonBeamDepol,RBeamAtt,SBeamAtt,60mm sphere, WB InGaAs Detector
0
0
0
0
Program
Program
3350/servo 860,8/2
3350/0,2 860,8/0,2
3350/0,2 860,8/0,2
0
15.00
 
 
 
0
 
860,8
319,2
860,8
Front
100
on
S:100 R:100
0
0
0
0
 
0
 
 
 
0
 
 
0
0
0
0
0
 
 
 
 
0
0


0
0
#HDR
-1
-1
#GR
nm
%R
1.0
0.0
2500,000000
-1,000000
2251
8
62,771200
4,564100
#DATA
2482.000000	8.136601
2481.000000	8.086293
2480.000000	8.070822
2479.000000	8.071044
2478.000000	8.078613
2477.000000	8.122132
2476.000000	8.085625
2475.000000	8.144281
2474.000000	8.203827
2473.000000	8.079392
2472.000000	8.112115
2471.000000	8.148955
2470.000000	8.100428
2469.000000	8.089854
2468.000000	8.115342
2467.000000	8.140608
2466.000000	8.187466
2465.000000	8.175890
2464.000000	8.190916
2463.000000	8.237440
2462.000000	8.218408
2461.000000	8.250685
2460.000000	8.281516
2459.000000	8.296319
2458.000000	8.334050
2457.000000	8.353973
2456.000000	8.377681
2455.000000	8.412295
2454.000000	8.474958
2453.000000	8.506011
2452.000000	8.542964
2451.000000	8.571791
2450.000000	8.609522
2449.000000	8.630669
2448.000000	8.704796
2447.000000	8.782485
2446.000000	8.816209
2445.000000	8.834351
2444.000000	8.895679
2443.000000	8.958119
2442.000000	9.027905
2441.000000	9.025679
2440.000000	9.080773
2439.000000	9.129524
2438.000000	9.180055
2437.000000	9.234926
2436.000000	9.293137
2435.000000	9.317735
2434.000000	9.369824
2433.000000	9.419465
2432.000000	9.454525
2431.000000	9.487693
2430.000000	9.510843
2429.000000	9.554696
2428.000000	9.591537
2427.000000	9.643960
2426.000000	9.660322
2425.000000	9.704174
2424.000000	9.752145
2423.000000	9.774072
2422.000000	9.790990
2421.000000	9.843969
2420.000000	9.872908
2419.000000	9.885819
2418.000000	9.921213
2417.000000	9.946367
2416.000000	9.974526
2415.000000	10.008362
2414.000000	10.029287
2413.000000	10.055109
2412.000000	10.081265
2411.000000	10.106419
2410.000000	10.132130
2409.000000	10.151607
2408.000000	10.181214
2407.000000	10.202917
2406.000000	10.223620
2405.000000	10.240871
2404.000000	10.265580
2403.000000	10.289733
2402.000000	10.295632
2401.000000	10.324682
2400.000000	10.362190
2399.000000	10.374990
2398.000000	10.389237
2397.000000	10.413389
2396.000000	10.436540
2395.000000	10.455238
2394.000000	10.465033
2393.000000	10.470932
2392.000000	10.484622
2391.000000	10.509108
2390.000000	10.534597
2389.000000	10.556857
2388.000000	10.559862
2387.000000	10.548843
2386.000000	10.555521
2385.000000	10.569768
2384.000000	10.585350
2383.000000	10.596369
2382.000000	10.601600
2381.000000	10.591472
2380.000000	10.592251
2379.000000	10.586686
2378.000000	10.586018
2377.000000	10.572439
2376.000000	10.569991
2375.000000	10.564425
2374.000000	10.549066
2373.000000	10.538715
2372.000000	10.536489
2371.000000	10.525247
2370.000000	10.500538
2369.000000	10.479614
2368.000000	10.452567
2367.000000	10.424297
2366.000000	10.400144
2365.000000	10.379553
2364.000000	10.361745
2363.000000	10.344605
2362.000000	10.322344
2361.000000	10.291514
2360.000000	10.255118
2359.000000	10.231077
2358.000000	10.217053
2357.000000	10.176428
2356.000000	10.135357
2355.000000	10.117104
2354.000000	10.111650
2353.000000	10.107198
2352.000000	10.100520
2351.000000	10.099073
2350.000000	10.089167
2349.000000	10.102078
2348.000000	10.119330
2347.000000	10.138808
2346.000000	10.160957
2345.000000	10.183106
2344.000000	10.197575
2343.000000	10.214159
2342.000000	10.214938
2341.000000	10.228517
2340.000000	10.251779
2339.000000	10.278046
2338.000000	10.292181
2337.000000	10.288842
2336.000000	10.300306
2335.000000	10.304870
2334.000000	10.290623
2333.000000	10.272704
2332.000000	10.265580
2331.000000	10.274484
2330.000000	10.267695
2329.000000	10.228628
2328.000000	10.203363
2327.000000	10.165631
2326.000000	10.122335
2325.000000	10.091504
2324.000000	10.056890
2323.000000	10.024501
2322.000000	9.975973
2321.000000	9.914646
2320.000000	9.865228
2319.000000	9.808798
2318.000000	9.735339
2317.000000	9.678686
2316.000000	9.624928
2315.000000	9.569054
2314.000000	9.499602
2313.000000	9.434490
2312.000000	9.393977
2311.000000	9.324636
2310.000000	9.246724
2309.000000	9.217563
2308.000000	9.186065
2307.000000	9.151561
2306.000000	9.134866
2305.000000	9.131193
2304.000000	9.118171
2303.000000	9.141989
2302.000000	9.162246
2301.000000	9.201313
2300.000000	9.223351
2299.000000	9.259635
2298.000000	9.321185
2297.000000	9.350458
2296.000000	9.408223
2295.000000	9.449627
2294.000000	9.503497
2293.000000	9.543232
2292.000000	9.597325
2291.000000	9.644071
2290.000000	9.652530
2289.000000	9.675236
2288.000000	9.685810
2287.000000	9.696272
2286.000000	9.690596
2285.000000	9.683138
2284.000000	9.693935
2283.000000	9.674234
2282.000000	9.668558
2281.000000	9.629714
2280.000000	9.594765
2279.000000	9.572171
2278.000000	9.558814
2277.000000	9.520749
2276.000000	9.498934
2275.000000	9.478232
2274.000000	9.454079
2273.000000	9.440055
2272.000000	9.427701
2271.000000	9.429593
2270.000000	9.441948
2269.000000	9.469550
2268.000000	9.486913
2267.000000	9.511400
2266.000000	9.567273
2265.000000	9.632941
2264.000000	9.728772
2263.000000	9.810579
2262.000000	9.927446
2261.000000	10.013482
2260.000000	10.134467
2259.000000	10.275041
2258.000000	10.406043
2257.000000	10.592028
2256.000000	10.765436
2255.000000	10.915248
2254.000000	11.057158
2253.000000	11.210755
2252.000000	11.377151
2251.000000	11.551672
2250.000000	11.694027
2249.000000	11.833488
2248.000000	11.970834
2247.000000	12.094490
2246.000000	12.209576
2245.000000	12.336683
2244.000000	12.422496
2243.000000	12.529569
2242.000000	12.644432
2241.000000	12.711436
2240.000000	12.809604
2239.000000	12.861693
2238.000000	12.934150
2237.000000	13.000709
2236.000000	13.060255
2235.000000	13.106112
2234.000000	13.155418
2233.000000	13.194485
2232.000000	13.200829
2231.000000	13.250581
2230.000000	13.244905
2229.000000	13.265496
2228.000000	13.270949
2227.000000	13.273955
2226.000000	13.293210
2225.000000	13.272619
2224.000000	13.272396
2223.000000	13.235778
2222.000000	13.218192
2221.000000	13.216968
2220.000000	13.155084
2219.000000	13.155084
2218.000000	13.143064
2217.000000	13.089528
2216.000000	13.077730
2215.000000	13.040889
2214.000000	13.009613
2213.000000	12.980897
2212.000000	12.959638
2211.000000	12.909775
2210.000000	12.890409
2209.000000	12.872712
2208.000000	12.847112
2207.000000	12.838987
2206.000000	12.808379
2205.000000	12.827746
2204.000000	12.792463
2203.000000	12.770426
2202.000000	12.754732
2201.000000	12.753062
2200.000000	12.719004
2199.000000	12.718225
2198.000000	12.696521
2197.000000	12.680494
2196.000000	12.690288
2195.000000	12.646101
2194.000000	12.660014
2193.000000	12.669141
2192.000000	12.637643
2191.000000	12.639646
2190.000000	12.637531
2189.000000	12.622728
2188.000000	12.616273
2187.000000	12.596684
2186.000000	12.591341
2185.000000	12.575870
2184.000000	12.568969
2183.000000	12.543815
2182.000000	12.559397
2181.000000	12.548490
2180.000000	12.537694
2179.000000	12.497402
2178.000000	12.509089
2177.000000	12.517214
2176.000000	12.498070
2175.000000	12.498961
2174.000000	12.478370
2173.000000	12.504303
2172.000000	12.513096
2171.000000	12.514877
2170.000000	12.510647
2169.000000	12.523002
2168.000000	12.515656
2167.000000	12.551050
2166.000000	12.542368
2165.000000	12.548490
2164.000000	12.575091
2163.000000	12.594012
2162.000000	12.623730
2161.000000	12.650108
2160.000000	12.647660
2159.000000	12.682052
2158.000000	12.707206
2157.000000	12.747831
2156.000000	12.785340
2155.000000	12.812052
2154.000000	12.825854
2153.000000	12.868816
2152.000000	12.919459
2151.000000	12.951513
2150.000000	12.976890
2149.000000	13.029536
2148.000000	13.051796
2147.000000	13.100658
2146.000000	13.129707
2145.000000	13.169108
2144.000000	13.197268
2143.000000	13.237893
2142.000000	13.280967
2141.000000	13.308903
2140.000000	13.315915
2139.000000	13.354871
2138.000000	13.401951
2137.000000	13.428330
2136.000000	13.464392
2135.000000	13.474965
2134.000000	13.489323
2133.000000	13.525051
2132.000000	13.546644
2131.000000	13.567568
2130.000000	13.572132
2129.000000	13.573690
2128.000000	13.594392
2127.000000	13.605188
2126.000000	13.601515
2125.000000	13.610976
2124.000000	13.628784
2123.000000	13.628339
2122.000000	13.614426
2121.000000	13.603964
2120.000000	13.593502
2119.000000	13.600959
2118.000000	13.582705
2117.000000	13.561781
2116.000000	13.555437
2115.000000	13.547089
2114.000000	13.528835
2113.000000	13.506909
2112.000000	13.495334
2111.000000	13.486875
2110.000000	13.459828
2109.000000	13.429666
2108.000000	13.427551
2107.000000	13.412414
2106.000000	13.390487
2105.000000	13.372790
2104.000000	13.347636
2103.000000	13.328381
2102.000000	13.303449
2101.000000	13.278184
2100.000000	13.260598
2099.000000	13.254031
2098.000000	13.229100
2097.000000	13.194596
2096.000000	13.181797
2095.000000	13.168886
2094.000000	13.151077
2093.000000	13.143731
2092.000000	13.132824
2091.000000	13.114014
2090.000000	13.093757
2089.000000	13.078954
2088.000000	13.074613
2087.000000	13.059921
2086.000000	13.039664
2085.000000	13.033209
2084.000000	13.007832
2083.000000	12.973551
2082.000000	12.951736
2081.000000	12.924467
2080.000000	12.901650
2079.000000	12.874381
2078.000000	12.838987
2077.000000	12.803260
2076.000000	12.759741
2075.000000	12.729355
2074.000000	12.697189
2073.000000	12.663019
2072.000000	12.632634
2071.000000	12.580322
2070.000000	12.523892
2069.000000	12.485716
2068.000000	12.439192
2067.000000	12.379200
2066.000000	12.331118
2065.000000	12.293386
2064.000000	12.247085
2063.000000	12.200783
2062.000000	12.157932
2061.000000	12.112632
2060.000000	12.071896
2059.000000	12.063993
2058.000000	12.050860
2057.000000	12.025928
2056.000000	12.015689
2055.000000	12.013240
2054.000000	12.007341
2053.000000	12.009790
2052.000000	12.029267
2051.000000	12.053865
2050.000000	12.094268
2049.000000	12.126879
2048.000000	12.182419
2047.000000	12.253986
2046.000000	12.294722
2045.000000	12.363618
2044.000000	12.436409
2043.000000	12.499517
2042.000000	12.550493
2041.000000	12.591898
2040.000000	12.662240
2039.000000	12.731247
2038.000000	12.794021
2037.000000	12.843773
2036.000000	12.896308
2035.000000	12.952404
2034.000000	12.992472
2033.000000	13.026531
2032.000000	13.061480
2031.000000	13.115795
2030.000000	13.134827
2029.000000	13.153192
2028.000000	13.201274
2027.000000	13.218192
2026.000000	13.237559
2025.000000	13.243792
2024.000000	13.267499
2023.000000	13.287645
2022.000000	13.302448
2021.000000	13.287422
2020.000000	13.286420
2019.000000	13.300778
2018.000000	13.314802
2017.000000	13.320924
2016.000000	13.306343
2015.000000	13.286420
2014.000000	13.283749
2013.000000	13.271840
2012.000000	13.267722
2011.000000	13.283860
2010.000000	13.257704
2009.000000	13.223535
2008.000000	13.199939
2007.000000	13.179348
2006.000000	13.149964
2005.000000	13.131043
2004.000000	13.081625
2003.000000	13.046565
2002.000000	13.014621
2001.000000	12.979784
2000.000000	12.943054
1999.000000	12.897421
1998.000000	12.862361
1997.000000	12.797806
1996.000000	12.742711
1995.000000	12.688507
1994.000000	12.616718
1993.000000	12.591675
1992.000000	12.529346
1991.000000	12.471692
1990.000000	12.433627
1989.000000	12.374080
1988.000000	12.320655
1987.000000	12.242521
1986.000000	12.186982
1985.000000	12.142016
1984.000000	12.063660
1983.000000	11.999772
1982.000000	11.919969
1981.000000	11.884353
1980.000000	11.798650
1979.000000	11.742109
1978.000000	11.687015
1977.000000	11.625687
1976.000000	11.567365
1975.000000	11.514052
1974.000000	11.450387
1973.000000	11.378598
1972.000000	11.336971
1971.000000	11.301132
1970.000000	11.233794
1969.000000	11.174915
1968.000000	11.117261
1967.000000	11.055934
1966.000000	11.003733
1965.000000	10.952201
1964.000000	10.913356
1963.000000	10.869615
1962.000000	10.841901
1961.000000	10.753304
1960.000000	10.704109
1959.000000	10.658921
1958.000000	10.615179
1957.000000	10.585573
1956.000000	10.519237
1955.000000	10.485846
1954.000000	10.442661
1953.000000	10.381334
1952.000000	10.347276
1951.000000	10.316000
1950.000000	10.256676
1949.000000	10.236308
1948.000000	10.193568
1947.000000	10.150828
1946.000000	10.130015
1945.000000	10.119664
1944.000000	10.070914
1943.000000	10.045092
1942.000000	10.025725
1941.000000	10.000905
1940.000000	10.003576
1939.000000	10.009809
1938.000000	9.979535
1937.000000	9.981093
1936.000000	9.990888
1935.000000	9.975194
1934.000000	10.002574
1933.000000	10.001573
1932.000000	10.017934
1931.000000	10.058782
1930.000000	10.106975
1929.000000	10.118551
1928.000000	10.174424
1927.000000	10.211822
1926.000000	10.267472
1925.000000	10.304202
1924.000000	10.370872
1923.000000	10.442995
1922.000000	10.515675
1921.000000	10.600376
1920.000000	10.714460
1919.000000	10.804837
1918.000000	10.883194
1917.000000	11.004846
1916.000000	11.084984
1915.000000	11.179256
1914.000000	11.315156
1913.000000	11.473983
1912.000000	11.626800
1911.000000	11.774053
1910.000000	11.916630
1909.000000	12.041622
1908.000000	12.202787
1907.000000	12.342359
1906.000000	12.525228
1905.000000	12.779997
1904.000000	12.999262
1903.000000	13.196377
1902.000000	13.419982
1901.000000	13.657612
1900.000000	13.912381
1899.000000	14.166594
1898.000000	14.479352
1897.000000	14.769627
1896.000000	15.049996
1895.000000	15.316786
1894.000000	15.592592
1893.000000	15.889656
1892.000000	16.222894
1891.000000	16.642724
1890.000000	17.049198
1889.000000	17.451887
1888.000000	17.842111
1887.000000	18.263722
1886.000000	18.709819
1885.000000	19.171610
1884.000000	19.640079
1883.000000	20.173659
1882.000000	20.767677
1881.000000	21.252952
1880.000000	21.776404
1879.000000	22.236303
1878.000000	22.715902
1877.000000	23.239354
1876.000000	23.701034
1875.000000	24.133218
1874.000000	24.592783
1873.000000	25.034540
1872.000000	25.484866
1871.000000	25.869302
1870.000000	26.295477
1869.000000	26.671899
1868.000000	27.031404
1867.000000	27.320566
1866.000000	27.560087
1865.000000	27.754642
1864.000000	27.973461
1863.000000	28.132846
1862.000000	28.269635
1861.000000	28.442042
1860.000000	28.635484
1859.000000	28.799988
1858.000000	28.947240
1857.000000	29.061992
1856.000000	29.169287
1855.000000	29.230058
1854.000000	29.316985
1853.000000	29.374305
1852.000000	29.398680
1851.000000	29.419716
1850.000000	29.457559
1849.000000	29.464793
1848.000000	29.494399
1847.000000	29.547602
1846.000000	29.556506
1845.000000	29.510650
1844.000000	29.483603
1843.000000	29.433072
1842.000000	29.415820
1841.000000	29.470692
1840.000000	29.477036
1839.000000	29.465016
1838.000000	29.421942
1837.000000	29.371077
1836.000000	29.356831
1835.000000	29.362618
1834.000000	29.309639
1833.000000	29.242412
1832.000000	29.157155
1831.000000	29.099835
1830.000000	29.071008
1829.000000	29.017249
1828.000000	28.963379
1827.000000	28.885468
1826.000000	28.827257
1825.000000	28.792976
1824.000000	28.729645
1823.000000	28.668318
1822.000000	28.622573
1821.000000	28.628917
1820.000000	28.633703
1819.000000	28.610330
1818.000000	28.574936
1817.000000	28.520398
1816.000000	28.492684
1815.000000	28.479550
1814.000000	28.452727
1813.000000	28.443823
1812.000000	28.430689
1811.000000	28.394405
1810.000000	28.352555
1809.000000	28.320278
1808.000000	28.280765
1807.000000	28.230457
1806.000000	28.194173
1805.000000	28.143864
1804.000000	28.092332
1803.000000	28.043248
1802.000000	28.000842
1801.000000	27.949309
1800.000000	27.898555
1799.000000	27.853256
1798.000000	27.801055
1797.000000	27.746406
1796.000000	27.699993
1795.000000	27.654471
1794.000000	27.608726
1793.000000	27.562647
1792.000000	27.500207
1791.000000	27.448896
1790.000000	27.407158
1789.000000	27.363862
1788.000000	27.311995
1787.000000	27.263690
1786.000000	27.213159
1785.000000	27.161627
1784.000000	27.109537
1783.000000	27.046096
1782.000000	26.989666
1781.000000	26.923886
1780.000000	26.859999
1779.000000	26.785204
1778.000000	26.716086
1777.000000	26.641402
1776.000000	26.552027
1775.000000	26.468217
1774.000000	26.381736
1773.000000	26.286016
1772.000000	26.198756
1771.000000	26.101478
1770.000000	25.990733
1769.000000	25.883215
1768.000000	25.788275
1767.000000	25.686990
1766.000000	25.594053
1765.000000	25.517032
1764.000000	25.464387
1763.000000	25.415971
1762.000000	25.392597
1761.000000	25.408625
1760.000000	25.441013
1759.000000	25.473959
1758.000000	25.522931
1757.000000	25.590826
1756.000000	25.649259
1755.000000	25.709584
1754.000000	25.750432
1753.000000	25.781485
1752.000000	25.824670
1751.000000	25.822333
1750.000000	25.818326
1749.000000	25.825227
1748.000000	25.787162
1747.000000	25.739191
1746.000000	25.688103
1745.000000	25.595389
1744.000000	25.520928
1743.000000	25.400500
1742.000000	25.285970
1741.000000	25.131706
1740.000000	24.944830
1739.000000	24.768640
1738.000000	24.592560
1737.000000	24.422714
1736.000000	24.277799
1735.000000	24.148021
1734.000000	24.029374
1733.000000	23.982182
1732.000000	23.964596
1731.000000	23.962259
1730.000000	24.004776
1729.000000	24.053415
1728.000000	24.115744
1727.000000	24.201557
1726.000000	24.288707
1725.000000	24.362500
1724.000000	24.420488
1723.000000	24.476473
1722.000000	24.532124
1721.000000	24.578314
1720.000000	24.639530
1719.000000	24.708203
1718.000000	24.783443
1717.000000	24.849779
1716.000000	24.948169
1715.000000	25.059360
1714.000000	25.161646
1713.000000	25.255696
1712.000000	25.351416
1711.000000	25.436116
1710.000000	25.506904
1709.000000	25.558325
1708.000000	25.594276
1707.000000	25.612863
1706.000000	25.570791
1705.000000	25.563445
1704.000000	25.520372
1703.000000	25.473625
1702.000000	25.407066
1701.000000	25.326373
1700.000000	25.229651
1699.000000	25.106218
1698.000000	24.991688
1697.000000	24.872596
1696.000000	24.784111
1695.000000	24.738477
1694.000000	24.718554
1693.000000	24.753837
1692.000000	24.816166
1691.000000	24.922681
1690.000000	25.043555
1689.000000	25.178898
1688.000000	25.299438
1687.000000	25.402837
1686.000000	25.500003
1685.000000	25.581365
1684.000000	25.690886
1683.000000	25.855390
1682.000000	26.067308
1681.000000	26.363371
1680.000000	26.747139
1679.000000	27.182106
1678.000000	27.635216
1677.000000	28.118710
1676.000000	28.570039
1675.000000	28.988756
1674.000000	29.358611
1673.000000	29.735479
1672.000000	29.987800
1671.000000	30.265720
1670.000000	30.495113
1669.000000	30.713042
1668.000000	30.907709
1667.000000	31.087461
1666.000000	31.244730
1665.000000	31.351469
1664.000000	31.453087
1663.000000	31.552257
1662.000000	31.659107
1661.000000	31.734235
1660.000000	31.816376
1659.000000	31.875032
1658.000000	31.923560
1657.000000	31.997241
1656.000000	32.002139
1655.000000	32.027070
1654.000000	32.034750
1653.000000	32.021839
1652.000000	32.036086
1651.000000	32.013157
1650.000000	32.003919
1649.000000	31.988003
1648.000000	31.953388
1647.000000	31.896068
1646.000000	31.854219
1645.000000	31.825614
1644.000000	31.771299
1643.000000	31.710083
1642.000000	31.647643
1641.000000	31.612249
1640.000000	31.565279
1639.000000	31.491041
1638.000000	31.434277
1637.000000	31.378404
1636.000000	31.328429
1635.000000	31.262093
1634.000000	31.184293
1633.000000	31.114396
1632.000000	31.029139
1631.000000	30.961467
1630.000000	30.899361
1629.000000	30.807648
1628.000000	30.721167
1627.000000	30.640362
1626.000000	30.570131
1625.000000	30.484317
1624.000000	30.374240
1623.000000	30.302784
1622.000000	30.202167
1621.000000	30.103554
1620.000000	30.040891
1619.000000	29.969101
1618.000000	29.898202
1617.000000	29.808604
1616.000000	29.748946
1615.000000	29.663022
1614.000000	29.580547
1613.000000	29.505641
1612.000000	29.432516
1611.000000	29.344476
1610.000000	29.270572
1609.000000	29.187095
1608.000000	29.106958
1607.000000	29.014912
1606.000000	28.938893
1605.000000	28.878790
1604.000000	28.794979
1603.000000	28.685125
1602.000000	28.596751
1601.000000	28.530860
