PE UV       SUBTECH     SPECTRUM    ASCII       PEDS        4.00        
   -1
BIOUCRA1.Sample.ASC
24/05/03
14:28:43.00
24/05/03
14:28:43.00
Vinicio Soto Monge
Desconocido, esp de prueba para Monteverde
250,000000
1
Lambda 1050
1050L1511233
PerkinElmer UV WinLab 6.3.2.0749 / 2.02.05 Lambda 900 UV/VIS/NIR, Aug  7 2015 09:38:08

0
0
3350/servo 860,8/2
0
0
UV/VIS
1
1
1
DoubleDePol,CommonBeamDepol,RBeamAtt,SBeamAtt,60mm sphere, WB InGaAs Detector
0
0
0
0
Program
Program
3350/servo 860,8/2
3350/0,2 860,8/0,2
3350/0,2 860,8/0,2
0
15.00
 
 
 
0
 
860,8
319,2
860,8
Front
100
on
S:100 R:100
0
0
0
0
 
0
 
 
 
0
 
 
0
0
0
0
0
 
 
 
 
0
0


0
0
#HDR
-1
-1
#GR
nm
%R
1.0
0.0
2500,000000
-1,000000
2251
8
95,340600
6,591900
#DATA
2500.000000	14.218282
2499.000000	14.205375
2498.000000	14.323760
2497.000000	14.191056
2496.000000	14.279189
2495.000000	14.103427
2494.000000	14.194888
2493.000000	14.217274
2492.000000	14.131460
2491.000000	14.260433
2490.000000	14.283324
2489.000000	14.084570
2488.000000	14.077007
2487.000000	14.233912
2486.000000	14.081646
2485.000000	14.125107
2484.000000	14.175829
2483.000000	14.176838
2482.000000	14.235223
2481.000000	14.233912
2480.000000	14.187627
2479.000000	14.263761
2478.000000	14.281508
2477.000000	14.268702
2476.000000	14.338785
2475.000000	14.381843
2474.000000	14.388902
2473.000000	14.410986
2472.000000	14.530984
2471.000000	14.521808
2470.000000	14.577571
2469.000000	14.593403
2468.000000	14.672360
2467.000000	14.711082
2466.000000	14.778543
2465.000000	14.780560
2464.000000	14.864357
2463.000000	14.955314
2462.000000	15.002204
2461.000000	15.053027
2460.000000	15.115244
2459.000000	15.204688
2458.000000	15.310771
2457.000000	15.374199
2456.000000	15.439744
2455.000000	15.511944
2454.000000	15.642833
2453.000000	15.756378
2452.000000	15.848242
2451.000000	15.921451
2450.000000	16.015736
2449.000000	16.146221
2448.000000	16.269144
2447.000000	16.336807
2446.000000	16.475763
2445.000000	16.564602
2444.000000	16.709003
2443.000000	16.792497
2442.000000	16.897672
2441.000000	17.015351
2440.000000	17.137266
2439.000000	17.259987
2438.000000	17.375245
2437.000000	17.479815
2436.000000	17.594872
2435.000000	17.700047
2434.000000	17.827205
2433.000000	17.913422
2432.000000	18.025656
2431.000000	18.136478
2430.000000	18.232578
2429.000000	18.313753
2428.000000	18.424978
2427.000000	18.531666
2426.000000	18.621110
2425.000000	18.718016
2424.000000	18.795763
2423.000000	18.885408
2422.000000	18.985541
2421.000000	19.054213
2420.000000	19.128229
2419.000000	19.201841
2418.000000	19.279386
2417.000000	19.341301
2416.000000	19.399888
2415.000000	19.450610
2414.000000	19.520189
2413.000000	19.581197
2412.000000	19.630809
2411.000000	19.667011
2410.000000	19.707145
2409.000000	19.745060
2408.000000	19.780555
2407.000000	19.826739
2406.000000	19.853361
2405.000000	19.877058
2404.000000	19.907310
2403.000000	19.939679
2402.000000	19.955511
2401.000000	19.975275
2400.000000	20.006031
2399.000000	20.041526
2398.000000	20.078937
2397.000000	20.094366
2396.000000	20.114735
2395.000000	20.135206
2394.000000	20.154667
2393.000000	20.172617
2392.000000	20.177155
2391.000000	20.172718
2390.000000	20.170802
2389.000000	20.179373
2388.000000	20.191776
2387.000000	20.198936
2386.000000	20.201961
2385.000000	20.194297
2384.000000	20.179272
2383.000000	20.166466
2382.000000	20.156886
2381.000000	20.142466
2380.000000	20.122097
2379.000000	20.096383
2378.000000	20.072786
2377.000000	20.054232
2376.000000	20.034165
2375.000000	20.004619
2374.000000	19.978199
2373.000000	19.967611
2372.000000	19.954301
2371.000000	19.919410
2370.000000	19.900049
2369.000000	19.895310
2368.000000	19.870806
2367.000000	19.843580
2366.000000	19.840655
2365.000000	19.833193
2364.000000	19.816252
2363.000000	19.804252
2362.000000	19.774908
2361.000000	19.746875
2360.000000	19.733665
2359.000000	19.723480
2358.000000	19.705632
2357.000000	19.677901
2356.000000	19.654507
2355.000000	19.635851
2354.000000	19.591684
2353.000000	19.551651
2352.000000	19.527450
2351.000000	19.497299
2350.000000	19.472392
2349.000000	19.438711
2348.000000	19.392527
2347.000000	19.365906
2346.000000	19.333940
2345.000000	19.298646
2344.000000	19.267890
2343.000000	19.233000
2342.000000	19.194782
2341.000000	19.157068
2340.000000	19.141741
2339.000000	19.116330
2338.000000	19.103624
2337.000000	19.085473
2336.000000	19.068431
2335.000000	19.047658
2334.000000	19.041910
2333.000000	19.040398
2332.000000	19.039188
2331.000000	19.046549
2330.000000	19.061675
2329.000000	19.067322
2328.000000	19.077305
2327.000000	19.079624
2326.000000	19.099288
2325.000000	19.100296
2324.000000	19.117741
2323.000000	19.127321
2322.000000	19.142245
2321.000000	19.132565
2320.000000	19.130144
2319.000000	19.130144
2318.000000	19.119355
2317.000000	19.104330
2316.000000	19.074784
2315.000000	19.045440
2314.000000	19.016197
2313.000000	18.991995
2312.000000	18.938450
2311.000000	18.893274
2310.000000	18.876434
2309.000000	18.826922
2308.000000	18.783460
2307.000000	18.740301
2306.000000	18.697546
2305.000000	18.667798
2304.000000	18.636941
2303.000000	18.579867
2302.000000	18.573312
2301.000000	18.564741
2300.000000	18.556472
2299.000000	18.550119
2298.000000	18.527531
2297.000000	18.513010
2296.000000	18.527128
2295.000000	18.549716
2294.000000	18.567060
2293.000000	18.571598
2292.000000	18.596203
2291.000000	18.635631
2290.000000	18.649445
2289.000000	18.657311
2288.000000	18.680706
2287.000000	18.718621
2286.000000	18.742217
2285.000000	18.766519
2284.000000	18.794250
2283.000000	18.836905
2282.000000	18.873711
2281.000000	18.918584
2280.000000	18.923021
2279.000000	18.933912
2278.000000	18.946416
2277.000000	18.968601
2276.000000	19.003390
2275.000000	19.014986
2274.000000	19.033339
2273.000000	19.065809
2272.000000	19.087691
2271.000000	19.115019
2270.000000	19.139825
2269.000000	19.178950
2268.000000	19.223017
2267.000000	19.266479
2266.000000	19.317402
2265.000000	19.383653
2264.000000	19.475013
2263.000000	19.577264
2262.000000	19.663683
2261.000000	19.778337
2260.000000	19.926671
2259.000000	20.065022
2258.000000	20.215171
2257.000000	20.364614
2256.000000	20.523032
2255.000000	20.691030
2254.000000	20.860540
2253.000000	21.053646
2252.000000	21.225677
2251.000000	21.407288
2250.000000	21.568933
2249.000000	21.756392
2248.000000	21.893937
2247.000000	22.035716
2246.000000	22.208453
2245.000000	22.347611
2244.000000	22.448954
2243.000000	22.564515
2242.000000	22.677858
2241.000000	22.781117
2240.000000	22.845049
2239.000000	22.909384
2238.000000	22.967871
2237.000000	23.023332
2236.000000	23.063768
2235.000000	23.079197
2234.000000	23.112171
2233.000000	23.092508
2232.000000	23.097852
2231.000000	23.068810
2230.000000	23.063264
2229.000000	23.033517
2228.000000	22.997618
2227.000000	22.930459
2226.000000	22.914426
2225.000000	22.842225
2224.000000	22.798966
2223.000000	22.724244
2222.000000	22.645791
2221.000000	22.588616
2220.000000	22.498667
2219.000000	22.406904
2218.000000	22.320485
2217.000000	22.243444
2216.000000	22.179815
2215.000000	22.094606
2214.000000	22.015447
2213.000000	21.935886
2212.000000	21.863786
2211.000000	21.783417
2210.000000	21.740661
2209.000000	21.648293
2208.000000	21.592227
2207.000000	21.557034
2206.000000	21.509438
2205.000000	21.438851
2204.000000	21.386919
2203.000000	21.320466
2202.000000	21.290113
2201.000000	21.257240
2200.000000	21.197644
2199.000000	21.181006
2198.000000	21.150653
2197.000000	21.108099
2196.000000	21.055360
2195.000000	21.048403
2194.000000	20.997176
2193.000000	20.980437
2192.000000	20.974387
2191.000000	20.946454
2190.000000	20.903598
2189.000000	20.905211
2188.000000	20.890388
2187.000000	20.883733
2186.000000	20.860641
2185.000000	20.838557
2184.000000	20.832204
2183.000000	20.817784
2182.000000	20.799431
2181.000000	20.783902
2180.000000	20.768675
2179.000000	20.755365
2178.000000	20.761718
2177.000000	20.751432
2176.000000	20.742962
2175.000000	20.757987
2174.000000	20.759499
2173.000000	20.774726
2172.000000	20.785616
2171.000000	20.808103
2170.000000	20.832607
2169.000000	20.878590
2168.000000	20.911362
2167.000000	20.951194
2166.000000	20.998689
2165.000000	21.048705
2164.000000	21.112637
2163.000000	21.154485
2162.000000	21.211560
2161.000000	21.293340
2160.000000	21.344365
2159.000000	21.429977
2158.000000	21.504497
2157.000000	21.608159
2156.000000	21.714342
2155.000000	21.819517
2154.000000	21.912693
2153.000000	22.028355
2152.000000	22.140992
2151.000000	22.252419
2150.000000	22.374635
2149.000000	22.486567
2148.000000	22.621287
2147.000000	22.736345
2146.000000	22.843536
2145.000000	22.963837
2144.000000	23.084945
2143.000000	23.201010
2142.000000	23.310925
2141.000000	23.435158
2140.000000	23.546484
2139.000000	23.647424
2138.000000	23.756431
2137.000000	23.851522
2136.000000	23.950848
2135.000000	24.048863
2134.000000	24.142240
2133.000000	24.227046
2132.000000	24.311750
2131.000000	24.375380
2130.000000	24.434673
2129.000000	24.501529
2128.000000	24.578368
2127.000000	24.642099
2126.000000	24.689190
2125.000000	24.739912
2124.000000	24.801021
2123.000000	24.843575
2122.000000	24.863742
2121.000000	24.878062
2120.000000	24.912044
2119.000000	24.945119
2118.000000	24.972648
2117.000000	24.989690
2116.000000	25.002295
2115.000000	25.011270
2114.000000	25.024984
2113.000000	25.032446
2112.000000	25.033253
2111.000000	25.030429
2110.000000	25.023370
2109.000000	25.012782
2108.000000	25.011371
2107.000000	25.012782
2106.000000	25.004816
2105.000000	24.999371
2104.000000	24.984346
2103.000000	24.973254
2102.000000	24.975674
2101.000000	24.972749
2100.000000	24.972850
2099.000000	24.984144
2098.000000	24.977287
2097.000000	24.978295
2096.000000	24.993623
2095.000000	25.005119
2094.000000	25.017219
2093.000000	25.028614
2092.000000	25.040614
2091.000000	25.064815
2090.000000	25.085790
2089.000000	25.087302
2088.000000	25.108176
2087.000000	25.116848
2086.000000	25.114226
2085.000000	25.118461
2084.000000	25.110999
2083.000000	25.087302
2082.000000	25.060076
2081.000000	25.020749
2080.000000	24.965186
2079.000000	24.920111
2078.000000	24.856785
2077.000000	24.789323
2076.000000	24.720047
2075.000000	24.624351
2074.000000	24.547613
2073.000000	24.460185
2072.000000	24.343515
2071.000000	24.218777
2070.000000	24.095653
2069.000000	23.962041
2068.000000	23.829942
2067.000000	23.698247
2066.000000	23.571593
2065.000000	23.446754
2064.000000	23.320202
2063.000000	23.189212
2062.000000	23.070424
2061.000000	22.947199
2060.000000	22.842730
2059.000000	22.732412
2058.000000	22.644178
2057.000000	22.600313
2056.000000	22.546364
2055.000000	22.507844
2054.000000	22.504919
2053.000000	22.530835
2052.000000	22.579137
2051.000000	22.633993
2050.000000	22.713656
2049.000000	22.824377
2048.000000	22.953451
2047.000000	23.096944
2046.000000	23.242657
2045.000000	23.400671
2044.000000	23.562719
2043.000000	23.739792
2042.000000	23.917470
2041.000000	24.101401
2040.000000	24.280591
2039.000000	24.450606
2038.000000	24.599847
2037.000000	24.777727
2036.000000	24.924347
2035.000000	25.064614
2034.000000	25.209721
2033.000000	25.346962
2032.000000	25.479767
2031.000000	25.587866
2030.000000	25.702722
2029.000000	25.822519
2028.000000	25.915694
2027.000000	26.025810
2026.000000	26.117371
2025.000000	26.195421
2024.000000	26.284058
2023.000000	26.359183
2022.000000	26.406981
2021.000000	26.481501
2020.000000	26.531315
2019.000000	26.602507
2018.000000	26.624894
2017.000000	26.669162
2016.000000	26.697397
2015.000000	26.738438
2014.000000	26.753564
2013.000000	26.749934
2012.000000	26.765866
2011.000000	26.760623
2010.000000	26.764051
2009.000000	26.732589
2008.000000	26.675515
2007.000000	26.674204
2006.000000	26.631952
2005.000000	26.580121
2004.000000	26.538172
2003.000000	26.475753
2002.000000	26.420191
2001.000000	26.333469
2000.000000	26.257437
1999.000000	26.162850
1998.000000	26.084195
1997.000000	26.010079
1996.000000	25.920433
1995.000000	25.834518
1994.000000	25.718453
1993.000000	25.602387
1992.000000	25.509010
1991.000000	25.391533
1990.000000	25.278291
1989.000000	25.171805
1988.000000	25.060277
1987.000000	24.948145
1986.000000	24.818062
1985.000000	24.704014
1984.000000	24.586738
1983.000000	24.469664
1982.000000	24.338170
1981.000000	24.224121
1980.000000	24.126207
1979.000000	23.989772
1978.000000	23.881068
1977.000000	23.781338
1976.000000	23.664062
1975.000000	23.560097
1974.000000	23.430923
1973.000000	23.353378
1972.000000	23.222287
1971.000000	23.114188
1970.000000	23.012845
1969.000000	22.914224
1968.000000	22.797050
1967.000000	22.728681
1966.000000	22.620380
1965.000000	22.517827
1964.000000	22.420820
1963.000000	22.310905
1962.000000	22.208050
1961.000000	22.123244
1960.000000	22.008994
1959.000000	21.894743
1958.000000	21.773132
1957.000000	21.692360
1956.000000	21.574479
1955.000000	21.487657
1954.000000	21.367154
1953.000000	21.265105
1952.000000	21.148031
1951.000000	21.057781
1950.000000	20.986689
1949.000000	20.876775
1948.000000	20.786826
1947.000000	20.698189
1946.000000	20.602291
1945.000000	20.539368
1944.000000	20.456982
1943.000000	20.426529
1942.000000	20.369757
1941.000000	20.324480
1940.000000	20.308548
1939.000000	20.278498
1938.000000	20.240078
1937.000000	20.233019
1936.000000	20.219910
1935.000000	20.243002
1934.000000	20.250868
1933.000000	20.274061
1932.000000	20.351808
1931.000000	20.399000
1930.000000	20.497923
1929.000000	20.564275
1928.000000	20.644845
1927.000000	20.756272
1926.000000	20.862758
1925.000000	21.002521
1924.000000	21.153779
1923.000000	21.320970
1922.000000	21.501068
1921.000000	21.714443
1920.000000	21.941835
1919.000000	22.118807
1918.000000	22.358703
1917.000000	22.608683
1916.000000	22.870864
1915.000000	23.167532
1914.000000	23.511291
1913.000000	23.878143
1912.000000	24.225533
1911.000000	24.592486
1910.000000	24.938968
1909.000000	25.337786
1908.000000	25.752536
1907.000000	26.282747
1906.000000	26.848453
1905.000000	27.418092
1904.000000	27.977244
1903.000000	28.532664
1902.000000	29.165832
1901.000000	29.782764
1900.000000	30.462418
1899.000000	31.150038
1898.000000	31.879104
1897.000000	32.555027
1896.000000	33.189707
1895.000000	33.821563
1894.000000	34.491637
1893.000000	35.204972
1892.000000	35.946742
1891.000000	36.628010
1890.000000	37.279530
1889.000000	37.907958
1888.000000	38.539613
1887.000000	39.109050
1886.000000	39.657815
1885.000000	40.201942
1884.000000	40.736186
1883.000000	41.221524
1882.000000	41.641719
1881.000000	42.083091
1880.000000	42.475455
1879.000000	42.834240
1878.000000	43.198873
1877.000000	43.536583
1876.000000	43.843940
1875.000000	44.136070
1874.000000	44.432133
1873.000000	44.705910
1872.000000	44.949940
1871.000000	45.154845
1870.000000	45.319717
1869.000000	45.484185
1868.000000	45.614267
1867.000000	45.743442
1866.000000	45.832986
1865.000000	45.937758
1864.000000	46.058059
1863.000000	46.168175
1862.000000	46.291501
1861.000000	46.405449
1860.000000	46.513649
1859.000000	46.570522
1858.000000	46.629614
1857.000000	46.693142
1856.000000	46.736906
1855.000000	46.785813
1854.000000	46.805577
1853.000000	46.809409
1852.000000	46.850148
1851.000000	46.914887
1850.000000	46.957945
1849.000000	46.955525
1848.000000	46.928903
1847.000000	46.849039
1846.000000	46.792065
1845.000000	46.799729
1844.000000	46.799225
1843.000000	46.835022
1842.000000	46.838249
1841.000000	46.770990
1840.000000	46.723696
1839.000000	46.682453
1838.000000	46.614286
1837.000000	46.546321
1836.000000	46.494792
1835.000000	46.429146
1834.000000	46.361685
1833.000000	46.335467
1832.000000	46.311064
1831.000000	46.274257
1830.000000	46.249451
1829.000000	46.218796
1828.000000	46.163738
1827.000000	46.130965
1826.000000	46.111806
1825.000000	46.088815
1824.000000	46.097083
1823.000000	46.140646
1822.000000	46.168881
1821.000000	46.167973
1820.000000	46.140444
1819.000000	46.113520
1818.000000	46.101218
1817.000000	46.100411
1816.000000	46.103941
1815.000000	46.083168
1814.000000	46.053723
1813.000000	46.046362
1812.000000	46.024480
1811.000000	45.977690
1810.000000	45.938464
1809.000000	45.912347
1808.000000	45.886129
1807.000000	45.860314
1806.000000	45.823407
1805.000000	45.782668
1804.000000	45.775811
1803.000000	45.767441
1802.000000	45.748786
1801.000000	45.708249
1800.000000	45.684451
1799.000000	45.649056
1798.000000	45.624653
1797.000000	45.603175
1796.000000	45.568789
1795.000000	45.547512
1794.000000	45.515445
1793.000000	45.494369
1792.000000	45.494369
1791.000000	45.475714
1790.000000	45.466034
1789.000000	45.461899
1788.000000	45.465126
1787.000000	45.489529
1786.000000	45.492756
1785.000000	45.493764
1784.000000	45.484487
1783.000000	45.461496
1782.000000	45.457362
1781.000000	45.453832
1780.000000	45.426303
1779.000000	45.389295
1778.000000	45.346237
1777.000000	45.296221
1776.000000	45.252860
1775.000000	45.197702
1774.000000	45.151114
1773.000000	45.105736
1772.000000	45.054309
1771.000000	44.999150
1770.000000	44.940361
1769.000000	44.912327
1768.000000	44.867555
1767.000000	44.824799
1766.000000	44.800396
1765.000000	44.772666
1764.000000	44.751086
1763.000000	44.736364
1762.000000	44.736666
1761.000000	44.735254
1760.000000	44.741002
1759.000000	44.745540
1758.000000	44.746044
1757.000000	44.752901
1756.000000	44.761674
1755.000000	44.769338
1754.000000	44.760767
1753.000000	44.763086
1752.000000	44.760968
1751.000000	44.752296
1750.000000	44.713473
1749.000000	44.684835
1748.000000	44.634315
1747.000000	44.577240
1746.000000	44.493140
1745.000000	44.379192
1744.000000	44.290152
1743.000000	44.174691
1742.000000	44.058020
1741.000000	43.943467
1740.000000	43.838091
1739.000000	43.726361
1738.000000	43.622396
1737.000000	43.532952
1736.000000	43.438164
1735.000000	43.374434
1734.000000	43.270670
1733.000000	43.214402
1732.000000	43.143311
1731.000000	43.063144
1730.000000	42.980355
1729.000000	42.896962
1728.000000	42.834643
1727.000000	42.748628
1726.000000	42.698813
1725.000000	42.674007
1724.000000	42.699922
1723.000000	42.770610
1722.000000	42.890105
1721.000000	43.061430
1720.000000	43.291141
1719.000000	43.572784
1718.000000	43.861586
1717.000000	44.169750
1716.000000	44.457141
1715.000000	44.774481
1714.000000	45.033032
1713.000000	45.295919
1712.000000	45.490538
1711.000000	45.707745
1710.000000	45.909221
1709.000000	46.037992
1708.000000	46.191973
1707.000000	46.294929
1706.000000	46.396676
1705.000000	46.478254
1704.000000	46.544304
1703.000000	46.573245
1702.000000	46.597043
1701.000000	46.622454
1700.000000	46.605110
1699.000000	46.593816
1698.000000	46.591093
1697.000000	46.546825
1696.000000	46.482591
1695.000000	46.396172
1694.000000	46.274862
1693.000000	46.118663
1692.000000	45.992413
1691.000000	45.816550
1690.000000	45.726904
1689.000000	45.657023
1688.000000	45.656014
1687.000000	45.705829
1686.000000	45.860415
1685.000000	46.068546
1684.000000	46.295232
1683.000000	46.556001
1682.000000	46.831997
1681.000000	47.107388
1680.000000	47.354141
1679.000000	47.585970
1678.000000	47.822840
1677.000000	48.034703
1676.000000	48.230532
1675.000000	48.423537
1674.000000	48.608577
1673.000000	48.807633
1672.000000	49.010924
1671.000000	49.217442
1670.000000	49.443825
1669.000000	49.651251
1668.000000	49.865029
1667.000000	50.078505
1666.000000	50.277864
1665.000000	50.472684
1664.000000	50.656514
1663.000000	50.836007
1662.000000	51.003702
1661.000000	51.161716
1660.000000	51.317613
1659.000000	51.445780
1658.000000	51.568299
1657.000000	51.677205
1656.000000	51.781270
1655.000000	51.851757
1654.000000	51.925571
1653.000000	52.000293
1652.000000	52.044561
1651.000000	52.091854
1650.000000	52.126845
1649.000000	52.147921
1648.000000	52.153568
1647.000000	52.173635
1646.000000	52.174441
1645.000000	52.183315
1644.000000	52.190071
1643.000000	52.168794
1642.000000	52.170307
1641.000000	52.183416
1640.000000	52.181601
1639.000000	52.184626
1638.000000	52.184323
1637.000000	52.152761
1636.000000	52.137736
1635.000000	52.145803
1634.000000	52.126442
1633.000000	52.107081
1632.000000	52.078947
1631.000000	52.046678
1630.000000	52.002914
1629.000000	51.975890
1628.000000	51.943823
1627.000000	51.894109
1626.000000	51.856194
1625.000000	51.820093
