PE UV       SUBTECH     SPECTRUM    ASCII       PEDS        4.00        
   -1
CICIMAUCR0141-2.Sample.ASC
24/04/19
15:59:52.00
24/04/19
15:59:52.00
Vinicio Soto Monge
C. kalinini
250,000000
1
Lambda 1050
1050L1511233
PerkinElmer UV WinLab 6.3.2.0749 / 2.02.05 Lambda 900 UV/VIS/NIR, Aug  7 2015 09:38:08

0
0
3350/servo 860,8/2
0
0
UV/VIS
1
1
1
DoubleDePol,CommonBeamDepol,RBeamAtt,SBeamAtt,60mm sphere, WB InGaAs Detector
0
0
0
0
Program
Program
3350/servo 860,8/2
3350/0,2 860,8/0,2
3350/0,2 860,8/0,2
0
15.00
 
 
 
0
 
860,8
319,2
860,8
Front
100
on
S:100 R:100
0
0
0
0
 
0
 
 
 
0
 
 
0
0
0
0
0
 
 
 
 
0
0


0
0
#HDR
-1
-1
#GR
nm
%R
1.0
0.0
2500,000000
-1,000000
2251
8
99,178200
5,799400
#DATA
2500.000000	10.284600
2499.000000	10.299700
2498.000000	10.211200
2497.000000	10.289800
2496.000000	10.246700
2495.000000	10.277000
2494.000000	10.176700
2493.000000	10.288200
2492.000000	10.167300
2491.000000	10.150600
2490.000000	10.213400
2489.000000	10.145200
2488.000000	10.212500
2487.000000	10.221500
2486.000000	10.165100
2485.000000	10.152300
2484.000000	10.129900
2483.000000	10.178500
2482.000000	10.203500
2481.000000	10.182800
2480.000000	10.207900
2479.000000	10.223900
2478.000000	10.211700
2477.000000	10.229900
2476.000000	10.249400
2475.000000	10.306200
2474.000000	10.352000
2473.000000	10.371000
2472.000000	10.345500
2471.000000	10.412900
2470.000000	10.420700
2469.000000	10.497700
2468.000000	10.515500
2467.000000	10.546400
2466.000000	10.626500
2465.000000	10.629100
2464.000000	10.683800
2463.000000	10.725700
2462.000000	10.799800
2461.000000	10.851800
2460.000000	10.930900
2459.000000	10.984100
2458.000000	11.028700
2457.000000	11.091500
2456.000000	11.176500
2455.000000	11.240400
2454.000000	11.338100
2453.000000	11.431700
2452.000000	11.501700
2451.000000	11.589400
2450.000000	11.670800
2449.000000	11.768300
2448.000000	11.849100
2447.000000	11.945200
2446.000000	12.048500
2445.000000	12.126500
2444.000000	12.242600
2443.000000	12.329200
2442.000000	12.425200
2441.000000	12.515600
2440.000000	12.616000
2439.000000	12.728600
2438.000000	12.831400
2437.000000	12.925500
2436.000000	13.006200
2435.000000	13.127400
2434.000000	13.219300
2433.000000	13.317600
2432.000000	13.421400
2431.000000	13.492900
2430.000000	13.571100
2429.000000	13.665100
2428.000000	13.753300
2427.000000	13.830900
2426.000000	13.924300
2425.000000	14.015300
2424.000000	14.084300
2423.000000	14.147600
2422.000000	14.230100
2421.000000	14.302600
2420.000000	14.363800
2419.000000	14.434000
2418.000000	14.487600
2417.000000	14.549500
2416.000000	14.588100
2415.000000	14.648700
2414.000000	14.696700
2413.000000	14.756000
2412.000000	14.786200
2411.000000	14.824600
2410.000000	14.869700
2409.000000	14.888300
2408.000000	14.917900
2407.000000	14.958800
2406.000000	14.990200
2405.000000	15.011900
2404.000000	15.039700
2403.000000	15.069400
2402.000000	15.094900
2401.000000	15.108600
2400.000000	15.129300
2399.000000	15.145000
2398.000000	15.153600
2397.000000	15.172700
2396.000000	15.194800
2395.000000	15.215800
2394.000000	15.216800
2393.000000	15.226700
2392.000000	15.230500
2391.000000	15.250900
2390.000000	15.266900
2389.000000	15.278700
2388.000000	15.282900
2387.000000	15.282400
2386.000000	15.283800
2385.000000	15.283500
2384.000000	15.274700
2383.000000	15.271100
2382.000000	15.262400
2381.000000	15.244200
2380.000000	15.229900
2379.000000	15.223000
2378.000000	15.208300
2377.000000	15.182000
2376.000000	15.162400
2375.000000	15.148900
2374.000000	15.126300
2373.000000	15.110300
2372.000000	15.106800
2371.000000	15.096400
2370.000000	15.071100
2369.000000	15.054600
2368.000000	15.054500
2367.000000	15.053400
2366.000000	15.035800
2365.000000	15.027700
2364.000000	15.036400
2363.000000	15.033300
2362.000000	15.011100
2361.000000	15.007900
2360.000000	15.000500
2359.000000	14.981800
2358.000000	14.972600
2357.000000	14.963800
2356.000000	14.941500
2355.000000	14.925500
2354.000000	14.911000
2353.000000	14.877300
2352.000000	14.857200
2351.000000	14.834700
2350.000000	14.800100
2349.000000	14.786500
2348.000000	14.768800
2347.000000	14.745800
2346.000000	14.721600
2345.000000	14.704200
2344.000000	14.686200
2343.000000	14.659000
2342.000000	14.631900
2341.000000	14.613700
2340.000000	14.606700
2339.000000	14.581500
2338.000000	14.569400
2337.000000	14.569800
2336.000000	14.550000
2335.000000	14.544400
2334.000000	14.555600
2333.000000	14.568000
2332.000000	14.573700
2331.000000	14.582700
2330.000000	14.592200
2329.000000	14.620500
2328.000000	14.640600
2327.000000	14.652300
2326.000000	14.672800
2325.000000	14.701300
2324.000000	14.720900
2323.000000	14.744100
2322.000000	14.756200
2321.000000	14.760000
2320.000000	14.764000
2319.000000	14.771000
2318.000000	14.759600
2317.000000	14.735900
2316.000000	14.721500
2315.000000	14.715500
2314.000000	14.702200
2313.000000	14.667500
2312.000000	14.646100
2311.000000	14.610900
2310.000000	14.577200
2309.000000	14.550800
2308.000000	14.508500
2307.000000	14.485600
2306.000000	14.466500
2305.000000	14.431800
2304.000000	14.412000
2303.000000	14.395800
2302.000000	14.385700
2301.000000	14.364100
2300.000000	14.367100
2299.000000	14.377100
2298.000000	14.382800
2297.000000	14.387900
2296.000000	14.409900
2295.000000	14.415500
2294.000000	14.430200
2293.000000	14.442400
2292.000000	14.455600
2291.000000	14.504000
2290.000000	14.533100
2289.000000	14.558700
2288.000000	14.583800
2287.000000	14.624300
2286.000000	14.648400
2285.000000	14.688200
2284.000000	14.749600
2283.000000	14.748600
2282.000000	14.780600
2281.000000	14.830900
2280.000000	14.860300
2279.000000	14.883100
2278.000000	14.932200
2277.000000	14.963700
2276.000000	15.008900
2275.000000	15.018200
2274.000000	15.041600
2273.000000	15.065400
2272.000000	15.067600
2271.000000	15.102000
2270.000000	15.124400
2269.000000	15.163200
2268.000000	15.193300
2267.000000	15.233900
2266.000000	15.292000
2265.000000	15.364700
2264.000000	15.430800
2263.000000	15.507400
2262.000000	15.598600
2261.000000	15.703200
2260.000000	15.819100
2259.000000	15.929000
2258.000000	16.043200
2257.000000	16.190900
2256.000000	16.323900
2255.000000	16.491600
2254.000000	16.630900
2253.000000	16.775600
2252.000000	16.936600
2251.000000	17.106100
2250.000000	17.237300
2249.000000	17.368700
2248.000000	17.516300
2247.000000	17.632200
2246.000000	17.784400
2245.000000	17.882500
2244.000000	17.978800
2243.000000	18.065500
2242.000000	18.161300
2241.000000	18.255200
2240.000000	18.325300
2239.000000	18.361200
2238.000000	18.412600
2237.000000	18.435400
2236.000000	18.477400
2235.000000	18.481100
2234.000000	18.505400
2233.000000	18.490800
2232.000000	18.487500
2231.000000	18.462100
2230.000000	18.454000
2229.000000	18.419400
2228.000000	18.371100
2227.000000	18.335600
2226.000000	18.284000
2225.000000	18.242900
2224.000000	18.197600
2223.000000	18.118000
2222.000000	18.035700
2221.000000	17.968000
2220.000000	17.911000
2219.000000	17.838500
2218.000000	17.740100
2217.000000	17.644300
2216.000000	17.567500
2215.000000	17.501700
2214.000000	17.422800
2213.000000	17.343900
2212.000000	17.286700
2211.000000	17.210000
2210.000000	17.113600
2209.000000	17.053700
2208.000000	17.028100
2207.000000	16.958300
2206.000000	16.871700
2205.000000	16.820400
2204.000000	16.768800
2203.000000	16.700100
2202.000000	16.656300
2201.000000	16.616300
2200.000000	16.575900
2199.000000	16.520500
2198.000000	16.464400
2197.000000	16.436600
2196.000000	16.406800
2195.000000	16.371700
2194.000000	16.332300
2193.000000	16.290800
2192.000000	16.265200
2191.000000	16.227100
2190.000000	16.195100
2189.000000	16.163100
2188.000000	16.145400
2187.000000	16.121100
2186.000000	16.079700
2185.000000	16.060200
2184.000000	16.026000
2183.000000	16.005800
2182.000000	15.965500
2181.000000	15.932000
2180.000000	15.902500
2179.000000	15.875200
2178.000000	15.863600
2177.000000	15.841000
2176.000000	15.808400
2175.000000	15.799500
2174.000000	15.799300
2173.000000	15.787200
2172.000000	15.790500
2171.000000	15.789600
2170.000000	15.786900
2169.000000	15.798100
2168.000000	15.830900
2167.000000	15.843200
2166.000000	15.856200
2165.000000	15.881100
2164.000000	15.905300
2163.000000	15.936700
2162.000000	16.000000
2161.000000	16.053500
2160.000000	16.070100
2159.000000	16.125600
2158.000000	16.196100
2157.000000	16.272700
2156.000000	16.339900
2155.000000	16.408200
2154.000000	16.494100
2153.000000	16.579700
2152.000000	16.671000
2151.000000	16.755800
2150.000000	16.853700
2149.000000	16.947500
2148.000000	17.032500
2147.000000	17.135300
2146.000000	17.237100
2145.000000	17.334600
2144.000000	17.422200
2143.000000	17.512400
2142.000000	17.617000
2141.000000	17.698400
2140.000000	17.778000
2139.000000	17.876500
2138.000000	17.966900
2137.000000	18.047500
2136.000000	18.123900
2135.000000	18.201800
2134.000000	18.289900
2133.000000	18.375600
2132.000000	18.451800
2131.000000	18.510900
2130.000000	18.568100
2129.000000	18.630000
2128.000000	18.681300
2127.000000	18.747800
2126.000000	18.801500
2125.000000	18.845200
2124.000000	18.887500
2123.000000	18.943200
2122.000000	18.997400
2121.000000	19.031800
2120.000000	19.070400
2119.000000	19.097300
2118.000000	19.124300
2117.000000	19.160200
2116.000000	19.186400
2115.000000	19.219200
2114.000000	19.234200
2113.000000	19.251400
2112.000000	19.269600
2111.000000	19.276900
2110.000000	19.294700
2109.000000	19.312500
2108.000000	19.319600
2107.000000	19.321500
2106.000000	19.337600
2105.000000	19.347600
2104.000000	19.356400
2103.000000	19.365400
2102.000000	19.366400
2101.000000	19.385600
2100.000000	19.397900
2099.000000	19.411700
2098.000000	19.431800
2097.000000	19.436900
2096.000000	19.447300
2095.000000	19.474600
2094.000000	19.510400
2093.000000	19.533100
2092.000000	19.558900
2091.000000	19.594500
2090.000000	19.617300
2089.000000	19.630000
2088.000000	19.655500
2087.000000	19.676700
2086.000000	19.691000
2085.000000	19.715700
2084.000000	19.713300
2083.000000	19.714400
2082.000000	19.704000
2081.000000	19.683300
2080.000000	19.650700
2079.000000	19.610000
2078.000000	19.583400
2077.000000	19.547000
2076.000000	19.505500
2075.000000	19.432100
2074.000000	19.362200
2073.000000	19.292900
2072.000000	19.216600
2071.000000	19.116900
2070.000000	19.031900
2069.000000	18.940300
2068.000000	18.839700
2067.000000	18.742500
2066.000000	18.635400
2065.000000	18.525200
2064.000000	18.404800
2063.000000	18.294700
2062.000000	18.198500
2061.000000	18.096200
2060.000000	18.007500
2059.000000	17.926300
2058.000000	17.863000
2057.000000	17.796000
2056.000000	17.735300
2055.000000	17.702200
2054.000000	17.681000
2053.000000	17.666800
2052.000000	17.681900
2051.000000	17.743700
2050.000000	17.789600
2049.000000	17.845600
2048.000000	17.942800
2047.000000	18.045900
2046.000000	18.154000
2045.000000	18.273800
2044.000000	18.393600
2043.000000	18.528000
2042.000000	18.668300
2041.000000	18.808900
2040.000000	18.911800
2039.000000	19.026500
2038.000000	19.153500
2037.000000	19.269600
2036.000000	19.379100
2035.000000	19.505700
2034.000000	19.593800
2033.000000	19.684900
2032.000000	19.776200
2031.000000	19.853300
2030.000000	19.938700
2029.000000	20.027400
2028.000000	20.102600
2027.000000	20.159200
2026.000000	20.229800
2025.000000	20.281100
2024.000000	20.332300
2023.000000	20.399100
2022.000000	20.438500
2021.000000	20.492800
2020.000000	20.528800
2019.000000	20.573800
2018.000000	20.612500
2017.000000	20.649100
2016.000000	20.661100
2015.000000	20.670500
2014.000000	20.681200
2013.000000	20.689400
2012.000000	20.707700
2011.000000	20.700600
2010.000000	20.696100
2009.000000	20.689800
2008.000000	20.663500
2007.000000	20.628200
2006.000000	20.601300
2005.000000	20.562300
2004.000000	20.533700
2003.000000	20.476700
2002.000000	20.394000
2001.000000	20.353900
2000.000000	20.301200
1999.000000	20.242300
1998.000000	20.178500
1997.000000	20.103300
1996.000000	20.023200
1995.000000	19.946100
1994.000000	19.863800
1993.000000	19.785600
1992.000000	19.707200
1991.000000	19.596800
1990.000000	19.502500
1989.000000	19.406500
1988.000000	19.304900
1987.000000	19.210100
1986.000000	19.115800
1985.000000	19.014600
1984.000000	18.920100
1983.000000	18.810000
1982.000000	18.721800
1981.000000	18.612200
1980.000000	18.519400
1979.000000	18.410100
1978.000000	18.311000
1977.000000	18.228600
1976.000000	18.125900
1975.000000	18.032400
1974.000000	17.932500
1973.000000	17.836900
1972.000000	17.736200
1971.000000	17.648300
1970.000000	17.548600
1969.000000	17.464000
1968.000000	17.385800
1967.000000	17.291100
1966.000000	17.223400
1965.000000	17.122900
1964.000000	17.034100
1963.000000	16.959800
1962.000000	16.858300
1961.000000	16.772700
1960.000000	16.672600
1959.000000	16.597400
1958.000000	16.514400
1957.000000	16.422400
1956.000000	16.348800
1955.000000	16.251800
1954.000000	16.153800
1953.000000	16.066200
1952.000000	16.000500
1951.000000	15.924700
1950.000000	15.824900
1949.000000	15.769400
1948.000000	15.711900
1947.000000	15.647600
1946.000000	15.598800
1945.000000	15.531500
1944.000000	15.480200
1943.000000	15.423200
1942.000000	15.405200
1941.000000	15.395000
1940.000000	15.372800
1939.000000	15.354800
1938.000000	15.313800
1937.000000	15.276200
1936.000000	15.290600
1935.000000	15.304800
1934.000000	15.333100
1933.000000	15.356900
1932.000000	15.408000
1931.000000	15.456600
1930.000000	15.514400
1929.000000	15.570600
1928.000000	15.644100
1927.000000	15.720500
1926.000000	15.811000
1925.000000	15.920100
1924.000000	16.048300
1923.000000	16.182100
1922.000000	16.314700
1921.000000	16.465600
1920.000000	16.607000
1919.000000	16.781500
1918.000000	16.969100
1917.000000	17.182700
1916.000000	17.404200
1915.000000	17.652200
1914.000000	17.907700
1913.000000	18.200600
1912.000000	18.472500
1911.000000	18.751000
1910.000000	19.071200
1909.000000	19.408800
1908.000000	19.779500
1907.000000	20.177600
1906.000000	20.653100
1905.000000	21.124200
1904.000000	21.575000
1903.000000	22.057800
1902.000000	22.576200
1901.000000	23.121700
1900.000000	23.706500
1899.000000	24.283400
1898.000000	24.876900
1897.000000	25.505800
1896.000000	26.087200
1895.000000	26.675200
1894.000000	27.301900
1893.000000	27.956800
1892.000000	28.640100
1891.000000	29.300000
1890.000000	29.907200
1889.000000	30.484500
1888.000000	31.094500
1887.000000	31.662900
1886.000000	32.214100
1885.000000	32.754600
1884.000000	33.301400
1883.000000	33.800300
1882.000000	34.230900
1881.000000	34.681300
1880.000000	35.091500
1879.000000	35.482700
1878.000000	35.862100
1877.000000	36.220700
1876.000000	36.550800
1875.000000	36.866900
1874.000000	37.180100
1873.000000	37.472800
1872.000000	37.725700
1871.000000	37.953200
1870.000000	38.132000
1869.000000	38.325100
1868.000000	38.483100
1867.000000	38.609600
1866.000000	38.721600
1865.000000	38.837900
1864.000000	38.970300
1863.000000	39.093500
1862.000000	39.227700
1861.000000	39.342100
1860.000000	39.449000
1859.000000	39.532400
1858.000000	39.597200
1857.000000	39.664900
1856.000000	39.723900
1855.000000	39.767600
1854.000000	39.798500
1853.000000	39.796400
1852.000000	39.804700
1851.000000	39.862500
1850.000000	39.913100
1849.000000	39.960100
1848.000000	39.961700
1847.000000	39.892800
1846.000000	39.821400
1845.000000	39.803000
1844.000000	39.818500
1843.000000	39.844700
1842.000000	39.853100
1841.000000	39.810300
1840.000000	39.754500
1839.000000	39.708900
1838.000000	39.669900
1837.000000	39.633100
1836.000000	39.561700
1835.000000	39.487000
1834.000000	39.433000
1833.000000	39.400800
1832.000000	39.385100
1831.000000	39.363400
1830.000000	39.330900
1829.000000	39.299200
1828.000000	39.257200
1827.000000	39.226800
1826.000000	39.204700
1825.000000	39.178900
1824.000000	39.179600
1823.000000	39.217800
1822.000000	39.265100
1821.000000	39.282400
1820.000000	39.268300
1819.000000	39.240000
1818.000000	39.217200
1817.000000	39.221500
1816.000000	39.233300
1815.000000	39.214000
1814.000000	39.207300
1813.000000	39.215400
1812.000000	39.199800
1811.000000	39.163400
1810.000000	39.107400
1809.000000	39.088800
1808.000000	39.082300
1807.000000	39.076300
1806.000000	39.045300
1805.000000	39.007900
1804.000000	38.984200
1803.000000	38.999200
1802.000000	39.002500
1801.000000	38.976200
1800.000000	38.940100
1799.000000	38.907200
1798.000000	38.888500
1797.000000	38.890700
1796.000000	38.876800
1795.000000	38.848300
1794.000000	38.838100
1793.000000	38.820800
1792.000000	38.807600
1791.000000	38.810500
1790.000000	38.813800
1789.000000	38.821200
1788.000000	38.812400
1787.000000	38.829500
1786.000000	38.846400
1785.000000	38.862500
1784.000000	38.858700
1783.000000	38.855100
1782.000000	38.859700
1781.000000	38.842200
1780.000000	38.814400
1779.000000	38.789700
1778.000000	38.764600
1777.000000	38.729700
1776.000000	38.696300
1775.000000	38.652900
1774.000000	38.590500
1773.000000	38.560200
1772.000000	38.503800
1771.000000	38.462900
1770.000000	38.425800
1769.000000	38.385000
1768.000000	38.352600
1767.000000	38.318900
1766.000000	38.277400
1765.000000	38.248300
1764.000000	38.240700
1763.000000	38.221100
1762.000000	38.220200
1761.000000	38.215500
1760.000000	38.220400
1759.000000	38.234800
1758.000000	38.234100
1757.000000	38.240200
1756.000000	38.255000
1755.000000	38.256900
1754.000000	38.256800
1753.000000	38.268200
1752.000000	38.271500
1751.000000	38.263400
1750.000000	38.234800
1749.000000	38.194600
1748.000000	38.155300
1747.000000	38.094400
1746.000000	38.000000
1745.000000	37.939000
1744.000000	37.856500
1743.000000	37.744900
1742.000000	37.627200
1741.000000	37.524000
1740.000000	37.435200
1739.000000	37.325400
1738.000000	37.214400
1737.000000	37.139500
1736.000000	37.049000
1735.000000	36.959400
1734.000000	36.894100
1733.000000	36.804700
1732.000000	36.709800
1731.000000	36.608700
1730.000000	36.525300
1729.000000	36.437100
1728.000000	36.372900
1727.000000	36.297200
1726.000000	36.222000
1725.000000	36.196900
1724.000000	36.186000
1723.000000	36.243200
1722.000000	36.321600
1721.000000	36.481400
1720.000000	36.671100
1719.000000	36.917000
1718.000000	37.178000
1717.000000	37.435500
1716.000000	37.709200
1715.000000	37.954300
1714.000000	38.195500
1713.000000	38.405800
1712.000000	38.595600
1711.000000	38.752500
1710.000000	38.925900
1709.000000	39.064100
1708.000000	39.182200
1707.000000	39.284900
1706.000000	39.369300
1705.000000	39.443800
1704.000000	39.510900
1703.000000	39.568000
1702.000000	39.568000
1701.000000	39.601800
1700.000000	39.600300
1699.000000	39.601700
1698.000000	39.608000
1697.000000	39.575300
1696.000000	39.526400
1695.000000	39.453300
1694.000000	39.373700
1693.000000	39.263200
1692.000000	39.144000
1691.000000	39.029400
1690.000000	38.948400
1689.000000	38.888700
1688.000000	38.878300
1687.000000	38.935100
1686.000000	39.068100
1685.000000	39.245300
1684.000000	39.454500
1683.000000	39.695000
1682.000000	39.968800
1681.000000	40.240200
1680.000000	40.495200
1679.000000	40.725400
1678.000000	40.928200
1677.000000	41.151000
1676.000000	41.339600
1675.000000	41.516900
1674.000000	41.676400
1673.000000	41.872600
1672.000000	42.070600
1671.000000	42.274500
1670.000000	42.485700
1669.000000	42.670400
1668.000000	42.875900
1667.000000	43.133900
1666.000000	43.297000
1665.000000	43.474000
1664.000000	43.639500
1663.000000	43.821300
1662.000000	43.988800
1661.000000	44.131500
1660.000000	44.257400
1659.000000	44.383400
1658.000000	44.487800
1657.000000	44.584700
1656.000000	44.673200
1655.000000	44.730700
1654.000000	44.791400
1653.000000	44.841900
1652.000000	44.892000
1651.000000	44.915900
1650.000000	44.932700
1649.000000	44.953800
1648.000000	44.969400
1647.000000	44.959900
1646.000000	44.952300
1645.000000	44.961300
1644.000000	44.962400
1643.000000	44.952500
1642.000000	44.959600
1641.000000	44.949500
1640.000000	44.958600
1639.000000	44.955800
1638.000000	44.950400
1637.000000	44.916000
1636.000000	44.905100
1635.000000	44.886500
1634.000000	44.857900
1633.000000	44.812800
1632.000000	44.781100
1631.000000	44.745300
1630.000000	44.683600
1629.000000	44.648800
1628.000000	44.599700
1627.000000	44.566700
1626.000000	44.506200
1625.000000	44.457800
1624.000000	44.402000
