PE UV       SUBTECH     SPECTRUM    ASCII       PEDS        4.00        
   -1
CICIMAUCR0097-3.Sample.ASC
24/04/18
13:31:23.00
24/04/18
13:31:23.00
Vinicio Soto Monge
C. kalinini
250,000000
1
Lambda 1050
1050L1511233
PerkinElmer UV WinLab 6.3.2.0749 / 2.02.05 Lambda 900 UV/VIS/NIR, Aug  7 2015 09:38:08

0
0
3350/servo 860,8/2
0
0
UV/VIS
1
1
1
DoubleDePol,CommonBeamDepol,RBeamAtt,SBeamAtt,60mm sphere, WB InGaAs Detector
0
0
0
0
Program
Program
3350/servo 860,8/2
3350/0,2 860,8/0,2
3350/0,2 860,8/0,2
0
15.00
 
 
 
0
 
860,8
319,2
860,8
Front
100
on
S:100 R:100
0
0
0
0
 
0
 
 
 
0
 
 
0
0
0
0
0
 
 
 
 
0
0


0
0
#HDR
-1
-1
#GR
nm
%R
1.0
0.0
2500,000000
-1,000000
2251
8
97,988000
5,671400
#DATA
2500.000000	17.532088
2499.000000	17.547709
2498.000000	17.539333
2497.000000	17.567745
2496.000000	17.502996
2495.000000	17.514769
2494.000000	17.447642
2493.000000	17.442435
2492.000000	17.472546
2491.000000	17.433040
2490.000000	17.435756
2489.000000	17.407117
2488.000000	17.464396
2487.000000	17.322672
2486.000000	17.369649
2485.000000	17.425342
2484.000000	17.416400
2483.000000	17.451604
2482.000000	17.449453
2481.000000	17.506845
2480.000000	17.476960
2479.000000	17.516467
2478.000000	17.483866
2477.000000	17.584612
2476.000000	17.545106
2475.000000	17.550539
2474.000000	17.624344
2473.000000	17.647097
2472.000000	17.721242
2471.000000	17.764936
2470.000000	17.793575
2469.000000	17.843608
2468.000000	17.902585
2467.000000	17.954995
2466.000000	17.989068
2465.000000	18.062986
2464.000000	18.085625
2463.000000	18.179919
2462.000000	18.267195
2461.000000	18.358659
2460.000000	18.442652
2459.000000	18.507061
2458.000000	18.569999
2457.000000	18.672670
2456.000000	18.801036
2455.000000	18.867144
2454.000000	18.989624
2453.000000	19.096030
2452.000000	19.213642
2451.000000	19.300465
2450.000000	19.455433
2449.000000	19.567046
2448.000000	19.705940
2447.000000	19.842343
2446.000000	19.950334
2445.000000	20.065796
2444.000000	20.212387
2443.000000	20.356488
2442.000000	20.479987
2441.000000	20.601109
2440.000000	20.748153
2439.000000	20.874934
2438.000000	21.018922
2437.000000	21.135742
2436.000000	21.247469
2435.000000	21.377533
2434.000000	21.499447
2433.000000	21.614117
2432.000000	21.741011
2431.000000	21.856134
2430.000000	21.963898
2429.000000	22.068153
2428.000000	22.169692
2427.000000	22.262401
2426.000000	22.383636
2425.000000	22.482797
2424.000000	22.576638
2423.000000	22.713381
2422.000000	22.844917
2421.000000	23.009507
2420.000000	23.167531
2419.000000	23.270428
2418.000000	23.369023
2417.000000	23.445998
2416.000000	23.545046
2415.000000	23.623832
2414.000000	23.711560
2413.000000	23.798496
2412.000000	23.886904
2411.000000	23.959011
2410.000000	24.038928
2409.000000	24.086245
2408.000000	24.156994
2407.000000	24.250382
2406.000000	24.323961
2405.000000	24.360637
2404.000000	24.397313
2403.000000	24.450063
2402.000000	24.531000
2401.000000	24.595862
2400.000000	24.602767
2399.000000	24.621332
2398.000000	24.685968
2397.000000	24.746642
2396.000000	24.752528
2395.000000	24.778790
2394.000000	24.825427
2393.000000	24.858481
2392.000000	24.878178
2391.000000	24.892554
2390.000000	24.916325
2389.000000	24.929230
2388.000000	24.944398
2387.000000	24.952322
2386.000000	24.968396
2385.000000	24.975188
2384.000000	24.954020
2383.000000	24.950511
2382.000000	24.950511
2381.000000	24.957303
2380.000000	24.935569
2379.000000	24.931267
2378.000000	24.928211
2377.000000	24.892667
2376.000000	24.866631
2375.000000	24.859274
2374.000000	24.851916
2373.000000	24.803693
2372.000000	24.768376
2371.000000	24.774602
2370.000000	24.777092
2369.000000	24.762376
2368.000000	24.747094
2367.000000	24.743246
2366.000000	24.746528
2365.000000	24.726379
2364.000000	24.719248
2363.000000	24.713022
2362.000000	24.696721
2361.000000	24.684836
2360.000000	24.679628
2359.000000	24.665932
2358.000000	24.644650
2357.000000	24.630161
2356.000000	24.640009
2355.000000	24.627331
2354.000000	24.586693
2353.000000	24.567563
2352.000000	24.563601
2351.000000	24.542885
2350.000000	24.519793
2349.000000	24.520246
2348.000000	24.517869
2347.000000	24.494097
2346.000000	24.474174
2345.000000	24.476212
2344.000000	24.463760
2343.000000	24.482891
2342.000000	24.479268
2341.000000	24.452214
2340.000000	24.437045
2339.000000	24.439989
2338.000000	24.458666
2337.000000	24.459798
2336.000000	24.456855
2335.000000	24.453686
2334.000000	24.476778
2333.000000	24.520359
2332.000000	24.524095
2331.000000	24.520585
2330.000000	24.504738
2329.000000	24.554318
2328.000000	24.605597
2327.000000	24.629482
2326.000000	24.661177
2325.000000	24.672157
2324.000000	24.697287
2323.000000	24.723096
2322.000000	24.730002
2321.000000	24.703513
2320.000000	24.686986
2319.000000	24.698872
2318.000000	24.682911
2317.000000	24.650084
2316.000000	24.620086
2315.000000	24.589749
2314.000000	24.529754
2313.000000	24.500889
2312.000000	24.448252
2311.000000	24.387804
2310.000000	24.315018
2309.000000	24.276870
2308.000000	24.243590
2307.000000	24.214046
2306.000000	24.166616
2305.000000	24.150202
2304.000000	24.118054
2303.000000	24.109451
2302.000000	24.100621
2301.000000	24.093490
2300.000000	24.084887
2299.000000	24.093716
2298.000000	24.095527
2297.000000	24.105602
2296.000000	24.155069
2295.000000	24.182916
2294.000000	24.210197
2293.000000	24.226611
2292.000000	24.273814
2291.000000	24.304378
2290.000000	24.332564
2289.000000	24.381692
2288.000000	24.434215
2287.000000	24.470212
2286.000000	24.501908
2285.000000	24.573562
2284.000000	24.595975
2283.000000	24.640688
2282.000000	24.671025
2281.000000	24.749698
2280.000000	24.773356
2279.000000	24.796222
2278.000000	24.840822
2277.000000	24.886101
2276.000000	24.918589
2275.000000	24.943040
2274.000000	24.974962
2273.000000	25.020920
2272.000000	25.049672
2271.000000	25.108648
2270.000000	25.151098
2269.000000	25.237807
2268.000000	25.286030
2267.000000	25.372626
2266.000000	25.443827
2265.000000	25.556459
2264.000000	25.682675
2263.000000	25.806400
2262.000000	25.964764
2261.000000	26.118487
2260.000000	26.294283
2259.000000	26.493851
2258.000000	26.679269
2257.000000	26.911891
2256.000000	27.118137
2255.000000	27.333100
2254.000000	27.531196
2253.000000	27.767214
2252.000000	27.972215
2251.000000	28.227363
2250.000000	28.410744
2249.000000	28.617443
2248.000000	28.803427
2247.000000	28.976054
2246.000000	29.158303
2245.000000	29.296291
2244.000000	29.447297
2243.000000	29.557325
2242.000000	29.664976
2241.000000	29.793796
2240.000000	29.869412
2239.000000	29.960310
2238.000000	29.992118
2237.000000	30.030040
2236.000000	30.094449
2235.000000	30.089468
2234.000000	30.122069
2233.000000	30.114259
2232.000000	30.078941
2231.000000	30.064791
2230.000000	30.045661
2229.000000	29.995514
2228.000000	29.940726
2227.000000	29.872468
2226.000000	29.793796
2225.000000	29.741272
2224.000000	29.673806
2223.000000	29.563664
2222.000000	29.507405
2221.000000	29.406546
2220.000000	29.286556
2219.000000	29.202450
2218.000000	29.112005
2217.000000	28.994958
2216.000000	28.903607
2215.000000	28.784523
2214.000000	28.684004
2213.000000	28.594464
2212.000000	28.505717
2211.000000	28.415045
2210.000000	28.340561
2209.000000	28.240041
2208.000000	28.182877
2207.000000	28.120504
2206.000000	28.074207
2205.000000	28.025531
2204.000000	27.986818
2203.000000	27.912673
2202.000000	27.864564
2201.000000	27.820304
2200.000000	27.770497
2199.000000	27.721142
2198.000000	27.689673
2197.000000	27.658544
2196.000000	27.654695
2195.000000	27.620849
2194.000000	27.585531
2193.000000	27.558817
2192.000000	27.539913
2191.000000	27.512971
2190.000000	27.491803
2189.000000	27.466560
2188.000000	27.449354
2187.000000	27.403962
2186.000000	27.396604
2185.000000	27.378266
2184.000000	27.348269
2183.000000	27.322686
2182.000000	27.302084
2181.000000	27.275369
2180.000000	27.245485
2179.000000	27.235410
2178.000000	27.224090
2177.000000	27.183452
2176.000000	27.190923
2175.000000	27.196131
2174.000000	27.183226
2173.000000	27.198847
2172.000000	27.220695
2171.000000	27.219110
2170.000000	27.230882
2169.000000	27.280463
2168.000000	27.306951
2167.000000	27.336949
2166.000000	27.379285
2165.000000	27.446298
2164.000000	27.508330
2163.000000	27.550780
2162.000000	27.622660
2161.000000	27.708804
2160.000000	27.790419
2159.000000	27.882789
2158.000000	27.965763
2157.000000	28.086432
2156.000000	28.208912
2155.000000	28.305243
2154.000000	28.434515
2153.000000	28.549751
2152.000000	28.655025
2151.000000	28.786900
2150.000000	28.924096
2149.000000	29.037407
2148.000000	29.166113
2147.000000	29.312252
2146.000000	29.435751
2145.000000	29.554269
2144.000000	29.691578
2143.000000	29.813152
2142.000000	29.952159
2141.000000	30.062075
2140.000000	30.182517
2139.000000	30.308846
2138.000000	30.434496
2137.000000	30.552901
2136.000000	30.685229
2135.000000	30.774655
2134.000000	30.873024
2133.000000	30.975468
2132.000000	31.066140
2131.000000	31.154660
2130.000000	31.220994
2129.000000	31.323439
2128.000000	31.401545
2127.000000	31.449315
2126.000000	31.496744
2125.000000	31.555834
2124.000000	31.626696
2123.000000	31.671748
2122.000000	31.729593
2121.000000	31.773627
2120.000000	31.804982
2119.000000	31.840979
2118.000000	31.859317
2117.000000	31.897239
2116.000000	31.918293
2115.000000	31.937990
2114.000000	31.961082
2113.000000	31.951234
2112.000000	31.973647
2111.000000	31.999909
2110.000000	32.009418
2109.000000	32.020851
2108.000000	32.018134
2107.000000	32.020737
2106.000000	32.025492
2105.000000	32.016096
2104.000000	32.022549
2103.000000	32.028548
2102.000000	32.037491
2101.000000	32.054018
2100.000000	32.033302
2099.000000	32.014512
2098.000000	32.032057
2097.000000	32.063300
2096.000000	32.077563
2095.000000	32.080280
2094.000000	32.078582
2093.000000	32.082996
2092.000000	32.130539
2091.000000	32.163140
2090.000000	32.167782
2089.000000	32.179101
2088.000000	32.189176
2087.000000	32.189516
2086.000000	32.191779
2085.000000	32.183403
2084.000000	32.164272
2083.000000	32.148311
2082.000000	32.124766
2081.000000	32.083676
2080.000000	32.039302
2079.000000	31.970025
2078.000000	31.887956
2077.000000	31.832376
2076.000000	31.754836
2075.000000	31.658617
2074.000000	31.558437
2073.000000	31.455767
2072.000000	31.345286
2071.000000	31.220542
2070.000000	31.083912
2069.000000	30.944792
2068.000000	30.820614
2067.000000	30.681607
2066.000000	30.533431
2065.000000	30.396121
2064.000000	30.239229
2063.000000	30.112221
2062.000000	29.992911
2061.000000	29.855262
2060.000000	29.748403
2059.000000	29.654223
2058.000000	29.550533
2057.000000	29.478200
2056.000000	29.430317
2055.000000	29.407451
2054.000000	29.394773
2053.000000	29.432694
2052.000000	29.462579
2051.000000	29.514876
2050.000000	29.632036
2049.000000	29.744328
2048.000000	29.891599
2047.000000	30.043623
2046.000000	30.219306
2045.000000	30.390235
2044.000000	30.598632
2043.000000	30.806917
2042.000000	30.987920
2041.000000	31.186016
2040.000000	31.372453
2039.000000	31.554928
2038.000000	31.753477
2037.000000	31.955535
2036.000000	32.109258
2035.000000	32.274301
2034.000000	32.435042
2033.000000	32.574615
2032.000000	32.713735
2031.000000	32.865420
2030.000000	32.977146
2029.000000	33.085816
2028.000000	33.212258
2027.000000	33.335418
2026.000000	33.431409
2025.000000	33.520043
2024.000000	33.587057
2023.000000	33.677049
2022.000000	33.773380
2021.000000	33.834168
2020.000000	33.870504
2019.000000	33.917481
2018.000000	33.992418
2017.000000	34.024566
2016.000000	34.057620
2015.000000	34.077430
2014.000000	34.115804
2013.000000	34.146933
2012.000000	34.164139
2011.000000	34.146594
2010.000000	34.147273
2009.000000	34.144103
2008.000000	34.122143
2007.000000	34.099164
2006.000000	34.060563
2005.000000	34.012115
2004.000000	33.995927
2003.000000	33.945894
2002.000000	33.887484
2001.000000	33.808811
2000.000000	33.725045
1999.000000	33.686671
1998.000000	33.603697
1997.000000	33.519251
1996.000000	33.419637
1995.000000	33.328852
1994.000000	33.260481
1993.000000	33.158716
1992.000000	33.060007
1991.000000	32.957903
1990.000000	32.846403
1989.000000	32.737393
1988.000000	32.635968
1987.000000	32.520393
1986.000000	32.420552
1985.000000	32.299091
1984.000000	32.175253
1983.000000	32.067488
1982.000000	31.938895
1981.000000	31.828301
1980.000000	31.698463
1979.000000	31.581190
1978.000000	31.468445
1977.000000	31.345399
1976.000000	31.194733
1975.000000	31.095571
1974.000000	30.970827
1973.000000	30.860912
1972.000000	30.739451
1971.000000	30.637346
1970.000000	30.502641
1969.000000	30.399857
1968.000000	30.278169
1967.000000	30.149237
1966.000000	30.043850
1965.000000	29.935859
1964.000000	29.855036
1963.000000	29.696672
1962.000000	29.594001
1961.000000	29.489633
1960.000000	29.349833
1959.000000	29.246710
1958.000000	29.120608
1957.000000	28.988845
1956.000000	28.868290
1955.000000	28.758261
1954.000000	28.640083
1953.000000	28.526772
1952.000000	28.388897
1951.000000	28.295848
1950.000000	28.177556
1949.000000	28.081564
1948.000000	27.993610
1947.000000	27.885166
1946.000000	27.819738
1945.000000	27.733141
1944.000000	27.666468
1943.000000	27.596511
1942.000000	27.516594
1941.000000	27.478899
1940.000000	27.469277
1939.000000	27.435431
1938.000000	27.408150
1937.000000	27.394906
1936.000000	27.409622
1935.000000	27.421055
1934.000000	27.447543
1933.000000	27.500859
1932.000000	27.560854
1931.000000	27.636697
1930.000000	27.729972
1929.000000	27.816115
1928.000000	27.950028
1927.000000	28.067415
1926.000000	28.213327
1925.000000	28.389123
1924.000000	28.565712
1923.000000	28.716039
1922.000000	28.927945
1921.000000	29.204940
1920.000000	29.473898
1919.000000	29.737310
1918.000000	30.001853
1917.000000	30.283942
1916.000000	30.560372
1915.000000	30.869741
1914.000000	31.252577
1913.000000	31.691671
1912.000000	32.097146
1911.000000	32.490961
1910.000000	32.895757
1909.000000	33.263537
1908.000000	33.677728
1907.000000	34.166969
1906.000000	34.726167
1905.000000	35.328832
1904.000000	35.929913
1903.000000	36.477338
1902.000000	37.062118
1901.000000	37.623014
1900.000000	38.281260
1899.000000	39.007990
1898.000000	39.674046
1897.000000	40.353573
1896.000000	40.963370
1895.000000	41.516115
1894.000000	42.147194
1893.000000	42.820042
1892.000000	43.549715
1891.000000	44.275653
1890.000000	44.939106
1889.000000	45.549129
1888.000000	46.177604
1887.000000	46.744386
1886.000000	47.312866
1885.000000	47.886666
1884.000000	48.490350
1883.000000	49.030304
1882.000000	49.476870
1881.000000	49.909625
1880.000000	50.318835
1879.000000	50.694426
1878.000000	51.084053
1877.000000	51.438136
1876.000000	51.771957
1875.000000	52.089477
1874.000000	52.399186
1873.000000	52.719989
1872.000000	53.025057
1871.000000	53.284167
1870.000000	53.529807
1869.000000	53.747486
1868.000000	53.945809
1867.000000	54.073949
1866.000000	54.129076
1865.000000	54.220880
1864.000000	54.301929
1863.000000	54.365999
1862.000000	54.468217
1861.000000	54.601224
1860.000000	54.727327
1859.000000	54.826715
1858.000000	54.918971
1857.000000	54.980211
1856.000000	55.005114
1855.000000	55.039640
1854.000000	55.110389
1853.000000	55.146046
1852.000000	55.144235
1851.000000	55.171742
1850.000000	55.185665
1849.000000	55.224039
1848.000000	55.286524
1847.000000	55.345048
1846.000000	55.303730
1845.000000	55.216229
1844.000000	55.129406
1843.000000	55.098503
1842.000000	55.151479
1841.000000	55.202984
1840.000000	55.177288
1839.000000	55.106087
1838.000000	55.047677
1837.000000	55.031716
1836.000000	55.019264
1835.000000	54.972966
1834.000000	54.872786
1833.000000	54.770568
1832.000000	54.702650
1831.000000	54.682953
1830.000000	54.681482
1829.000000	54.656578
1828.000000	54.590131
1827.000000	54.539418
1826.000000	54.530589
1825.000000	54.496630
1824.000000	54.453048
1823.000000	54.423730
1822.000000	54.454520
1821.000000	54.525948
1820.000000	54.570321
1819.000000	54.527193
1818.000000	54.465161
1817.000000	54.443879
1816.000000	54.455878
1815.000000	54.454180
1814.000000	54.423164
1813.000000	54.414448
1812.000000	54.407882
1811.000000	54.395431
1810.000000	54.334191
1809.000000	54.280761
1808.000000	54.250311
1807.000000	54.235369
1806.000000	54.225294
1805.000000	54.194391
1804.000000	54.156357
1803.000000	54.128171
1802.000000	54.123303
1801.000000	54.131340
1800.000000	54.085721
1799.000000	54.047121
1798.000000	54.024255
1797.000000	53.999351
1796.000000	53.989843
1795.000000	53.963354
1794.000000	53.937206
1793.000000	53.921245
1792.000000	53.902567
1791.000000	53.890795
1790.000000	53.870645
1789.000000	53.883323
1788.000000	53.887172
1787.000000	53.891700
1786.000000	53.906303
1785.000000	53.917736
1784.000000	53.931319
1783.000000	53.912302
1782.000000	53.900643
1781.000000	53.890568
1780.000000	53.872004
1779.000000	53.858307
1778.000000	53.842685
1777.000000	53.813028
1776.000000	53.765598
1775.000000	53.712961
1774.000000	53.675379
1773.000000	53.647645
1772.000000	53.601574
1771.000000	53.547465
1770.000000	53.519732
1769.000000	53.481358
1768.000000	53.436758
1767.000000	53.402798
1766.000000	53.361481
1765.000000	53.349369
1764.000000	53.325937
1763.000000	53.306014
1762.000000	53.301373
1761.000000	53.301826
1760.000000	53.314844
1759.000000	53.321749
1758.000000	53.339068
1757.000000	53.341672
1756.000000	53.342238
1755.000000	53.353444
1754.000000	53.343370
1753.000000	53.351180
1752.000000	53.359783
1751.000000	53.334087
1750.000000	53.316994
1749.000000	53.285299
1748.000000	53.228813
1747.000000	53.176969
1746.000000	53.106220
1745.000000	53.033094
1744.000000	52.940951
1743.000000	52.859562
1742.000000	52.761080
1741.000000	52.667125
1740.000000	52.573511
1739.000000	52.468803
1738.000000	52.407676
1737.000000	52.336248
1736.000000	52.270933
1735.000000	52.206750
1734.000000	52.170300
1733.000000	52.137812
1732.000000	52.100117
1731.000000	52.059819
1730.000000	52.021445
1729.000000	51.973336
1728.000000	51.941640
1727.000000	51.909492
1726.000000	51.863986
1725.000000	51.842705
1724.000000	51.848139
1723.000000	51.879721
1722.000000	51.948772
1721.000000	52.096382
1720.000000	52.270706
1719.000000	52.516006
1718.000000	52.753382
1717.000000	53.022906
1716.000000	53.283601
1715.000000	53.541013
1714.000000	53.764919
1713.000000	53.977957
1712.000000	54.174921
1711.000000	54.343360
1710.000000	54.505119
1709.000000	54.625788
1708.000000	54.751891
1707.000000	54.837242
1706.000000	54.921348
1705.000000	54.972287
1704.000000	55.016095
1703.000000	55.025490
1702.000000	55.028320
1701.000000	55.058883
1700.000000	55.033074
1699.000000	55.028320
1698.000000	55.016887
1697.000000	55.007039
1696.000000	54.998209
1695.000000	54.961647
1694.000000	54.902557
1693.000000	54.832827
1692.000000	54.782454
1691.000000	54.727440
1690.000000	54.674350
1689.000000	54.671181
1688.000000	54.712838
1687.000000	54.815848
1686.000000	54.950553
1685.000000	55.159516
1684.000000	55.415570
1683.000000	55.683623
1682.000000	55.978956
1681.000000	56.273384
1680.000000	56.574490
1679.000000	56.862465
1678.000000	57.140253
1677.000000	57.411588
1676.000000	57.647040
1675.000000	57.884755
1674.000000	58.112962
1673.000000	58.322152
1672.000000	58.542775
1671.000000	58.751964
1670.000000	58.974398
1669.000000	59.187210
1668.000000	59.403079
1667.000000	59.579780
1666.000000	59.734296
1665.000000	59.896508
1664.000000	60.026346
1663.000000	60.182446
1662.000000	60.298361
1661.000000	60.415520
1660.000000	60.506192
1659.000000	60.597090
1658.000000	60.683460
1657.000000	60.740172
1656.000000	60.815675
1655.000000	60.862312
1654.000000	60.910308
1653.000000	60.943702
1652.000000	60.971322
1651.000000	60.974944
1650.000000	60.975737
1649.000000	60.993396
1648.000000	60.982981
1647.000000	60.968945
1646.000000	60.974265
1645.000000	60.962379
1644.000000	60.934306
1643.000000	60.911327
1642.000000	60.901139
1641.000000	60.872727
1640.000000	60.857898
1639.000000	60.856539
1638.000000	60.846804
1637.000000	60.824504
1636.000000	60.840352
1635.000000	60.795299
1634.000000	60.776848
1633.000000	60.731456
1632.000000	60.703835
1631.000000	60.668970
1630.000000	60.610221
1629.000000	60.564602
1628.000000	60.523511
1627.000000	60.484798
1626.000000	60.440311
1625.000000	60.383825
1624.000000	60.359940
