PE UV       SUBTECH     SPECTRUM    ASCII       PEDS        4.00        
   -1
CICIMAUCR0158-5.Sample.ASC
24/04/25
13:52:02.00
24/04/25
13:52:02.00
Vinicio Soto Monge
C. cupreomarginata
250,000000
1
Lambda 1050
1050L1511233
PerkinElmer UV WinLab 6.3.2.0749 / 2.02.05 Lambda 900 UV/VIS/NIR, Aug  7 2015 09:38:08

0
0
3350/servo 860,8/2
0
0
UV/VIS
1
1
1
DoubleDePol,CommonBeamDepol,RBeamAtt,SBeamAtt,60mm sphere, WB InGaAs Detector
0
0
0
0
Program
Program
3350/servo 860,8/2
3350/0,2 860,8/0,2
3350/0,2 860,8/0,2
0
15.00
 
 
 
0
 
860,8
319,2
860,8
Front
100
on
S:100 R:100
0
0
0
0
 
0
 
 
 
0
 
 
0
0
0
0
0
 
 
 
 
0
0


0
0
#HDR
-1
-1
#GR
nm
%R
1.0
0.0
2500,000000
-1,000000
2251
8
68,614000
5,280700
#DATA
2500.000000	15.497200
2499.000000	15.395500
2498.000000	15.299600
2497.000000	15.475000
2496.000000	15.348700
2495.000000	15.369800
2494.000000	15.339200
2493.000000	15.391800
2492.000000	15.242600
2491.000000	15.322500
2490.000000	15.346700
2489.000000	15.240800
2488.000000	15.295300
2487.000000	15.275000
2486.000000	15.266100
2485.000000	15.272600
2484.000000	15.250900
2483.000000	15.243600
2482.000000	15.302200
2481.000000	15.278500
2480.000000	15.323900
2479.000000	15.299800
2478.000000	15.331100
2477.000000	15.396700
2476.000000	15.342500
2475.000000	15.367100
2474.000000	15.394300
2473.000000	15.394000
2472.000000	15.404500
2471.000000	15.482400
2470.000000	15.481000
2469.000000	15.543500
2468.000000	15.586900
2467.000000	15.574100
2466.000000	15.624200
2465.000000	15.673500
2464.000000	15.668900
2463.000000	15.731400
2462.000000	15.742700
2461.000000	15.799700
2460.000000	15.852800
2459.000000	15.879200
2458.000000	15.949300
2457.000000	16.029800
2456.000000	16.036900
2455.000000	16.096600
2454.000000	16.167200
2453.000000	16.243900
2452.000000	16.342800
2451.000000	16.417400
2450.000000	16.492000
2449.000000	16.563200
2448.000000	16.641600
2447.000000	16.728900
2446.000000	16.815700
2445.000000	16.886700
2444.000000	16.985500
2443.000000	17.043600
2442.000000	17.139600
2441.000000	17.224900
2440.000000	17.308800
2439.000000	17.390100
2438.000000	17.497300
2437.000000	17.580800
2436.000000	17.648600
2435.000000	17.721300
2434.000000	17.795100
2433.000000	17.866500
2432.000000	17.959100
2431.000000	18.029500
2430.000000	18.095300
2429.000000	18.172700
2428.000000	18.242400
2427.000000	18.311600
2426.000000	18.371300
2425.000000	18.432100
2424.000000	18.497500
2423.000000	18.564200
2422.000000	18.624700
2421.000000	18.678000
2420.000000	18.729300
2419.000000	18.784000
2418.000000	18.829500
2417.000000	18.875700
2416.000000	18.917200
2415.000000	18.970800
2414.000000	19.026100
2413.000000	19.066900
2412.000000	19.119300
2411.000000	19.159600
2410.000000	19.227400
2409.000000	19.290000
2408.000000	19.333000
2407.000000	19.368100
2406.000000	19.401700
2405.000000	19.425200
2404.000000	19.454500
2403.000000	19.470400
2402.000000	19.495600
2401.000000	19.542000
2400.000000	19.565400
2399.000000	19.589600
2398.000000	19.606900
2397.000000	19.629600
2396.000000	19.681000
2395.000000	19.707100
2394.000000	19.703600
2393.000000	19.727100
2392.000000	19.745100
2391.000000	19.759800
2390.000000	19.773800
2389.000000	19.782600
2388.000000	19.787500
2387.000000	19.786700
2386.000000	19.804700
2385.000000	19.820300
2384.000000	19.826900
2383.000000	19.832900
2382.000000	19.827400
2381.000000	19.830700
2380.000000	19.842800
2379.000000	19.826500
2378.000000	19.818700
2377.000000	19.817300
2376.000000	19.811900
2375.000000	19.803700
2374.000000	19.806800
2373.000000	19.816400
2372.000000	19.807400
2371.000000	19.791300
2370.000000	19.790000
2369.000000	19.784800
2368.000000	19.773600
2367.000000	19.772900
2366.000000	19.777100
2365.000000	19.776800
2364.000000	19.774000
2363.000000	19.767700
2362.000000	19.778200
2361.000000	19.793500
2360.000000	19.785100
2359.000000	19.767800
2358.000000	19.766100
2357.000000	19.769100
2356.000000	19.763300
2355.000000	19.761100
2354.000000	19.750700
2353.000000	19.732600
2352.000000	19.726700
2351.000000	19.719900
2350.000000	19.716300
2349.000000	19.711000
2348.000000	19.702700
2347.000000	19.709200
2346.000000	19.700600
2345.000000	19.706100
2344.000000	19.709800
2343.000000	19.699100
2342.000000	19.700400
2341.000000	19.702500
2340.000000	19.720300
2339.000000	19.728000
2338.000000	19.717400
2337.000000	19.716400
2336.000000	19.733600
2335.000000	19.765600
2334.000000	19.784300
2333.000000	19.785900
2332.000000	19.810500
2331.000000	19.834800
2330.000000	19.857200
2329.000000	19.875000
2328.000000	19.901700
2327.000000	19.949800
2326.000000	19.976500
2325.000000	19.992600
2324.000000	19.999300
2323.000000	20.008100
2322.000000	20.040000
2321.000000	20.053200
2320.000000	20.069300
2319.000000	20.063500
2318.000000	20.045900
2317.000000	20.045100
2316.000000	20.034200
2315.000000	20.035300
2314.000000	20.001600
2313.000000	19.983700
2312.000000	19.949600
2311.000000	19.914700
2310.000000	19.902700
2309.000000	19.869700
2308.000000	19.842300
2307.000000	19.813800
2306.000000	19.801200
2305.000000	19.783100
2304.000000	19.773600
2303.000000	19.765400
2302.000000	19.738700
2301.000000	19.723000
2300.000000	19.725400
2299.000000	19.723600
2298.000000	19.726000
2297.000000	19.735200
2296.000000	19.744300
2295.000000	19.741700
2294.000000	19.785900
2293.000000	19.794900
2292.000000	19.815400
2291.000000	19.828600
2290.000000	19.862800
2289.000000	19.888500
2288.000000	19.917400
2287.000000	19.964500
2286.000000	19.998900
2285.000000	20.028400
2284.000000	20.059500
2283.000000	20.118700
2282.000000	20.146300
2281.000000	20.184500
2280.000000	20.222300
2279.000000	20.277800
2278.000000	20.299900
2277.000000	20.335400
2276.000000	20.360100
2275.000000	20.392500
2274.000000	20.442800
2273.000000	20.454700
2272.000000	20.463200
2271.000000	20.516100
2270.000000	20.551600
2269.000000	20.591400
2268.000000	20.631900
2267.000000	20.692100
2266.000000	20.747200
2265.000000	20.801000
2264.000000	20.867000
2263.000000	20.952300
2262.000000	21.070300
2261.000000	21.144800
2260.000000	21.249600
2259.000000	21.348700
2258.000000	21.489600
2257.000000	21.603900
2256.000000	21.753200
2255.000000	21.881300
2254.000000	22.008200
2253.000000	22.167200
2252.000000	22.275800
2251.000000	22.408700
2250.000000	22.528800
2249.000000	22.691200
2248.000000	22.785500
2247.000000	22.872500
2246.000000	23.014400
2245.000000	23.127600
2244.000000	23.201000
2243.000000	23.283800
2242.000000	23.358800
2241.000000	23.413000
2240.000000	23.516000
2239.000000	23.553800
2238.000000	23.592700
2237.000000	23.608500
2236.000000	23.627900
2235.000000	23.680600
2234.000000	23.690900
2233.000000	23.674600
2232.000000	23.695100
2231.000000	23.656400
2230.000000	23.665500
2229.000000	23.642500
2228.000000	23.625300
2227.000000	23.561900
2226.000000	23.526100
2225.000000	23.490200
2224.000000	23.435400
2223.000000	23.372100
2222.000000	23.299300
2221.000000	23.256900
2220.000000	23.178100
2219.000000	23.136400
2218.000000	23.069500
2217.000000	22.993600
2216.000000	22.935500
2215.000000	22.861300
2214.000000	22.808400
2213.000000	22.739600
2212.000000	22.704900
2211.000000	22.624000
2210.000000	22.586600
2209.000000	22.528600
2208.000000	22.500800
2207.000000	22.423200
2206.000000	22.383300
2205.000000	22.345500
2204.000000	22.310200
2203.000000	22.293600
2202.000000	22.274100
2201.000000	22.216100
2200.000000	22.191700
2199.000000	22.140700
2198.000000	22.132700
2197.000000	22.112900
2196.000000	22.099100
2195.000000	22.066700
2194.000000	22.058400
2193.000000	22.049600
2192.000000	22.047100
2191.000000	22.008400
2190.000000	21.988700
2189.000000	21.974000
2188.000000	21.959400
2187.000000	21.947200
2186.000000	21.903900
2185.000000	21.885500
2184.000000	21.875700
2183.000000	21.867100
2182.000000	21.855700
2181.000000	21.831200
2180.000000	21.849100
2179.000000	21.836500
2178.000000	21.788800
2177.000000	21.783200
2176.000000	21.785900
2175.000000	21.802300
2174.000000	21.791200
2173.000000	21.777100
2172.000000	21.801800
2171.000000	21.821100
2170.000000	21.825800
2169.000000	21.844000
2168.000000	21.854800
2167.000000	21.903200
2166.000000	21.931300
2165.000000	21.948100
2164.000000	21.988500
2163.000000	22.051700
2162.000000	22.097900
2161.000000	22.154700
2160.000000	22.196100
2159.000000	22.268000
2158.000000	22.329600
2157.000000	22.407700
2156.000000	22.494000
2155.000000	22.559100
2154.000000	22.644900
2153.000000	22.744300
2152.000000	22.842000
2151.000000	22.940600
2150.000000	23.027400
2149.000000	23.122600
2148.000000	23.213700
2147.000000	23.312900
2146.000000	23.418400
2145.000000	23.501800
2144.000000	23.586900
2143.000000	23.677400
2142.000000	23.767900
2141.000000	23.853500
2140.000000	23.933800
2139.000000	24.013900
2138.000000	24.099500
2137.000000	24.184100
2136.000000	24.259700
2135.000000	24.338900
2134.000000	24.421700
2133.000000	24.491200
2132.000000	24.565700
2131.000000	24.626100
2130.000000	24.672000
2129.000000	24.742900
2128.000000	24.801900
2127.000000	24.856400
2126.000000	24.912200
2125.000000	24.963200
2124.000000	25.003400
2123.000000	25.042400
2122.000000	25.085900
2121.000000	25.113300
2120.000000	25.134700
2119.000000	25.182100
2118.000000	25.217300
2117.000000	25.225400
2116.000000	25.245400
2115.000000	25.261000
2114.000000	25.274100
2113.000000	25.307800
2112.000000	25.321500
2111.000000	25.321100
2110.000000	25.327300
2109.000000	25.331100
2108.000000	25.350300
2107.000000	25.356500
2106.000000	25.358100
2105.000000	25.351500
2104.000000	25.345400
2103.000000	25.359300
2102.000000	25.359900
2101.000000	25.362400
2100.000000	25.362300
2099.000000	25.371200
2098.000000	25.375600
2097.000000	25.364800
2096.000000	25.366500
2095.000000	25.389900
2094.000000	25.417500
2093.000000	25.425300
2092.000000	25.416800
2091.000000	25.407000
2090.000000	25.400300
2089.000000	25.421600
2088.000000	25.444400
2087.000000	25.432700
2086.000000	25.426500
2085.000000	25.421200
2084.000000	25.394200
2083.000000	25.378700
2082.000000	25.357800
2081.000000	25.316000
2080.000000	25.277700
2079.000000	25.242300
2078.000000	25.184400
2077.000000	25.123600
2076.000000	25.064800
2075.000000	24.999000
2074.000000	24.928600
2073.000000	24.844600
2072.000000	24.754400
2071.000000	24.670700
2070.000000	24.587600
2069.000000	24.492900
2068.000000	24.395700
2067.000000	24.287100
2066.000000	24.183000
2065.000000	24.093300
2064.000000	23.997000
2063.000000	23.915300
2062.000000	23.832400
2061.000000	23.742000
2060.000000	23.656600
2059.000000	23.597300
2058.000000	23.526800
2057.000000	23.475100
2056.000000	23.448000
2055.000000	23.439100
2054.000000	23.424500
2053.000000	23.446900
2052.000000	23.478400
2051.000000	23.516300
2050.000000	23.572200
2049.000000	23.661600
2048.000000	23.756400
2047.000000	23.835900
2046.000000	23.922100
2045.000000	24.021200
2044.000000	24.143900
2043.000000	24.288400
2042.000000	24.384400
2041.000000	24.482200
2040.000000	24.580400
2039.000000	24.707700
2038.000000	24.794300
2037.000000	24.885900
2036.000000	25.000200
2035.000000	25.110000
2034.000000	25.172400
2033.000000	25.243800
2032.000000	25.302200
2031.000000	25.395000
2030.000000	25.461600
2029.000000	25.532100
2028.000000	25.576900
2027.000000	25.630200
2026.000000	25.697900
2025.000000	25.734900
2024.000000	25.781400
2023.000000	25.807800
2022.000000	25.849400
2021.000000	25.886700
2020.000000	25.915900
2019.000000	25.933300
2018.000000	25.948700
2017.000000	25.959800
2016.000000	25.989600
2015.000000	26.004000
2014.000000	26.005500
2013.000000	25.996500
2012.000000	25.969400
2011.000000	25.956300
2010.000000	25.956500
2009.000000	25.906100
2008.000000	25.909300
2007.000000	25.873400
2006.000000	25.826500
2005.000000	25.790500
2004.000000	25.749100
2003.000000	25.699400
2002.000000	25.631300
2001.000000	25.578500
2000.000000	25.527500
1999.000000	25.466000
1998.000000	25.392200
1997.000000	25.326000
1996.000000	25.273000
1995.000000	25.170200
1994.000000	25.090500
1993.000000	25.008600
1992.000000	24.935000
1991.000000	24.852700
1990.000000	24.763700
1989.000000	24.680000
1988.000000	24.597800
1987.000000	24.485100
1986.000000	24.392400
1985.000000	24.304500
1984.000000	24.218500
1983.000000	24.120300
1982.000000	24.035700
1981.000000	23.947900
1980.000000	23.848200
1979.000000	23.738100
1978.000000	23.662000
1977.000000	23.551100
1976.000000	23.481300
1975.000000	23.397300
1974.000000	23.310300
1973.000000	23.203900
1972.000000	23.142400
1971.000000	23.046000
1970.000000	22.969800
1969.000000	22.918700
1968.000000	22.802000
1967.000000	22.714600
1966.000000	22.644700
1965.000000	22.567300
1964.000000	22.484700
1963.000000	22.401500
1962.000000	22.330100
1961.000000	22.228800
1960.000000	22.163300
1959.000000	22.074600
1958.000000	21.994800
1957.000000	21.926900
1956.000000	21.828600
1955.000000	21.765800
1954.000000	21.678600
1953.000000	21.576900
1952.000000	21.488800
1951.000000	21.420000
1950.000000	21.356000
1949.000000	21.275800
1948.000000	21.242500
1947.000000	21.148300
1946.000000	21.097300
1945.000000	21.030000
1944.000000	20.983600
1943.000000	20.955900
1942.000000	20.932800
1941.000000	20.881200
1940.000000	20.858200
1939.000000	20.837800
1938.000000	20.811600
1937.000000	20.813200
1936.000000	20.802500
1935.000000	20.816800
1934.000000	20.824100
1933.000000	20.843500
1932.000000	20.893700
1931.000000	20.942800
1930.000000	20.993600
1929.000000	21.053300
1928.000000	21.128800
1927.000000	21.220600
1926.000000	21.289400
1925.000000	21.399700
1924.000000	21.539400
1923.000000	21.663000
1922.000000	21.786800
1921.000000	21.958300
1920.000000	22.115600
1919.000000	22.278700
1918.000000	22.479900
1917.000000	22.662200
1916.000000	22.843600
1915.000000	23.067800
1914.000000	23.332900
1913.000000	23.622400
1912.000000	23.881200
1911.000000	24.149100
1910.000000	24.411800
1909.000000	24.671300
1908.000000	24.978300
1907.000000	25.330700
1906.000000	25.707900
1905.000000	26.119200
1904.000000	26.507000
1903.000000	26.896600
1902.000000	27.313600
1901.000000	27.745100
1900.000000	28.219600
1899.000000	28.685200
1898.000000	29.163100
1897.000000	29.655000
1896.000000	30.057400
1895.000000	30.479400
1894.000000	30.943600
1893.000000	31.421000
1892.000000	31.934400
1891.000000	32.422500
1890.000000	32.877600
1889.000000	33.307700
1888.000000	33.742200
1887.000000	34.139400
1886.000000	34.533000
1885.000000	34.936600
1884.000000	35.333400
1883.000000	35.663500
1882.000000	35.989100
1881.000000	36.314200
1880.000000	36.593400
1879.000000	36.869600
1878.000000	37.144800
1877.000000	37.383700
1876.000000	37.598100
1875.000000	37.832000
1874.000000	38.064100
1873.000000	38.278100
1872.000000	38.484400
1871.000000	38.656800
1870.000000	38.824500
1869.000000	39.004200
1868.000000	39.127700
1867.000000	39.213300
1866.000000	39.267300
1865.000000	39.353200
1864.000000	39.429800
1863.000000	39.493700
1862.000000	39.570600
1861.000000	39.658900
1860.000000	39.754700
1859.000000	39.816100
1858.000000	39.888900
1857.000000	39.949100
1856.000000	39.967100
1855.000000	40.007300
1854.000000	40.056500
1853.000000	40.051700
1852.000000	40.077900
1851.000000	40.128100
1850.000000	40.152300
1849.000000	40.164700
1848.000000	40.195900
1847.000000	40.198600
1846.000000	40.173500
1845.000000	40.161400
1844.000000	40.125600
1843.000000	40.146600
1842.000000	40.192700
1841.000000	40.193700
1840.000000	40.168900
1839.000000	40.129100
1838.000000	40.109500
1837.000000	40.107300
1836.000000	40.093100
1835.000000	40.063200
1834.000000	40.014200
1833.000000	39.981800
1832.000000	39.954200
1831.000000	39.942400
1830.000000	39.940200
1829.000000	39.919300
1828.000000	39.869300
1827.000000	39.851600
1826.000000	39.850500
1825.000000	39.826000
1824.000000	39.819400
1823.000000	39.843300
1822.000000	39.860200
1821.000000	39.877400
1820.000000	39.879700
1819.000000	39.839800
1818.000000	39.808000
1817.000000	39.808200
1816.000000	39.819800
1815.000000	39.797900
1814.000000	39.793000
1813.000000	39.783400
1812.000000	39.769600
1811.000000	39.748500
1810.000000	39.693500
1809.000000	39.685400
1808.000000	39.695400
1807.000000	39.688200
1806.000000	39.675400
1805.000000	39.636900
1804.000000	39.611100
1803.000000	39.606700
1802.000000	39.610400
1801.000000	39.590100
1800.000000	39.560300
1799.000000	39.534000
1798.000000	39.532000
1797.000000	39.534200
1796.000000	39.520900
1795.000000	39.506600
1794.000000	39.491500
1793.000000	39.482100
1792.000000	39.471000
1791.000000	39.452700
1790.000000	39.447300
1789.000000	39.446400
1788.000000	39.454800
1787.000000	39.461700
1786.000000	39.450200
1785.000000	39.457000
1784.000000	39.444600
1783.000000	39.442700
1782.000000	39.436700
1781.000000	39.416700
1780.000000	39.395000
1779.000000	39.387100
1778.000000	39.364200
1777.000000	39.349000
1776.000000	39.324200
1775.000000	39.294600
1774.000000	39.264700
1773.000000	39.245600
1772.000000	39.219400
1771.000000	39.176200
1770.000000	39.154200
1769.000000	39.136600
1768.000000	39.094000
1767.000000	39.068700
1766.000000	39.052300
1765.000000	39.025100
1764.000000	39.022600
1763.000000	38.994300
1762.000000	38.967200
1761.000000	38.961100
1760.000000	38.956700
1759.000000	38.953100
1758.000000	38.933500
1757.000000	38.933900
1756.000000	38.924200
1755.000000	38.926700
1754.000000	38.925500
1753.000000	38.922900
1752.000000	38.920400
1751.000000	38.892000
1750.000000	38.868800
1749.000000	38.833800
1748.000000	38.810400
1747.000000	38.784900
1746.000000	38.733900
1745.000000	38.699000
1744.000000	38.666600
1743.000000	38.627100
1742.000000	38.587900
1741.000000	38.538800
1740.000000	38.482500
1739.000000	38.447500
1738.000000	38.401300
1737.000000	38.373800
1736.000000	38.344300
1735.000000	38.315000
1734.000000	38.278500
1733.000000	38.252000
1732.000000	38.235400
1731.000000	38.208400
1730.000000	38.198700
1729.000000	38.181000
1728.000000	38.160600
1727.000000	38.140400
1726.000000	38.160600
1725.000000	38.152200
1724.000000	38.188100
1723.000000	38.224000
1722.000000	38.286200
1721.000000	38.394600
1720.000000	38.512600
1719.000000	38.633600
1718.000000	38.761300
1717.000000	38.919500
1716.000000	39.054600
1715.000000	39.220400
1714.000000	39.332400
1713.000000	39.429700
1712.000000	39.547100
1711.000000	39.650700
1710.000000	39.726000
1709.000000	39.801500
1708.000000	39.860600
1707.000000	39.924500
1706.000000	39.970500
1705.000000	39.993600
1704.000000	40.015800
1703.000000	40.028000
1702.000000	40.037300
1701.000000	40.034200
1700.000000	40.053200
1699.000000	40.052200
1698.000000	40.063700
1697.000000	40.039000
1696.000000	40.026800
1695.000000	39.994300
1694.000000	39.969900
1693.000000	39.935400
1692.000000	39.900900
1691.000000	39.876200
1690.000000	39.864000
1689.000000	39.856000
1688.000000	39.884800
1687.000000	39.968400
1686.000000	40.055000
1685.000000	40.152700
1684.000000	40.327200
1683.000000	40.456200
1682.000000	40.623200
1681.000000	40.771000
1680.000000	40.929300
1679.000000	41.044200
1678.000000	41.202900
1677.000000	41.323700
1676.000000	41.456300
1675.000000	41.584600
1674.000000	41.724500
1673.000000	41.815100
1672.000000	41.922600
1671.000000	42.043800
1670.000000	42.176400
1669.000000	42.278100
1668.000000	42.420600
1667.000000	42.550800
1666.000000	42.648800
1665.000000	42.737300
1664.000000	42.822200
1663.000000	42.909000
1662.000000	43.016900
1661.000000	43.075400
1660.000000	43.149200
1659.000000	43.203200
1658.000000	43.250400
1657.000000	43.331100
1656.000000	43.354100
1655.000000	43.371900
1654.000000	43.405400
1653.000000	43.418800
1652.000000	43.444400
1651.000000	43.453900
1650.000000	43.453200
1649.000000	43.445600
1648.000000	43.468200
1647.000000	43.461700
1646.000000	43.439400
1645.000000	43.440200
1644.000000	43.425300
1643.000000	43.408900
1642.000000	43.409900
1641.000000	43.396300
1640.000000	43.389600
1639.000000	43.392600
1638.000000	43.377800
1637.000000	43.374200
1636.000000	43.359000
1635.000000	43.333300
1634.000000	43.307100
1633.000000	43.301800
1632.000000	43.281400
1631.000000	43.240700
1630.000000	43.201600
1629.000000	43.179600
1628.000000	43.145200
1627.000000	43.108900
1626.000000	43.094100
1625.000000	43.061800
