PE UV       SUBTECH     SPECTRUM    ASCII       PEDS        4.00        
   -1
CICIMAUCR0020-4.Sample.ASC
24/04/25
09:47:55.00
24/04/25
09:47:55.00
Vinicio Soto Monge
C. resplendens
250,000000
1
Lambda 1050
1050L1511233
PerkinElmer UV WinLab 6.3.2.0749 / 2.02.05 Lambda 900 UV/VIS/NIR, Aug  7 2015 09:38:08

0
0
3350/servo 860,8/2
0
0
UV/VIS
1
1
1
DoubleDePol,CommonBeamDepol,RBeamAtt,SBeamAtt,60mm sphere, WB InGaAs Detector
0
0
0
0
Program
Program
3350/servo 860,8/2
3350/0,2 860,8/0,2
3350/0,2 860,8/0,2
0
15.00
 
 
 
0
 
860,8
319,2
860,8
Front
100
on
S:100 R:100
0
0
0
0
 
0
 
 
 
0
 
 
0
0
0
0
0
 
 
 
 
0
0


0
0
#HDR
-1
-1
#GR
nm
%R
1.0
0.0
2500,000000
-1,000000
2251
8
85,477800
5,625000
#DATA
2500.000000	8.956123
2499.000000	8.871707
2498.000000	8.814559
2497.000000	8.692991
2496.000000	8.666178
2495.000000	8.602441
2494.000000	8.570856
2493.000000	8.671177
2492.000000	8.597555
2491.000000	8.573469
2490.000000	8.598350
2489.000000	8.525978
2488.000000	8.598010
2487.000000	8.562221
2486.000000	8.572560
2485.000000	8.467466
2484.000000	8.421453
2483.000000	8.452697
2482.000000	8.464058
2481.000000	8.509845
2480.000000	8.440767
2479.000000	8.470307
2478.000000	8.468603
2477.000000	8.400661
2476.000000	8.399184
2475.000000	8.431110
2474.000000	8.434405
2473.000000	8.439858
2472.000000	8.423270
2471.000000	8.401797
2470.000000	8.417135
2469.000000	8.407137
2468.000000	8.383392
2467.000000	8.426565
2466.000000	8.468375
2465.000000	8.477237
2464.000000	8.485758
2463.000000	8.469057
2462.000000	8.518820
2461.000000	8.546542
2460.000000	8.603349
2459.000000	8.596987
2458.000000	8.650272
2457.000000	8.719350
2456.000000	8.753548
2455.000000	8.813309
2454.000000	8.860232
2453.000000	8.883409
2452.000000	8.945784
2451.000000	8.991230
2450.000000	9.069283
2449.000000	9.100868
2448.000000	9.187328
2447.000000	9.231865
2446.000000	9.301738
2445.000000	9.371498
2444.000000	9.385245
2443.000000	9.448074
2442.000000	9.489657
2441.000000	9.538511
2440.000000	9.585547
2439.000000	9.637356
2438.000000	9.711432
2437.000000	9.751993
2436.000000	9.759491
2435.000000	9.806869
2434.000000	9.869243
2433.000000	9.908440
2432.000000	9.932299
2431.000000	9.979222
2430.000000	10.034779
2429.000000	10.058411
2428.000000	10.078521
2427.000000	10.107720
2426.000000	10.145440
2425.000000	10.183160
2424.000000	10.199180
2423.000000	10.216108
2422.000000	10.235764
2421.000000	10.263599
2420.000000	10.272575
2419.000000	10.286436
2418.000000	10.321770
2417.000000	10.343243
2416.000000	10.359263
2415.000000	10.385621
2414.000000	10.405390
2413.000000	10.418456
2412.000000	10.423341
2411.000000	10.429704
2410.000000	10.460607
2409.000000	10.478785
2408.000000	10.493555
2407.000000	10.518323
2406.000000	10.530593
2405.000000	10.577175
2404.000000	10.579902
2403.000000	10.593990
2402.000000	10.615463
2401.000000	10.651252
2400.000000	10.671021
2399.000000	10.699879
2398.000000	10.729419
2397.000000	10.754868
2396.000000	10.779182
2395.000000	10.800087
2394.000000	10.827809
2393.000000	10.845874
2392.000000	10.865188
2391.000000	10.884616
2390.000000	10.901772
2389.000000	10.922677
2388.000000	10.941196
2387.000000	10.955512
2386.000000	10.972554
2385.000000	10.970963
2384.000000	10.955625
2383.000000	10.952217
2382.000000	10.969714
2381.000000	10.966646
2380.000000	10.951535
2379.000000	10.960624
2378.000000	10.949604
2377.000000	10.929040
2376.000000	10.930857
2375.000000	10.928131
2374.000000	10.900295
2373.000000	10.868256
2372.000000	10.861098
2371.000000	10.843488
2370.000000	10.814743
2369.000000	10.783272
2368.000000	10.731577
2367.000000	10.685109
2366.000000	10.643185
2365.000000	10.595013
2364.000000	10.547181
2363.000000	10.492532
2362.000000	10.442428
2361.000000	10.382213
2360.000000	10.345061
2359.000000	10.298252
2358.000000	10.252578
2357.000000	10.214063
2356.000000	10.176229
2355.000000	10.160437
2354.000000	10.155324
2353.000000	10.152825
2352.000000	10.166345
2351.000000	10.211791
2350.000000	10.237013
2349.000000	10.266894
2348.000000	10.316657
2347.000000	10.370170
2346.000000	10.441520
2345.000000	10.491851
2344.000000	10.540932
2343.000000	10.597285
2342.000000	10.637732
2341.000000	10.666136
2340.000000	10.698061
2339.000000	10.725215
2338.000000	10.749415
2337.000000	10.764298
2336.000000	10.762935
2335.000000	10.728396
2334.000000	10.701583
2333.000000	10.688063
2332.000000	10.645571
2331.000000	10.612964
2330.000000	10.580925
2329.000000	10.543659
2328.000000	10.500372
2327.000000	10.446973
2326.000000	10.383690
2325.000000	10.295525
2324.000000	10.204633
2323.000000	10.136578
2322.000000	10.066591
2321.000000	9.989788
2320.000000	9.870379
2319.000000	9.766081
2318.000000	9.689959
2317.000000	9.592705
2316.000000	9.513857
2315.000000	9.433758
2314.000000	9.332073
2313.000000	9.243227
2312.000000	9.172445
2311.000000	9.127226
2310.000000	9.088370
2309.000000	9.056331
2308.000000	9.047014
2307.000000	9.036107
2306.000000	9.039629
2305.000000	9.081212
2304.000000	9.124840
2303.000000	9.198122
2302.000000	9.257542
2301.000000	9.351842
2300.000000	9.433758
2299.000000	9.532489
2298.000000	9.621109
2297.000000	9.687914
2296.000000	9.773352
2295.000000	9.849701
2294.000000	9.901055
2293.000000	9.927527
2292.000000	10.001490
2291.000000	10.005467
2290.000000	10.026145
2289.000000	10.052049
2288.000000	10.036256
2287.000000	10.005126
2286.000000	9.976722
2285.000000	9.931617
2284.000000	9.908213
2283.000000	9.873674
2282.000000	9.829705
2281.000000	9.785509
2280.000000	9.720294
2279.000000	9.692459
2278.000000	9.661215
2277.000000	9.639401
2276.000000	9.598840
2275.000000	9.590660
2274.000000	9.568278
2273.000000	9.559416
2272.000000	9.561575
2271.000000	9.576004
2270.000000	9.609861
2269.000000	9.662124
2268.000000	9.732224
2267.000000	9.805164
2266.000000	9.927527
2265.000000	10.054889
2264.000000	10.188045
2263.000000	10.334154
2262.000000	10.500372
2261.000000	10.668408
2260.000000	10.926313
2259.000000	11.110482
2258.000000	11.318624
2257.000000	11.589822
2256.000000	11.828867
2255.000000	12.039395
2254.000000	12.237311
2253.000000	12.474879
2252.000000	12.699495
2251.000000	12.879574
2250.000000	13.097601
2249.000000	13.240642
2248.000000	13.424015
2247.000000	13.588643
2246.000000	13.721799
2245.000000	13.883700
2244.000000	14.008903
2243.000000	14.155807
2242.000000	14.261582
2241.000000	14.351224
2240.000000	14.449387
2239.000000	14.585043
2238.000000	14.660483
2237.000000	14.729220
2236.000000	14.792048
2235.000000	14.897710
2234.000000	14.950882
2233.000000	15.044500
2232.000000	15.090855
2231.000000	15.103352
2230.000000	15.142890
2229.000000	15.184928
2228.000000	15.199698
2227.000000	15.218671
2226.000000	15.234918
2225.000000	15.263663
2224.000000	15.256618
2223.000000	15.252528
2222.000000	15.263208
2221.000000	15.252756
2220.000000	15.228669
2219.000000	15.216285
2218.000000	15.231964
2217.000000	15.172203
2216.000000	15.166636
2215.000000	15.160728
2214.000000	15.131529
2213.000000	15.112896
2212.000000	15.085856
2211.000000	15.109601
2210.000000	15.074722
2209.000000	15.070063
2208.000000	15.046091
2207.000000	15.014960
2206.000000	15.024049
2205.000000	15.010870
2204.000000	15.014279
2203.000000	14.979967
2202.000000	14.962811
2201.000000	14.988943
2200.000000	14.959516
2199.000000	14.953040
2198.000000	14.957358
2197.000000	14.970310
2196.000000	14.934976
2195.000000	14.922705
2194.000000	14.903845
2193.000000	14.879759
2192.000000	14.879986
2191.000000	14.877487
2190.000000	14.846243
2189.000000	14.837608
2188.000000	14.837267
2187.000000	14.812158
2186.000000	14.800910
2185.000000	14.784095
2184.000000	14.752170
2183.000000	14.738195
2182.000000	14.739218
2181.000000	14.734560
2180.000000	14.710473
2179.000000	14.678661
2178.000000	14.661619
2177.000000	14.684569
2176.000000	14.694567
2175.000000	14.658097
2174.000000	14.659688
2173.000000	14.666050
2172.000000	14.659688
2171.000000	14.662755
2170.000000	14.672299
2169.000000	14.659460
2168.000000	14.696953
2167.000000	14.705020
2166.000000	14.709337
2165.000000	14.733764
2164.000000	14.750125
2163.000000	14.746830
2162.000000	14.741490
2161.000000	14.766372
2160.000000	14.805455
2159.000000	14.822384
2158.000000	14.842266
2157.000000	14.868057
2156.000000	14.893847
2155.000000	14.923046
2154.000000	14.950768
2153.000000	14.962243
2152.000000	15.004962
2151.000000	15.022572
2150.000000	15.060747
2149.000000	15.086083
2148.000000	15.113010
2147.000000	15.146299
2146.000000	15.182201
2145.000000	15.194812
2144.000000	15.226624
2143.000000	15.250142
2142.000000	15.264344
2141.000000	15.274115
2140.000000	15.298315
2139.000000	15.331150
2138.000000	15.331150
2137.000000	15.335694
2136.000000	15.355009
2135.000000	15.369551
2134.000000	15.380913
2133.000000	15.396137
2132.000000	15.395342
2131.000000	15.405794
2130.000000	15.412725
2129.000000	15.424086
2128.000000	15.408067
2127.000000	15.411930
2126.000000	15.425222
2125.000000	15.419087
2124.000000	15.406476
2123.000000	15.392729
2122.000000	15.378527
2121.000000	15.379322
2120.000000	15.370347
2119.000000	15.356031
2118.000000	15.346374
2117.000000	15.315130
2116.000000	15.303882
2115.000000	15.287635
2114.000000	15.260595
2113.000000	15.245825
2112.000000	15.241394
2111.000000	15.222420
2110.000000	15.197993
2109.000000	15.172544
2108.000000	15.149253
2107.000000	15.121644
2106.000000	15.108124
2105.000000	15.109601
2104.000000	15.089946
2103.000000	15.071540
2102.000000	15.045636
2101.000000	15.026776
2100.000000	15.002690
2099.000000	14.970651
2098.000000	14.955653
2097.000000	14.942701
2096.000000	14.939407
2095.000000	14.936339
2094.000000	14.913957
2093.000000	14.885099
2092.000000	14.874987
2091.000000	14.869534
2090.000000	14.854309
2089.000000	14.842948
2088.000000	14.817839
2087.000000	14.798979
2086.000000	14.793866
2085.000000	14.793980
2084.000000	14.783073
2083.000000	14.781028
2082.000000	14.780346
2081.000000	14.759100
2080.000000	14.739218
2079.000000	14.732742
2078.000000	14.732514
2077.000000	14.713995
2076.000000	14.684910
2075.000000	14.655029
2074.000000	14.648781
2073.000000	14.639805
2072.000000	14.628784
2071.000000	14.619127
2070.000000	14.612083
2069.000000	14.598449
2068.000000	14.589019
2067.000000	14.582998
2066.000000	14.556185
2065.000000	14.551640
2064.000000	14.552435
2063.000000	14.562661
2062.000000	14.554480
2061.000000	14.566069
2060.000000	14.582089
2059.000000	14.567887
2058.000000	14.594473
2057.000000	14.620263
2056.000000	14.648099
2055.000000	14.697180
2054.000000	14.740922
2053.000000	14.782164
2052.000000	14.854537
2051.000000	14.922024
2050.000000	15.011438
2049.000000	15.088810
2048.000000	15.185382
2047.000000	15.270820
2046.000000	15.379777
2045.000000	15.491233
2044.000000	15.593145
2043.000000	15.691762
2042.000000	15.796969
2041.000000	15.923877
2040.000000	16.010906
2039.000000	16.117590
2038.000000	16.233817
2037.000000	16.313007
2036.000000	16.400376
2035.000000	16.486269
2034.000000	16.572389
2033.000000	16.644307
2032.000000	16.719860
2031.000000	16.787234
2030.000000	16.858811
2029.000000	16.927434
2028.000000	16.993217
2027.000000	17.038549
2026.000000	17.108990
2025.000000	17.156595
2024.000000	17.209539
2023.000000	17.242828
2022.000000	17.292478
2021.000000	17.339628
2020.000000	17.373371
2019.000000	17.415295
2018.000000	17.448016
2017.000000	17.476761
2016.000000	17.503119
2015.000000	17.531182
2014.000000	17.542544
2013.000000	17.567198
2012.000000	17.561063
2011.000000	17.595488
2010.000000	17.582990
2009.000000	17.581059
2008.000000	17.558109
2007.000000	17.553110
2006.000000	17.558677
2005.000000	17.536068
2004.000000	17.486304
2003.000000	17.484259
2002.000000	17.448584
2001.000000	17.430065
2000.000000	17.379847
1999.000000	17.334856
1998.000000	17.316791
1997.000000	17.270550
1996.000000	17.237034
1995.000000	17.173978
1994.000000	17.103991
1993.000000	17.079110
1992.000000	17.030255
1991.000000	16.970608
1990.000000	16.926866
1989.000000	16.845973
1988.000000	16.782576
1987.000000	16.738948
1986.000000	16.629991
1985.000000	16.578410
1984.000000	16.535464
1983.000000	16.454684
1982.000000	16.404580
1981.000000	16.330617
1980.000000	16.264834
1979.000000	16.210526
1978.000000	16.140540
1977.000000	16.062487
1976.000000	16.004430
1975.000000	15.967391
1974.000000	15.884680
1973.000000	15.818329
1972.000000	15.764476
1971.000000	15.732777
1970.000000	15.679151
1969.000000	15.608369
1968.000000	15.536451
1967.000000	15.467714
1966.000000	15.459420
1965.000000	15.385798
1964.000000	15.356258
1963.000000	15.299451
1962.000000	15.235713
1961.000000	15.199243
1960.000000	15.137664
1959.000000	15.074267
1958.000000	15.039955
1957.000000	14.993714
1956.000000	14.942474
1955.000000	14.871124
1954.000000	14.848060
1953.000000	14.779096
1952.000000	14.785232
1951.000000	14.714450
1950.000000	14.688318
1949.000000	14.676275
1948.000000	14.650598
1947.000000	14.603789
1946.000000	14.568569
1945.000000	14.572318
1944.000000	14.538006
1943.000000	14.549595
1942.000000	14.529826
1941.000000	14.557094
1940.000000	14.544596
1939.000000	14.543233
1938.000000	14.538802
1937.000000	14.607766
1936.000000	14.634465
1935.000000	14.653893
1934.000000	14.711041
1933.000000	14.778188
1932.000000	14.846129
1931.000000	14.898846
1930.000000	14.965879
1929.000000	15.050181
1928.000000	15.116418
1927.000000	15.221966
1926.000000	15.313085
1925.000000	15.481689
1924.000000	15.580193
1923.000000	15.682446
1922.000000	15.807763
1921.000000	15.962733
1920.000000	16.102820
1919.000000	16.239384
1918.000000	16.447299
1917.000000	16.639762
1916.000000	16.828135
1915.000000	17.007305
1914.000000	17.187498
1913.000000	17.376666
1912.000000	17.572083
1911.000000	17.789996
1910.000000	18.015294
1909.000000	18.240705
1908.000000	18.477364
1907.000000	18.694141
1906.000000	18.919325
1905.000000	19.138828
1904.000000	19.392984
1903.000000	19.637596
1902.000000	19.882436
1901.000000	20.194308
1900.000000	20.471641
1899.000000	20.728410
1898.000000	21.041418
1897.000000	21.334884
1896.000000	21.638576
1895.000000	21.955106
1894.000000	22.268114
1893.000000	22.564989
1892.000000	22.871862
1891.000000	23.177031
1890.000000	23.489357
1889.000000	23.864285
1888.000000	24.263072
1887.000000	24.665722
1886.000000	25.091663
1885.000000	25.569413
1884.000000	26.073293
1883.000000	26.593194
1882.000000	27.125819
1881.000000	27.660489
1880.000000	28.172663
1879.000000	28.662683
1878.000000	29.159406
1877.000000	29.590005
1876.000000	29.970046
1875.000000	30.324978
1874.000000	30.686386
1873.000000	30.993145
1872.000000	31.279908
1871.000000	31.528383
1870.000000	31.754817
1869.000000	32.006360
1868.000000	32.216660
1867.000000	32.366745
1866.000000	32.521488
1865.000000	32.652713
1864.000000	32.761328
1863.000000	32.881078
1862.000000	32.957313
1861.000000	33.001850
1860.000000	33.026391
1859.000000	33.026164
1858.000000	33.045819
1857.000000	33.045478
1856.000000	33.033094
1855.000000	33.015371
1854.000000	32.950951
1853.000000	32.888122
1852.000000	32.861877
1851.000000	32.843244
1850.000000	32.799957
1849.000000	32.703044
1848.000000	32.590225
1847.000000	32.469907
1846.000000	32.397080
1845.000000	32.386400
1844.000000	32.385832
1843.000000	32.370608
1842.000000	32.320958
1841.000000	32.248359
1840.000000	32.183712
1839.000000	32.117020
1838.000000	32.050215
1837.000000	31.974775
1836.000000	31.904788
1835.000000	31.825031
1834.000000	31.743001
1833.000000	31.675059
1832.000000	31.597461
1831.000000	31.510091
1830.000000	31.413632
1829.000000	31.305017
1828.000000	31.186858
1827.000000	31.087786
1826.000000	31.013595
1825.000000	30.961333
1824.000000	30.946108
1823.000000	30.969286
1822.000000	30.933952
1821.000000	30.840788
1820.000000	30.750805
1819.000000	30.714562
1818.000000	30.713426
1817.000000	30.721606
1816.000000	30.729445
1815.000000	30.714335
1814.000000	30.699678
1813.000000	30.670593
1812.000000	30.627647
1811.000000	30.556979
1810.000000	30.498467
1809.000000	30.476539
1808.000000	30.432571
1807.000000	30.366106
1806.000000	30.299301
1805.000000	30.243857
1804.000000	30.175234
1803.000000	30.128424
1802.000000	30.072412
1801.000000	29.991292
1800.000000	29.908807
1799.000000	29.866429
1798.000000	29.817575
1797.000000	29.753042
1796.000000	29.699416
1795.000000	29.640109
1794.000000	29.582052
1793.000000	29.510588
1792.000000	29.449691
1791.000000	29.375728
1790.000000	29.294153
1789.000000	29.225075
1788.000000	29.148612
1787.000000	29.065560
1786.000000	28.961716
1785.000000	28.856168
1784.000000	28.762891
1783.000000	28.665069
1782.000000	28.576563
1781.000000	28.465221
1780.000000	28.368989
1779.000000	28.271394
1778.000000	28.168005
1777.000000	28.033599
1776.000000	27.895557
1775.000000	27.756266
1774.000000	27.602545
1773.000000	27.439622
1772.000000	27.283288
1771.000000	27.147065
1770.000000	27.003456
1769.000000	26.878025
1768.000000	26.757139
1767.000000	26.641480
1766.000000	26.563313
1765.000000	26.523093
1764.000000	26.479465
1763.000000	26.481510
1762.000000	26.520139
1761.000000	26.597852
1760.000000	26.678859
1759.000000	26.773841
1758.000000	26.865982
1757.000000	26.937559
1756.000000	26.986754
1755.000000	27.021066
1754.000000	27.055832
1753.000000	27.065489
1752.000000	27.045266
1751.000000	26.987663
1750.000000	26.925971
1749.000000	26.854393
1748.000000	26.755435
1747.000000	26.637049
1746.000000	26.484237
1745.000000	26.329835
1744.000000	26.128396
1743.000000	25.914687
1742.000000	25.650420
1741.000000	25.379222
1740.000000	25.087914
1739.000000	24.839666
1738.000000	24.612096
1737.000000	24.443606
1736.000000	24.315221
1735.000000	24.260800
1734.000000	24.246939
1733.000000	24.300111
1732.000000	24.388616
1731.000000	24.535861
1730.000000	24.665495
1729.000000	24.822170
1728.000000	24.966687
1727.000000	25.119158
1726.000000	25.213345
1725.000000	25.309463
1724.000000	25.377063
1723.000000	25.415806
1722.000000	25.428871
1721.000000	25.416828
1720.000000	25.435007
1719.000000	25.472840
1718.000000	25.507606
1717.000000	25.544304
1716.000000	25.623720
1715.000000	25.675529
1714.000000	25.748015
1713.000000	25.797437
1712.000000	25.866969
1711.000000	25.842315
1710.000000	25.857312
1709.000000	25.844019
1708.000000	25.809139
1707.000000	25.780622
1706.000000	25.729723
1705.000000	25.626334
1704.000000	25.516696
1703.000000	25.393083
1702.000000	25.257882
1701.000000	25.089732
1700.000000	24.882499
1699.000000	24.669813
1698.000000	24.529385
1697.000000	24.427018
1696.000000	24.387480
1695.000000	24.394070
1694.000000	24.549267
1693.000000	24.689241
1692.000000	24.895337
1691.000000	25.105865
1690.000000	25.283104
1689.000000	25.387629
1688.000000	25.416942
1687.000000	25.416033
1686.000000	25.428644
1685.000000	25.494541
1684.000000	25.675642
1683.000000	26.000125
1682.000000	26.443677
1681.000000	27.060490
1680.000000	27.708320
1679.000000	28.356378
1678.000000	28.968420
1677.000000	29.530585
1676.000000	30.034352
1675.000000	30.470745
1674.000000	30.812611
1673.000000	31.132209
1672.000000	31.395908
1671.000000	31.636658
1670.000000	31.815714
1669.000000	31.989204
1668.000000	32.146105
1667.000000	32.284147
1666.000000	32.385037
1665.000000	32.479110
1664.000000	32.537394
1663.000000	32.603404
1662.000000	32.637829
1661.000000	32.688047
1660.000000	32.724176
1659.000000	32.744513
1658.000000	32.760079
1657.000000	32.764964
1656.000000	32.750080
1655.000000	32.715655
1654.000000	32.703271
1653.000000	32.676685
1652.000000	32.643851
1651.000000	32.591815
1650.000000	32.577159
1649.000000	32.522170
1648.000000	32.465135
1647.000000	32.384242
1646.000000	32.335387
1645.000000	32.269604
1644.000000	32.193710
1643.000000	32.119179
1642.000000	32.050556
1641.000000	31.979433
1640.000000	31.900925
1639.000000	31.820145
1638.000000	31.719028
1637.000000	31.651087
1636.000000	31.546902
1635.000000	31.452489
1634.000000	31.383752
1633.000000	31.284680
1632.000000	31.203559
1631.000000	31.106646
1630.000000	31.005415
1629.000000	30.905207
1628.000000	30.818065
1627.000000	30.715925
1626.000000	30.625829
1625.000000	30.528461
1624.000000	30.424845
1623.000000	30.334521
1622.000000	30.235677
1621.000000	30.147625
1620.000000	30.059460
1619.000000	29.962547
