PE UV       SUBTECH     SPECTRUM    ASCII       PEDS        4.00        
   -1
CICIMAUCR0015-1.Sample.ASC
24/04/12
10:05:24.00
24/04/12
10:05:24.00
Vinicio Soto Monge
C. resplendens
250,000000
1
Lambda 1050
1050L1511233
PerkinElmer UV WinLab 6.3.2.0749 / 2.02.05 Lambda 900 UV/VIS/NIR, Aug  7 2015 09:38:08

0
0
3350/servo 860,8/2
0
0
UV/VIS
1
1
1
DoubleDePol,CommonBeamDepol,RBeamAtt,SBeamAtt,60mm sphere, WB InGaAs Detector
0
0
0
0
Program
Program
3350/servo 860,8/2
3350/0,2 860,8/0,2
3350/0,2 860,8/0,2
0
15.00
 
 
 
0
 
860,8
319,2
860,8
Front
100
on
S:100 R:100
0
0
0
0
 
0
 
 
 
0
 
 
0
0
0
0
0
 
 
 
 
0
0


0
0
#HDR
-1
-1
#GR
nm
%R
1.0
0.0
2500,000000
-1,000000
2251
8
95,380100
5,607500
#DATA
2500.000000	9.348500
2499.000000	9.154100
2498.000000	9.166700
2497.000000	9.123900
2496.000000	9.182700
2495.000000	9.108800
2494.000000	9.092400
2493.000000	9.089700
2492.000000	9.036800
2491.000000	9.070300
2490.000000	8.961900
2489.000000	9.004200
2488.000000	8.988300
2487.000000	8.944500
2486.000000	8.968700
2485.000000	8.971800
2484.000000	8.842200
2483.000000	8.888000
2482.000000	8.921700
2481.000000	8.919200
2480.000000	8.893100
2479.000000	8.950000
2478.000000	8.945800
2477.000000	8.890600
2476.000000	8.906300
2475.000000	8.904000
2474.000000	8.947500
2473.000000	8.957700
2472.000000	8.927200
2471.000000	8.938900
2470.000000	8.945600
2469.000000	8.942400
2468.000000	9.004700
2467.000000	8.975300
2466.000000	8.987600
2465.000000	9.041000
2464.000000	9.057200
2463.000000	9.093000
2462.000000	9.108800
2461.000000	9.170700
2460.000000	9.224900
2459.000000	9.262900
2458.000000	9.326400
2457.000000	9.398100
2456.000000	9.453600
2455.000000	9.526500
2454.000000	9.596300
2453.000000	9.700100
2452.000000	9.783600
2451.000000	9.855600
2450.000000	9.950300
2449.000000	10.039800
2448.000000	10.127000
2447.000000	10.233300
2446.000000	10.298900
2445.000000	10.368100
2444.000000	10.467300
2443.000000	10.560300
2442.000000	10.645800
2441.000000	10.730000
2440.000000	10.811000
2439.000000	10.890700
2438.000000	10.975700
2437.000000	11.040900
2436.000000	11.131300
2435.000000	11.196500
2434.000000	11.275400
2433.000000	11.348800
2432.000000	11.409600
2431.000000	11.466800
2430.000000	11.511200
2429.000000	11.530100
2428.000000	11.571100
2427.000000	11.618800
2426.000000	11.655500
2425.000000	11.707200
2424.000000	11.747200
2423.000000	11.794400
2422.000000	11.817600
2421.000000	11.848400
2420.000000	11.886100
2419.000000	11.931600
2418.000000	11.965900
2417.000000	12.006700
2416.000000	12.040900
2415.000000	12.061400
2414.000000	12.100700
2413.000000	12.116600
2412.000000	12.149800
2411.000000	12.203000
2410.000000	12.210700
2409.000000	12.232000
2408.000000	12.273600
2407.000000	12.297100
2406.000000	12.330200
2405.000000	12.347500
2404.000000	12.388600
2403.000000	12.427600
2402.000000	12.446600
2401.000000	12.466700
2400.000000	12.506200
2399.000000	12.527300
2398.000000	12.556000
2397.000000	12.600000
2396.000000	12.623400
2395.000000	12.645700
2394.000000	12.672300
2393.000000	12.707100
2392.000000	12.730900
2391.000000	12.752800
2390.000000	12.771600
2389.000000	12.783200
2388.000000	12.807800
2387.000000	12.818500
2386.000000	12.822000
2385.000000	12.825100
2384.000000	12.815000
2383.000000	12.810100
2382.000000	12.815100
2381.000000	12.792500
2380.000000	12.773300
2379.000000	12.762400
2378.000000	12.745300
2377.000000	12.721800
2376.000000	12.702200
2375.000000	12.674300
2374.000000	12.638200
2373.000000	12.599300
2372.000000	12.571000
2371.000000	12.545000
2370.000000	12.491800
2369.000000	12.441500
2368.000000	12.391900
2367.000000	12.330400
2366.000000	12.266700
2365.000000	12.209000
2364.000000	12.139100
2363.000000	12.060000
2362.000000	11.985200
2361.000000	11.921600
2360.000000	11.853400
2359.000000	11.791200
2358.000000	11.735800
2357.000000	11.672400
2356.000000	11.616500
2355.000000	11.581000
2354.000000	11.543800
2353.000000	11.533400
2352.000000	11.540400
2351.000000	11.567900
2350.000000	11.600100
2349.000000	11.627900
2348.000000	11.672200
2347.000000	11.710600
2346.000000	11.757900
2345.000000	11.818200
2344.000000	11.867800
2343.000000	11.916600
2342.000000	11.961300
2341.000000	11.996000
2340.000000	12.012100
2339.000000	12.040400
2338.000000	12.053500
2337.000000	12.053300
2336.000000	12.036700
2335.000000	12.015900
2334.000000	11.984300
2333.000000	11.955300
2332.000000	11.919300
2331.000000	11.863000
2330.000000	11.818600
2329.000000	11.762300
2328.000000	11.692700
2327.000000	11.622000
2326.000000	11.532500
2325.000000	11.449700
2324.000000	11.370800
2323.000000	11.283200
2322.000000	11.179400
2321.000000	11.043300
2320.000000	10.931800
2319.000000	10.820800
2318.000000	10.694700
2317.000000	10.567400
2316.000000	10.445500
2315.000000	10.307200
2314.000000	10.185100
2313.000000	10.075600
2312.000000	9.953400
2311.000000	9.849900
2310.000000	9.777800
2309.000000	9.727600
2308.000000	9.693900
2307.000000	9.665600
2306.000000	9.668700
2305.000000	9.688600
2304.000000	9.745600
2303.000000	9.804600
2302.000000	9.879500
2301.000000	9.971600
2300.000000	10.059100
2299.000000	10.173000
2298.000000	10.268800
2297.000000	10.377300
2296.000000	10.463200
2295.000000	10.568000
2294.000000	10.630600
2293.000000	10.705300
2292.000000	10.751700
2291.000000	10.783500
2290.000000	10.821300
2289.000000	10.835500
2288.000000	10.821300
2287.000000	10.806300
2286.000000	10.788900
2285.000000	10.751800
2284.000000	10.723500
2283.000000	10.666800
2282.000000	10.641700
2281.000000	10.577200
2280.000000	10.526700
2279.000000	10.464400
2278.000000	10.425200
2277.000000	10.381800
2276.000000	10.341600
2275.000000	10.310200
2274.000000	10.295700
2273.000000	10.263000
2272.000000	10.260200
2271.000000	10.295800
2270.000000	10.356400
2269.000000	10.395000
2268.000000	10.469600
2267.000000	10.566300
2266.000000	10.693100
2265.000000	10.859100
2264.000000	11.035800
2263.000000	11.217700
2262.000000	11.406300
2261.000000	11.677000
2260.000000	11.933400
2259.000000	12.207400
2258.000000	12.470400
2257.000000	12.749200
2256.000000	13.032500
2255.000000	13.309000
2254.000000	13.603000
2253.000000	13.882600
2252.000000	14.112500
2251.000000	14.359400
2250.000000	14.606900
2249.000000	14.837000
2248.000000	15.041200
2247.000000	15.238500
2246.000000	15.407900
2245.000000	15.571200
2244.000000	15.735900
2243.000000	15.887800
2242.000000	16.011100
2241.000000	16.177200
2240.000000	16.246700
2239.000000	16.373400
2238.000000	16.482000
2237.000000	16.546400
2236.000000	16.651600
2235.000000	16.714600
2234.000000	16.789300
2233.000000	16.831700
2232.000000	16.869200
2231.000000	16.925700
2230.000000	16.956400
2229.000000	16.980300
2228.000000	17.021200
2227.000000	16.994100
2226.000000	17.003400
2225.000000	17.002600
2224.000000	16.981400
2223.000000	16.979000
2222.000000	16.940500
2221.000000	16.914800
2220.000000	16.912700
2219.000000	16.846600
2218.000000	16.827500
2217.000000	16.802900
2216.000000	16.755300
2215.000000	16.718300
2214.000000	16.687200
2213.000000	16.623700
2212.000000	16.602900
2211.000000	16.576400
2210.000000	16.596100
2209.000000	16.541900
2208.000000	16.513900
2207.000000	16.488100
2206.000000	16.454100
2205.000000	16.444900
2204.000000	16.428800
2203.000000	16.411800
2202.000000	16.412800
2201.000000	16.377700
2200.000000	16.366100
2199.000000	16.353200
2198.000000	16.350200
2197.000000	16.338000
2196.000000	16.326500
2195.000000	16.317700
2194.000000	16.296100
2193.000000	16.289000
2192.000000	16.277100
2191.000000	16.287900
2190.000000	16.272000
2189.000000	16.241100
2188.000000	16.242000
2187.000000	16.235900
2186.000000	16.207400
2185.000000	16.195300
2184.000000	16.175300
2183.000000	16.154000
2182.000000	16.152200
2181.000000	16.143200
2180.000000	16.131600
2179.000000	16.122100
2178.000000	16.103100
2177.000000	16.098800
2176.000000	16.072800
2175.000000	16.074700
2174.000000	16.092800
2173.000000	16.107600
2172.000000	16.131500
2171.000000	16.133800
2170.000000	16.146100
2169.000000	16.167400
2168.000000	16.200700
2167.000000	16.218100
2166.000000	16.244800
2165.000000	16.272000
2164.000000	16.298700
2163.000000	16.318300
2162.000000	16.372600
2161.000000	16.407500
2160.000000	16.431500
2159.000000	16.480800
2158.000000	16.514400
2157.000000	16.567300
2156.000000	16.615800
2155.000000	16.691000
2154.000000	16.744600
2153.000000	16.800700
2152.000000	16.843200
2151.000000	16.900800
2150.000000	16.966300
2149.000000	17.023200
2148.000000	17.074600
2147.000000	17.133200
2146.000000	17.192800
2145.000000	17.254300
2144.000000	17.298600
2143.000000	17.359000
2142.000000	17.403100
2141.000000	17.447100
2140.000000	17.490700
2139.000000	17.542200
2138.000000	17.589800
2137.000000	17.631900
2136.000000	17.671200
2135.000000	17.702600
2134.000000	17.732400
2133.000000	17.751000
2132.000000	17.789200
2131.000000	17.822200
2130.000000	17.845300
2129.000000	17.865200
2128.000000	17.877300
2127.000000	17.892900
2126.000000	17.895700
2125.000000	17.889500
2124.000000	17.884900
2123.000000	17.878600
2122.000000	17.881200
2121.000000	17.873000
2120.000000	17.851600
2119.000000	17.841700
2118.000000	17.825900
2117.000000	17.804600
2116.000000	17.780200
2115.000000	17.766400
2114.000000	17.740900
2113.000000	17.711000
2112.000000	17.699600
2111.000000	17.671200
2110.000000	17.627000
2109.000000	17.609300
2108.000000	17.593100
2107.000000	17.562300
2106.000000	17.532400
2105.000000	17.503600
2104.000000	17.464900
2103.000000	17.443800
2102.000000	17.428400
2101.000000	17.395700
2100.000000	17.376700
2099.000000	17.361500
2098.000000	17.329300
2097.000000	17.298300
2096.000000	17.278800
2095.000000	17.263200
2094.000000	17.258400
2093.000000	17.248600
2092.000000	17.218900
2091.000000	17.203400
2090.000000	17.192800
2089.000000	17.178000
2088.000000	17.159400
2087.000000	17.154500
2086.000000	17.147900
2085.000000	17.121400
2084.000000	17.107500
2083.000000	17.086600
2082.000000	17.059400
2081.000000	17.020000
2080.000000	16.996800
2079.000000	16.981700
2078.000000	16.954800
2077.000000	16.915400
2076.000000	16.880000
2075.000000	16.841600
2074.000000	16.791200
2073.000000	16.752600
2072.000000	16.718500
2071.000000	16.686300
2070.000000	16.637100
2069.000000	16.587800
2068.000000	16.557100
2067.000000	16.498800
2066.000000	16.454800
2065.000000	16.414200
2064.000000	16.370000
2063.000000	16.360900
2062.000000	16.335300
2061.000000	16.277800
2060.000000	16.247000
2059.000000	16.245400
2058.000000	16.254200
2057.000000	16.256700
2056.000000	16.280900
2055.000000	16.325800
2054.000000	16.378300
2053.000000	16.423200
2052.000000	16.519100
2051.000000	16.612600
2050.000000	16.714800
2049.000000	16.843000
2048.000000	16.952100
2047.000000	17.083000
2046.000000	17.250700
2045.000000	17.415100
2044.000000	17.572100
2043.000000	17.740400
2042.000000	17.901200
2041.000000	18.063300
2040.000000	18.220400
2039.000000	18.378300
2038.000000	18.547300
2037.000000	18.697100
2036.000000	18.829900
2035.000000	18.957700
2034.000000	19.099700
2033.000000	19.250500
2032.000000	19.373300
2031.000000	19.477600
2030.000000	19.592000
2029.000000	19.706900
2028.000000	19.817200
2027.000000	19.918800
2026.000000	20.014500
2025.000000	20.107500
2024.000000	20.187400
2023.000000	20.283500
2022.000000	20.386100
2021.000000	20.467000
2020.000000	20.536400
2019.000000	20.629500
2018.000000	20.715600
2017.000000	20.779000
2016.000000	20.824500
2015.000000	20.882200
2014.000000	20.935400
2013.000000	20.970900
2012.000000	21.034000
2011.000000	21.076600
2010.000000	21.118100
2009.000000	21.149800
2008.000000	21.160500
2007.000000	21.175900
2006.000000	21.184700
2005.000000	21.188400
2004.000000	21.203200
2003.000000	21.202400
2002.000000	21.198200
2001.000000	21.177300
2000.000000	21.166400
1999.000000	21.139300
1998.000000	21.108900
1997.000000	21.080700
1996.000000	21.029700
1995.000000	20.990100
1994.000000	20.969200
1993.000000	20.906600
1992.000000	20.860600
1991.000000	20.793100
1990.000000	20.738200
1989.000000	20.680500
1988.000000	20.609700
1987.000000	20.549200
1986.000000	20.462400
1985.000000	20.410800
1984.000000	20.319200
1983.000000	20.243800
1982.000000	20.166200
1981.000000	20.083200
1980.000000	20.010100
1979.000000	19.935900
1978.000000	19.864800
1977.000000	19.780500
1976.000000	19.704700
1975.000000	19.624000
1974.000000	19.536300
1973.000000	19.458300
1972.000000	19.378400
1971.000000	19.315700
1970.000000	19.251800
1969.000000	19.183200
1968.000000	19.108500
1967.000000	19.044200
1966.000000	18.961600
1965.000000	18.885600
1964.000000	18.810900
1963.000000	18.737200
1962.000000	18.671200
1961.000000	18.594300
1960.000000	18.536100
1959.000000	18.463700
1958.000000	18.378900
1957.000000	18.301700
1956.000000	18.238300
1955.000000	18.160900
1954.000000	18.073100
1953.000000	17.992200
1952.000000	17.937900
1951.000000	17.864900
1950.000000	17.820200
1949.000000	17.758500
1948.000000	17.714300
1947.000000	17.661500
1946.000000	17.597300
1945.000000	17.564000
1944.000000	17.532700
1943.000000	17.503000
1942.000000	17.505700
1941.000000	17.467100
1940.000000	17.481100
1939.000000	17.512300
1938.000000	17.496200
1937.000000	17.512400
1936.000000	17.531400
1935.000000	17.567300
1934.000000	17.623500
1933.000000	17.684700
1932.000000	17.742300
1931.000000	17.851900
1930.000000	17.923500
1929.000000	18.041500
1928.000000	18.147000
1927.000000	18.271400
1926.000000	18.387800
1925.000000	18.534200
1924.000000	18.691900
1923.000000	18.840200
1922.000000	19.029800
1921.000000	19.222200
1920.000000	19.443200
1919.000000	19.603300
1918.000000	19.812500
1917.000000	20.009800
1916.000000	20.216500
1915.000000	20.463100
1914.000000	20.749500
1913.000000	21.012600
1912.000000	21.293700
1911.000000	21.526600
1910.000000	21.780200
1909.000000	22.018800
1908.000000	22.288200
1907.000000	22.604100
1906.000000	22.940700
1905.000000	23.284000
1904.000000	23.610200
1903.000000	23.907600
1902.000000	24.203800
1901.000000	24.513500
1900.000000	24.851400
1899.000000	25.177400
1898.000000	25.508600
1897.000000	25.841700
1896.000000	26.123100
1895.000000	26.395200
1894.000000	26.724000
1893.000000	27.060500
1892.000000	27.389500
1891.000000	27.709800
1890.000000	28.014600
1889.000000	28.315600
1888.000000	28.668000
1887.000000	28.996100
1886.000000	29.362800
1885.000000	29.765100
1884.000000	30.207300
1883.000000	30.635700
1882.000000	31.075100
1881.000000	31.531600
1880.000000	31.970100
1879.000000	32.400500
1878.000000	32.796900
1877.000000	33.135600
1876.000000	33.466300
1875.000000	33.784100
1874.000000	34.084100
1873.000000	34.338300
1872.000000	34.562700
1871.000000	34.780300
1870.000000	34.948400
1869.000000	35.071700
1868.000000	35.167600
1867.000000	35.234400
1866.000000	35.272200
1865.000000	35.327600
1864.000000	35.391900
1863.000000	35.426300
1862.000000	35.464400
1861.000000	35.496100
1860.000000	35.515400
1859.000000	35.501400
1858.000000	35.479300
1857.000000	35.462900
1856.000000	35.413200
1855.000000	35.367600
1854.000000	35.320500
1853.000000	35.213400
1852.000000	35.135200
1851.000000	35.104400
1850.000000	35.080200
1849.000000	35.046800
1848.000000	34.959300
1847.000000	34.839100
1846.000000	34.739800
1845.000000	34.675100
1844.000000	34.626700
1843.000000	34.634900
1842.000000	34.630600
1841.000000	34.579000
1840.000000	34.513900
1839.000000	34.440100
1838.000000	34.385400
1837.000000	34.321600
1836.000000	34.242100
1835.000000	34.158400
1834.000000	34.072100
1833.000000	33.994300
1832.000000	33.932300
1831.000000	33.846700
1830.000000	33.761200
1829.000000	33.687500
1828.000000	33.576800
1827.000000	33.501600
1826.000000	33.440500
1825.000000	33.371900
1824.000000	33.339200
1823.000000	33.341200
1822.000000	33.336400
1821.000000	33.308500
1820.000000	33.267700
1819.000000	33.223000
1818.000000	33.214100
1817.000000	33.221700
1816.000000	33.225500
1815.000000	33.213200
1814.000000	33.211400
1813.000000	33.198900
1812.000000	33.170700
1811.000000	33.128500
1810.000000	33.080000
1809.000000	33.046000
1808.000000	33.020700
1807.000000	32.988100
1806.000000	32.929200
1805.000000	32.864700
1804.000000	32.818900
1803.000000	32.775600
1802.000000	32.734800
1801.000000	32.682700
1800.000000	32.615600
1799.000000	32.551300
1798.000000	32.515800
1797.000000	32.476800
1796.000000	32.429400
1795.000000	32.374900
1794.000000	32.309400
1793.000000	32.251100
1792.000000	32.201400
1791.000000	32.143800
1790.000000	32.078500
1789.000000	32.008400
1788.000000	31.949000
1787.000000	31.888800
1786.000000	31.811000
1785.000000	31.723900
1784.000000	31.623900
1783.000000	31.520300
1782.000000	31.439000
1781.000000	31.372900
1780.000000	31.274500
1779.000000	31.170300
1778.000000	31.060600
1777.000000	30.940700
1776.000000	30.833000
1775.000000	30.697200
1774.000000	30.533700
1773.000000	30.382600
1772.000000	30.243100
1771.000000	30.093400
1770.000000	29.930000
1769.000000	29.777300
1768.000000	29.665000
1767.000000	29.554900
1766.000000	29.445200
1765.000000	29.365800
1764.000000	29.330500
1763.000000	29.294200
1762.000000	29.323900
1761.000000	29.380600
1760.000000	29.430800
1759.000000	29.490900
1758.000000	29.555300
1757.000000	29.602000
1756.000000	29.640700
1755.000000	29.667000
1754.000000	29.668500
1753.000000	29.644800
1752.000000	29.608000
1751.000000	29.569600
1750.000000	29.508500
1749.000000	29.430500
1748.000000	29.334200
1747.000000	29.201900
1746.000000	29.077300
1745.000000	28.894500
1744.000000	28.697300
1743.000000	28.501500
1742.000000	28.264100
1741.000000	28.003700
1740.000000	27.749400
1739.000000	27.490000
1738.000000	27.269300
1737.000000	27.081600
1736.000000	26.954600
1735.000000	26.849100
1734.000000	26.807200
1733.000000	26.824900
1732.000000	26.881000
1731.000000	26.966000
1730.000000	27.089900
1729.000000	27.195800
1728.000000	27.315100
1727.000000	27.412100
1726.000000	27.485000
1725.000000	27.566400
1724.000000	27.585200
1723.000000	27.624700
1722.000000	27.649300
1721.000000	27.678100
1720.000000	27.729500
1719.000000	27.750100
1718.000000	27.805700
1717.000000	27.873900
1716.000000	27.975400
1715.000000	28.053800
1714.000000	28.136800
1713.000000	28.208400
1712.000000	28.275600
1711.000000	28.313200
1710.000000	28.361700
1709.000000	28.342900
1708.000000	28.338000
1707.000000	28.337900
1706.000000	28.312500
1705.000000	28.251400
1704.000000	28.189700
1703.000000	28.129000
1702.000000	28.013900
1701.000000	27.855900
1700.000000	27.705800
1699.000000	27.532400
1698.000000	27.413800
1697.000000	27.305000
1696.000000	27.237100
1695.000000	27.236900
1694.000000	27.314400
1693.000000	27.432700
1692.000000	27.587200
1691.000000	27.736700
1690.000000	27.894600
1689.000000	27.985300
1688.000000	28.048000
1687.000000	28.066300
1686.000000	28.098100
1685.000000	28.148700
1684.000000	28.313100
1683.000000	28.559900
1682.000000	28.941600
1681.000000	29.432800
1680.000000	30.018300
1679.000000	30.616900
1678.000000	31.195300
1677.000000	31.732600
1676.000000	32.233000
1675.000000	32.615700
1674.000000	32.980400
1673.000000	33.280000
1672.000000	33.558600
1671.000000	33.791400
1670.000000	34.008700
1669.000000	34.196700
1668.000000	34.359400
1667.000000	34.515100
1666.000000	34.632700
1665.000000	34.727900
1664.000000	34.827000
1663.000000	34.906800
1662.000000	34.965700
1661.000000	35.019900
1660.000000	35.089700
1659.000000	35.127700
1658.000000	35.147000
1657.000000	35.174600
1656.000000	35.193800
1655.000000	35.201700
1654.000000	35.197600
1653.000000	35.176700
1652.000000	35.164200
1651.000000	35.139000
1650.000000	35.116700
1649.000000	35.096600
1648.000000	35.037600
1647.000000	34.999300
1646.000000	34.945100
1645.000000	34.897400
1644.000000	34.856500
1643.000000	34.796200
1642.000000	34.740400
1641.000000	34.656300
1640.000000	34.615100
1639.000000	34.549700
1638.000000	34.490700
1637.000000	34.419200
1636.000000	34.356700
1635.000000	34.285400
1634.000000	34.191600
1633.000000	34.116300
1632.000000	34.035300
1631.000000	33.948800
1630.000000	33.864900
1629.000000	33.780200
1628.000000	33.702900
1627.000000	33.624700
1626.000000	33.541000
1625.000000	33.463200
1624.000000	33.360800
1623.000000	33.270700
1622.000000	33.187600
1621.000000	33.114800
