PE UV       SUBTECH     SPECTRUM    ASCII       PEDS        4.00        
   -1
CICIMAUCR0101-1.Sample.ASC
24/04/19
09:59:09.00
24/04/19
09:59:09.00
Vinicio Soto Monge
C. resplendens
250,000000
1
Lambda 1050
1050L1511233
PerkinElmer UV WinLab 6.3.2.0749 / 2.02.05 Lambda 900 UV/VIS/NIR, Aug  7 2015 09:38:08

0
0
3350/servo 860,8/2
0
0
UV/VIS
1
1
1
DoubleDePol,CommonBeamDepol,RBeamAtt,SBeamAtt,60mm sphere, WB InGaAs Detector
0
0
0
0
Program
Program
3350/servo 860,8/2
3350/0,2 860,8/0,2
3350/0,2 860,8/0,2
0
15.00
 
 
 
0
 
860,8
319,2
860,8
Front
100
on
S:100 R:100
0
0
0
0
 
0
 
 
 
0
 
 
0
0
0
0
0
 
 
 
 
0
0


0
0
#HDR
-1
-1
#GR
nm
%R
1.0
0.0
2500,000000
-1,000000
2251
8
92,662600
5,537600
#DATA
2500.000000	6.988343
2499.000000	6.973534
2498.000000	6.959864
2497.000000	6.886339
2496.000000	6.942881
2495.000000	6.937703
2494.000000	6.839738
2493.000000	6.849680
2492.000000	6.818716
2491.000000	6.851337
2490.000000	6.762485
2489.000000	6.774497
2488.000000	6.757514
2487.000000	6.679535
2486.000000	6.728829
2485.000000	6.712466
2484.000000	6.700350
2483.000000	6.763313
2482.000000	6.744776
2481.000000	6.728621
2480.000000	6.661827
2479.000000	6.644119
2478.000000	6.670629
2477.000000	6.624650
2476.000000	6.671044
2475.000000	6.653232
2474.000000	6.673529
2473.000000	6.664416
2472.000000	6.634799
2471.000000	6.683263
2470.000000	6.650643
2469.000000	6.639045
2468.000000	6.639148
2467.000000	6.648468
2466.000000	6.635627
2465.000000	6.644533
2464.000000	6.639252
2463.000000	6.660584
2462.000000	6.686784
2461.000000	6.720440
2460.000000	6.754407
2459.000000	6.767870
2458.000000	6.786303
2457.000000	6.831350
2456.000000	6.876604
2455.000000	6.911089
2454.000000	6.939567
2453.000000	6.988032
2452.000000	7.024795
2451.000000	7.064353
2450.000000	7.119135
2449.000000	7.173088
2448.000000	7.222382
2447.000000	7.240297
2446.000000	7.276749
2445.000000	7.335155
2444.000000	7.394183
2443.000000	7.434259
2442.000000	7.485106
2441.000000	7.541130
2440.000000	7.597776
2439.000000	7.614138
2438.000000	7.653697
2437.000000	7.706822
2436.000000	7.745034
2435.000000	7.764192
2434.000000	7.798987
2433.000000	7.835025
2432.000000	7.869924
2431.000000	7.892707
2430.000000	7.923774
2429.000000	7.949559
2428.000000	7.983526
2427.000000	8.008483
2426.000000	8.040172
2425.000000	8.054670
2424.000000	8.076003
2423.000000	8.084287
2422.000000	8.079731
2421.000000	8.090293
2420.000000	8.100131
2419.000000	8.107691
2418.000000	8.126746
2417.000000	8.137619
2416.000000	8.120532
2415.000000	8.133270
2414.000000	8.144868
2413.000000	8.148907
2412.000000	8.165579
2411.000000	8.186394
2410.000000	8.175314
2409.000000	8.156052
2408.000000	8.182873
2407.000000	8.200892
2406.000000	8.219740
2405.000000	8.214873
2404.000000	8.223882
2403.000000	8.241797
2402.000000	8.249771
2401.000000	8.261784
2400.000000	8.263441
2399.000000	8.271933
2398.000000	8.297097
2397.000000	8.319258
2396.000000	8.328578
2395.000000	8.338313
2394.000000	8.352811
2393.000000	8.362338
2392.000000	8.378079
2391.000000	8.375283
2390.000000	8.393819
2389.000000	8.412667
2388.000000	8.406764
2387.000000	8.408524
2386.000000	8.408731
2385.000000	8.393716
2384.000000	8.392059
2383.000000	8.384603
2382.000000	8.371140
2381.000000	8.359749
2380.000000	8.350947
2379.000000	8.335620
2378.000000	8.311491
2377.000000	8.291091
2376.000000	8.270069
2375.000000	8.262509
2374.000000	8.248943
2373.000000	8.215390
2372.000000	8.194886
2371.000000	8.165683
2370.000000	8.122189
2369.000000	8.090293
2368.000000	8.060158
2367.000000	8.015215
2366.000000	7.971410
2365.000000	7.930091
2364.000000	7.872202
2363.000000	7.819699
2362.000000	7.784075
2361.000000	7.725462
2360.000000	7.663017
2359.000000	7.616002
2358.000000	7.579343
2357.000000	7.546412
2356.000000	7.511409
2355.000000	7.490905
2354.000000	7.489973
2353.000000	7.489041
2352.000000	7.470815
2351.000000	7.477028
2350.000000	7.498568
2349.000000	7.513584
2348.000000	7.545790
2347.000000	7.593427
2346.000000	7.600676
2345.000000	7.615174
2344.000000	7.665399
2343.000000	7.689838
2342.000000	7.710550
2341.000000	7.725980
2340.000000	7.743791
2339.000000	7.765746
2338.000000	7.766367
2337.000000	7.753422
2336.000000	7.735714
2335.000000	7.697191
2334.000000	7.685178
2333.000000	7.667366
2332.000000	7.645723
2331.000000	7.604507
2330.000000	7.550243
2329.000000	7.510374
2328.000000	7.472368
2327.000000	7.412202
2326.000000	7.360112
2325.000000	7.306159
2324.000000	7.253552
2323.000000	7.180648
2322.000000	7.108883
2321.000000	7.041882
2320.000000	6.974673
2319.000000	6.907257
2318.000000	6.841188
2317.000000	6.766109
2316.000000	6.695069
2315.000000	6.635316
2314.000000	6.568004
2313.000000	6.501624
2312.000000	6.471696
2311.000000	6.416293
2310.000000	6.364722
2309.000000	6.334483
2308.000000	6.328891
2307.000000	6.325577
2306.000000	6.327545
2305.000000	6.317707
2304.000000	6.343596
2303.000000	6.377977
2302.000000	6.416915
2301.000000	6.467554
2300.000000	6.518711
2299.000000	6.559306
2298.000000	6.610256
2297.000000	6.661102
2296.000000	6.718680
2295.000000	6.757410
2294.000000	6.780814
2293.000000	6.818923
2292.000000	6.833835
2291.000000	6.854754
2290.000000	6.875465
2289.000000	6.869148
2288.000000	6.857136
2287.000000	6.835803
2286.000000	6.808775
2285.000000	6.808878
2284.000000	6.785681
2283.000000	6.746537
2282.000000	6.722822
2281.000000	6.697244
2280.000000	6.650125
2279.000000	6.635109
2278.000000	6.617298
2277.000000	6.571525
2276.000000	6.567590
2275.000000	6.560652
2274.000000	6.544393
2273.000000	6.540665
2272.000000	6.535280
2271.000000	6.537559
2270.000000	6.549053
2269.000000	6.587162
2268.000000	6.623822
2267.000000	6.675807
2266.000000	6.748815
2265.000000	6.835389
2264.000000	6.928176
2263.000000	7.029558
2262.000000	7.138604
2261.000000	7.290315
2260.000000	7.435088
2259.000000	7.573337
2258.000000	7.737474
2257.000000	7.896227
2256.000000	8.078281
2255.000000	8.273486
2254.000000	8.423229
2253.000000	8.580429
2252.000000	8.734833
2251.000000	8.880952
2250.000000	9.068390
2249.000000	9.184167
2248.000000	9.332978
2247.000000	9.446373
2246.000000	9.586900
2245.000000	9.703713
2244.000000	9.816383
2243.000000	9.895190
2242.000000	9.986217
2241.000000	10.083560
2240.000000	10.161021
2239.000000	10.231854
2238.000000	10.314389
2237.000000	10.391850
2236.000000	10.449531
2235.000000	10.502449
2234.000000	10.571935
2233.000000	10.603002
2232.000000	10.655609
2231.000000	10.686987
2230.000000	10.719401
2229.000000	10.742597
2228.000000	10.742805
2227.000000	10.769315
2226.000000	10.765173
2225.000000	10.784434
2224.000000	10.797276
2223.000000	10.790855
2222.000000	10.799243
2221.000000	10.782467
2220.000000	10.758752
2219.000000	10.759063
2218.000000	10.745808
2217.000000	10.744358
2216.000000	10.724061
2215.000000	10.680153
2214.000000	10.692579
2213.000000	10.667415
2212.000000	10.663894
2211.000000	10.659959
2210.000000	10.645979
2209.000000	10.639351
2208.000000	10.615015
2207.000000	10.610044
2206.000000	10.587055
2205.000000	10.583637
2204.000000	10.576388
2203.000000	10.573178
2202.000000	10.577838
2201.000000	10.564790
2200.000000	10.564169
2199.000000	10.564997
2198.000000	10.531030
2197.000000	10.541593
2196.000000	10.522021
2195.000000	10.527716
2194.000000	10.543146
2193.000000	10.532584
2192.000000	10.516429
2191.000000	10.522849
2190.000000	10.527509
2189.000000	10.526577
2188.000000	10.505037
2187.000000	10.502759
2186.000000	10.500585
2185.000000	10.477491
2184.000000	10.493232
2183.000000	10.469621
2182.000000	10.476352
2181.000000	10.448599
2180.000000	10.449738
2179.000000	10.461958
2178.000000	10.450049
2177.000000	10.463822
2176.000000	10.469207
2175.000000	10.472417
2174.000000	10.469725
2173.000000	10.486501
2172.000000	10.524196
2171.000000	10.519639
2170.000000	10.521814
2169.000000	10.541490
2168.000000	10.561373
2167.000000	10.582602
2166.000000	10.595236
2165.000000	10.634484
2164.000000	10.656438
2163.000000	10.667208
2162.000000	10.681499
2161.000000	10.722714
2160.000000	10.755956
2159.000000	10.766726
2158.000000	10.801625
2157.000000	10.840045
2156.000000	10.863138
2155.000000	10.892652
2154.000000	10.935110
2153.000000	10.960792
2152.000000	10.992998
2151.000000	11.026240
2150.000000	11.074601
2149.000000	11.085061
2148.000000	11.113953
2147.000000	11.158172
2146.000000	11.189757
2145.000000	11.204462
2144.000000	11.238843
2143.000000	11.257276
2142.000000	11.297974
2141.000000	11.325727
2140.000000	11.334426
2139.000000	11.360315
2138.000000	11.362076
2137.000000	11.380302
2136.000000	11.407952
2135.000000	11.405259
2134.000000	11.419964
2133.000000	11.434152
2132.000000	11.426281
2131.000000	11.431770
2130.000000	11.440883
2129.000000	11.445439
2128.000000	11.427835
2127.000000	11.411266
2126.000000	11.415511
2125.000000	11.402152
2124.000000	11.380923
2123.000000	11.368704
2122.000000	11.358348
2121.000000	11.334840
2120.000000	11.321274
2119.000000	11.303670
2118.000000	11.277366
2117.000000	11.251166
2116.000000	11.211193
2115.000000	11.190585
2114.000000	11.167285
2113.000000	11.141603
2112.000000	11.108465
2111.000000	11.080918
2110.000000	11.067870
2109.000000	11.034939
2108.000000	11.009775
2107.000000	10.986578
2106.000000	10.965038
2105.000000	10.934385
2104.000000	10.898762
2103.000000	10.883539
2102.000000	10.861067
2101.000000	10.837041
2100.000000	10.796758
2099.000000	10.764862
2098.000000	10.751918
2097.000000	10.740009
2096.000000	10.721679
2095.000000	10.705938
2094.000000	10.700035
2093.000000	10.676839
2092.000000	10.660166
2091.000000	10.650639
2090.000000	10.628788
2089.000000	10.609837
2088.000000	10.601863
2087.000000	10.593579
2086.000000	10.574007
2085.000000	10.570071
2084.000000	10.568725
2083.000000	10.568725
2082.000000	10.550706
2081.000000	10.522332
2080.000000	10.490850
2079.000000	10.472313
2078.000000	10.469414
2077.000000	10.454398
2076.000000	10.421053
2075.000000	10.403552
2074.000000	10.395060
2073.000000	10.375798
2072.000000	10.363786
2071.000000	10.346388
2070.000000	10.317910
2069.000000	10.304240
2068.000000	10.296681
2067.000000	10.289639
2066.000000	10.266442
2065.000000	10.247595
2064.000000	10.231025
2063.000000	10.237342
2062.000000	10.240967
2061.000000	10.233511
2060.000000	10.225433
2059.000000	10.231543
2058.000000	10.235064
2057.000000	10.251633
2056.000000	10.298959
2055.000000	10.334790
2054.000000	10.370724
2053.000000	10.413389
2052.000000	10.453880
2051.000000	10.511976
2050.000000	10.603106
2049.000000	10.687816
2048.000000	10.784331
2047.000000	10.883228
2046.000000	10.982539
2045.000000	11.083300
2044.000000	11.201045
2043.000000	11.322621
2042.000000	11.440779
2041.000000	11.565773
2040.000000	11.676993
2039.000000	11.791838
2038.000000	11.927601
2037.000000	12.033954
2036.000000	12.130055
2035.000000	12.237962
2034.000000	12.350114
2033.000000	12.441244
2032.000000	12.541902
2031.000000	12.649498
2030.000000	12.726648
2029.000000	12.813118
2028.000000	12.913775
2027.000000	12.992479
2026.000000	13.068075
2025.000000	13.142326
2024.000000	13.230039
2023.000000	13.316716
2022.000000	13.384753
2021.000000	13.465631
2020.000000	13.530147
2019.000000	13.614339
2018.000000	13.679062
2017.000000	13.730116
2016.000000	13.811512
2015.000000	13.863808
2014.000000	13.910616
2013.000000	13.942718
2012.000000	13.985073
2011.000000	14.040890
2010.000000	14.062120
2009.000000	14.129846
2008.000000	14.149833
2007.000000	14.166195
2006.000000	14.192705
2005.000000	14.217662
2004.000000	14.224083
2003.000000	14.221390
2002.000000	14.226465
2001.000000	14.243345
2000.000000	14.236096
1999.000000	14.224911
1998.000000	14.213106
1997.000000	14.198608
1996.000000	14.182971
1995.000000	14.159049
1994.000000	14.138131
1993.000000	14.099814
1992.000000	14.092048
1991.000000	14.052903
1990.000000	14.037680
1989.000000	13.978446
1988.000000	13.944479
1987.000000	13.903884
1986.000000	13.857077
1985.000000	13.798670
1984.000000	13.759629
1983.000000	13.721210
1982.000000	13.655658
1981.000000	13.620449
1980.000000	13.562250
1979.000000	13.513681
1978.000000	13.464078
1977.000000	13.402979
1976.000000	13.368909
1975.000000	13.295383
1974.000000	13.255617
1973.000000	13.217301
1972.000000	13.159620
1971.000000	13.103595
1970.000000	13.078120
1969.000000	13.007494
1968.000000	12.991029
1967.000000	12.917917
1966.000000	12.868624
1965.000000	12.837247
1964.000000	12.796859
1963.000000	12.747980
1962.000000	12.671555
1961.000000	12.651051
1960.000000	12.591402
1959.000000	12.559299
1958.000000	12.508971
1957.000000	12.468790
1956.000000	12.412973
1955.000000	12.375796
1954.000000	12.309520
1953.000000	12.262090
1952.000000	12.237237
1951.000000	12.190118
1950.000000	12.147763
1949.000000	12.130884
1948.000000	12.103441
1947.000000	12.073409
1946.000000	12.035508
1945.000000	12.002991
1944.000000	11.991185
1943.000000	11.985593
1942.000000	11.986836
1941.000000	11.976584
1940.000000	11.992531
1939.000000	11.995638
1938.000000	11.991185
1937.000000	12.021631
1936.000000	12.043378
1935.000000	12.066057
1934.000000	12.116593
1933.000000	12.145485
1932.000000	12.217975
1931.000000	12.292018
1930.000000	12.343486
1929.000000	12.423329
1928.000000	12.494783
1927.000000	12.589124
1926.000000	12.660682
1925.000000	12.780911
1924.000000	12.878359
1923.000000	12.988543
1922.000000	13.118922
1921.000000	13.262763
1920.000000	13.395212
1919.000000	13.543299
1918.000000	13.664564
1917.000000	13.786969
1916.000000	13.941061
1915.000000	14.126532
1914.000000	14.327536
1913.000000	14.515389
1912.000000	14.688329
1911.000000	14.863652
1910.000000	15.008528
1909.000000	15.190063
1908.000000	15.378227
1907.000000	15.603153
1906.000000	15.841955
1905.000000	16.074027
1904.000000	16.261361
1903.000000	16.469097
1902.000000	16.680146
1901.000000	16.893474
1900.000000	17.151227
1899.000000	17.385577
1898.000000	17.606154
1897.000000	17.787171
1896.000000	17.961562
1895.000000	18.174268
1894.000000	18.382728
1893.000000	18.602166
1892.000000	18.847803
1891.000000	19.066516
1890.000000	19.251572
1889.000000	19.469560
1888.000000	19.708570
1887.000000	19.961974
1886.000000	20.256594
1885.000000	20.590565
1884.000000	20.959953
1883.000000	21.343218
1882.000000	21.742534
1881.000000	22.117929
1880.000000	22.476133
1879.000000	22.847695
1878.000000	23.207038
1877.000000	23.538421
1876.000000	23.825896
1875.000000	24.112749
1874.000000	24.396392
1873.000000	24.632087
1872.000000	24.839512
1871.000000	25.026226
1870.000000	25.191089
1869.000000	25.308626
1868.000000	25.369828
1867.000000	25.401309
1866.000000	25.422021
1865.000000	25.444286
1864.000000	25.453399
1863.000000	25.472143
1862.000000	25.489540
1861.000000	25.500206
1860.000000	25.509630
1859.000000	25.491922
1858.000000	25.451224
1857.000000	25.383601
1856.000000	25.310593
1855.000000	25.262025
1854.000000	25.189225
1853.000000	25.091984
1852.000000	25.008517
1851.000000	24.930746
1850.000000	24.867783
1849.000000	24.810931
1848.000000	24.737819
1847.000000	24.631155
1846.000000	24.525320
1845.000000	24.454176
1844.000000	24.390282
1843.000000	24.400948
1842.000000	24.383033
1841.000000	24.317378
1840.000000	24.273884
1839.000000	24.221691
1838.000000	24.165252
1837.000000	24.079921
1836.000000	24.000286
1835.000000	23.917336
1834.000000	23.807152
1833.000000	23.716436
1832.000000	23.640528
1831.000000	23.548673
1830.000000	23.466345
1829.000000	23.381429
1828.000000	23.292473
1827.000000	23.221847
1826.000000	23.146250
1825.000000	23.076764
1824.000000	23.032338
1823.000000	23.037205
1822.000000	23.042901
1821.000000	23.017943
1820.000000	22.980248
1819.000000	22.940793
1818.000000	22.922567
1817.000000	22.922671
1816.000000	22.916147
1815.000000	22.906930
1814.000000	22.905687
1813.000000	22.887979
1812.000000	22.870167
1811.000000	22.838065
1810.000000	22.789600
1809.000000	22.741135
1808.000000	22.694534
1807.000000	22.653215
1806.000000	22.590045
1805.000000	22.516831
1804.000000	22.464016
1803.000000	22.423215
1802.000000	22.382724
1801.000000	22.322868
1800.000000	22.252656
1799.000000	22.206263
1798.000000	22.156659
1797.000000	22.103327
1796.000000	22.052377
1795.000000	21.990036
1794.000000	21.941674
1793.000000	21.878919
1792.000000	21.817199
1791.000000	21.741188
1790.000000	21.670976
1789.000000	21.601800
1788.000000	21.536145
1787.000000	21.459306
1786.000000	21.355645
1785.000000	21.256437
1784.000000	21.187054
1783.000000	21.096338
1782.000000	20.989467
1781.000000	20.894712
1780.000000	20.792605
1779.000000	20.684181
1778.000000	20.591704
1777.000000	20.466193
1776.000000	20.330741
1775.000000	20.177890
1774.000000	20.039227
1773.000000	19.894869
1772.000000	19.725656
1771.000000	19.594450
1770.000000	19.442014
1769.000000	19.315467
1768.000000	19.208700
1767.000000	19.099654
1766.000000	18.989987
1765.000000	18.933445
1764.000000	18.920707
1763.000000	18.911491
1762.000000	18.931684
1761.000000	18.978906
1760.000000	19.051707
1759.000000	19.120987
1758.000000	19.180946
1757.000000	19.246187
1756.000000	19.269798
1755.000000	19.302004
1754.000000	19.286057
1753.000000	19.289578
1752.000000	19.236556
1751.000000	19.179807
1750.000000	19.105764
1749.000000	19.031617
1748.000000	18.920397
1747.000000	18.798096
1746.000000	18.668546
1745.000000	18.493741
1744.000000	18.295740
1743.000000	18.072368
1742.000000	17.846820
1741.000000	17.595280
1740.000000	17.351818
1739.000000	17.127616
1738.000000	16.932308
1737.000000	16.753050
1736.000000	16.670101
1735.000000	16.609417
1734.000000	16.610349
1733.000000	16.622051
1732.000000	16.688224
1731.000000	16.797580
1730.000000	16.906419
1729.000000	17.018985
1728.000000	17.132794
1727.000000	17.226410
1726.000000	17.302214
1725.000000	17.339287
1724.000000	17.392515
1723.000000	17.412191
1722.000000	17.446572
1721.000000	17.441705
1720.000000	17.463141
1719.000000	17.493691
1718.000000	17.564938
1717.000000	17.610710
1716.000000	17.663731
1715.000000	17.720066
1714.000000	17.807054
1713.000000	17.850445
1712.000000	17.880684
1711.000000	17.925834
1710.000000	17.929873
1709.000000	17.930080
1708.000000	17.927284
1707.000000	17.900152
1706.000000	17.866496
1705.000000	17.813061
1704.000000	17.775884
1703.000000	17.666527
1702.000000	17.552200
1701.000000	17.438909
1700.000000	17.277360
1699.000000	17.145325
1698.000000	17.027166
1697.000000	16.940903
1696.000000	16.925784
1695.000000	16.930340
1694.000000	17.006248
1693.000000	17.170386
1692.000000	17.316919
1691.000000	17.458792
1690.000000	17.593209
1689.000000	17.673052
1688.000000	17.681233
1687.000000	17.665388
1686.000000	17.674916
1685.000000	17.732183
1684.000000	17.878509
1683.000000	18.154592
1682.000000	18.533818
1681.000000	19.033481
1680.000000	19.634423
1679.000000	20.143716
1678.000000	20.690912
1677.000000	21.182083
1676.000000	21.602421
1675.000000	22.062836
1674.000000	22.400329
1673.000000	22.678172
1672.000000	22.928366
1671.000000	23.126368
1670.000000	23.302104
1669.000000	23.458268
1668.000000	23.593721
1667.000000	23.736733
1666.000000	23.822685
1665.000000	23.899007
1664.000000	23.977503
1663.000000	24.032388
1662.000000	24.087481
1661.000000	24.123933
1660.000000	24.155518
1659.000000	24.187620
1658.000000	24.203050
1657.000000	24.198908
1656.000000	24.209264
1655.000000	24.200772
1654.000000	24.171880
1653.000000	24.167634
1652.000000	24.139156
1651.000000	24.089759
1650.000000	24.075779
1649.000000	24.020169
1648.000000	23.978539
1647.000000	23.922721
1646.000000	23.856859
1645.000000	23.798764
1644.000000	23.747606
1643.000000	23.700074
1642.000000	23.617539
1641.000000	23.548052
1640.000000	23.483329
1639.000000	23.409493
1638.000000	23.332135
1637.000000	23.258196
1636.000000	23.191608
1635.000000	23.118290
1634.000000	23.030577
1633.000000	22.959537
1632.000000	22.877416
1631.000000	22.793121
1630.000000	22.711725
1629.000000	22.628465
1628.000000	22.556700
1627.000000	22.469505
1626.000000	22.386970
1625.000000	22.287555
1624.000000	22.217861
1623.000000	22.134498
1622.000000	22.049270
1621.000000	21.971913
1620.000000	21.886479
1619.000000	21.811089
1618.000000	21.740360
1617.000000	21.683921
1616.000000	21.607910
1615.000000	21.516469
1614.000000	21.462827
1613.000000	21.400899
