PE UV       SUBTECH     SPECTRUM    ASCII       PEDS        4.00        
   -1
CICIMAUCR0018-3fail.Sample.ASC
24/04/17
10:06:15.00
24/04/17
10:06:15.00
Vinicio Soto Monge
C. cupreomarginata raro
250,000000
1
Lambda 1050
1050L1511233
PerkinElmer UV WinLab 6.3.2.0749 / 2.02.05 Lambda 900 UV/VIS/NIR, Aug  7 2015 09:38:08

0
0
3350/servo 860,8/2
0
0
UV/VIS
1
1
1
DoubleDePol,CommonBeamDepol,RBeamAtt,SBeamAtt,60mm sphere, WB InGaAs Detector
0
0
0
0
Program
Program
3350/servo 860,8/2
3350/0,2 860,8/0,2
3350/0,2 860,8/0,2
0
15.00
 
 
 
0
 
860,8
319,2
860,8
Front
100
on
S:100 R:100
0
0
0
0
 
0
 
 
 
0
 
 
0
0
0
0
0
 
 
 
 
0
0


0
0
#HDR
-1
-1
#GR
nm
%R
1.0
0.0
2500,000000
-1,000000
2251
8
51,088700
2,933400
#DATA
2500.000000	11.597300
2499.000000	11.563300
2498.000000	11.596400
2497.000000	11.483500
2496.000000	11.568600
2495.000000	11.456100
2494.000000	11.496800
2493.000000	11.449400
2492.000000	11.411400
2491.000000	11.484100
2490.000000	11.554200
2489.000000	11.466300
2488.000000	11.490300
2487.000000	11.428100
2486.000000	11.447200
2485.000000	11.451900
2484.000000	11.476300
2483.000000	11.463200
2482.000000	11.461400
2481.000000	11.461100
2480.000000	11.425300
2479.000000	11.495300
2478.000000	11.516100
2477.000000	11.442400
2476.000000	11.483200
2475.000000	11.540500
2474.000000	11.554300
2473.000000	11.569900
2472.000000	11.554800
2471.000000	11.587600
2470.000000	11.649100
2469.000000	11.682600
2468.000000	11.717400
2467.000000	11.704800
2466.000000	11.694600
2465.000000	11.750900
2464.000000	11.795400
2463.000000	11.804200
2462.000000	11.815600
2461.000000	11.864700
2460.000000	11.895800
2459.000000	11.937200
2458.000000	11.956800
2457.000000	12.000600
2456.000000	12.060600
2455.000000	12.090700
2454.000000	12.167300
2453.000000	12.219300
2452.000000	12.269300
2451.000000	12.337900
2450.000000	12.410600
2449.000000	12.478500
2448.000000	12.542100
2447.000000	12.614800
2446.000000	12.686100
2445.000000	12.736200
2444.000000	12.832800
2443.000000	12.888500
2442.000000	12.953100
2441.000000	13.017700
2440.000000	13.069600
2439.000000	13.163300
2438.000000	13.229100
2437.000000	13.289500
2436.000000	13.353300
2435.000000	13.409300
2434.000000	13.475300
2433.000000	13.515100
2432.000000	13.577300
2431.000000	13.619200
2430.000000	13.675000
2429.000000	13.723900
2428.000000	13.782800
2427.000000	13.832100
2426.000000	13.887100
2425.000000	13.916100
2424.000000	13.954600
2423.000000	14.001600
2422.000000	14.037800
2421.000000	14.086400
2420.000000	14.129300
2419.000000	14.178500
2418.000000	14.223100
2417.000000	14.247800
2416.000000	14.295800
2415.000000	14.349400
2414.000000	14.398700
2413.000000	14.428700
2412.000000	14.461400
2411.000000	14.497900
2410.000000	14.520600
2409.000000	14.545000
2408.000000	14.581500
2407.000000	14.615300
2406.000000	14.623000
2405.000000	14.637800
2404.000000	14.670500
2403.000000	14.692400
2402.000000	14.716000
2401.000000	14.723600
2400.000000	14.734900
2399.000000	14.767900
2398.000000	14.773900
2397.000000	14.782800
2396.000000	14.802300
2395.000000	14.810600
2394.000000	14.835600
2393.000000	14.865900
2392.000000	14.863200
2391.000000	14.865500
2390.000000	14.870200
2389.000000	14.879100
2388.000000	14.877500
2387.000000	14.887300
2386.000000	14.891200
2385.000000	14.886800
2384.000000	14.889800
2383.000000	14.875800
2382.000000	14.871800
2381.000000	14.877400
2380.000000	14.869400
2379.000000	14.848200
2378.000000	14.830100
2377.000000	14.835100
2376.000000	14.835400
2375.000000	14.822300
2374.000000	14.804400
2373.000000	14.785100
2372.000000	14.787000
2371.000000	14.794800
2370.000000	14.787600
2369.000000	14.785900
2368.000000	14.782900
2367.000000	14.753800
2366.000000	14.758400
2365.000000	14.776800
2364.000000	14.774900
2363.000000	14.761600
2362.000000	14.765900
2361.000000	14.778000
2360.000000	14.770500
2359.000000	14.755000
2358.000000	14.756500
2357.000000	14.772700
2356.000000	14.760400
2355.000000	14.740400
2354.000000	14.733400
2353.000000	14.738500
2352.000000	14.745900
2351.000000	14.747800
2350.000000	14.757800
2349.000000	14.740600
2348.000000	14.718000
2347.000000	14.727600
2346.000000	14.732000
2345.000000	14.727200
2344.000000	14.721600
2343.000000	14.717200
2342.000000	14.725600
2341.000000	14.741400
2340.000000	14.745500
2339.000000	14.741600
2338.000000	14.766200
2337.000000	14.760900
2336.000000	14.778100
2335.000000	14.811100
2334.000000	14.816000
2333.000000	14.823900
2332.000000	14.830400
2331.000000	14.853500
2330.000000	14.881700
2329.000000	14.896800
2328.000000	14.919100
2327.000000	14.931100
2326.000000	14.956300
2325.000000	14.979800
2324.000000	14.978800
2323.000000	15.001500
2322.000000	15.003000
2321.000000	14.991700
2320.000000	15.000400
2319.000000	14.993700
2318.000000	14.981500
2317.000000	14.972200
2316.000000	14.984800
2315.000000	14.983300
2314.000000	14.952600
2313.000000	14.930500
2312.000000	14.910000
2311.000000	14.878200
2310.000000	14.846000
2309.000000	14.811300
2308.000000	14.799500
2307.000000	14.790300
2306.000000	14.775800
2305.000000	14.756600
2304.000000	14.767600
2303.000000	14.769700
2302.000000	14.750900
2301.000000	14.754700
2300.000000	14.761700
2299.000000	14.766500
2298.000000	14.763400
2297.000000	14.787000
2296.000000	14.797600
2295.000000	14.812300
2294.000000	14.853400
2293.000000	14.859300
2292.000000	14.881700
2291.000000	14.904600
2290.000000	14.932200
2289.000000	14.934400
2288.000000	14.980900
2287.000000	15.011900
2286.000000	15.049600
2285.000000	15.087600
2284.000000	15.112900
2283.000000	15.159600
2282.000000	15.177300
2281.000000	15.203200
2280.000000	15.233700
2279.000000	15.278700
2278.000000	15.291000
2277.000000	15.313800
2276.000000	15.352200
2275.000000	15.381200
2274.000000	15.386400
2273.000000	15.404400
2272.000000	15.446000
2271.000000	15.498500
2270.000000	15.539500
2269.000000	15.560500
2268.000000	15.602300
2267.000000	15.655500
2266.000000	15.712300
2265.000000	15.768500
2264.000000	15.826500
2263.000000	15.921000
2262.000000	16.048600
2261.000000	16.128400
2260.000000	16.243200
2259.000000	16.328900
2258.000000	16.453700
2257.000000	16.612900
2256.000000	16.741300
2255.000000	16.873900
2254.000000	16.985400
2253.000000	17.106200
2252.000000	17.260400
2251.000000	17.372900
2250.000000	17.479600
2249.000000	17.600300
2248.000000	17.705400
2247.000000	17.830300
2246.000000	17.917600
2245.000000	18.001200
2244.000000	18.076600
2243.000000	18.171400
2242.000000	18.224400
2241.000000	18.284200
2240.000000	18.337600
2239.000000	18.370000
2238.000000	18.434900
2237.000000	18.474300
2236.000000	18.471200
2235.000000	18.494300
2234.000000	18.473300
2233.000000	18.476300
2232.000000	18.499000
2231.000000	18.477100
2230.000000	18.424000
2229.000000	18.427000
2228.000000	18.410200
2227.000000	18.364800
2226.000000	18.299400
2225.000000	18.306600
2224.000000	18.239700
2223.000000	18.193100
2222.000000	18.136400
2221.000000	18.092700
2220.000000	18.032600
2219.000000	17.971400
2218.000000	17.900400
2217.000000	17.855600
2216.000000	17.806800
2215.000000	17.745900
2214.000000	17.700000
2213.000000	17.657900
2212.000000	17.588800
2211.000000	17.539600
2210.000000	17.499500
2209.000000	17.463100
2208.000000	17.426800
2207.000000	17.377400
2206.000000	17.350600
2205.000000	17.327600
2204.000000	17.303400
2203.000000	17.284700
2202.000000	17.245400
2201.000000	17.232100
2200.000000	17.211900
2199.000000	17.202900
2198.000000	17.170600
2197.000000	17.160100
2196.000000	17.132400
2195.000000	17.085600
2194.000000	17.077400
2193.000000	17.080500
2192.000000	17.066100
2191.000000	17.037300
2190.000000	17.010900
2189.000000	17.000500
2188.000000	17.005500
2187.000000	16.999900
2186.000000	16.984200
2185.000000	16.949200
2184.000000	16.922100
2183.000000	16.923100
2182.000000	16.903700
2181.000000	16.897600
2180.000000	16.874800
2179.000000	16.862600
2178.000000	16.882900
2177.000000	16.879200
2176.000000	16.854300
2175.000000	16.825800
2174.000000	16.826000
2173.000000	16.843000
2172.000000	16.869000
2171.000000	16.885000
2170.000000	16.887000
2169.000000	16.900100
2168.000000	16.925000
2167.000000	16.961600
2166.000000	16.988100
2165.000000	16.995900
2164.000000	17.023000
2163.000000	17.067900
2162.000000	17.112000
2161.000000	17.140300
2160.000000	17.201600
2159.000000	17.278000
2158.000000	17.339200
2157.000000	17.412200
2156.000000	17.465700
2155.000000	17.544800
2154.000000	17.628400
2153.000000	17.712500
2152.000000	17.799800
2151.000000	17.878800
2150.000000	17.974700
2149.000000	18.046200
2148.000000	18.134200
2147.000000	18.220500
2146.000000	18.318100
2145.000000	18.405400
2144.000000	18.492100
2143.000000	18.564900
2142.000000	18.648300
2141.000000	18.738300
2140.000000	18.817800
2139.000000	18.912600
2138.000000	18.982400
2137.000000	19.042000
2136.000000	19.121200
2135.000000	19.192100
2134.000000	19.260700
2133.000000	19.351100
2132.000000	19.425600
2131.000000	19.475700
2130.000000	19.547800
2129.000000	19.625400
2128.000000	19.673600
2127.000000	19.714400
2126.000000	19.765100
2125.000000	19.828200
2124.000000	19.870700
2123.000000	19.916900
2122.000000	19.949500
2121.000000	19.980400
2120.000000	20.024000
2119.000000	20.063000
2118.000000	20.102400
2117.000000	20.127900
2116.000000	20.157700
2115.000000	20.201600
2114.000000	20.195100
2113.000000	20.210000
2112.000000	20.237700
2111.000000	20.231400
2110.000000	20.245800
2109.000000	20.294800
2108.000000	20.308900
2107.000000	20.303000
2106.000000	20.315800
2105.000000	20.323900
2104.000000	20.319800
2103.000000	20.336100
2102.000000	20.352200
2101.000000	20.353000
2100.000000	20.367800
2099.000000	20.394400
2098.000000	20.392500
2097.000000	20.390800
2096.000000	20.414100
2095.000000	20.421200
2094.000000	20.436100
2093.000000	20.456200
2092.000000	20.473800
2091.000000	20.493600
2090.000000	20.516000
2089.000000	20.518000
2088.000000	20.526500
2087.000000	20.544400
2086.000000	20.548300
2085.000000	20.559100
2084.000000	20.546600
2083.000000	20.523000
2082.000000	20.516400
2081.000000	20.499600
2080.000000	20.460100
2079.000000	20.435200
2078.000000	20.397800
2077.000000	20.346600
2076.000000	20.312400
2075.000000	20.260900
2074.000000	20.193100
2073.000000	20.135500
2072.000000	20.066500
2071.000000	19.981700
2070.000000	19.910100
2069.000000	19.839400
2068.000000	19.750000
2067.000000	19.678100
2066.000000	19.591600
2065.000000	19.496000
2064.000000	19.419700
2063.000000	19.352900
2062.000000	19.277700
2061.000000	19.231200
2060.000000	19.167800
2059.000000	19.098600
2058.000000	19.051900
2057.000000	19.024100
2056.000000	19.012200
2055.000000	19.017300
2054.000000	19.021900
2053.000000	19.030900
2052.000000	19.064700
2051.000000	19.142400
2050.000000	19.207200
2049.000000	19.299700
2048.000000	19.406500
2047.000000	19.479800
2046.000000	19.566700
2045.000000	19.682600
2044.000000	19.831100
2043.000000	19.938600
2042.000000	20.043900
2041.000000	20.151600
2040.000000	20.282900
2039.000000	20.389600
2038.000000	20.498000
2037.000000	20.611200
2036.000000	20.710400
2035.000000	20.800000
2034.000000	20.921900
2033.000000	21.000500
2032.000000	21.076100
2031.000000	21.161300
2030.000000	21.247000
2029.000000	21.345600
2028.000000	21.424600
2027.000000	21.466900
2026.000000	21.524400
2025.000000	21.580400
2024.000000	21.638500
2023.000000	21.712700
2022.000000	21.759300
2021.000000	21.800500
2020.000000	21.816800
2019.000000	21.869900
2018.000000	21.893800
2017.000000	21.930100
2016.000000	21.942600
2015.000000	21.961000
2014.000000	21.991000
2013.000000	22.005700
2012.000000	22.012400
2011.000000	21.993700
2010.000000	21.991600
2009.000000	21.992900
2008.000000	21.986800
2007.000000	21.967500
2006.000000	21.946300
2005.000000	21.927000
2004.000000	21.894300
2003.000000	21.871400
2002.000000	21.839400
2001.000000	21.794200
2000.000000	21.748500
1999.000000	21.703900
1998.000000	21.666400
1997.000000	21.601100
1996.000000	21.541500
1995.000000	21.477900
1994.000000	21.435600
1993.000000	21.361900
1992.000000	21.279100
1991.000000	21.200700
1990.000000	21.137400
1989.000000	21.076500
1988.000000	20.980800
1987.000000	20.910300
1986.000000	20.836500
1985.000000	20.775800
1984.000000	20.706200
1983.000000	20.613500
1982.000000	20.540300
1981.000000	20.459400
1980.000000	20.377400
1979.000000	20.302300
1978.000000	20.225400
1977.000000	20.170900
1976.000000	20.074300
1975.000000	19.987300
1974.000000	19.935300
1973.000000	19.847800
1972.000000	19.777800
1971.000000	19.722000
1970.000000	19.669100
1969.000000	19.574600
1968.000000	19.500700
1967.000000	19.424200
1966.000000	19.355800
1965.000000	19.295500
1964.000000	19.220800
1963.000000	19.150900
1962.000000	19.093800
1961.000000	19.009100
1960.000000	18.915000
1959.000000	18.833200
1958.000000	18.759400
1957.000000	18.701100
1956.000000	18.616400
1955.000000	18.544800
1954.000000	18.467700
1953.000000	18.408600
1952.000000	18.337900
1951.000000	18.236300
1950.000000	18.154900
1949.000000	18.100400
1948.000000	18.039200
1947.000000	17.983400
1946.000000	17.946100
1945.000000	17.901900
1944.000000	17.857100
1943.000000	17.812900
1942.000000	17.730400
1941.000000	17.680300
1940.000000	17.628500
1939.000000	17.620300
1938.000000	17.637300
1937.000000	17.656200
1936.000000	17.638800
1935.000000	17.651300
1934.000000	17.634200
1933.000000	17.661100
1932.000000	17.657900
1931.000000	17.689500
1930.000000	17.717900
1929.000000	17.779900
1928.000000	17.886400
1927.000000	17.993800
1926.000000	18.071300
1925.000000	18.166300
1924.000000	18.215100
1923.000000	18.265100
1922.000000	18.417400
1921.000000	18.641200
1920.000000	18.846800
1919.000000	19.013600
1918.000000	19.183600
1917.000000	19.296600
1916.000000	19.392600
1915.000000	19.543900
1914.000000	19.818500
1913.000000	20.161700
1912.000000	20.475200
1911.000000	20.727500
1910.000000	20.948600
1909.000000	21.043900
1908.000000	21.238100
1907.000000	21.537600
1906.000000	21.923600
1905.000000	22.436000
1904.000000	22.856400
1903.000000	23.171100
1902.000000	23.467300
1901.000000	23.806500
1900.000000	24.287700
1899.000000	24.864000
1898.000000	25.392200
1897.000000	25.823600
1896.000000	26.125100
1895.000000	26.338500
1894.000000	26.691000
1893.000000	27.105200
1892.000000	27.634800
1891.000000	28.161700
1890.000000	28.601400
1889.000000	28.974200
1888.000000	29.340700
1887.000000	29.622100
1886.000000	29.937600
1885.000000	30.332100
1884.000000	30.726000
1883.000000	31.051400
1882.000000	31.345300
1881.000000	31.615200
1880.000000	31.757300
1879.000000	31.911700
1878.000000	32.105700
1877.000000	32.262900
1876.000000	32.414800
1875.000000	32.629000
1874.000000	32.761600
1873.000000	32.956500
1872.000000	33.182900
1871.000000	33.412400
1870.000000	33.722700
1869.000000	33.988900
1868.000000	34.173700
1867.000000	34.286300
1866.000000	34.288900
1865.000000	34.323500
1864.000000	34.303100
1863.000000	34.221600
1862.000000	34.202900
1861.000000	34.290700
1860.000000	34.402300
1859.000000	34.525100
1858.000000	34.645700
1857.000000	34.664300
1856.000000	34.594500
1855.000000	34.644700
1854.000000	34.771500
1853.000000	34.813700
1852.000000	34.832700
1851.000000	34.742900
1850.000000	34.563200
1849.000000	34.538800
1848.000000	34.778700
1847.000000	35.062400
1846.000000	35.120900
1845.000000	34.944100
1844.000000	34.679000
1843.000000	34.566800
1842.000000	34.680300
1841.000000	34.842800
1840.000000	34.866600
1839.000000	34.758300
1838.000000	34.669700
1837.000000	34.754500
1836.000000	34.890900
1835.000000	34.943100
1834.000000	34.863800
1833.000000	34.697900
1832.000000	34.584700
1831.000000	34.569100
1830.000000	34.632500
1829.000000	34.651900
1828.000000	34.592800
1827.000000	34.608300
1826.000000	34.678000
1825.000000	34.655700
1824.000000	34.550900
1823.000000	34.406200
1822.000000	34.411300
1821.000000	34.576900
1820.000000	34.712700
1819.000000	34.704400
1818.000000	34.608200
1817.000000	34.539000
1816.000000	34.567800
1815.000000	34.602400
1814.000000	34.606300
1813.000000	34.570300
1812.000000	34.541700
1811.000000	34.561500
1810.000000	34.556500
1809.000000	34.494300
1808.000000	34.437100
1807.000000	34.451800
1806.000000	34.483700
1805.000000	34.475500
1804.000000	34.432900
1803.000000	34.404500
1802.000000	34.425800
1801.000000	34.440400
1800.000000	34.419200
1799.000000	34.357200
1798.000000	34.318300
1797.000000	34.315200
1796.000000	34.316600
1795.000000	34.303100
1794.000000	34.299300
1793.000000	34.300500
1792.000000	34.296000
1791.000000	34.270500
1790.000000	34.258300
1789.000000	34.257200
1788.000000	34.246700
1787.000000	34.231000
1786.000000	34.248400
1785.000000	34.251800
1784.000000	34.246100
1783.000000	34.232200
1782.000000	34.233900
1781.000000	34.226700
1780.000000	34.210300
1779.000000	34.205500
1778.000000	34.186100
1777.000000	34.160300
1776.000000	34.136500
1775.000000	34.114100
1774.000000	34.080600
1773.000000	34.061000
1772.000000	34.026600
1771.000000	34.018300
1770.000000	33.986000
1769.000000	33.956800
1768.000000	33.915500
1767.000000	33.872800
1766.000000	33.830500
1765.000000	33.805200
1764.000000	33.804600
1763.000000	33.765100
1762.000000	33.758700
1761.000000	33.763900
1760.000000	33.749700
1759.000000	33.745600
1758.000000	33.715500
1757.000000	33.708000
1756.000000	33.720300
1755.000000	33.741300
1754.000000	33.707100
1753.000000	33.691300
1752.000000	33.658300
1751.000000	33.624300
1750.000000	33.619100
1749.000000	33.600300
1748.000000	33.534600
1747.000000	33.521500
1746.000000	33.485900
1745.000000	33.435700
1744.000000	33.385200
1743.000000	33.340900
1742.000000	33.284900
1741.000000	33.231900
1740.000000	33.182300
1739.000000	33.110900
1738.000000	33.057600
1737.000000	33.025700
1736.000000	32.997600
1735.000000	32.977300
1734.000000	32.951100
1733.000000	32.936500
1732.000000	32.911700
1731.000000	32.885400
1730.000000	32.855900
1729.000000	32.818100
1728.000000	32.794900
1727.000000	32.783600
1726.000000	32.750600
1725.000000	32.756400
1724.000000	32.754200
1723.000000	32.797800
1722.000000	32.832300
1721.000000	32.910300
1720.000000	33.049100
1719.000000	33.172200
1718.000000	33.306200
1717.000000	33.442000
1716.000000	33.583700
1715.000000	33.723800
1714.000000	33.855100
1713.000000	33.964600
1712.000000	34.096700
1711.000000	34.177600
1710.000000	34.248000
1709.000000	34.315500
1708.000000	34.360100
1707.000000	34.418300
1706.000000	34.468700
1705.000000	34.498600
1704.000000	34.514700
1703.000000	34.530100
1702.000000	34.549500
1701.000000	34.545800
1700.000000	34.551500
1699.000000	34.543300
1698.000000	34.528000
1697.000000	34.523800
1696.000000	34.509200
1695.000000	34.480100
1694.000000	34.439400
1693.000000	34.408900
1692.000000	34.380100
1691.000000	34.328300
1690.000000	34.292000
1689.000000	34.286900
1688.000000	34.291800
1687.000000	34.333900
1686.000000	34.435300
1685.000000	34.521700
1684.000000	34.665500
1683.000000	34.837200
1682.000000	34.999100
1681.000000	35.159500
1680.000000	35.306900
1679.000000	35.443700
1678.000000	35.585900
1677.000000	35.736100
1676.000000	35.870100
1675.000000	36.014500
1674.000000	36.133800
1673.000000	36.266400
1672.000000	36.374700
1671.000000	36.487400
1670.000000	36.626300
1669.000000	36.746100
1668.000000	36.862100
1667.000000	36.950600
1666.000000	37.078600
1665.000000	37.180500
1664.000000	37.269900
1663.000000	37.343800
1662.000000	37.425300
1661.000000	37.527900
1660.000000	37.614700
1659.000000	37.643300
1658.000000	37.671200
1657.000000	37.720400
1656.000000	37.796000
1655.000000	37.836600
1654.000000	37.880700
1653.000000	37.898300
1652.000000	37.912400
1651.000000	37.915400
1650.000000	37.920000
1649.000000	37.934400
1648.000000	37.948900
1647.000000	37.941300
1646.000000	37.940100
1645.000000	37.943900
1644.000000	37.945400
1643.000000	37.940800
1642.000000	37.931500
1641.000000	37.917000
1640.000000	37.922700
1639.000000	37.922200
1638.000000	37.905400
1637.000000	37.888700
1636.000000	37.885000
1635.000000	37.881000
1634.000000	37.865500
1633.000000	37.843500
1632.000000	37.831700
1631.000000	37.814400
1630.000000	37.810400
1629.000000	37.786700
1628.000000	37.748600
1627.000000	37.719900
1626.000000	37.707600
1625.000000	37.686300
