PE UV       SUBTECH     SPECTRUM    ASCII       PEDS        4.00        
   -1
CICIMAUCR0019-6.Sample.ASC
24/04/25
16:41:35.00
24/04/25
16:41:35.00
Vinicio Soto Monge
C. cupreomarginata
250,000000
1
Lambda 1050
1050L1511233
PerkinElmer UV WinLab 6.3.2.0749 / 2.02.05 Lambda 900 UV/VIS/NIR, Aug  7 2015 09:38:08

0
0
3350/servo 860,8/2
0
0
UV/VIS
1
1
1
DoubleDePol,CommonBeamDepol,RBeamAtt,SBeamAtt,60mm sphere, WB InGaAs Detector
0
0
0
0
Program
Program
3350/servo 860,8/2
3350/0,2 860,8/0,2
3350/0,2 860,8/0,2
0
15.00
 
 
 
0
 
860,8
319,2
860,8
Front
100
on
S:100 R:100
0
0
0
0
 
0
 
 
 
0
 
 
0
0
0
0
0
 
 
 
 
0
0


0
0
#HDR
-1
-1
#GR
nm
%R
1.0
0.0
2500,000000
-1,000000
2251
8
72,684700
5,566800
#DATA
2500.000000	11.359765
2499.000000	11.281718
2498.000000	11.218516
2497.000000	11.333556
2496.000000	11.158328
2495.000000	11.300041
2494.000000	11.255742
2493.000000	11.224546
2492.000000	11.089212
2491.000000	11.085501
2490.000000	11.170273
2489.000000	11.090255
2488.000000	11.072628
2487.000000	11.036214
2486.000000	11.044564
2485.000000	11.002120
2484.000000	11.006990
2483.000000	11.039693
2482.000000	11.016963
2481.000000	10.993654
2480.000000	11.046071
2479.000000	11.040621
2478.000000	11.014180
2477.000000	11.052450
2476.000000	11.030648
2475.000000	11.006874
2474.000000	11.046999
2473.000000	11.051174
2472.000000	11.068221
2471.000000	11.082253
2470.000000	11.081326
2469.000000	11.167722
2468.000000	11.154386
2467.000000	11.092111
2466.000000	11.160068
2465.000000	11.122030
2464.000000	11.189060
2463.000000	11.252842
2462.000000	11.271977
2461.000000	11.357446
2460.000000	11.408356
2459.000000	11.433984
2458.000000	11.493940
2457.000000	11.602486
2456.000000	11.662789
2455.000000	11.771104
2454.000000	11.832219
2453.000000	11.930676
2452.000000	12.051746
2451.000000	12.142201
2450.000000	12.226626
2449.000000	12.335172
2448.000000	12.457750
2447.000000	12.574530
2446.000000	12.642255
2445.000000	12.721694
2444.000000	12.819107
2443.000000	12.913041
2442.000000	13.005931
2441.000000	13.085601
2440.000000	13.209803
2439.000000	13.289589
2438.000000	13.381552
2437.000000	13.452756
2436.000000	13.554692
2435.000000	13.645263
2434.000000	13.715888
2433.000000	13.776191
2432.000000	13.854585
2431.000000	13.918716
2430.000000	13.990964
2429.000000	14.062052
2428.000000	14.113658
2427.000000	14.163292
2426.000000	14.235424
2425.000000	14.263836
2424.000000	14.298743
2423.000000	14.366584
2422.000000	14.405202
2421.000000	14.446486
2420.000000	14.470260
2419.000000	14.503890
2418.000000	14.563498
2417.000000	14.598172
2416.000000	14.644560
2415.000000	14.696397
2414.000000	14.708806
2413.000000	14.745684
2412.000000	14.788592
2411.000000	14.866290
2410.000000	14.958137
2409.000000	15.049056
2408.000000	15.155051
2407.000000	15.227879
2406.000000	15.237156
2405.000000	15.271019
2404.000000	15.314623
2403.000000	15.360082
2402.000000	15.423401
2401.000000	15.497273
2400.000000	15.515595
2399.000000	15.582393
2398.000000	15.655801
2397.000000	15.686300
2396.000000	15.743241
2395.000000	15.797398
2394.000000	15.835551
2393.000000	15.893535
2392.000000	15.907915
2391.000000	15.930993
2390.000000	15.977032
2389.000000	16.038843
2388.000000	16.070966
2387.000000	16.074098
2386.000000	16.072938
2385.000000	16.068415
2384.000000	16.082911
2383.000000	16.097523
2382.000000	16.100306
2381.000000	16.108772
2380.000000	16.103553
2379.000000	16.054963
2378.000000	16.064820
2377.000000	16.079896
2376.000000	16.034552
2375.000000	16.005213
2374.000000	16.002777
2373.000000	15.987006
2372.000000	15.933544
2371.000000	15.894115
2370.000000	15.865587
2369.000000	15.811430
2368.000000	15.743125
2367.000000	15.694070
2366.000000	15.643508
2365.000000	15.569984
2364.000000	15.510377
2363.000000	15.431751
2362.000000	15.338048
2361.000000	15.259654
2360.000000	15.198307
2359.000000	15.143570
2358.000000	15.070626
2357.000000	15.026558
2356.000000	14.995015
2355.000000	14.951411
2354.000000	14.923463
2353.000000	14.915925
2352.000000	14.936103
2351.000000	14.956166
2350.000000	14.986433
2349.000000	15.051607
2348.000000	15.119913
2347.000000	15.198191
2346.000000	15.274150
2345.000000	15.333758
2344.000000	15.374694
2343.000000	15.449030
2342.000000	15.546907
2341.000000	15.590859
2340.000000	15.604543
2339.000000	15.632607
2338.000000	15.672500
2337.000000	15.680038
2336.000000	15.702420
2335.000000	15.693143
2334.000000	15.653829
2333.000000	15.620315
2332.000000	15.619271
2331.000000	15.590743
2330.000000	15.498664
2329.000000	15.418414
2328.000000	15.363561
2327.000000	15.298967
2326.000000	15.207932
2325.000000	15.115390
2324.000000	15.002785
2323.000000	14.892731
2322.000000	14.792419
2321.000000	14.679698
2320.000000	14.514211
2319.000000	14.343043
2318.000000	14.192632
2317.000000	14.061124
2316.000000	13.931704
2315.000000	13.790455
2314.000000	13.642248
2313.000000	13.516075
2312.000000	13.404861
2311.000000	13.318117
2310.000000	13.203889
2309.000000	13.132452
2308.000000	13.097082
2307.000000	13.078759
2306.000000	13.097778
2305.000000	13.145093
2304.000000	13.187885
2303.000000	13.257698
2302.000000	13.361257
2301.000000	13.476414
2300.000000	13.608385
2299.000000	13.735602
2298.000000	13.858528
2297.000000	13.969973
2296.000000	14.098698
2295.000000	14.228002
2294.000000	14.325068
2293.000000	14.396272
2292.000000	14.499020
2291.000000	14.542508
2290.000000	14.593766
2289.000000	14.590866
2288.000000	14.611857
2287.000000	14.623569
2286.000000	14.596897
2285.000000	14.568832
2284.000000	14.519894
2283.000000	14.451009
2282.000000	14.387342
2281.000000	14.338984
2280.000000	14.298279
2279.000000	14.238671
2278.000000	14.165264
2277.000000	14.145897
2276.000000	14.086521
2275.000000	14.041990
2274.000000	14.006503
2273.000000	14.014737
2272.000000	14.030045
2271.000000	14.068430
2270.000000	14.131517
2269.000000	14.204345
2268.000000	14.306165
2267.000000	14.438368
2266.000000	14.599448
2265.000000	14.784417
2264.000000	15.028646
2263.000000	15.271483
2262.000000	15.525569
2261.000000	15.837175
2260.000000	16.174758
2259.000000	16.516632
2258.000000	16.847720
2257.000000	17.223341
2256.000000	17.577275
2255.000000	17.965536
2254.000000	18.318195
2253.000000	18.680711
2252.000000	19.017134
2251.000000	19.388464
2250.000000	19.689865
2249.000000	19.959607
2248.000000	20.229232
2247.000000	20.478564
2246.000000	20.754683
2245.000000	20.968992
2244.000000	21.176575
2243.000000	21.377200
2242.000000	21.569823
2241.000000	21.713623
2240.000000	21.869368
2239.000000	22.000992
2238.000000	22.147576
2237.000000	22.313990
2236.000000	22.408040
2235.000000	22.498379
2234.000000	22.552768
2233.000000	22.654240
2232.000000	22.701787
2231.000000	22.797228
2230.000000	22.821814
2229.000000	22.858807
2228.000000	22.880262
2227.000000	22.851270
2226.000000	22.879566
2225.000000	22.860431
2224.000000	22.882233
2223.000000	22.890467
2222.000000	22.835150
2221.000000	22.778094
2220.000000	22.724053
2219.000000	22.735417
2218.000000	22.678593
2217.000000	22.600663
2216.000000	22.556015
2215.000000	22.516006
2214.000000	22.465676
2213.000000	22.422652
2212.000000	22.370002
2211.000000	22.329529
2210.000000	22.295087
2209.000000	22.256585
2208.000000	22.244061
2207.000000	22.172741
2206.000000	22.162303
2205.000000	22.149083
2204.000000	22.136906
2203.000000	22.067558
2202.000000	22.045872
2201.000000	22.010269
2200.000000	22.003543
2199.000000	21.986496
2198.000000	21.970956
2197.000000	21.964578
2196.000000	21.934078
2195.000000	21.925961
2194.000000	21.890358
2193.000000	21.871688
2192.000000	21.859511
2191.000000	21.821937
2190.000000	21.816835
2189.000000	21.782740
2188.000000	21.761402
2187.000000	21.745862
2186.000000	21.712116
2185.000000	21.691357
2184.000000	21.665612
2183.000000	21.641259
2182.000000	21.600206
2181.000000	21.577129
2180.000000	21.553355
2179.000000	21.545122
2178.000000	21.509867
2177.000000	21.487022
2176.000000	21.477976
2175.000000	21.471598
2174.000000	21.477512
2173.000000	21.487022
2172.000000	21.478440
2171.000000	21.464408
2170.000000	21.480991
2169.000000	21.512766
2168.000000	21.536888
2167.000000	21.553239
2166.000000	21.588610
2165.000000	21.628503
2164.000000	21.630010
2163.000000	21.648913
2162.000000	21.678253
2161.000000	21.731482
2160.000000	21.779609
2159.000000	21.826344
2158.000000	21.855800
2157.000000	21.934078
2156.000000	21.999368
2155.000000	22.061759
2154.000000	22.118583
2153.000000	22.214605
2152.000000	22.279431
2151.000000	22.329761
2150.000000	22.406648
2149.000000	22.459066
2148.000000	22.516586
2147.000000	22.599851
2146.000000	22.671055
2145.000000	22.725792
2144.000000	22.781457
2143.000000	22.828076
2142.000000	22.897889
2141.000000	22.946827
2140.000000	22.997737
2139.000000	23.063375
2138.000000	23.128085
2137.000000	23.168674
2136.000000	23.206364
2135.000000	23.246605
2134.000000	23.301457
2133.000000	23.337987
2132.000000	23.364312
2131.000000	23.405481
2130.000000	23.411163
2129.000000	23.428558
2128.000000	23.468451
2127.000000	23.468683
2126.000000	23.477265
2125.000000	23.491761
2124.000000	23.484223
2123.000000	23.485267
2122.000000	23.485383
2121.000000	23.478077
2120.000000	23.469147
2119.000000	23.448505
2118.000000	23.441199
2117.000000	23.423804
2116.000000	23.399682
2115.000000	23.383679
2114.000000	23.341930
2113.000000	23.319664
2112.000000	23.289049
2111.000000	23.246837
2110.000000	23.229325
2109.000000	23.199522
2108.000000	23.170646
2107.000000	23.137711
2106.000000	23.096658
2105.000000	23.063839
2104.000000	23.036702
2103.000000	23.012233
2102.000000	22.989156
2101.000000	22.951930
2100.000000	22.923866
2099.000000	22.914124
2098.000000	22.878174
2097.000000	22.847095
2096.000000	22.823785
2095.000000	22.806970
2094.000000	22.787371
2093.000000	22.772063
2092.000000	22.779369
2091.000000	22.773687
2090.000000	22.742607
2089.000000	22.715819
2088.000000	22.710368
2087.000000	22.712572
2086.000000	22.681376
2085.000000	22.658647
2084.000000	22.641251
2083.000000	22.606693
2082.000000	22.587906
2081.000000	22.578281
2080.000000	22.524356
2079.000000	22.481563
2078.000000	22.463704
2077.000000	22.416737
2076.000000	22.382527
2075.000000	22.344605
2074.000000	22.306684
2073.000000	22.260528
2072.000000	22.190716
2071.000000	22.141545
2070.000000	22.115684
2069.000000	22.066630
2068.000000	21.988931
2067.000000	21.931179
2066.000000	21.891982
2065.000000	21.851625
2064.000000	21.833418
2063.000000	21.791670
2062.000000	21.734729
2061.000000	21.715479
2060.000000	21.709448
2059.000000	21.685791
2058.000000	21.690661
2057.000000	21.718494
2056.000000	21.754328
2055.000000	21.777522
2054.000000	21.854872
2053.000000	21.943704
2052.000000	22.030564
2051.000000	22.153026
2050.000000	22.294043
2049.000000	22.465328
2048.000000	22.612143
2047.000000	22.775658
2046.000000	22.974776
2045.000000	23.159745
2044.000000	23.352135
2043.000000	23.560994
2042.000000	23.750718
2041.000000	23.975116
2040.000000	24.169942
2039.000000	24.350040
2038.000000	24.572119
2037.000000	24.738649
2036.000000	24.929301
2035.000000	25.097107
2034.000000	25.255751
2033.000000	25.418222
2032.000000	25.569096
2031.000000	25.714056
2030.000000	25.870381
2029.000000	25.982291
2028.000000	26.083879
2027.000000	26.230926
2026.000000	26.355360
2025.000000	26.446974
2024.000000	26.569089
2023.000000	26.635423
2022.000000	26.750115
2021.000000	26.844861
2020.000000	26.915485
2019.000000	26.985530
2018.000000	27.047805
2017.000000	27.149277
2016.000000	27.220829
2015.000000	27.275102
2014.000000	27.323345
2013.000000	27.358947
2012.000000	27.400000
2011.000000	27.443372
2010.000000	27.439777
2009.000000	27.442096
2008.000000	27.440473
2007.000000	27.457520
2006.000000	27.448706
2005.000000	27.444763
2004.000000	27.426325
2003.000000	27.385388
2002.000000	27.346075
2001.000000	27.284264
2000.000000	27.258055
1999.000000	27.231382
1998.000000	27.162149
1997.000000	27.087814
1996.000000	27.018117
1995.000000	26.936360
1994.000000	26.871186
1993.000000	26.793719
1992.000000	26.689232
1991.000000	26.593790
1990.000000	26.503451
1989.000000	26.391310
1988.000000	26.294708
1987.000000	26.184539
1986.000000	26.066483
1985.000000	25.944021
1984.000000	25.835011
1983.000000	25.727625
1982.000000	25.625805
1981.000000	25.476786
1980.000000	25.365341
1979.000000	25.258186
1978.000000	25.141522
1977.000000	25.022887
1976.000000	24.904832
1975.000000	24.774483
1974.000000	24.663502
1973.000000	24.546026
1972.000000	24.442815
1971.000000	24.326383
1970.000000	24.248684
1969.000000	24.106740
1968.000000	24.007587
1967.000000	23.876311
1966.000000	23.788291
1965.000000	23.685312
1964.000000	23.583724
1963.000000	23.474366
1962.000000	23.355267
1961.000000	23.238487
1960.000000	23.132376
1959.000000	23.025454
1958.000000	22.919111
1957.000000	22.803143
1956.000000	22.700743
1955.000000	22.596256
1954.000000	22.499886
1953.000000	22.416042
1952.000000	22.302857
1951.000000	22.209386
1950.000000	22.109886
1949.000000	22.043668
1948.000000	21.955648
1947.000000	21.892098
1946.000000	21.800715
1945.000000	21.724060
1944.000000	21.695416
1943.000000	21.655175
1942.000000	21.596959
1941.000000	21.589421
1940.000000	21.565880
1939.000000	21.556950
1938.000000	21.587334
1937.000000	21.571562
1936.000000	21.589537
1935.000000	21.631982
1934.000000	21.677209
1933.000000	21.727307
1932.000000	21.822865
1931.000000	21.918539
1930.000000	22.021170
1929.000000	22.125078
1928.000000	22.259369
1927.000000	22.396095
1926.000000	22.561002
1925.000000	22.739128
1924.000000	22.888959
1923.000000	23.083090
1922.000000	23.292992
1921.000000	23.566560
1920.000000	23.828184
1919.000000	24.047364
1918.000000	24.313858
1917.000000	24.564813
1916.000000	24.835715
1915.000000	25.117749
1914.000000	25.469712
1913.000000	25.807063
1912.000000	26.153575
1911.000000	26.482461
1910.000000	26.815173
1909.000000	27.110428
1908.000000	27.457172
1907.000000	27.855174
1906.000000	28.298520
1905.000000	28.757638
1904.000000	29.154480
1903.000000	29.558281
1902.000000	29.998380
1901.000000	30.426534
1900.000000	30.896204
1899.000000	31.385937
1898.000000	31.868480
1897.000000	32.320292
1896.000000	32.715395
1895.000000	33.102380
1894.000000	33.553728
1893.000000	34.019107
1892.000000	34.512203
1891.000000	35.011098
1890.000000	35.486219
1889.000000	35.965747
1888.000000	36.454900
1887.000000	36.948228
1886.000000	37.513456
1885.000000	38.127971
1884.000000	38.801977
1883.000000	39.466010
1882.000000	40.116359
1881.000000	40.776449
1880.000000	41.368002
1879.000000	41.953640
1878.000000	42.542178
1877.000000	43.091519
1876.000000	43.567684
1875.000000	44.029004
1874.000000	44.497399
1873.000000	44.904563
1872.000000	45.278792
1871.000000	45.618462
1870.000000	45.909078
1869.000000	46.196099
1868.000000	46.379329
1867.000000	46.527536
1866.000000	46.624833
1865.000000	46.718419
1864.000000	46.799481
1863.000000	46.862683
1862.000000	46.933308
1861.000000	47.004628
1860.000000	47.086850
1859.000000	47.124887
1858.000000	47.136484
1857.000000	47.127322
1856.000000	47.082211
1855.000000	47.051943
1854.000000	47.037795
1853.000000	46.953834
1852.000000	46.881586
1851.000000	46.828125
1850.000000	46.747063
1849.000000	46.695805
1848.000000	46.667741
1847.000000	46.596537
1846.000000	46.473379
1845.000000	46.356831
1844.000000	46.278900
1843.000000	46.251648
1842.000000	46.253851
1841.000000	46.213378
1840.000000	46.139971
1839.000000	46.059721
1838.000000	46.001157
1837.000000	45.947000
1836.000000	45.862343
1835.000000	45.751826
1834.000000	45.614055
1833.000000	45.483244
1832.000000	45.400094
1831.000000	45.310103
1830.000000	45.208051
1829.000000	45.104260
1828.000000	44.977739
1827.000000	44.884501
1826.000000	44.802627
1825.000000	44.703822
1824.000000	44.627283
1823.000000	44.602234
1822.000000	44.603858
1821.000000	44.597828
1820.000000	44.563385
1819.000000	44.495544
1818.000000	44.453795
1817.000000	44.446373
1816.000000	44.460521
1815.000000	44.440691
1814.000000	44.410887
1813.000000	44.389781
1812.000000	44.366355
1811.000000	44.323679
1810.000000	44.256302
1809.000000	44.200753
1808.000000	44.157381
1807.000000	44.113313
1806.000000	44.044892
1805.000000	43.969629
1804.000000	43.903527
1803.000000	43.850298
1802.000000	43.780717
1801.000000	43.710208
1800.000000	43.636221
1799.000000	43.555391
1798.000000	43.500538
1797.000000	43.458790
1796.000000	43.393963
1795.000000	43.317077
1794.000000	43.261992
1793.000000	43.188584
1792.000000	43.115756
1791.000000	43.059396
1790.000000	42.964418
1789.000000	42.892750
1788.000000	42.817022
1787.000000	42.720305
1786.000000	42.637388
1785.000000	42.541250
1784.000000	42.422499
1783.000000	42.310126
1782.000000	42.216076
1781.000000	42.123766
1780.000000	42.001999
1779.000000	41.881392
1778.000000	41.748493
1777.000000	41.617797
1776.000000	41.463559
1775.000000	41.287868
1774.000000	41.107770
1773.000000	40.931846
1772.000000	40.735744
1771.000000	40.530249
1770.000000	40.368241
1769.000000	40.185128
1768.000000	40.037501
1767.000000	39.904601
1766.000000	39.794084
1765.000000	39.685885
1764.000000	39.619900
1763.000000	39.599837
1762.000000	39.633236
1761.000000	39.662460
1760.000000	39.735520
1759.000000	39.827019
1758.000000	39.904485
1757.000000	39.964209
1756.000000	40.022773
1755.000000	40.060926
1754.000000	40.066493
1753.000000	40.056867
1752.000000	40.053852
1751.000000	39.980212
1750.000000	39.891381
1749.000000	39.792228
1748.000000	39.667447
1747.000000	39.514601
1746.000000	39.333459
1745.000000	39.130630
1744.000000	38.891041
1743.000000	38.617008
1742.000000	38.283832
1741.000000	37.967471
1740.000000	37.639745
1739.000000	37.337185
1738.000000	37.046917
1737.000000	36.792715
1736.000000	36.601484
1735.000000	36.450029
1734.000000	36.388566
1733.000000	36.409093
1732.000000	36.460814
1731.000000	36.573187
1730.000000	36.729860
1729.000000	36.855917
1728.000000	37.017229
1727.000000	37.148737
1726.000000	37.270155
1725.000000	37.345535
1724.000000	37.417667
1723.000000	37.490263
1722.000000	37.524589
1721.000000	37.555669
1720.000000	37.613537
1719.000000	37.682422
1718.000000	37.745624
1717.000000	37.851387
1716.000000	37.965268
1715.000000	38.085643
1714.000000	38.191405
1713.000000	38.304706
1712.000000	38.360023
1711.000000	38.440505
1710.000000	38.441896
1709.000000	38.462887
1708.000000	38.448275
1707.000000	38.396669
1706.000000	38.373707
1705.000000	38.310157
1704.000000	38.179577
1703.000000	38.079032
1702.000000	37.894179
1701.000000	37.699121
1700.000000	37.474143
1699.000000	37.261574
1698.000000	37.063268
1697.000000	36.922599
1696.000000	36.827737
1695.000000	36.825998
1694.000000	36.906480
1693.000000	37.072314
1692.000000	37.264589
1691.000000	37.478898
1690.000000	37.679986
1689.000000	37.816017
1688.000000	37.908443
1687.000000	37.971762
1686.000000	37.990201
1685.000000	38.111271
1684.000000	38.297748
1683.000000	38.636027
1682.000000	39.158579
1681.000000	39.834788
1680.000000	40.586841
1679.000000	41.348171
1678.000000	42.086656
1677.000000	42.812616
1676.000000	43.385034
1675.000000	43.912341
1674.000000	44.416801
1673.000000	44.802279
1672.000000	45.148792
1671.000000	45.434885
1670.000000	45.737909
1669.000000	45.989096
1668.000000	46.204913
1667.000000	46.398579
1666.000000	46.542843
1665.000000	46.684324
1664.000000	46.812701
1663.000000	46.908491
1662.000000	47.027010
1661.000000	47.108420
1660.000000	47.158518
1659.000000	47.207456
1658.000000	47.260454
1657.000000	47.281908
1656.000000	47.306725
1655.000000	47.309160
1654.000000	47.290142
1653.000000	47.278313
1652.000000	47.256511
1651.000000	47.239811
1650.000000	47.177768
1649.000000	47.134280
1648.000000	47.070034
1647.000000	47.026546
1646.000000	46.929829
1645.000000	46.863727
1644.000000	46.794378
1643.000000	46.718535
1642.000000	46.638169
1641.000000	46.570560
1640.000000	46.492049
1639.000000	46.417946
1638.000000	46.332130
1637.000000	46.221032
1636.000000	46.128954
1635.000000	46.036411
1634.000000	45.941549
1633.000000	45.836946
1632.000000	45.738721
1631.000000	45.612664
1630.000000	45.509452
1629.000000	45.387802
1628.000000	45.283199
1627.000000	45.160968
1626.000000	45.060076
1625.000000	44.949675
