PE UV       SUBTECH     SPECTRUM    ASCII       PEDS        4.00        
   -1
CICIMAUCR0001-2.Sample.ASC
24/04/11
16:12:16.00
24/04/11
16:12:16.00
Vinicio Soto Monge
C. kalinini
250,000000
1
Lambda 1050
1050L1511233
PerkinElmer UV WinLab 6.3.2.0749 / 2.02.05 Lambda 900 UV/VIS/NIR, Aug  7 2015 09:38:08

0
0
3350/2 860,8/2
0
0
UV/VIS
1
1
1
DoubleDePol,CommonBeamDepol,RBeamAtt,SBeamAtt,60mm sphere, WB InGaAs Detector
0
0
0
0
Program
Program
3350/2 860,8/2
3350/0,2 860,8/0,2
3350/0,2 860,8/0,2
0
15.00
 
 
 
0
 
860,8
319,2
860,8
Front
100
on
S:100 R:100
0
0
0
0
 
0
 
 
 
0
 
 
0
0
0
0
0
 
 
 
 
0
0


0
0
#HDR
-1
-1
#GR
nm
%R
1.0
0.0
2400,000000
-1,000000
2151
8
66,817200
3,930300
#DATA
2400.000000	18.401900
2399.000000	18.349600
2398.000000	18.691800
2397.000000	19.624900
2396.000000	18.904400
2395.000000	19.229900
2394.000000	17.995200
2393.000000	19.008900
2392.000000	18.310100
2391.000000	19.086600
2390.000000	18.201200
2389.000000	19.422700
2388.000000	19.870400
2387.000000	18.221900
2386.000000	19.149900
2385.000000	19.510700
2384.000000	18.435400
2383.000000	19.696200
2382.000000	19.434700
2381.000000	18.652400
2380.000000	17.662700
2379.000000	18.467200
2378.000000	18.485900
2377.000000	18.588500
2376.000000	19.536300
2375.000000	19.046300
2374.000000	18.047700
2373.000000	18.137300
2372.000000	18.051400
2371.000000	18.921100
2370.000000	18.114900
2369.000000	18.353600
2368.000000	18.490600
2367.000000	18.701800
2366.000000	19.162500
2365.000000	19.295200
2364.000000	18.510000
2363.000000	18.350600
2362.000000	17.454100
2361.000000	18.202500
2360.000000	17.868900
2359.000000	19.028900
2358.000000	18.626900
2357.000000	18.569900
2356.000000	18.485500
2355.000000	18.276300
2354.000000	18.544100
2353.000000	18.348700
2352.000000	17.772900
2351.000000	18.520400
2350.000000	18.452700
2349.000000	18.505900
2348.000000	18.276600
2347.000000	17.604900
2346.000000	18.122200
2345.000000	18.300500
2344.000000	18.261200
2343.000000	18.600400
2342.000000	18.643100
2341.000000	18.294300
2340.000000	17.995600
2339.000000	18.127100
2338.000000	18.093500
2337.000000	17.911800
2336.000000	17.816100
2335.000000	17.971300
2334.000000	17.986100
2333.000000	17.915300
2332.000000	17.546400
2331.000000	17.530600
2330.000000	17.829600
2329.000000	18.293200
2328.000000	17.758100
2327.000000	17.895000
2326.000000	17.890300
2325.000000	17.516800
2324.000000	17.544200
2323.000000	18.065200
2322.000000	17.877100
2321.000000	17.693200
2320.000000	17.769200
2319.000000	18.055900
2318.000000	18.220000
2317.000000	17.918500
2316.000000	17.537600
2315.000000	17.650200
2314.000000	17.685100
2313.000000	17.434600
2312.000000	17.301800
2311.000000	17.269400
2310.000000	17.034000
2309.000000	17.510400
2308.000000	17.444300
2307.000000	17.225500
2306.000000	17.152200
2305.000000	16.920000
2304.000000	16.901800
2303.000000	17.400400
2302.000000	17.480100
2301.000000	17.167600
2300.000000	17.058500
2299.000000	17.137400
2298.000000	17.213000
2297.000000	17.401900
2296.000000	17.488200
2295.000000	17.196900
2294.000000	17.174900
2293.000000	17.385500
2292.000000	17.422700
2291.000000	17.124300
2290.000000	16.965200
2289.000000	17.157400
2288.000000	17.180300
2287.000000	17.269100
2286.000000	17.324200
2285.000000	17.161200
2284.000000	16.897800
2283.000000	17.138300
2282.000000	17.162900
2281.000000	17.277600
2280.000000	17.531600
2279.000000	17.371100
2278.000000	17.506000
2277.000000	17.545800
2276.000000	17.412000
2275.000000	17.344800
2274.000000	17.064800
2273.000000	17.377900
2272.000000	17.622000
2271.000000	17.309500
2270.000000	17.338500
2269.000000	17.422400
2268.000000	17.594500
2267.000000	17.736600
2266.000000	17.729700
2265.000000	17.893700
2264.000000	17.878700
2263.000000	17.652100
2262.000000	17.511500
2261.000000	17.647100
2260.000000	18.083400
2259.000000	18.228400
2258.000000	18.324400
2257.000000	18.373600
2256.000000	18.624800
2255.000000	18.827300
2254.000000	18.754800
2253.000000	18.802600
2252.000000	19.201000
2251.000000	19.213800
2250.000000	19.351000
2249.000000	19.339500
2248.000000	19.419700
2247.000000	19.676100
2246.000000	19.504100
2245.000000	19.587700
2244.000000	19.824400
2243.000000	19.658800
2242.000000	19.649300
2241.000000	19.536200
2240.000000	19.726300
2239.000000	20.006200
2238.000000	20.270100
2237.000000	20.120500
2236.000000	19.794200
2235.000000	19.931500
2234.000000	20.090600
2233.000000	20.144800
2232.000000	20.082700
2231.000000	20.320600
2230.000000	20.468200
2229.000000	20.274000
2228.000000	20.242100
2227.000000	20.089600
2226.000000	20.073300
2225.000000	19.774300
2224.000000	19.586200
2223.000000	19.602800
2222.000000	19.618900
2221.000000	19.735200
2220.000000	19.566200
2219.000000	19.375900
2218.000000	19.524700
2217.000000	19.453000
2216.000000	19.150300
2215.000000	19.296500
2214.000000	19.001800
2213.000000	19.223400
2212.000000	19.160200
2211.000000	18.802900
2210.000000	18.703300
2209.000000	18.902900
2208.000000	18.722500
2207.000000	18.487000
2206.000000	18.416000
2205.000000	18.857200
2204.000000	18.900400
2203.000000	18.849400
2202.000000	18.693100
2201.000000	18.367400
2200.000000	18.543900
2199.000000	18.475100
2198.000000	18.503400
2197.000000	18.534100
2196.000000	18.406500
2195.000000	18.831300
2194.000000	18.665300
2193.000000	18.543800
2192.000000	18.349200
2191.000000	18.395600
2190.000000	18.585300
2189.000000	18.268500
2188.000000	18.165500
2187.000000	18.355800
2186.000000	18.334100
2185.000000	18.052400
2184.000000	18.238900
2183.000000	18.306900
2182.000000	18.370000
2181.000000	18.331300
2180.000000	17.894300
2179.000000	18.221500
2178.000000	18.224200
2177.000000	18.275600
2176.000000	17.991100
2175.000000	18.337900
2174.000000	18.113300
2173.000000	17.993700
2172.000000	18.069500
2171.000000	18.446200
2170.000000	18.440400
2169.000000	18.325300
2168.000000	18.310200
2167.000000	17.977800
2166.000000	18.082900
2165.000000	18.121600
2164.000000	18.485800
2163.000000	18.604700
2162.000000	18.517100
2161.000000	18.271200
2160.000000	18.564200
2159.000000	18.800800
2158.000000	18.646300
2157.000000	18.918600
2156.000000	18.766000
2155.000000	19.408500
2154.000000	19.034100
2153.000000	19.415200
2152.000000	18.925000
2151.000000	19.039900
2150.000000	19.116300
2149.000000	20.109200
2148.000000	19.745700
2147.000000	20.038900
2146.000000	19.720500
2145.000000	19.925700
2144.000000	19.984400
2143.000000	19.951900
2142.000000	20.401500
2141.000000	20.072200
2140.000000	20.533400
2139.000000	19.810200
2138.000000	20.445200
2137.000000	20.595800
2136.000000	20.568900
2135.000000	20.657600
2134.000000	20.554700
2133.000000	20.654200
2132.000000	20.410300
2131.000000	20.721400
2130.000000	20.439900
2129.000000	20.966400
2128.000000	20.860800
2127.000000	20.895900
2126.000000	20.913400
2125.000000	21.148600
2124.000000	21.168200
2123.000000	20.860200
2122.000000	20.903200
2121.000000	21.009300
2120.000000	20.936300
2119.000000	21.128400
2118.000000	21.192500
2117.000000	20.998200
2116.000000	21.355400
2115.000000	21.141100
2114.000000	21.017500
2113.000000	20.951200
2112.000000	21.123000
2111.000000	21.315700
2110.000000	21.078100
2109.000000	21.325500
2108.000000	21.106200
2107.000000	20.745200
2106.000000	21.205600
2105.000000	21.441800
2104.000000	21.320900
2103.000000	21.231700
2102.000000	21.104600
2101.000000	21.252600
2100.000000	21.207700
2099.000000	21.333500
2098.000000	21.141600
2097.000000	21.161700
2096.000000	20.800600
2095.000000	21.143100
2094.000000	20.945000
2093.000000	21.055300
2092.000000	21.256900
2091.000000	21.224300
2090.000000	21.077700
2089.000000	21.052300
2088.000000	21.163400
2087.000000	21.335000
2086.000000	21.121100
2085.000000	21.272400
2084.000000	21.124800
2083.000000	21.004000
2082.000000	20.887200
2081.000000	20.932700
2080.000000	21.029200
2079.000000	20.940100
2078.000000	20.968600
2077.000000	20.918300
2076.000000	20.864700
2075.000000	20.858500
2074.000000	20.773400
2073.000000	20.824200
2072.000000	20.735700
2071.000000	20.601000
2070.000000	20.547100
2069.000000	20.389600
2068.000000	20.081500
2067.000000	20.166200
2066.000000	20.186000
2065.000000	20.009200
2064.000000	19.801800
2063.000000	19.816000
2062.000000	19.698300
2061.000000	19.708900
2060.000000	19.723000
2059.000000	19.572800
2058.000000	19.434900
2057.000000	19.364500
2056.000000	19.339100
2055.000000	19.216400
2054.000000	19.438900
2053.000000	19.375000
2052.000000	19.145300
2051.000000	19.229900
2050.000000	19.506500
2049.000000	19.504000
2048.000000	19.474200
2047.000000	19.602200
2046.000000	19.658300
2045.000000	19.706400
2044.000000	19.903600
2043.000000	20.180100
2042.000000	20.214000
2041.000000	20.254900
2040.000000	20.456600
2039.000000	20.389400
2038.000000	20.499000
2037.000000	20.565800
2036.000000	20.728700
2035.000000	20.788700
2034.000000	20.876000
2033.000000	20.939800
2032.000000	21.081900
2031.000000	21.252700
2030.000000	21.180800
2029.000000	21.238000
2028.000000	21.367900
2027.000000	21.411900
2026.000000	21.394600
2025.000000	21.291100
2024.000000	21.349800
2023.000000	21.474100
2022.000000	21.559200
2021.000000	21.545700
2020.000000	21.509100
2019.000000	21.515900
2018.000000	21.627900
2017.000000	21.632500
2016.000000	21.615700
2015.000000	21.605700
2014.000000	21.593300
2013.000000	21.710500
2012.000000	21.682700
2011.000000	21.535400
2010.000000	21.470600
2009.000000	21.535800
2008.000000	21.553900
2007.000000	21.544400
2006.000000	21.503300
2005.000000	21.397800
2004.000000	21.329400
2003.000000	21.380400
2002.000000	21.366100
2001.000000	21.220900
2000.000000	21.119100
1999.000000	21.120900
1998.000000	21.084300
1997.000000	21.007700
1996.000000	20.844800
1995.000000	20.803600
1994.000000	20.869500
1993.000000	20.767100
1992.000000	20.643300
1991.000000	20.570700
1990.000000	20.494800
1989.000000	20.400600
1988.000000	20.225500
1987.000000	20.161500
1986.000000	20.143700
1985.000000	19.988300
1984.000000	19.886500
1983.000000	19.847100
1982.000000	19.774900
1981.000000	19.646200
1980.000000	19.583100
1979.000000	19.530200
1978.000000	19.468500
1977.000000	19.362700
1976.000000	19.268300
1975.000000	19.210400
1974.000000	19.091800
1973.000000	19.005800
1972.000000	18.958900
1971.000000	18.900500
1970.000000	18.811900
1969.000000	18.733500
1968.000000	18.593900
1967.000000	18.509500
1966.000000	18.462400
1965.000000	18.373400
1964.000000	18.293800
1963.000000	18.224000
1962.000000	18.146800
1961.000000	18.177500
1960.000000	18.052700
1959.000000	17.878300
1958.000000	17.822400
1957.000000	17.769600
1956.000000	17.779400
1955.000000	17.731800
1954.000000	17.631900
1953.000000	17.529500
1952.000000	17.461500
1951.000000	17.352800
1950.000000	17.330100
1949.000000	17.205500
1948.000000	17.127400
1947.000000	17.145800
1946.000000	17.094400
1945.000000	17.005000
1944.000000	16.901400
1943.000000	16.873700
1942.000000	16.898600
1941.000000	16.911700
1940.000000	16.860100
1939.000000	16.860000
1938.000000	16.888100
1937.000000	16.855300
1936.000000	16.823100
1935.000000	16.815200
1934.000000	16.820700
1933.000000	16.898800
1932.000000	16.891400
1931.000000	16.942400
1930.000000	16.998700
1929.000000	17.115200
1928.000000	17.211900
1927.000000	17.335700
1926.000000	17.383500
1925.000000	17.429300
1924.000000	17.528800
1923.000000	17.742500
1922.000000	17.687800
1921.000000	17.899500
1920.000000	18.185700
1919.000000	18.266400
1918.000000	18.302200
1917.000000	18.510700
1916.000000	18.792200
1915.000000	18.973700
1914.000000	19.305300
1913.000000	19.562600
1912.000000	19.682700
1911.000000	20.037600
1910.000000	20.252400
1909.000000	20.532800
1908.000000	20.757200
1907.000000	21.106200
1906.000000	21.653300
1905.000000	22.089100
1904.000000	22.267400
1903.000000	22.649300
1902.000000	23.061400
1901.000000	23.482400
1900.000000	23.895200
1899.000000	24.683800
1898.000000	24.955300
1897.000000	25.345200
1896.000000	25.754200
1895.000000	26.225900
1894.000000	26.694600
1893.000000	27.305000
1892.000000	27.647200
1891.000000	28.175900
1890.000000	28.726700
1889.000000	29.143600
1888.000000	29.461400
1887.000000	29.930600
1886.000000	30.370800
1885.000000	30.820600
1884.000000	31.255100
1883.000000	31.542900
1882.000000	31.876200
1881.000000	32.230100
1880.000000	32.582900
1879.000000	32.776600
1878.000000	33.074800
1877.000000	33.455800
1876.000000	33.779500
1875.000000	33.775800
1874.000000	34.138000
1873.000000	34.486900
1872.000000	34.546300
1871.000000	34.733300
1870.000000	35.031000
1869.000000	35.169100
1868.000000	35.203700
1867.000000	35.275900
1866.000000	35.170200
1865.000000	35.208300
1864.000000	35.436300
1863.000000	35.553200
1862.000000	35.442300
1861.000000	35.733000
1860.000000	35.947200
1859.000000	35.985800
1858.000000	35.837900
1857.000000	35.868000
1856.000000	36.032200
1855.000000	35.972700
1854.000000	36.047800
1853.000000	36.157900
1852.000000	36.049500
1851.000000	35.986100
1850.000000	36.151600
1849.000000	36.173300
1848.000000	36.380700
1847.000000	36.458500
1846.000000	36.168200
1845.000000	35.963400
1844.000000	36.018800
1843.000000	36.111300
1842.000000	36.277900
1841.000000	36.271100
1840.000000	36.130100
1839.000000	36.094100
1838.000000	36.050400
1837.000000	36.196000
1836.000000	36.174800
1835.000000	35.959500
1834.000000	35.897700
1833.000000	35.829200
1832.000000	35.858700
1831.000000	35.874900
1830.000000	35.815800
1829.000000	35.741300
1828.000000	35.718300
1827.000000	35.670300
1826.000000	35.710600
1825.000000	35.636400
1824.000000	35.565900
1823.000000	35.676800
1822.000000	35.729500
1821.000000	35.828800
1820.000000	35.879300
1819.000000	35.690500
1818.000000	35.579200
1817.000000	35.629400
1816.000000	35.676900
1815.000000	35.729600
1814.000000	35.594200
1813.000000	35.554100
1812.000000	35.588500
1811.000000	35.575000
1810.000000	35.563700
1809.000000	35.486400
1808.000000	35.465000
1807.000000	35.503800
1806.000000	35.423700
1805.000000	35.403200
1804.000000	35.372900
1803.000000	35.404100
1802.000000	35.350300
1801.000000	35.345300
1800.000000	35.327600
1799.000000	35.323300
1798.000000	35.286600
1797.000000	35.272700
1796.000000	35.267300
1795.000000	35.235500
1794.000000	35.202100
1793.000000	35.210000
1792.000000	35.185900
1791.000000	35.161600
1790.000000	35.171200
1789.000000	35.202100
1788.000000	35.212600
1787.000000	35.217900
1786.000000	35.249100
1785.000000	35.258600
1784.000000	35.237200
1783.000000	35.228000
1782.000000	35.222500
1781.000000	35.193300
1780.000000	35.231300
1779.000000	35.262000
1778.000000	35.200100
1777.000000	35.172500
1776.000000	35.170800
1775.000000	35.125000
1774.000000	35.080400
1773.000000	35.046300
1772.000000	35.037400
1771.000000	35.000100
1770.000000	34.967900
1769.000000	34.991400
1768.000000	34.964400
1767.000000	34.918800
1766.000000	34.897800
1765.000000	34.867700
1764.000000	34.853500
1763.000000	34.836500
1762.000000	34.819600
1761.000000	34.796800
1760.000000	34.794600
1759.000000	34.806200
1758.000000	34.819500
1757.000000	34.841200
1756.000000	34.843100
1755.000000	34.835400
1754.000000	34.822500
1753.000000	34.846100
1752.000000	34.847500
1751.000000	34.829400
1750.000000	34.803500
1749.000000	34.784700
1748.000000	34.747700
1747.000000	34.711300
1746.000000	34.680100
1745.000000	34.640100
1744.000000	34.609500
1743.000000	34.576800
1742.000000	34.487600
1741.000000	34.415500
1740.000000	34.389500
1739.000000	34.325500
1738.000000	34.281800
1737.000000	34.241800
1736.000000	34.179600
1735.000000	34.147000
1734.000000	34.125300
1733.000000	34.094400
1732.000000	34.064200
1731.000000	34.029100
1730.000000	33.969900
1729.000000	33.943000
1728.000000	33.936700
1727.000000	33.918300
1726.000000	33.880800
1725.000000	33.856500
1724.000000	33.859100
1723.000000	33.865500
1722.000000	33.909800
1721.000000	34.005200
1720.000000	34.128500
1719.000000	34.259200
1718.000000	34.394400
1717.000000	34.541000
1716.000000	34.721500
1715.000000	34.881200
1714.000000	35.045400
1713.000000	35.226700
1712.000000	35.339700
1711.000000	35.431200
1710.000000	35.549400
1709.000000	35.618600
1708.000000	35.701900
1707.000000	35.774400
1706.000000	35.847400
1705.000000	35.893400
1704.000000	35.913400
1703.000000	35.923000
1702.000000	35.949800
1701.000000	35.956300
1700.000000	36.002300
1699.000000	36.004200
1698.000000	35.953700
1697.000000	35.966900
1696.000000	35.958100
1695.000000	35.895600
1694.000000	35.860200
1693.000000	35.837600
1692.000000	35.782000
1691.000000	35.744700
1690.000000	35.698500
1689.000000	35.671000
1688.000000	35.664200
1687.000000	35.732900
1686.000000	35.793800
1685.000000	35.899100
1684.000000	36.045000
1683.000000	36.201400
1682.000000	36.355400
1681.000000	36.532700
1680.000000	36.703800
1679.000000	36.850100
1678.000000	37.020000
1677.000000	37.185000
1676.000000	37.318300
1675.000000	37.408400
1674.000000	37.546400
1673.000000	37.662800
1672.000000	37.766300
1671.000000	37.900400
1670.000000	38.048000
1669.000000	38.204400
1668.000000	38.331300
1667.000000	38.446200
1666.000000	38.574900
1665.000000	38.666800
1664.000000	38.755800
1663.000000	38.805800
1662.000000	38.923100
1661.000000	38.994500
1660.000000	39.052100
1659.000000	39.147300
1658.000000	39.229600
1657.000000	39.262000
1656.000000	39.316900
1655.000000	39.372700
1654.000000	39.441900
1653.000000	39.452000
1652.000000	39.463200
1651.000000	39.448400
1650.000000	39.480000
1649.000000	39.498900
1648.000000	39.500700
1647.000000	39.459000
1646.000000	39.442400
1645.000000	39.439700
1644.000000	39.455300
1643.000000	39.432600
1642.000000	39.424900
1641.000000	39.409000
1640.000000	39.413700
1639.000000	39.439800
1638.000000	39.408500
1637.000000	39.422000
1636.000000	39.389200
1635.000000	39.419400
1634.000000	39.385200
1633.000000	39.364000
1632.000000	39.333400
1631.000000	39.303400
1630.000000	39.229100
1629.000000	39.224500
1628.000000	39.188500
1627.000000	39.132500
1626.000000	39.144300
1625.000000	39.123600
1624.000000	39.077800
1623.000000	39.058600
1622.000000	39.040900
1621.000000	38.969100
1620.000000	38.974500
1619.000000	38.926400
1618.000000	38.898500
1617.000000	38.904600
1616.000000	38.865200
1615.000000	38.799000
1614.000000	38.801800
1613.000000	38.782200
1612.000000	38.713700
1611.000000	38.736700
1610.000000	38.681900
1609.000000	38.649400
1608.000000	38.584900
1607.000000	38.533300
1606.000000	38.499700
1605.000000	38.443100
1604.000000	38.416500
1603.000000	38.307100
1602.000000	38.276900
1601.000000	38.216000
1600.000000	38.167400
1599.000000	38.123000
1598.000000	38.031300
1597.000000	38.000600
1596.000000	37.953800
1595.000000	37.932600
1594.000000	37.895900
1593.000000	37.849300
1592.000000	37.836300
1591.000000	37.814900
1590.000000	37.776400
1589.000000	37.729800
1588.000000	37.711100
1587.000000	37.668800
1586.000000	37.656100
1585.000000	37.597600
1584.000000	37.581700
1583.000000	37.509500
1582.000000	37.493400
1581.000000	37.503500
1580.000000	37.454400
1579.000000	37.448100
1578.000000	37.448100
1577.000000	37.408700
1576.000000	37.397400
1575.000000	37.425600
1574.000000	37.429700
1573.000000	37.407700
1572.000000	37.399500
1571.000000	37.419400
1570.000000	37.413900
1569.000000	37.410900
1568.000000	37.429300
1567.000000	37.449200
1566.000000	37.463600
1565.000000	37.499000
1564.000000	37.534300
1563.000000	37.518900
1562.000000	37.511500
1561.000000	37.497600
1560.000000	37.502600
1559.000000	37.489300
1558.000000	37.466300
1557.000000	37.419400
1556.000000	37.414300
1555.000000	37.368100
1554.000000	37.327800
1553.000000	37.290300
1552.000000	37.239600
1551.000000	37.168900
1550.000000	37.128900
1549.000000	37.077800
1548.000000	37.012400
1547.000000	36.957000
1546.000000	36.880500
1545.000000	36.825200
1544.000000	36.786700
1543.000000	36.751100
1542.000000	36.748000
1541.000000	36.693700
1540.000000	36.649700
1539.000000	36.631300
1538.000000	36.603600
1537.000000	36.594300
1536.000000	36.609600
1535.000000	36.555000
1534.000000	36.519000
1533.000000	36.485600
1532.000000	36.457200
1531.000000	36.418500
1530.000000	36.395100
1529.000000	36.314900
1528.000000	36.287600
1527.000000	36.262700
1526.000000	36.206800
1525.000000	36.165100
1524.000000	36.121600
