PE UV       SUBTECH     SPECTRUM    ASCII       PEDS        4.00        
   -1
CICIMAUCR0012-1.Sample.ASC
24/04/11
15:46:55.00
24/04/11
15:46:55.00
Vinicio Soto Monge
C. cupreomarginata
250,000000
1
Lambda 1050
1050L1511233
PerkinElmer UV WinLab 6.3.2.0749 / 2.02.05 Lambda 900 UV/VIS/NIR, Aug  7 2015 09:38:08

0
0
3350/2 860,8/2
0
0
UV/VIS
1
1
1
DoubleDePol,CommonBeamDepol,RBeamAtt,SBeamAtt,60mm sphere, WB InGaAs Detector
0
0
0
0
Program
Program
3350/2 860,8/2
3350/0,2 860,8/0,2
3350/0,2 860,8/0,2
0
15.00
 
 
 
0
 
860,8
319,2
860,8
Front
100
on
S:100 R:100
0
0
0
0
 
0
 
 
 
0
 
 
0
0
0
0
0
 
 
 
 
0
0


0
0
#HDR
-1
-1
#GR
nm
%R
1.0
0.0
2400,000000
-1,000000
2151
8
43,719100
3,105100
#DATA
2400.000000	10.071600
2399.000000	10.777500
2398.000000	9.450600
2397.000000	8.923500
2396.000000	10.091100
2395.000000	10.790900
2394.000000	9.850500
2393.000000	9.578000
2392.000000	9.658500
2391.000000	10.800100
2390.000000	9.655800
2389.000000	9.780300
2388.000000	9.281900
2387.000000	10.466700
2386.000000	9.659900
2385.000000	10.078000
2384.000000	9.883900
2383.000000	10.234200
2382.000000	9.649500
2381.000000	9.495300
2380.000000	9.958000
2379.000000	9.660700
2378.000000	9.524900
2377.000000	8.935300
2376.000000	9.964600
2375.000000	9.473700
2374.000000	9.229800
2373.000000	9.316700
2372.000000	9.746900
2371.000000	10.077600
2370.000000	9.798200
2369.000000	9.704500
2368.000000	9.740100
2367.000000	9.760200
2366.000000	9.198600
2365.000000	10.048200
2364.000000	10.279400
2363.000000	8.502300
2362.000000	9.121500
2361.000000	8.851900
2360.000000	8.604800
2359.000000	9.323100
2358.000000	9.549000
2357.000000	8.788400
2356.000000	8.849800
2355.000000	9.533300
2354.000000	8.381500
2353.000000	8.386000
2352.000000	8.181300
2351.000000	8.248700
2350.000000	8.611000
2349.000000	9.037900
2348.000000	9.046400
2347.000000	8.735000
2346.000000	7.717400
2345.000000	8.686100
2344.000000	8.952100
2343.000000	8.887000
2342.000000	8.723700
2341.000000	8.720200
2340.000000	9.052100
2339.000000	8.770300
2338.000000	8.942300
2337.000000	8.483600
2336.000000	8.349000
2335.000000	8.696100
2334.000000	8.553200
2333.000000	8.769200
2332.000000	9.148600
2331.000000	8.907000
2330.000000	9.093700
2329.000000	8.392500
2328.000000	8.467000
2327.000000	8.455300
2326.000000	8.516800
2325.000000	8.615800
2324.000000	8.485900
2323.000000	8.712500
2322.000000	8.764500
2321.000000	8.175700
2320.000000	7.903700
2319.000000	7.783600
2318.000000	7.958100
2317.000000	8.051400
2316.000000	7.584200
2315.000000	7.448100
2314.000000	7.770900
2313.000000	7.680400
2312.000000	7.600200
2311.000000	8.063100
2310.000000	8.384700
2309.000000	7.907000
2308.000000	7.550400
2307.000000	7.766400
2306.000000	7.906700
2305.000000	7.863300
2304.000000	7.699700
2303.000000	7.948600
2302.000000	8.033500
2301.000000	7.730100
2300.000000	7.837400
2299.000000	7.557600
2298.000000	7.519500
2297.000000	8.064100
2296.000000	7.884500
2295.000000	7.738900
2294.000000	7.734400
2293.000000	7.540900
2292.000000	8.044800
2291.000000	8.273700
2290.000000	8.467900
2289.000000	7.998900
2288.000000	7.742800
2287.000000	7.865300
2286.000000	7.692200
2285.000000	7.486500
2284.000000	7.798700
2283.000000	7.898200
2282.000000	7.619400
2281.000000	8.041000
2280.000000	8.285100
2279.000000	7.919200
2278.000000	7.719700
2277.000000	7.811600
2276.000000	8.084100
2275.000000	7.866500
2274.000000	7.559500
2273.000000	7.555800
2272.000000	7.381600
2271.000000	7.543800
2270.000000	7.405300
2269.000000	7.570100
2268.000000	7.988700
2267.000000	7.644600
2266.000000	7.454700
2265.000000	7.682900
2264.000000	7.748600
2263.000000	7.796200
2262.000000	7.851200
2261.000000	7.928800
2260.000000	8.116000
2259.000000	8.287500
2258.000000	8.230800
2257.000000	8.294700
2256.000000	8.644100
2255.000000	8.604800
2254.000000	8.637700
2253.000000	8.755200
2252.000000	8.809200
2251.000000	8.976400
2250.000000	9.051800
2249.000000	9.328100
2248.000000	9.453100
2247.000000	9.252600
2246.000000	9.274300
2245.000000	9.324600
2244.000000	9.633100
2243.000000	9.809800
2242.000000	9.790100
2241.000000	9.665200
2240.000000	9.587200
2239.000000	9.686300
2238.000000	10.137100
2237.000000	10.233700
2236.000000	10.104800
2235.000000	10.106700
2234.000000	10.106500
2233.000000	10.482000
2232.000000	10.506700
2231.000000	10.305300
2230.000000	10.191300
2229.000000	9.867500
2228.000000	9.857800
2227.000000	10.011100
2226.000000	10.023400
2225.000000	9.972300
2224.000000	10.341400
2223.000000	10.246800
2222.000000	10.246400
2221.000000	10.309700
2220.000000	10.079300
2219.000000	10.055400
2218.000000	9.949200
2217.000000	9.868300
2216.000000	9.895500
2215.000000	10.087600
2214.000000	9.809400
2213.000000	9.834900
2212.000000	10.191600
2211.000000	10.323100
2210.000000	9.845700
2209.000000	9.871600
2208.000000	10.192300
2207.000000	10.605300
2206.000000	9.974800
2205.000000	9.855600
2204.000000	10.077900
2203.000000	9.820300
2202.000000	9.952100
2201.000000	10.098100
2200.000000	9.849300
2199.000000	10.061200
2198.000000	10.094500
2197.000000	9.838600
2196.000000	9.793000
2195.000000	10.223300
2194.000000	9.967400
2193.000000	9.876300
2192.000000	9.851500
2191.000000	10.064300
2190.000000	9.576900
2189.000000	9.765700
2188.000000	9.878200
2187.000000	10.016600
2186.000000	9.775400
2185.000000	9.618700
2184.000000	9.883700
2183.000000	10.044600
2182.000000	10.017500
2181.000000	10.089900
2180.000000	9.941300
2179.000000	9.455800
2178.000000	9.479900
2177.000000	9.737100
2176.000000	9.706500
2175.000000	9.898500
2174.000000	9.825200
2173.000000	9.683000
2172.000000	10.121000
2171.000000	9.699500
2170.000000	10.047300
2169.000000	10.260700
2168.000000	10.173100
2167.000000	9.836100
2166.000000	9.962300
2165.000000	9.628800
2164.000000	9.499700
2163.000000	10.039300
2162.000000	9.730700
2161.000000	10.045800
2160.000000	9.967000
2159.000000	9.128600
2158.000000	9.450800
2157.000000	9.595800
2156.000000	10.115200
2155.000000	9.932200
2154.000000	10.092100
2153.000000	9.893900
2152.000000	9.606900
2151.000000	9.712600
2150.000000	9.830500
2149.000000	9.860200
2148.000000	9.992700
2147.000000	10.283400
2146.000000	10.193900
2145.000000	10.072300
2144.000000	10.078900
2143.000000	10.212800
2142.000000	10.028400
2141.000000	9.822300
2140.000000	10.083000
2139.000000	10.519800
2138.000000	10.363800
2137.000000	9.877700
2136.000000	9.737700
2135.000000	9.845000
2134.000000	9.818300
2133.000000	10.075200
2132.000000	10.204500
2131.000000	10.052400
2130.000000	9.851000
2129.000000	10.351600
2128.000000	9.945800
2127.000000	9.720100
2126.000000	9.762200
2125.000000	9.689800
2124.000000	10.123800
2123.000000	9.833600
2122.000000	9.876200
2121.000000	9.615500
2120.000000	9.508200
2119.000000	9.623800
2118.000000	9.348300
2117.000000	9.577700
2116.000000	9.707000
2115.000000	9.817700
2114.000000	9.699400
2113.000000	9.604800
2112.000000	9.774900
2111.000000	9.561100
2110.000000	9.749000
2109.000000	9.362000
2108.000000	9.580100
2107.000000	9.494300
2106.000000	9.580300
2105.000000	9.523100
2104.000000	9.573300
2103.000000	9.733400
2102.000000	9.452200
2101.000000	9.322200
2100.000000	9.049700
2099.000000	9.202200
2098.000000	9.142800
2097.000000	9.018100
2096.000000	9.194000
2095.000000	9.234600
2094.000000	8.754600
2093.000000	9.290000
2092.000000	9.107200
2091.000000	9.043600
2090.000000	9.371400
2089.000000	9.249700
2088.000000	9.309200
2087.000000	9.141200
2086.000000	9.043100
2085.000000	9.228100
2084.000000	9.203900
2083.000000	9.214500
2082.000000	9.177600
2081.000000	9.100100
2080.000000	9.253900
2079.000000	9.047400
2078.000000	9.080300
2077.000000	8.979600
2076.000000	8.918000
2075.000000	9.187500
2074.000000	9.211000
2073.000000	9.044100
2072.000000	8.990700
2071.000000	9.154300
2070.000000	8.901000
2069.000000	9.088000
2068.000000	9.187500
2067.000000	9.082100
2066.000000	9.051800
2065.000000	9.048600
2064.000000	8.962900
2063.000000	9.052400
2062.000000	8.987400
2061.000000	8.957800
2060.000000	9.004400
2059.000000	9.141100
2058.000000	8.883600
2057.000000	8.838500
2056.000000	8.918800
2055.000000	8.929900
2054.000000	9.087000
2053.000000	9.012600
2052.000000	8.756300
2051.000000	9.079400
2050.000000	9.277300
2049.000000	9.221800
2048.000000	9.073500
2047.000000	9.078400
2046.000000	9.048200
2045.000000	9.354300
2044.000000	9.446900
2043.000000	9.296600
2042.000000	9.352000
2041.000000	9.601300
2040.000000	9.680100
2039.000000	9.743100
2038.000000	9.781900
2037.000000	9.850200
2036.000000	9.961300
2035.000000	9.939900
2034.000000	9.991800
2033.000000	10.021900
2032.000000	10.054300
2031.000000	10.058200
2030.000000	10.110900
2029.000000	10.191200
2028.000000	10.354300
2027.000000	10.364100
2026.000000	10.319200
2025.000000	10.310600
2024.000000	10.245100
2023.000000	10.325600
2022.000000	10.429600
2021.000000	10.384500
2020.000000	10.408300
2019.000000	10.508600
2018.000000	10.523700
2017.000000	10.579300
2016.000000	10.541900
2015.000000	10.500500
2014.000000	10.424200
2013.000000	10.553800
2012.000000	10.602100
2011.000000	10.546900
2010.000000	10.564200
2009.000000	10.531300
2008.000000	10.519900
2007.000000	10.556200
2006.000000	10.518300
2005.000000	10.486900
2004.000000	10.592300
2003.000000	10.537100
2002.000000	10.499400
2001.000000	10.454100
2000.000000	10.401600
1999.000000	10.395900
1998.000000	10.406600
1997.000000	10.433700
1996.000000	10.417400
1995.000000	10.329000
1994.000000	10.290200
1993.000000	10.242300
1992.000000	10.150200
1991.000000	10.188300
1990.000000	10.255400
1989.000000	10.267100
1988.000000	10.171400
1987.000000	10.108600
1986.000000	10.078200
1985.000000	10.122700
1984.000000	10.062500
1983.000000	9.922700
1982.000000	9.893200
1981.000000	9.874200
1980.000000	9.907700
1979.000000	9.801700
1978.000000	9.708600
1977.000000	9.749500
1976.000000	9.754000
1975.000000	9.650300
1974.000000	9.606200
1973.000000	9.568800
1972.000000	9.525300
1971.000000	9.473000
1970.000000	9.496100
1969.000000	9.495600
1968.000000	9.427000
1967.000000	9.339400
1966.000000	9.317500
1965.000000	9.281400
1964.000000	9.260500
1963.000000	9.230300
1962.000000	9.277900
1961.000000	9.205400
1960.000000	9.162800
1959.000000	9.104000
1958.000000	9.045100
1957.000000	9.070700
1956.000000	9.036200
1955.000000	9.044900
1954.000000	9.024000
1953.000000	8.927800
1952.000000	8.917200
1951.000000	8.916800
1950.000000	8.887500
1949.000000	8.793100
1948.000000	8.808800
1947.000000	8.824200
1946.000000	8.807900
1945.000000	8.670500
1944.000000	8.729800
1943.000000	8.706900
1942.000000	8.668500
1941.000000	8.729200
1940.000000	8.790800
1939.000000	8.796200
1938.000000	8.734100
1937.000000	8.718900
1936.000000	8.644500
1935.000000	8.708600
1934.000000	8.735600
1933.000000	8.682800
1932.000000	8.779100
1931.000000	8.925100
1930.000000	8.870300
1929.000000	8.889200
1928.000000	8.834200
1927.000000	9.000800
1926.000000	8.962400
1925.000000	8.961900
1924.000000	8.993700
1923.000000	9.039500
1922.000000	9.126400
1921.000000	9.386100
1920.000000	9.540800
1919.000000	9.372100
1918.000000	9.510200
1917.000000	9.536800
1916.000000	9.642500
1915.000000	9.645300
1914.000000	9.912500
1913.000000	10.099700
1912.000000	10.143400
1911.000000	10.167800
1910.000000	10.279400
1909.000000	10.357400
1908.000000	10.492300
1907.000000	10.561100
1906.000000	10.862400
1905.000000	11.126400
1904.000000	11.091800
1903.000000	11.214200
1902.000000	11.326100
1901.000000	11.603400
1900.000000	11.746400
1899.000000	12.054700
1898.000000	12.056400
1897.000000	12.119300
1896.000000	12.258400
1895.000000	12.420700
1894.000000	12.756000
1893.000000	12.932200
1892.000000	13.186100
1891.000000	13.137100
1890.000000	13.472300
1889.000000	13.716700
1888.000000	13.897100
1887.000000	14.031600
1886.000000	14.447100
1885.000000	14.531100
1884.000000	14.891700
1883.000000	15.380900
1882.000000	15.507800
1881.000000	15.983400
1880.000000	16.311600
1879.000000	16.617200
1878.000000	16.874500
1877.000000	17.279000
1876.000000	17.626900
1875.000000	17.805300
1874.000000	18.049500
1873.000000	18.469700
1872.000000	18.623800
1871.000000	18.988200
1870.000000	19.065000
1869.000000	19.216100
1868.000000	19.178200
1867.000000	19.449900
1866.000000	19.397000
1865.000000	19.456200
1864.000000	19.682300
1863.000000	19.656400
1862.000000	19.668800
1861.000000	19.793300
1860.000000	19.987100
1859.000000	19.948800
1858.000000	19.813100
1857.000000	19.869300
1856.000000	19.953700
1855.000000	19.844700
1854.000000	19.908600
1853.000000	19.949000
1852.000000	19.770100
1851.000000	19.728900
1850.000000	19.721600
1849.000000	19.660100
1848.000000	19.868700
1847.000000	19.822900
1846.000000	19.631100
1845.000000	19.372800
1844.000000	19.414800
1843.000000	19.433200
1842.000000	19.468500
1841.000000	19.420100
1840.000000	19.326900
1839.000000	19.313900
1838.000000	19.280400
1837.000000	19.345100
1836.000000	19.317000
1835.000000	19.160500
1834.000000	19.043900
1833.000000	18.989200
1832.000000	18.951400
1831.000000	18.910600
1830.000000	18.916700
1829.000000	18.767800
1828.000000	18.733400
1827.000000	18.663600
1826.000000	18.708400
1825.000000	18.533200
1824.000000	18.447200
1823.000000	18.438500
1822.000000	18.441800
1821.000000	18.447100
1820.000000	18.456300
1819.000000	18.294100
1818.000000	18.221600
1817.000000	18.282800
1816.000000	18.237000
1815.000000	18.326700
1814.000000	18.226200
1813.000000	18.199200
1812.000000	18.270300
1811.000000	18.200000
1810.000000	18.174300
1809.000000	18.141900
1808.000000	18.094300
1807.000000	18.068700
1806.000000	18.070900
1805.000000	18.009200
1804.000000	17.928900
1803.000000	17.876600
1802.000000	17.863900
1801.000000	17.835700
1800.000000	17.797400
1799.000000	17.712500
1798.000000	17.656000
1797.000000	17.608100
1796.000000	17.600800
1795.000000	17.542600
1794.000000	17.496700
1793.000000	17.491200
1792.000000	17.434600
1791.000000	17.375600
1790.000000	17.335800
1789.000000	17.260400
1788.000000	17.250400
1787.000000	17.204000
1786.000000	17.137700
1785.000000	17.067200
1784.000000	17.034800
1783.000000	17.011100
1782.000000	16.870400
1781.000000	16.839400
1780.000000	16.809300
1779.000000	16.710400
1778.000000	16.669600
1777.000000	16.546800
1776.000000	16.466300
1775.000000	16.408300
1774.000000	16.346300
1773.000000	16.268000
1772.000000	16.146300
1771.000000	15.978900
1770.000000	15.906200
1769.000000	15.846900
1768.000000	15.760200
1767.000000	15.674100
1766.000000	15.625700
1765.000000	15.549000
1764.000000	15.518900
1763.000000	15.512700
1762.000000	15.511900
1761.000000	15.550200
1760.000000	15.626700
1759.000000	15.671700
1758.000000	15.713200
1757.000000	15.769400
1756.000000	15.822200
1755.000000	15.851500
1754.000000	15.849300
1753.000000	15.876500
1752.000000	15.884500
1751.000000	15.865100
1750.000000	15.828500
1749.000000	15.792400
1748.000000	15.753000
1747.000000	15.703100
1746.000000	15.621600
1745.000000	15.513100
1744.000000	15.398900
1743.000000	15.274200
1742.000000	15.133000
1741.000000	14.950100
1740.000000	14.782900
1739.000000	14.614100
1738.000000	14.432000
1737.000000	14.288700
1736.000000	14.184400
1735.000000	14.142400
1734.000000	14.078500
1733.000000	14.034100
1732.000000	14.073300
1731.000000	14.127800
1730.000000	14.213800
1729.000000	14.289700
1728.000000	14.381900
1727.000000	14.466500
1726.000000	14.515100
1725.000000	14.605700
1724.000000	14.667200
1723.000000	14.685900
1722.000000	14.671400
1721.000000	14.657200
1720.000000	14.685500
1719.000000	14.709000
1718.000000	14.729900
1717.000000	14.731800
1716.000000	14.738700
1715.000000	14.815700
1714.000000	14.908100
1713.000000	14.935400
1712.000000	14.949400
1711.000000	14.950600
1710.000000	14.969300
1709.000000	14.952600
1708.000000	14.968600
1707.000000	14.949700
1706.000000	14.922600
1705.000000	14.894600
1704.000000	14.863400
1703.000000	14.816800
1702.000000	14.708900
1701.000000	14.663200
1700.000000	14.541900
1699.000000	14.412500
1698.000000	14.309700
1697.000000	14.186900
1696.000000	14.149400
1695.000000	14.150500
1694.000000	14.181700
1693.000000	14.278400
1692.000000	14.377500
1691.000000	14.506200
1690.000000	14.618700
1689.000000	14.717700
1688.000000	14.757500
1687.000000	14.794700
1686.000000	14.788600
1685.000000	14.769500
1684.000000	14.809600
1683.000000	14.930000
1682.000000	15.158000
1681.000000	15.493200
1680.000000	15.861600
1679.000000	16.271500
1678.000000	16.703400
1677.000000	17.080600
1676.000000	17.457400
1675.000000	17.803900
1674.000000	18.070500
1673.000000	18.325800
1672.000000	18.468000
1671.000000	18.673000
1670.000000	18.831300
1669.000000	18.969800
1668.000000	19.072400
1667.000000	19.207200
1666.000000	19.302200
1665.000000	19.375400
1664.000000	19.426900
1663.000000	19.494600
1662.000000	19.508100
1661.000000	19.559300
1660.000000	19.625600
1659.000000	19.656100
1658.000000	19.694900
1657.000000	19.660200
1656.000000	19.662700
1655.000000	19.663800
1654.000000	19.681000
1653.000000	19.661400
1652.000000	19.633000
1651.000000	19.625700
1650.000000	19.588800
1649.000000	19.567900
1648.000000	19.531700
1647.000000	19.476000
1646.000000	19.433500
1645.000000	19.382800
1644.000000	19.328000
1643.000000	19.310200
1642.000000	19.258000
1641.000000	19.236100
1640.000000	19.159300
1639.000000	19.104200
1638.000000	19.087500
1637.000000	18.981600
1636.000000	18.905700
1635.000000	18.866100
1634.000000	18.822500
1633.000000	18.741500
1632.000000	18.711500
1631.000000	18.686700
1630.000000	18.581400
1629.000000	18.475400
1628.000000	18.415000
1627.000000	18.353900
1626.000000	18.266100
1625.000000	18.223500
1624.000000	18.148300
1623.000000	18.082400
1622.000000	18.018500
1621.000000	17.941300
1620.000000	17.906600
1619.000000	17.788300
1618.000000	17.790600
1617.000000	17.667100
1616.000000	17.608200
1615.000000	17.565800
1614.000000	17.479600
1613.000000	17.441800
1612.000000	17.342000
1611.000000	17.275800
1610.000000	17.255100
1609.000000	17.171800
1608.000000	17.152500
1607.000000	17.054500
1606.000000	17.039700
1605.000000	16.987200
1604.000000	16.893600
1603.000000	16.850500
1602.000000	16.786600
1601.000000	16.753500
1600.000000	16.638800
1599.000000	16.639800
1598.000000	16.542600
1597.000000	16.474500
1596.000000	16.449000
1595.000000	16.410600
1594.000000	16.413900
1593.000000	16.341600
1592.000000	16.331300
1591.000000	16.291000
1590.000000	16.224000
1589.000000	16.202500
1588.000000	16.163800
1587.000000	16.114400
1586.000000	16.091400
1585.000000	16.065100
1584.000000	16.071000
1583.000000	16.036200
1582.000000	16.029500
1581.000000	16.004400
1580.000000	15.967700
1579.000000	15.964300
1578.000000	15.969500
1577.000000	15.975600
1576.000000	15.981200
1575.000000	15.972500
1574.000000	15.937400
1573.000000	15.964800
1572.000000	15.972500
1571.000000	15.981800
1570.000000	15.983200
1569.000000	16.010700
1568.000000	16.003300
1567.000000	16.036900
1566.000000	16.059900
1565.000000	16.059100
1564.000000	16.077200
1563.000000	16.096300
1562.000000	16.110700
1561.000000	16.121600
1560.000000	16.106700
1559.000000	16.124100
1558.000000	16.133500
1557.000000	16.163700
1556.000000	16.158400
1555.000000	16.127300
1554.000000	16.126100
1553.000000	16.135800
1552.000000	16.147600
1551.000000	16.127900
1550.000000	16.115600
1549.000000	16.131300
1548.000000	16.079300
1547.000000	16.094600
1546.000000	16.066000
1545.000000	16.049500
1544.000000	16.055200
1543.000000	16.051200
1542.000000	16.069400
1541.000000	16.053600
1540.000000	16.066500
1539.000000	16.035700
1538.000000	16.049900
1537.000000	16.050900
1536.000000	16.050300
1535.000000	15.999700
1534.000000	15.990600
1533.000000	16.015000
1532.000000	15.977500
1531.000000	15.965400
1530.000000	15.939700
1529.000000	15.939300
1528.000000	15.901800
1527.000000	15.865000
1526.000000	15.843300
1525.000000	15.817600
1524.000000	15.807600
1523.000000	15.783300
1522.000000	15.767500
1521.000000	15.747200
1520.000000	15.709900
1519.000000	15.676300
1518.000000	15.646300
1517.000000	15.616100
1516.000000	15.592200
1515.000000	15.571900
1514.000000	15.554900
1513.000000	15.520300
1512.000000	15.497900
1511.000000	15.451100
1510.000000	15.428900
1509.000000	15.409800
1508.000000	15.365700
1507.000000	15.357200
