PE UV       SUBTECH     SPECTRUM    ASCII       PEDS        4.00        
   -1
CICIMAUCR0020-2.Sample.ASC
24/04/17
09:09:44.00
24/04/17
09:09:44.00
Vinicio Soto Monge
C. resplendens
250,000000
1
Lambda 1050
1050L1511233
PerkinElmer UV WinLab 6.3.2.0749 / 2.02.05 Lambda 900 UV/VIS/NIR, Aug  7 2015 09:38:08

0
0
3350/servo 860,8/2
0
0
UV/VIS
1
1
1
DoubleDePol,CommonBeamDepol,RBeamAtt,SBeamAtt,60mm sphere, WB InGaAs Detector
0
0
0
0
Program
Program
3350/servo 860,8/2
3350/0,2 860,8/0,2
3350/0,2 860,8/0,2
0
15.00
 
 
 
0
 
860,8
319,2
860,8
Front
100
on
S:100 R:100
0
0
0
0
 
0
 
 
 
0
 
 
0
0
0
0
0
 
 
 
 
0
0


0
0
#HDR
-1
-1
#GR
nm
%R
1.0
0.0
2500,000000
-1,000000
2251
8
83,706800
5,981400
#DATA
2500.000000	17.281800
2499.000000	17.197600
2498.000000	17.209300
2497.000000	17.150200
2496.000000	17.128800
2495.000000	17.130000
2494.000000	17.128800
2493.000000	17.123000
2492.000000	17.125800
2491.000000	17.102600
2490.000000	17.182900
2489.000000	17.082900
2488.000000	17.075300
2487.000000	17.110500
2486.000000	17.155200
2485.000000	17.169900
2484.000000	17.146800
2483.000000	17.176000
2482.000000	17.154100
2481.000000	17.190400
2480.000000	17.212800
2479.000000	17.173000
2478.000000	17.244400
2477.000000	17.284000
2476.000000	17.280900
2475.000000	17.300000
2474.000000	17.302100
2473.000000	17.410300
2472.000000	17.458400
2471.000000	17.440300
2470.000000	17.518500
2469.000000	17.537500
2468.000000	17.543200
2467.000000	17.614100
2466.000000	17.650400
2465.000000	17.708900
2464.000000	17.755400
2463.000000	17.830600
2462.000000	17.878500
2461.000000	17.937600
2460.000000	17.997600
2459.000000	18.041900
2458.000000	18.124500
2457.000000	18.190800
2456.000000	18.275200
2455.000000	18.371300
2454.000000	18.439400
2453.000000	18.515600
2452.000000	18.597900
2451.000000	18.708900
2450.000000	18.829000
2449.000000	18.912000
2448.000000	18.994000
2447.000000	19.120500
2446.000000	19.222300
2445.000000	19.350200
2444.000000	19.458900
2443.000000	19.561000
2442.000000	19.662600
2441.000000	19.767700
2440.000000	19.867300
2439.000000	19.961700
2438.000000	20.069000
2437.000000	20.171100
2436.000000	20.249200
2435.000000	20.356400
2434.000000	20.445600
2433.000000	20.531000
2432.000000	20.628100
2431.000000	20.717800
2430.000000	20.802100
2429.000000	20.900200
2428.000000	20.956500
2427.000000	21.035100
2426.000000	21.126200
2425.000000	21.262800
2424.000000	21.469500
2423.000000	21.688700
2422.000000	21.832200
2421.000000	21.944500
2420.000000	21.997900
2419.000000	22.107100
2418.000000	22.233800
2417.000000	22.309400
2416.000000	22.420900
2415.000000	22.482300
2414.000000	22.556100
2413.000000	22.678600
2412.000000	22.794700
2411.000000	22.822800
2410.000000	22.896000
2409.000000	23.004100
2408.000000	23.065000
2407.000000	23.150300
2406.000000	23.180500
2405.000000	23.234300
2404.000000	23.319500
2403.000000	23.372200
2402.000000	23.437800
2401.000000	23.459200
2400.000000	23.514800
2399.000000	23.589400
2398.000000	23.619700
2397.000000	23.667600
2396.000000	23.724300
2395.000000	23.733000
2394.000000	23.779900
2393.000000	23.847500
2392.000000	23.868100
2391.000000	23.860400
2390.000000	23.889100
2389.000000	23.945800
2388.000000	23.951100
2387.000000	24.004300
2386.000000	24.053300
2385.000000	24.041200
2384.000000	24.066200
2383.000000	24.118700
2382.000000	24.117700
2381.000000	24.099400
2380.000000	24.115800
2379.000000	24.142200
2378.000000	24.115700
2377.000000	24.094000
2376.000000	24.123400
2375.000000	24.156100
2374.000000	24.137900
2373.000000	24.119900
2372.000000	24.145200
2371.000000	24.175600
2370.000000	24.160200
2369.000000	24.190200
2368.000000	24.221600
2367.000000	24.206600
2366.000000	24.193200
2365.000000	24.215900
2364.000000	24.234400
2363.000000	24.222500
2362.000000	24.220300
2361.000000	24.260400
2360.000000	24.285400
2359.000000	24.276700
2358.000000	24.277200
2357.000000	24.298000
2356.000000	24.309400
2355.000000	24.303200
2354.000000	24.301900
2353.000000	24.343500
2352.000000	24.357400
2351.000000	24.332000
2350.000000	24.315800
2349.000000	24.338900
2348.000000	24.361900
2347.000000	24.357500
2346.000000	24.395000
2345.000000	24.415500
2344.000000	24.390100
2343.000000	24.414500
2342.000000	24.433400
2341.000000	24.438300
2340.000000	24.487100
2339.000000	24.508700
2338.000000	24.499400
2337.000000	24.558000
2336.000000	24.587700
2335.000000	24.617200
2334.000000	24.643900
2333.000000	24.652400
2332.000000	24.694300
2331.000000	24.736600
2330.000000	24.788200
2329.000000	24.833500
2328.000000	24.861200
2327.000000	24.928800
2326.000000	24.966600
2325.000000	25.002100
2324.000000	25.041600
2323.000000	25.057200
2322.000000	25.062000
2321.000000	25.106600
2320.000000	25.144000
2319.000000	25.150000
2318.000000	25.137500
2317.000000	25.118400
2316.000000	25.136500
2315.000000	25.120400
2314.000000	25.083700
2313.000000	25.085400
2312.000000	25.057000
2311.000000	25.027800
2310.000000	24.984700
2309.000000	24.974200
2308.000000	24.932000
2307.000000	24.878400
2306.000000	24.876900
2305.000000	24.851000
2304.000000	24.838500
2303.000000	24.813000
2302.000000	24.808500
2301.000000	24.808400
2300.000000	24.807400
2299.000000	24.826600
2298.000000	24.830100
2297.000000	24.831400
2296.000000	24.853300
2295.000000	24.889300
2294.000000	24.910900
2293.000000	24.929400
2292.000000	24.988500
2291.000000	25.035800
2290.000000	25.067500
2289.000000	25.068900
2288.000000	25.143700
2287.000000	25.187600
2286.000000	25.224300
2285.000000	25.272500
2284.000000	25.333400
2283.000000	25.386800
2282.000000	25.440800
2281.000000	25.485100
2280.000000	25.559300
2279.000000	25.590300
2278.000000	25.623400
2277.000000	25.672800
2276.000000	25.738100
2275.000000	25.763500
2274.000000	25.796900
2273.000000	25.820100
2272.000000	25.891900
2271.000000	25.945400
2270.000000	25.982400
2269.000000	26.027300
2268.000000	26.134700
2267.000000	26.190900
2266.000000	26.261200
2265.000000	26.360500
2264.000000	26.481500
2263.000000	26.569000
2262.000000	26.697400
2261.000000	26.841500
2260.000000	26.980500
2259.000000	27.163500
2258.000000	27.340200
2257.000000	27.507200
2256.000000	27.667500
2255.000000	27.852100
2254.000000	28.071400
2253.000000	28.249400
2252.000000	28.432100
2251.000000	28.602400
2250.000000	28.799200
2249.000000	28.989600
2248.000000	29.122300
2247.000000	29.288600
2246.000000	29.419900
2245.000000	29.605700
2244.000000	29.709500
2243.000000	29.819200
2242.000000	29.913400
2241.000000	29.983100
2240.000000	30.097200
2239.000000	30.171200
2238.000000	30.205100
2237.000000	30.233900
2236.000000	30.263000
2235.000000	30.284200
2234.000000	30.328500
2233.000000	30.324300
2232.000000	30.317000
2231.000000	30.291300
2230.000000	30.262600
2229.000000	30.226400
2228.000000	30.207200
2227.000000	30.150700
2226.000000	30.089900
2225.000000	30.005800
2224.000000	29.953800
2223.000000	29.884600
2222.000000	29.797200
2221.000000	29.700500
2220.000000	29.605100
2219.000000	29.514700
2218.000000	29.431000
2217.000000	29.355100
2216.000000	29.262800
2215.000000	29.194600
2214.000000	29.097100
2213.000000	29.019000
2212.000000	28.923100
2211.000000	28.847400
2210.000000	28.783800
2209.000000	28.702900
2208.000000	28.639000
2207.000000	28.563000
2206.000000	28.509000
2205.000000	28.446200
2204.000000	28.404300
2203.000000	28.359500
2202.000000	28.333600
2201.000000	28.278400
2200.000000	28.239000
2199.000000	28.171600
2198.000000	28.154500
2197.000000	28.135200
2196.000000	28.074600
2195.000000	28.047200
2194.000000	28.027000
2193.000000	28.015300
2192.000000	27.991300
2191.000000	27.957400
2190.000000	27.939700
2189.000000	27.928600
2188.000000	27.887300
2187.000000	27.851800
2186.000000	27.820600
2185.000000	27.804200
2184.000000	27.779800
2183.000000	27.741600
2182.000000	27.733200
2181.000000	27.717900
2180.000000	27.698700
2179.000000	27.666100
2178.000000	27.640800
2177.000000	27.615900
2176.000000	27.615700
2175.000000	27.599600
2174.000000	27.596200
2173.000000	27.605000
2172.000000	27.614900
2171.000000	27.633300
2170.000000	27.653800
2169.000000	27.678100
2168.000000	27.678900
2167.000000	27.725100
2166.000000	27.753700
2165.000000	27.777800
2164.000000	27.833200
2163.000000	27.883200
2162.000000	27.953700
2161.000000	28.031600
2160.000000	28.089800
2159.000000	28.153000
2158.000000	28.242900
2157.000000	28.356300
2156.000000	28.456200
2155.000000	28.550200
2154.000000	28.663400
2153.000000	28.776400
2152.000000	28.901100
2151.000000	29.031600
2150.000000	29.145100
2149.000000	29.256900
2148.000000	29.387200
2147.000000	29.522000
2146.000000	29.659700
2145.000000	29.780100
2144.000000	29.896800
2143.000000	30.016200
2142.000000	30.135800
2141.000000	30.258800
2140.000000	30.362000
2139.000000	30.474100
2138.000000	30.591600
2137.000000	30.714400
2136.000000	30.819500
2135.000000	30.939100
2134.000000	31.065000
2133.000000	31.159000
2132.000000	31.266800
2131.000000	31.370000
2130.000000	31.428000
2129.000000	31.506400
2128.000000	31.600900
2127.000000	31.700400
2126.000000	31.766000
2125.000000	31.833500
2124.000000	31.911000
2123.000000	31.985800
2122.000000	32.039500
2121.000000	32.094400
2120.000000	32.138700
2119.000000	32.190200
2118.000000	32.246500
2117.000000	32.286000
2116.000000	32.323300
2115.000000	32.340600
2114.000000	32.381200
2113.000000	32.414400
2112.000000	32.433000
2111.000000	32.448900
2110.000000	32.464100
2109.000000	32.489000
2108.000000	32.504800
2107.000000	32.503800
2106.000000	32.510600
2105.000000	32.550200
2104.000000	32.561300
2103.000000	32.560900
2102.000000	32.570400
2101.000000	32.575800
2100.000000	32.575000
2099.000000	32.581500
2098.000000	32.597400
2097.000000	32.614300
2096.000000	32.620000
2095.000000	32.642800
2094.000000	32.664300
2093.000000	32.664400
2092.000000	32.679000
2091.000000	32.704300
2090.000000	32.704200
2089.000000	32.715700
2088.000000	32.730600
2087.000000	32.716300
2086.000000	32.718100
2085.000000	32.707400
2084.000000	32.674200
2083.000000	32.654900
2082.000000	32.617100
2081.000000	32.570400
2080.000000	32.520500
2079.000000	32.442900
2078.000000	32.379300
2077.000000	32.306400
2076.000000	32.219500
2075.000000	32.127400
2074.000000	32.024500
2073.000000	31.906000
2072.000000	31.781900
2071.000000	31.671700
2070.000000	31.549000
2069.000000	31.416600
2068.000000	31.283400
2067.000000	31.154100
2066.000000	31.020200
2065.000000	30.894800
2064.000000	30.768400
2063.000000	30.650700
2062.000000	30.535700
2061.000000	30.426100
2060.000000	30.330900
2059.000000	30.243500
2058.000000	30.171900
2057.000000	30.116500
2056.000000	30.086900
2055.000000	30.081300
2054.000000	30.084900
2053.000000	30.115500
2052.000000	30.174400
2051.000000	30.250700
2050.000000	30.342300
2049.000000	30.468200
2048.000000	30.586700
2047.000000	30.744200
2046.000000	30.889700
2045.000000	31.047800
2044.000000	31.234900
2043.000000	31.401600
2042.000000	31.582500
2041.000000	31.759600
2040.000000	31.939900
2039.000000	32.117500
2038.000000	32.268400
2037.000000	32.429800
2036.000000	32.580400
2035.000000	32.732400
2034.000000	32.870400
2033.000000	33.009700
2032.000000	33.120500
2031.000000	33.253600
2030.000000	33.368600
2029.000000	33.472700
2028.000000	33.578800
2027.000000	33.678800
2026.000000	33.769100
2025.000000	33.863600
2024.000000	33.926200
2023.000000	34.004000
2022.000000	34.065700
2021.000000	34.135200
2020.000000	34.194200
2019.000000	34.248500
2018.000000	34.294000
2017.000000	34.329600
2016.000000	34.355200
2015.000000	34.395000
2014.000000	34.404700
2013.000000	34.412800
2012.000000	34.416900
2011.000000	34.417900
2010.000000	34.403700
2009.000000	34.397000
2008.000000	34.364300
2007.000000	34.324000
2006.000000	34.299400
2005.000000	34.264400
2004.000000	34.218200
2003.000000	34.158300
2002.000000	34.100200
2001.000000	34.027400
2000.000000	33.968800
1999.000000	33.891200
1998.000000	33.801200
1997.000000	33.722000
1996.000000	33.623100
1995.000000	33.528100
1994.000000	33.414700
1993.000000	33.337800
1992.000000	33.219400
1991.000000	33.108300
1990.000000	32.988200
1989.000000	32.891700
1988.000000	32.788200
1987.000000	32.647400
1986.000000	32.533100
1985.000000	32.415900
1984.000000	32.307300
1983.000000	32.184200
1982.000000	32.052700
1981.000000	31.935100
1980.000000	31.838900
1979.000000	31.704200
1978.000000	31.585000
1977.000000	31.487300
1976.000000	31.356600
1975.000000	31.242100
1974.000000	31.164800
1973.000000	31.046400
1972.000000	30.941800
1971.000000	30.825300
1970.000000	30.727600
1969.000000	30.617700
1968.000000	30.522800
1967.000000	30.429600
1966.000000	30.323400
1965.000000	30.210100
1964.000000	30.123700
1963.000000	30.010300
1962.000000	29.886300
1961.000000	29.796300
1960.000000	29.693400
1959.000000	29.567000
1958.000000	29.458500
1957.000000	29.357500
1956.000000	29.240700
1955.000000	29.142200
1954.000000	29.026900
1953.000000	28.897300
1952.000000	28.794700
1951.000000	28.697000
1950.000000	28.610000
1949.000000	28.525200
1948.000000	28.450600
1947.000000	28.353300
1946.000000	28.272200
1945.000000	28.208100
1944.000000	28.118000
1943.000000	28.070900
1942.000000	28.046000
1941.000000	27.992600
1940.000000	27.971300
1939.000000	27.943900
1938.000000	27.926000
1937.000000	27.909100
1936.000000	27.904200
1935.000000	27.916500
1934.000000	27.951300
1933.000000	27.997700
1932.000000	28.062700
1931.000000	28.128500
1930.000000	28.208500
1929.000000	28.310900
1928.000000	28.423300
1927.000000	28.536000
1926.000000	28.651000
1925.000000	28.806600
1924.000000	28.932800
1923.000000	29.133500
1922.000000	29.345400
1921.000000	29.567300
1920.000000	29.791300
1919.000000	29.983800
1918.000000	30.251400
1917.000000	30.472300
1916.000000	30.746300
1915.000000	31.068800
1914.000000	31.440100
1913.000000	31.812000
1912.000000	32.159800
1911.000000	32.519200
1910.000000	32.870600
1909.000000	33.215700
1908.000000	33.654600
1907.000000	34.156500
1906.000000	34.703600
1905.000000	35.280200
1904.000000	35.799500
1903.000000	36.294200
1902.000000	36.853500
1901.000000	37.424700
1900.000000	38.045000
1899.000000	38.665200
1898.000000	39.277500
1897.000000	39.893000
1896.000000	40.427900
1895.000000	41.018700
1894.000000	41.646900
1893.000000	42.303000
1892.000000	43.006700
1891.000000	43.681700
1890.000000	44.308700
1889.000000	44.873800
1888.000000	45.415300
1887.000000	45.961000
1886.000000	46.503500
1885.000000	47.055000
1884.000000	47.567900
1883.000000	48.039000
1882.000000	48.470000
1881.000000	48.884300
1880.000000	49.241800
1879.000000	49.625000
1878.000000	49.988800
1877.000000	50.339400
1876.000000	50.687800
1875.000000	51.010000
1874.000000	51.312300
1873.000000	51.588900
1872.000000	51.849700
1871.000000	52.059300
1870.000000	52.226600
1869.000000	52.410200
1868.000000	52.519000
1867.000000	52.597100
1866.000000	52.657700
1865.000000	52.740600
1864.000000	52.827800
1863.000000	52.928300
1862.000000	53.062100
1861.000000	53.193100
1860.000000	53.308300
1859.000000	53.395500
1858.000000	53.456100
1857.000000	53.494200
1856.000000	53.538400
1855.000000	53.608200
1854.000000	53.620000
1853.000000	53.602200
1852.000000	53.639600
1851.000000	53.672400
1850.000000	53.756000
1849.000000	53.852600
1848.000000	53.844400
1847.000000	53.800400
1846.000000	53.725700
1845.000000	53.669200
1844.000000	53.660700
1843.000000	53.712800
1842.000000	53.749700
1841.000000	53.731900
1840.000000	53.708600
1839.000000	53.673700
1838.000000	53.649000
1837.000000	53.603800
1836.000000	53.540500
1835.000000	53.460200
1834.000000	53.373800
1833.000000	53.311800
1832.000000	53.289300
1831.000000	53.275700
1830.000000	53.264000
1829.000000	53.238200
1828.000000	53.173900
1827.000000	53.144500
1826.000000	53.112700
1825.000000	53.062100
1824.000000	53.051200
1823.000000	53.126200
1822.000000	53.185200
1821.000000	53.177000
1820.000000	53.143200
1819.000000	53.089400
1818.000000	53.048500
1817.000000	53.046000
1816.000000	53.051400
1815.000000	53.028100
1814.000000	53.010100
1813.000000	52.995000
1812.000000	52.972800
1811.000000	52.914600
1810.000000	52.874000
1809.000000	52.853700
1808.000000	52.828100
1807.000000	52.819700
1806.000000	52.777900
1805.000000	52.733600
1804.000000	52.716500
1803.000000	52.704800
1802.000000	52.705100
1801.000000	52.688600
1800.000000	52.621700
1799.000000	52.581100
1798.000000	52.550500
1797.000000	52.537300
1796.000000	52.517500
1795.000000	52.486800
1794.000000	52.469700
1793.000000	52.453800
1792.000000	52.430900
1791.000000	52.416900
1790.000000	52.406400
1789.000000	52.396700
1788.000000	52.398200
1787.000000	52.398700
1786.000000	52.391400
1785.000000	52.381900
1784.000000	52.373500
1783.000000	52.352300
1782.000000	52.336500
1781.000000	52.312700
1780.000000	52.289200
1779.000000	52.260900
1778.000000	52.213800
1777.000000	52.168300
1776.000000	52.122500
1775.000000	52.073600
1774.000000	52.006100
1773.000000	51.963400
1772.000000	51.908200
1771.000000	51.852600
1770.000000	51.795300
1769.000000	51.735000
1768.000000	51.674100
1767.000000	51.619200
1766.000000	51.567700
1765.000000	51.513400
1764.000000	51.478800
1763.000000	51.442900
1762.000000	51.411300
1761.000000	51.380100
1760.000000	51.353100
1759.000000	51.321800
1758.000000	51.298900
1757.000000	51.270100
1756.000000	51.251800
1755.000000	51.211900
1754.000000	51.173800
1753.000000	51.131900
1752.000000	51.078900
1751.000000	51.041900
1750.000000	50.992200
1749.000000	50.934800
1748.000000	50.869800
1747.000000	50.801300
1746.000000	50.711000
1745.000000	50.649200
1744.000000	50.550500
1743.000000	50.473100
1742.000000	50.381100
1741.000000	50.309300
1740.000000	50.235600
1739.000000	50.159100
1738.000000	50.108400
1737.000000	50.055000
1736.000000	49.995700
1735.000000	49.961500
1734.000000	49.917700
1733.000000	49.902400
1732.000000	49.872000
1731.000000	49.844700
1730.000000	49.811400
1729.000000	49.784600
1728.000000	49.764300
1727.000000	49.742100
1726.000000	49.733100
1725.000000	49.751500
1724.000000	49.778800
1723.000000	49.844100
1722.000000	49.926800
1721.000000	50.073600
1720.000000	50.236300
1719.000000	50.438300
1718.000000	50.632400
1717.000000	50.874000
1716.000000	51.078200
1715.000000	51.272000
1714.000000	51.468500
1713.000000	51.633800
1712.000000	51.806200
1711.000000	51.930800
1710.000000	52.036200
1709.000000	52.145100
1708.000000	52.225500
1707.000000	52.284100
1706.000000	52.342200
1705.000000	52.376000
1704.000000	52.388600
1703.000000	52.399000
1702.000000	52.388500
1701.000000	52.395400
1700.000000	52.400900
1699.000000	52.380800
1698.000000	52.374000
1697.000000	52.352100
1696.000000	52.334100
1695.000000	52.314900
1694.000000	52.252800
1693.000000	52.188200
1692.000000	52.151100
1691.000000	52.093000
1690.000000	52.051700
1689.000000	52.070600
1688.000000	52.127400
1687.000000	52.242800
1686.000000	52.414600
1685.000000	52.580600
1684.000000	52.807600
1683.000000	53.000900
1682.000000	53.252800
1681.000000	53.499900
1680.000000	53.746600
1679.000000	53.956600
1678.000000	54.168900
1677.000000	54.387500
1676.000000	54.592600
1675.000000	54.778100
1674.000000	54.963500
1673.000000	55.183300
1672.000000	55.356800
1671.000000	55.558200
1670.000000	55.756600
1669.000000	55.958000
1668.000000	56.148900
1667.000000	56.304000
1666.000000	56.465200
1665.000000	56.630700
1664.000000	56.796300
1663.000000	56.940200
1662.000000	57.066800
1661.000000	57.191800
1660.000000	57.324700
1659.000000	57.410700
1658.000000	57.504300
1657.000000	57.579300
1656.000000	57.663600
1655.000000	57.702000
1654.000000	57.756300
1653.000000	57.785200
1652.000000	57.817500
1651.000000	57.852500
1650.000000	57.842000
1649.000000	57.840700
1648.000000	57.849300
1647.000000	57.850300
1646.000000	57.838700
1645.000000	57.832500
1644.000000	57.829300
1643.000000	57.813400
1642.000000	57.795500
1641.000000	57.787500
1640.000000	57.796000
1639.000000	57.775600
1638.000000	57.752700
1637.000000	57.737900
1636.000000	57.724800
1635.000000	57.687500
1634.000000	57.646500
1633.000000	57.606600
1632.000000	57.572000
1631.000000	57.525700
1630.000000	57.484700
1629.000000	57.442500
1628.000000	57.400600
1627.000000	57.358100
1626.000000	57.305500
1625.000000	57.260700
1624.000000	57.222900
