PE UV       SUBTECH     SPECTRUM    ASCII       PEDS        4.00        
   -1
CICIMAUCR0141-1.Sample.ASC
24/04/19
14:36:41.00
24/04/19
14:36:41.00
Vinicio Soto Monge
C. kalinini
250,000000
1
Lambda 1050
1050L1511233
PerkinElmer UV WinLab 6.3.2.0749 / 2.02.05 Lambda 900 UV/VIS/NIR, Aug  7 2015 09:38:08

0
0
3350/servo 860,8/2
0
0
UV/VIS
1
1
1
DoubleDePol,CommonBeamDepol,RBeamAtt,SBeamAtt,60mm sphere, WB InGaAs Detector
0
0
0
0
Program
Program
3350/servo 860,8/2
3350/0,2 860,8/0,2
3350/0,2 860,8/0,2
0
15.00
 
 
 
0
 
860,8
319,2
860,8
Front
100
on
S:100 R:100
0
0
0
0
 
0
 
 
 
0
 
 
0
0
0
0
0
 
 
 
 
0
0


0
0
#HDR
-1
-1
#GR
nm
%R
1.0
0.0
2500,000000
-1,000000
2251
8
97,649500
5,759200
#DATA
2500.000000	11.416200
2499.000000	11.320400
2498.000000	11.363100
2497.000000	11.386200
2496.000000	11.321500
2495.000000	11.194400
2494.000000	11.367600
2493.000000	11.283100
2492.000000	11.341800
2491.000000	11.337300
2490.000000	11.320600
2489.000000	11.262600
2488.000000	11.226400
2487.000000	11.274700
2486.000000	11.245500
2485.000000	11.219400
2484.000000	11.209100
2483.000000	11.269900
2482.000000	11.270500
2481.000000	11.306900
2480.000000	11.321400
2479.000000	11.350900
2478.000000	11.321800
2477.000000	11.364700
2476.000000	11.415500
2475.000000	11.418400
2474.000000	11.454500
2473.000000	11.514800
2472.000000	11.522200
2471.000000	11.589600
2470.000000	11.624600
2469.000000	11.634100
2468.000000	11.673500
2467.000000	11.755200
2466.000000	11.745300
2465.000000	11.789800
2464.000000	11.877900
2463.000000	11.920800
2462.000000	11.988800
2461.000000	12.057800
2460.000000	12.126800
2459.000000	12.183600
2458.000000	12.241400
2457.000000	12.336200
2456.000000	12.395100
2455.000000	12.495900
2454.000000	12.580500
2453.000000	12.654200
2452.000000	12.762300
2451.000000	12.869300
2450.000000	12.963300
2449.000000	13.052200
2448.000000	13.168700
2447.000000	13.263500
2446.000000	13.382000
2445.000000	13.485700
2444.000000	13.597200
2443.000000	13.713900
2442.000000	13.824800
2441.000000	13.946500
2440.000000	14.029200
2439.000000	14.160900
2438.000000	14.262500
2437.000000	14.404600
2436.000000	14.495200
2435.000000	14.605500
2434.000000	14.707600
2433.000000	14.826900
2432.000000	14.927300
2431.000000	15.028900
2430.000000	15.131000
2429.000000	15.235600
2428.000000	15.334200
2427.000000	15.426400
2426.000000	15.520700
2425.000000	15.579400
2424.000000	15.608700
2423.000000	15.653000
2422.000000	15.690900
2421.000000	15.751600
2420.000000	15.825200
2419.000000	15.907000
2418.000000	15.968100
2417.000000	16.015400
2416.000000	16.063900
2415.000000	16.100300
2414.000000	16.141600
2413.000000	16.205200
2412.000000	16.236300
2411.000000	16.262400
2410.000000	16.292500
2409.000000	16.335100
2408.000000	16.355800
2407.000000	16.361800
2406.000000	16.378600
2405.000000	16.428100
2404.000000	16.459900
2403.000000	16.453900
2402.000000	16.449600
2401.000000	16.483100
2400.000000	16.517200
2399.000000	16.528800
2398.000000	16.524600
2397.000000	16.538000
2396.000000	16.551300
2395.000000	16.565000
2394.000000	16.582200
2393.000000	16.580100
2392.000000	16.567800
2391.000000	16.584900
2390.000000	16.597000
2389.000000	16.590100
2388.000000	16.595000
2387.000000	16.586200
2386.000000	16.568600
2385.000000	16.565400
2384.000000	16.567500
2383.000000	16.559500
2382.000000	16.545900
2381.000000	16.515600
2380.000000	16.496100
2379.000000	16.480100
2378.000000	16.467400
2377.000000	16.449900
2376.000000	16.420900
2375.000000	16.394800
2374.000000	16.386400
2373.000000	16.360000
2372.000000	16.330900
2371.000000	16.315500
2370.000000	16.296900
2369.000000	16.277500
2368.000000	16.260800
2367.000000	16.260300
2366.000000	16.241400
2365.000000	16.226200
2364.000000	16.215700
2363.000000	16.211300
2362.000000	16.203500
2361.000000	16.182300
2360.000000	16.170600
2359.000000	16.163200
2358.000000	16.146700
2357.000000	16.116300
2356.000000	16.091700
2355.000000	16.071500
2354.000000	16.034100
2353.000000	16.001900
2352.000000	15.984900
2351.000000	15.939800
2350.000000	15.910500
2349.000000	15.891500
2348.000000	15.855600
2347.000000	15.815400
2346.000000	15.789900
2345.000000	15.783000
2344.000000	15.742400
2343.000000	15.703800
2342.000000	15.689600
2341.000000	15.665800
2340.000000	15.648200
2339.000000	15.640300
2338.000000	15.613100
2337.000000	15.598100
2336.000000	15.583300
2335.000000	15.566400
2334.000000	15.568800
2333.000000	15.570700
2332.000000	15.572200
2331.000000	15.581500
2330.000000	15.592600
2329.000000	15.595200
2328.000000	15.594800
2327.000000	15.619300
2326.000000	15.639500
2325.000000	15.655000
2324.000000	15.668900
2323.000000	15.673600
2322.000000	15.686900
2321.000000	15.695300
2320.000000	15.688200
2319.000000	15.684700
2318.000000	15.665300
2317.000000	15.655900
2316.000000	15.632500
2315.000000	15.591500
2314.000000	15.562700
2313.000000	15.546100
2312.000000	15.503800
2311.000000	15.451600
2310.000000	15.412500
2309.000000	15.381300
2308.000000	15.334900
2307.000000	15.303200
2306.000000	15.268700
2305.000000	15.251400
2304.000000	15.230700
2303.000000	15.194300
2302.000000	15.179700
2301.000000	15.161300
2300.000000	15.159500
2299.000000	15.155200
2298.000000	15.153200
2297.000000	15.157800
2296.000000	15.154000
2295.000000	15.170600
2294.000000	15.186300
2293.000000	15.216900
2292.000000	15.221600
2291.000000	15.244700
2290.000000	15.268500
2289.000000	15.292900
2288.000000	15.321100
2287.000000	15.343800
2286.000000	15.383000
2285.000000	15.426400
2284.000000	15.450800
2283.000000	15.469800
2282.000000	15.504900
2281.000000	15.559300
2280.000000	15.578300
2279.000000	15.585600
2278.000000	15.616500
2277.000000	15.643900
2276.000000	15.696400
2275.000000	15.709200
2274.000000	15.729500
2273.000000	15.741800
2272.000000	15.733300
2271.000000	15.759900
2270.000000	15.776900
2269.000000	15.820400
2268.000000	15.878600
2267.000000	15.910400
2266.000000	15.955900
2265.000000	16.009800
2264.000000	16.084700
2263.000000	16.164500
2262.000000	16.271500
2261.000000	16.353000
2260.000000	16.496900
2259.000000	16.601800
2258.000000	16.744400
2257.000000	16.903100
2256.000000	17.013300
2255.000000	17.168400
2254.000000	17.341700
2253.000000	17.519300
2252.000000	17.648000
2251.000000	17.803900
2250.000000	17.963200
2249.000000	18.128200
2248.000000	18.249600
2247.000000	18.402600
2246.000000	18.521400
2245.000000	18.648300
2244.000000	18.766400
2243.000000	18.861500
2242.000000	18.941500
2241.000000	19.003800
2240.000000	19.074300
2239.000000	19.156900
2238.000000	19.183300
2237.000000	19.216800
2236.000000	19.242700
2235.000000	19.276300
2234.000000	19.274800
2233.000000	19.261500
2232.000000	19.246000
2231.000000	19.235100
2230.000000	19.180500
2229.000000	19.176400
2228.000000	19.135200
2227.000000	19.071000
2226.000000	19.006200
2225.000000	18.965400
2224.000000	18.888200
2223.000000	18.818300
2222.000000	18.741600
2221.000000	18.667000
2220.000000	18.590800
2219.000000	18.513300
2218.000000	18.405500
2217.000000	18.333600
2216.000000	18.264400
2215.000000	18.196700
2214.000000	18.106200
2213.000000	18.022000
2212.000000	17.928400
2211.000000	17.849200
2210.000000	17.773000
2209.000000	17.717500
2208.000000	17.654300
2207.000000	17.572200
2206.000000	17.509500
2205.000000	17.477800
2204.000000	17.403700
2203.000000	17.337500
2202.000000	17.294500
2201.000000	17.227500
2200.000000	17.175000
2199.000000	17.141100
2198.000000	17.084800
2197.000000	17.041900
2196.000000	16.999200
2195.000000	16.953800
2194.000000	16.923900
2193.000000	16.872800
2192.000000	16.835600
2191.000000	16.804800
2190.000000	16.773600
2189.000000	16.762100
2188.000000	16.727900
2187.000000	16.693700
2186.000000	16.657700
2185.000000	16.620100
2184.000000	16.583000
2183.000000	16.551200
2182.000000	16.528200
2181.000000	16.498100
2180.000000	16.470600
2179.000000	16.443500
2178.000000	16.429600
2177.000000	16.408000
2176.000000	16.383200
2175.000000	16.370500
2174.000000	16.380200
2173.000000	16.352200
2172.000000	16.345800
2171.000000	16.364100
2170.000000	16.368900
2169.000000	16.385200
2168.000000	16.409100
2167.000000	16.410100
2166.000000	16.432300
2165.000000	16.469700
2164.000000	16.505200
2163.000000	16.534600
2162.000000	16.576200
2161.000000	16.632600
2160.000000	16.684600
2159.000000	16.730200
2158.000000	16.795300
2157.000000	16.875300
2156.000000	16.982700
2155.000000	17.055600
2154.000000	17.132900
2153.000000	17.220400
2152.000000	17.307400
2151.000000	17.428400
2150.000000	17.530300
2149.000000	17.617100
2148.000000	17.719400
2147.000000	17.814000
2146.000000	17.920200
2145.000000	18.019500
2144.000000	18.112800
2143.000000	18.207600
2142.000000	18.295700
2141.000000	18.388200
2140.000000	18.495800
2139.000000	18.575100
2138.000000	18.655700
2137.000000	18.746200
2136.000000	18.837100
2135.000000	18.915300
2134.000000	18.970500
2133.000000	19.038500
2132.000000	19.131800
2131.000000	19.189700
2130.000000	19.248700
2129.000000	19.315300
2128.000000	19.368100
2127.000000	19.429500
2126.000000	19.481100
2125.000000	19.528500
2124.000000	19.575400
2123.000000	19.609500
2122.000000	19.651000
2121.000000	19.693100
2120.000000	19.725500
2119.000000	19.758500
2118.000000	19.781700
2117.000000	19.803500
2116.000000	19.826800
2115.000000	19.844800
2114.000000	19.858400
2113.000000	19.856800
2112.000000	19.872500
2111.000000	19.875700
2110.000000	19.869000
2109.000000	19.881500
2108.000000	19.884800
2107.000000	19.879600
2106.000000	19.884400
2105.000000	19.892700
2104.000000	19.890700
2103.000000	19.894600
2102.000000	19.900500
2101.000000	19.895200
2100.000000	19.893500
2099.000000	19.902800
2098.000000	19.923300
2097.000000	19.922900
2096.000000	19.934000
2095.000000	19.962700
2094.000000	19.987400
2093.000000	20.011700
2092.000000	20.032300
2091.000000	20.050900
2090.000000	20.061800
2089.000000	20.078700
2088.000000	20.089800
2087.000000	20.106100
2086.000000	20.126400
2085.000000	20.123400
2084.000000	20.126400
2083.000000	20.116200
2082.000000	20.101600
2081.000000	20.072000
2080.000000	20.036900
2079.000000	20.006200
2078.000000	19.970400
2077.000000	19.909700
2076.000000	19.851900
2075.000000	19.785200
2074.000000	19.700000
2073.000000	19.614400
2072.000000	19.524300
2071.000000	19.427200
2070.000000	19.326700
2069.000000	19.219400
2068.000000	19.106600
2067.000000	18.993900
2066.000000	18.883200
2065.000000	18.773500
2064.000000	18.665200
2063.000000	18.542200
2062.000000	18.414300
2061.000000	18.308500
2060.000000	18.213300
2059.000000	18.134600
2058.000000	18.049000
2057.000000	17.973500
2056.000000	17.917700
2055.000000	17.889100
2054.000000	17.861900
2053.000000	17.869900
2052.000000	17.885700
2051.000000	17.903700
2050.000000	17.965400
2049.000000	18.031400
2048.000000	18.114300
2047.000000	18.224100
2046.000000	18.340300
2045.000000	18.446000
2044.000000	18.566000
2043.000000	18.687000
2042.000000	18.819900
2041.000000	18.961200
2040.000000	19.085800
2039.000000	19.205400
2038.000000	19.352600
2037.000000	19.458700
2036.000000	19.557200
2035.000000	19.685100
2034.000000	19.796900
2033.000000	19.885800
2032.000000	19.965400
2031.000000	20.055800
2030.000000	20.143500
2029.000000	20.239100
2028.000000	20.329400
2027.000000	20.384600
2026.000000	20.441600
2025.000000	20.518200
2024.000000	20.575800
2023.000000	20.631700
2022.000000	20.679200
2021.000000	20.735600
2020.000000	20.786800
2019.000000	20.824600
2018.000000	20.861300
2017.000000	20.901500
2016.000000	20.927300
2015.000000	20.946600
2014.000000	20.952900
2013.000000	20.953800
2012.000000	20.953500
2011.000000	20.964800
2010.000000	20.969500
2009.000000	20.940900
2008.000000	20.909200
2007.000000	20.881600
2006.000000	20.867800
2005.000000	20.828300
2004.000000	20.788500
2003.000000	20.734700
2002.000000	20.673200
2001.000000	20.607500
2000.000000	20.555600
1999.000000	20.496700
1998.000000	20.430300
1997.000000	20.352900
1996.000000	20.276900
1995.000000	20.180700
1994.000000	20.084400
1993.000000	20.019300
1992.000000	19.912000
1991.000000	19.834300
1990.000000	19.724600
1989.000000	19.637800
1988.000000	19.538300
1987.000000	19.430800
1986.000000	19.309700
1985.000000	19.203300
1984.000000	19.105500
1983.000000	19.004500
1982.000000	18.879700
1981.000000	18.780000
1980.000000	18.680300
1979.000000	18.565700
1978.000000	18.478100
1977.000000	18.379200
1976.000000	18.244800
1975.000000	18.191800
1974.000000	18.085700
1973.000000	17.979200
1972.000000	17.867400
1971.000000	17.784500
1970.000000	17.668700
1969.000000	17.568900
1968.000000	17.488000
1967.000000	17.381100
1966.000000	17.297400
1965.000000	17.221500
1964.000000	17.101300
1963.000000	17.013500
1962.000000	16.939400
1961.000000	16.839800
1960.000000	16.741900
1959.000000	16.634100
1958.000000	16.547400
1957.000000	16.461400
1956.000000	16.360100
1955.000000	16.289200
1954.000000	16.187100
1953.000000	16.089100
1952.000000	15.997100
1951.000000	15.909000
1950.000000	15.852900
1949.000000	15.764400
1948.000000	15.706500
1947.000000	15.615100
1946.000000	15.570700
1945.000000	15.517600
1944.000000	15.458300
1943.000000	15.406800
1942.000000	15.358700
1941.000000	15.319300
1940.000000	15.300000
1939.000000	15.291200
1938.000000	15.275000
1937.000000	15.248600
1936.000000	15.238900
1935.000000	15.239700
1934.000000	15.257000
1933.000000	15.268200
1932.000000	15.321200
1931.000000	15.373700
1930.000000	15.406400
1929.000000	15.509300
1928.000000	15.601200
1927.000000	15.661800
1926.000000	15.753700
1925.000000	15.849700
1924.000000	15.956300
1923.000000	16.063700
1922.000000	16.231900
1921.000000	16.401300
1920.000000	16.584200
1919.000000	16.744200
1918.000000	16.917200
1917.000000	17.088400
1916.000000	17.279800
1915.000000	17.521600
1914.000000	17.821800
1913.000000	18.127700
1912.000000	18.434400
1911.000000	18.732700
1910.000000	19.010900
1909.000000	19.288000
1908.000000	19.641900
1907.000000	20.067600
1906.000000	20.567800
1905.000000	21.105400
1904.000000	21.609700
1903.000000	22.078800
1902.000000	22.584800
1901.000000	23.126400
1900.000000	23.726200
1899.000000	24.380000
1898.000000	25.032200
1897.000000	25.648100
1896.000000	26.204600
1895.000000	26.783400
1894.000000	27.409200
1893.000000	28.075000
1892.000000	28.847900
1891.000000	29.580100
1890.000000	30.236200
1889.000000	30.850400
1888.000000	31.470000
1887.000000	32.049400
1886.000000	32.630500
1885.000000	33.220500
1884.000000	33.808500
1883.000000	34.341000
1882.000000	34.812800
1881.000000	35.279500
1880.000000	35.703100
1879.000000	36.117500
1878.000000	36.526100
1877.000000	36.911700
1876.000000	37.287400
1875.000000	37.669000
1874.000000	38.022700
1873.000000	38.354200
1872.000000	38.676200
1871.000000	38.922600
1870.000000	39.124400
1869.000000	39.326900
1868.000000	39.523400
1867.000000	39.637400
1866.000000	39.730100
1865.000000	39.835000
1864.000000	39.953900
1863.000000	40.072100
1862.000000	40.194800
1861.000000	40.347500
1860.000000	40.478000
1859.000000	40.578700
1858.000000	40.667400
1857.000000	40.735500
1856.000000	40.788000
1855.000000	40.845200
1854.000000	40.887200
1853.000000	40.892300
1852.000000	40.913700
1851.000000	40.946200
1850.000000	41.005700
1849.000000	41.063900
1848.000000	41.072400
1847.000000	41.067500
1846.000000	41.010600
1845.000000	40.952900
1844.000000	40.928300
1843.000000	40.942700
1842.000000	40.955900
1841.000000	40.939300
1840.000000	40.905400
1839.000000	40.858500
1838.000000	40.824400
1837.000000	40.787000
1836.000000	40.740600
1835.000000	40.663600
1834.000000	40.578700
1833.000000	40.529000
1832.000000	40.503500
1831.000000	40.478500
1830.000000	40.452100
1829.000000	40.421700
1828.000000	40.373500
1827.000000	40.350300
1826.000000	40.327400
1825.000000	40.302600
1824.000000	40.289900
1823.000000	40.332100
1822.000000	40.381300
1821.000000	40.402500
1820.000000	40.396900
1819.000000	40.349900
1818.000000	40.321200
1817.000000	40.319500
1816.000000	40.323600
1815.000000	40.304700
1814.000000	40.288400
1813.000000	40.278700
1812.000000	40.267600
1811.000000	40.220700
1810.000000	40.167700
1809.000000	40.132000
1808.000000	40.114000
1807.000000	40.093100
1806.000000	40.064300
1805.000000	40.014600
1804.000000	39.984800
1803.000000	39.973200
1802.000000	39.967500
1801.000000	39.940800
1800.000000	39.895100
1799.000000	39.863200
1798.000000	39.834700
1797.000000	39.810800
1796.000000	39.786200
1795.000000	39.753700
1794.000000	39.714800
1793.000000	39.695900
1792.000000	39.678800
1791.000000	39.658900
1790.000000	39.661200
1789.000000	39.662500
1788.000000	39.660900
1787.000000	39.672500
1786.000000	39.672900
1785.000000	39.665000
1784.000000	39.666200
1783.000000	39.663100
1782.000000	39.647300
1781.000000	39.638600
1780.000000	39.610600
1779.000000	39.577400
1778.000000	39.543200
1777.000000	39.500100
1776.000000	39.446000
1775.000000	39.404000
1774.000000	39.338600
1773.000000	39.278700
1772.000000	39.258300
1771.000000	39.206300
1770.000000	39.142000
1769.000000	39.102200
1768.000000	39.059800
1767.000000	39.013000
1766.000000	38.968100
1765.000000	38.938700
1764.000000	38.923700
1763.000000	38.916500
1762.000000	38.910600
1761.000000	38.892600
1760.000000	38.904300
1759.000000	38.929600
1758.000000	38.945700
1757.000000	38.935500
1756.000000	38.944200
1755.000000	38.959600
1754.000000	38.984100
1753.000000	38.983900
1752.000000	38.977800
1751.000000	38.968200
1750.000000	38.948700
1749.000000	38.912300
1748.000000	38.861700
1747.000000	38.817300
1746.000000	38.742600
1745.000000	38.651600
1744.000000	38.560400
1743.000000	38.460900
1742.000000	38.350100
1741.000000	38.232400
1740.000000	38.100400
1739.000000	38.005000
1738.000000	37.900200
1737.000000	37.813800
1736.000000	37.711800
1735.000000	37.610300
1734.000000	37.538300
1733.000000	37.439400
1732.000000	37.361100
1731.000000	37.262500
1730.000000	37.189300
1729.000000	37.116200
1728.000000	37.028900
1727.000000	36.943300
1726.000000	36.902600
1725.000000	36.868000
1724.000000	36.872100
1723.000000	36.892300
1722.000000	37.015500
1721.000000	37.201900
1720.000000	37.444100
1719.000000	37.697900
1718.000000	37.966400
1717.000000	38.269500
1716.000000	38.570900
1715.000000	38.850200
1714.000000	39.122200
1713.000000	39.379600
1712.000000	39.570500
1711.000000	39.778700
1710.000000	39.948500
1709.000000	40.121600
1708.000000	40.266300
1707.000000	40.353200
1706.000000	40.462600
1705.000000	40.570200
1704.000000	40.603900
1703.000000	40.664300
1702.000000	40.705200
1701.000000	40.716400
1700.000000	40.721700
1699.000000	40.732200
1698.000000	40.731000
1697.000000	40.705100
1696.000000	40.679200
1695.000000	40.590800
1694.000000	40.483400
1693.000000	40.354300
1692.000000	40.219700
1691.000000	40.101200
1690.000000	39.974300
1689.000000	39.922700
1688.000000	39.908500
1687.000000	39.933100
1686.000000	40.038700
1685.000000	40.243500
1684.000000	40.467300
1683.000000	40.712800
1682.000000	40.970600
1681.000000	41.250600
1680.000000	41.522800
1679.000000	41.748000
1678.000000	41.968500
1677.000000	42.190000
1676.000000	42.361100
1675.000000	42.542200
1674.000000	42.725400
1673.000000	42.919500
1672.000000	43.099200
1671.000000	43.303800
1670.000000	43.516200
1669.000000	43.724400
1668.000000	43.921800
1667.000000	44.116800
1666.000000	44.300600
1665.000000	44.497300
1664.000000	44.655500
1663.000000	44.841100
1662.000000	45.005000
1661.000000	45.134900
1660.000000	45.294400
1659.000000	45.416100
1658.000000	45.522800
1657.000000	45.617000
1656.000000	45.708200
1655.000000	45.768600
1654.000000	45.824800
1653.000000	45.862100
1652.000000	45.887900
1651.000000	45.920400
1650.000000	45.935700
1649.000000	45.950200
1648.000000	45.943300
1647.000000	45.953400
1646.000000	45.955700
1645.000000	45.939100
1644.000000	45.936500
1643.000000	45.931300
1642.000000	45.919700
1641.000000	45.910400
1640.000000	45.901700
1639.000000	45.890100
1638.000000	45.874500
1637.000000	45.868000
1636.000000	45.815400
1635.000000	45.798500
1634.000000	45.772200
1633.000000	45.736300
1632.000000	45.689300
1631.000000	45.642700
1630.000000	45.601100
1629.000000	45.549300
1628.000000	45.497200
1627.000000	45.451500
1626.000000	45.392700
1625.000000	45.332900
1624.000000	45.287900
