PE UV       SUBTECH     SPECTRUM    ASCII       PEDS        4.00        
   -1
CICIMAUCR0018-4.Sample.ASC
24/04/25
09:33:39.00
24/04/25
09:33:39.00
Vinicio Soto Monge
C. cupreomarginata
250,000000
1
Lambda 1050
1050L1511233
PerkinElmer UV WinLab 6.3.2.0749 / 2.02.05 Lambda 900 UV/VIS/NIR, Aug  7 2015 09:38:08

0
0
3350/servo 860,8/2
0
0
UV/VIS
1
1
1
DoubleDePol,CommonBeamDepol,RBeamAtt,SBeamAtt,60mm sphere, WB InGaAs Detector
0
0
0
0
Program
Program
3350/servo 860,8/2
3350/0,2 860,8/0,2
3350/0,2 860,8/0,2
0
15.00
 
 
 
0
 
860,8
319,2
860,8
Front
100
on
S:100 R:100
0
0
0
0
 
0
 
 
 
0
 
 
0
0
0
0
0
 
 
 
 
0
0


0
0
#HDR
-1
-1
#GR
nm
%R
1.0
0.0
2500,000000
-1,000000
2251
8
71,686800
5,649200
#DATA
2500.000000	6.424600
2499.000000	6.358000
2498.000000	6.468600
2497.000000	6.366200
2496.000000	6.365300
2495.000000	6.388800
2494.000000	6.289100
2493.000000	6.236200
2492.000000	6.303100
2491.000000	6.195600
2490.000000	6.216500
2489.000000	6.316500
2488.000000	6.273200
2487.000000	6.236400
2486.000000	6.175300
2485.000000	6.239600
2484.000000	6.201700
2483.000000	6.214900
2482.000000	6.285200
2481.000000	6.238200
2480.000000	6.238900
2479.000000	6.193900
2478.000000	6.270300
2477.000000	6.191400
2476.000000	6.208900
2475.000000	6.254600
2474.000000	6.222300
2473.000000	6.210700
2472.000000	6.239100
2471.000000	6.213200
2470.000000	6.222900
2469.000000	6.205900
2468.000000	6.266700
2467.000000	6.214000
2466.000000	6.236400
2465.000000	6.276200
2464.000000	6.250100
2463.000000	6.312100
2462.000000	6.294000
2461.000000	6.314200
2460.000000	6.344900
2459.000000	6.385700
2458.000000	6.418100
2457.000000	6.441100
2456.000000	6.466900
2455.000000	6.509200
2454.000000	6.554000
2453.000000	6.530600
2452.000000	6.593200
2451.000000	6.618000
2450.000000	6.653800
2449.000000	6.681600
2448.000000	6.754700
2447.000000	6.770400
2446.000000	6.786200
2445.000000	6.855900
2444.000000	6.899500
2443.000000	6.925900
2442.000000	6.974900
2441.000000	7.000000
2440.000000	7.029000
2439.000000	7.079400
2438.000000	7.107200
2437.000000	7.142100
2436.000000	7.173200
2435.000000	7.203600
2434.000000	7.224400
2433.000000	7.236900
2432.000000	7.295000
2431.000000	7.305200
2430.000000	7.333800
2429.000000	7.356300
2428.000000	7.396500
2427.000000	7.399700
2426.000000	7.411500
2425.000000	7.444900
2424.000000	7.464800
2423.000000	7.489900
2422.000000	7.506400
2421.000000	7.521000
2420.000000	7.541600
2419.000000	7.545000
2418.000000	7.563600
2417.000000	7.574900
2416.000000	7.588800
2415.000000	7.603200
2414.000000	7.629200
2413.000000	7.659400
2412.000000	7.699900
2411.000000	7.730700
2410.000000	7.763600
2409.000000	7.791900
2408.000000	7.801100
2407.000000	7.810100
2406.000000	7.821100
2405.000000	7.859700
2404.000000	7.881600
2403.000000	7.892000
2402.000000	7.908500
2401.000000	7.926500
2400.000000	7.945100
2399.000000	7.970300
2398.000000	7.992800
2397.000000	7.997400
2396.000000	8.024600
2395.000000	8.053100
2394.000000	8.061200
2393.000000	8.067000
2392.000000	8.073500
2391.000000	8.086300
2390.000000	8.104000
2389.000000	8.113600
2388.000000	8.120300
2387.000000	8.148000
2386.000000	8.151300
2385.000000	8.149900
2384.000000	8.152900
2383.000000	8.148600
2382.000000	8.148700
2381.000000	8.142700
2380.000000	8.139300
2379.000000	8.139500
2378.000000	8.139600
2377.000000	8.129200
2376.000000	8.117200
2375.000000	8.105700
2374.000000	8.103400
2373.000000	8.098500
2372.000000	8.080700
2371.000000	8.053500
2370.000000	8.036100
2369.000000	8.024400
2368.000000	8.009800
2367.000000	7.985500
2366.000000	7.965000
2365.000000	7.939200
2364.000000	7.912000
2363.000000	7.877400
2362.000000	7.852900
2361.000000	7.824200
2360.000000	7.783200
2359.000000	7.761500
2358.000000	7.741200
2357.000000	7.731000
2356.000000	7.712700
2355.000000	7.695400
2354.000000	7.689600
2353.000000	7.689500
2352.000000	7.690900
2351.000000	7.712700
2350.000000	7.732200
2349.000000	7.740400
2348.000000	7.760700
2347.000000	7.787200
2346.000000	7.802800
2345.000000	7.839200
2344.000000	7.879000
2343.000000	7.904600
2342.000000	7.920100
2341.000000	7.937900
2340.000000	7.943400
2339.000000	7.968400
2338.000000	7.989000
2337.000000	7.987400
2336.000000	8.002300
2335.000000	8.004600
2334.000000	7.989100
2333.000000	7.971500
2332.000000	7.972100
2331.000000	7.954000
2330.000000	7.925100
2329.000000	7.908300
2328.000000	7.857100
2327.000000	7.843000
2326.000000	7.811200
2325.000000	7.780000
2324.000000	7.744900
2323.000000	7.704800
2322.000000	7.659900
2321.000000	7.621800
2320.000000	7.569800
2319.000000	7.527500
2318.000000	7.489300
2317.000000	7.439600
2316.000000	7.388400
2315.000000	7.333600
2314.000000	7.291000
2313.000000	7.257100
2312.000000	7.221200
2311.000000	7.188400
2310.000000	7.171700
2309.000000	7.162800
2308.000000	7.134100
2307.000000	7.126600
2306.000000	7.152500
2305.000000	7.143200
2304.000000	7.177300
2303.000000	7.206600
2302.000000	7.239800
2301.000000	7.275300
2300.000000	7.334200
2299.000000	7.377400
2298.000000	7.432600
2297.000000	7.475300
2296.000000	7.523200
2295.000000	7.578900
2294.000000	7.601000
2293.000000	7.642500
2292.000000	7.669300
2291.000000	7.687100
2290.000000	7.706700
2289.000000	7.715300
2288.000000	7.720700
2287.000000	7.708200
2286.000000	7.717400
2285.000000	7.709300
2284.000000	7.672100
2283.000000	7.662200
2282.000000	7.652200
2281.000000	7.641200
2280.000000	7.604400
2279.000000	7.590500
2278.000000	7.572900
2277.000000	7.567000
2276.000000	7.552100
2275.000000	7.532400
2274.000000	7.549800
2273.000000	7.536300
2272.000000	7.547600
2271.000000	7.564400
2270.000000	7.599000
2269.000000	7.616900
2268.000000	7.658100
2267.000000	7.702800
2266.000000	7.759100
2265.000000	7.843900
2264.000000	7.924300
2263.000000	8.004200
2262.000000	8.118300
2261.000000	8.233200
2260.000000	8.350300
2259.000000	8.466100
2258.000000	8.608900
2257.000000	8.733500
2256.000000	8.887400
2255.000000	9.014100
2254.000000	9.159100
2253.000000	9.288400
2252.000000	9.436100
2251.000000	9.523000
2250.000000	9.653000
2249.000000	9.762900
2248.000000	9.882200
2247.000000	9.989800
2246.000000	10.064000
2245.000000	10.155500
2244.000000	10.260000
2243.000000	10.325800
2242.000000	10.401400
2241.000000	10.481800
2240.000000	10.543100
2239.000000	10.607000
2238.000000	10.665200
2237.000000	10.719700
2236.000000	10.747900
2235.000000	10.794700
2234.000000	10.861700
2233.000000	10.871200
2232.000000	10.928500
2231.000000	10.940900
2230.000000	10.975100
2229.000000	10.979400
2228.000000	10.996700
2227.000000	11.026200
2226.000000	11.011000
2225.000000	11.028900
2224.000000	11.020700
2223.000000	11.016500
2222.000000	11.019700
2221.000000	11.008100
2220.000000	10.999300
2219.000000	10.988400
2218.000000	10.989300
2217.000000	10.996900
2216.000000	10.954800
2215.000000	10.953100
2214.000000	10.936700
2213.000000	10.930200
2212.000000	10.915400
2211.000000	10.909900
2210.000000	10.876200
2209.000000	10.860300
2208.000000	10.873000
2207.000000	10.855200
2206.000000	10.831300
2205.000000	10.835000
2204.000000	10.822700
2203.000000	10.817700
2202.000000	10.822200
2201.000000	10.813400
2200.000000	10.793500
2199.000000	10.788700
2198.000000	10.772000
2197.000000	10.767800
2196.000000	10.755800
2195.000000	10.752200
2194.000000	10.760100
2193.000000	10.726300
2192.000000	10.722500
2191.000000	10.735500
2190.000000	10.723100
2189.000000	10.729700
2188.000000	10.720200
2187.000000	10.682200
2186.000000	10.698200
2185.000000	10.670600
2184.000000	10.666700
2183.000000	10.640400
2182.000000	10.648500
2181.000000	10.636000
2180.000000	10.615100
2179.000000	10.584800
2178.000000	10.583000
2177.000000	10.588300
2176.000000	10.587300
2175.000000	10.589700
2174.000000	10.592400
2173.000000	10.596000
2172.000000	10.584200
2171.000000	10.590700
2170.000000	10.602300
2169.000000	10.621200
2168.000000	10.606900
2167.000000	10.625200
2166.000000	10.632800
2165.000000	10.644000
2164.000000	10.648200
2163.000000	10.651700
2162.000000	10.668200
2161.000000	10.675600
2160.000000	10.694700
2159.000000	10.714300
2158.000000	10.727500
2157.000000	10.750900
2156.000000	10.764400
2155.000000	10.767800
2154.000000	10.799700
2153.000000	10.812800
2152.000000	10.831300
2151.000000	10.854500
2150.000000	10.885800
2149.000000	10.892100
2148.000000	10.899700
2147.000000	10.923000
2146.000000	10.944500
2145.000000	10.939900
2144.000000	10.946800
2143.000000	10.961400
2142.000000	10.971700
2141.000000	10.993300
2140.000000	10.998900
2139.000000	11.008400
2138.000000	11.026000
2137.000000	11.041600
2136.000000	11.022900
2135.000000	11.027300
2134.000000	11.039800
2133.000000	11.032700
2132.000000	11.032200
2131.000000	11.024200
2130.000000	11.023800
2129.000000	11.011500
2128.000000	10.997700
2127.000000	10.982200
2126.000000	10.977000
2125.000000	10.969700
2124.000000	10.951500
2123.000000	10.936500
2122.000000	10.923100
2121.000000	10.908900
2120.000000	10.882500
2119.000000	10.856900
2118.000000	10.838700
2117.000000	10.816800
2116.000000	10.784000
2115.000000	10.768100
2114.000000	10.758600
2113.000000	10.735300
2112.000000	10.706900
2111.000000	10.691400
2110.000000	10.663900
2109.000000	10.637200
2108.000000	10.615100
2107.000000	10.584800
2106.000000	10.570300
2105.000000	10.557200
2104.000000	10.535300
2103.000000	10.510800
2102.000000	10.490800
2101.000000	10.461300
2100.000000	10.435400
2099.000000	10.422800
2098.000000	10.399700
2097.000000	10.391800
2096.000000	10.380000
2095.000000	10.363700
2094.000000	10.349400
2093.000000	10.328500
2092.000000	10.310900
2091.000000	10.297200
2090.000000	10.282700
2089.000000	10.269700
2088.000000	10.266800
2087.000000	10.258700
2086.000000	10.236700
2085.000000	10.222500
2084.000000	10.223800
2083.000000	10.201600
2082.000000	10.186500
2081.000000	10.168400
2080.000000	10.149100
2079.000000	10.148800
2078.000000	10.126000
2077.000000	10.113600
2076.000000	10.105300
2075.000000	10.086100
2074.000000	10.064500
2073.000000	10.051500
2072.000000	10.034800
2071.000000	10.021800
2070.000000	10.013300
2069.000000	9.983400
2068.000000	9.970500
2067.000000	9.950700
2066.000000	9.938900
2065.000000	9.932000
2064.000000	9.914000
2063.000000	9.904300
2062.000000	9.911300
2061.000000	9.914700
2060.000000	9.904800
2059.000000	9.911800
2058.000000	9.915400
2057.000000	9.929700
2056.000000	9.936200
2055.000000	9.961300
2054.000000	10.002800
2053.000000	10.029300
2052.000000	10.069300
2051.000000	10.102700
2050.000000	10.154700
2049.000000	10.213000
2048.000000	10.272200
2047.000000	10.348400
2046.000000	10.421300
2045.000000	10.482600
2044.000000	10.546800
2043.000000	10.595700
2042.000000	10.662700
2041.000000	10.742000
2040.000000	10.816300
2039.000000	10.869400
2038.000000	10.937800
2037.000000	10.998100
2036.000000	11.075700
2035.000000	11.126400
2034.000000	11.193700
2033.000000	11.234300
2032.000000	11.271200
2031.000000	11.328200
2030.000000	11.366500
2029.000000	11.432100
2028.000000	11.457700
2027.000000	11.507600
2026.000000	11.544800
2025.000000	11.576200
2024.000000	11.615200
2023.000000	11.648600
2022.000000	11.680500
2021.000000	11.722300
2020.000000	11.739200
2019.000000	11.768800
2018.000000	11.801000
2017.000000	11.807800
2016.000000	11.831000
2015.000000	11.852600
2014.000000	11.876200
2013.000000	11.890900
2012.000000	11.879200
2011.000000	11.888800
2010.000000	11.896900
2009.000000	11.898800
2008.000000	11.892200
2007.000000	11.917000
2006.000000	11.902800
2005.000000	11.906900
2004.000000	11.884500
2003.000000	11.892000
2002.000000	11.872000
2001.000000	11.853400
2000.000000	11.835300
1999.000000	11.821200
1998.000000	11.787700
1997.000000	11.773800
1996.000000	11.751300
1995.000000	11.731200
1994.000000	11.718300
1993.000000	11.681000
1992.000000	11.645500
1991.000000	11.630800
1990.000000	11.590500
1989.000000	11.546500
1988.000000	11.510300
1987.000000	11.484300
1986.000000	11.452300
1985.000000	11.399200
1984.000000	11.368900
1983.000000	11.343700
1982.000000	11.292600
1981.000000	11.262500
1980.000000	11.234200
1979.000000	11.196900
1978.000000	11.146700
1977.000000	11.119800
1976.000000	11.084500
1975.000000	11.044700
1974.000000	11.025500
1973.000000	10.985400
1972.000000	10.942200
1971.000000	10.902300
1970.000000	10.882900
1969.000000	10.830700
1968.000000	10.811800
1967.000000	10.793500
1966.000000	10.752300
1965.000000	10.719400
1964.000000	10.700900
1963.000000	10.673600
1962.000000	10.627400
1961.000000	10.597200
1960.000000	10.577100
1959.000000	10.544700
1958.000000	10.524800
1957.000000	10.483000
1956.000000	10.448600
1955.000000	10.424400
1954.000000	10.395000
1953.000000	10.377700
1952.000000	10.346500
1951.000000	10.316000
1950.000000	10.315100
1949.000000	10.285700
1948.000000	10.264100
1947.000000	10.238900
1946.000000	10.221200
1945.000000	10.203900
1944.000000	10.180800
1943.000000	10.182600
1942.000000	10.177200
1941.000000	10.178500
1940.000000	10.194900
1939.000000	10.192800
1938.000000	10.187400
1937.000000	10.188800
1936.000000	10.201400
1935.000000	10.219600
1934.000000	10.241800
1933.000000	10.291700
1932.000000	10.321700
1931.000000	10.338500
1930.000000	10.378900
1929.000000	10.421800
1928.000000	10.482000
1927.000000	10.523900
1926.000000	10.575400
1925.000000	10.638900
1924.000000	10.680900
1923.000000	10.766500
1922.000000	10.832000
1921.000000	10.911500
1920.000000	10.989400
1919.000000	11.062200
1918.000000	11.157200
1917.000000	11.272100
1916.000000	11.349000
1915.000000	11.464500
1914.000000	11.586700
1913.000000	11.677100
1912.000000	11.782400
1911.000000	11.901500
1910.000000	12.025600
1909.000000	12.135000
1908.000000	12.255900
1907.000000	12.398400
1906.000000	12.558400
1905.000000	12.699800
1904.000000	12.827900
1903.000000	12.975700
1902.000000	13.114200
1901.000000	13.290100
1900.000000	13.463000
1899.000000	13.629600
1898.000000	13.798900
1897.000000	13.950200
1896.000000	14.107500
1895.000000	14.278100
1894.000000	14.465700
1893.000000	14.667400
1892.000000	14.890300
1891.000000	15.075700
1890.000000	15.280200
1889.000000	15.507700
1888.000000	15.742600
1887.000000	16.012800
1886.000000	16.306600
1885.000000	16.687400
1884.000000	17.053100
1883.000000	17.412600
1882.000000	17.811300
1881.000000	18.197400
1880.000000	18.582700
1879.000000	18.994300
1878.000000	19.365000
1877.000000	19.720000
1876.000000	20.067000
1875.000000	20.388100
1874.000000	20.705200
1873.000000	20.991000
1872.000000	21.247000
1871.000000	21.467100
1870.000000	21.678200
1869.000000	21.850400
1868.000000	21.977600
1867.000000	22.068300
1866.000000	22.157600
1865.000000	22.243500
1864.000000	22.311900
1863.000000	22.395500
1862.000000	22.463600
1861.000000	22.509800
1860.000000	22.529800
1859.000000	22.547800
1858.000000	22.553900
1857.000000	22.537200
1856.000000	22.516600
1855.000000	22.491500
1854.000000	22.426900
1853.000000	22.363100
1852.000000	22.327700
1851.000000	22.301600
1850.000000	22.261600
1849.000000	22.191500
1848.000000	22.108000
1847.000000	22.018900
1846.000000	21.943700
1845.000000	21.891600
1844.000000	21.880200
1843.000000	21.866000
1842.000000	21.837200
1841.000000	21.798300
1840.000000	21.745900
1839.000000	21.693700
1838.000000	21.634900
1837.000000	21.562400
1836.000000	21.486100
1835.000000	21.409300
1834.000000	21.334500
1833.000000	21.271000
1832.000000	21.208200
1831.000000	21.118900
1830.000000	21.026000
1829.000000	20.938300
1828.000000	20.857500
1827.000000	20.787100
1826.000000	20.713400
1825.000000	20.658700
1824.000000	20.634900
1823.000000	20.619800
1822.000000	20.592500
1821.000000	20.555600
1820.000000	20.510900
1819.000000	20.486700
1818.000000	20.469700
1817.000000	20.460000
1816.000000	20.456200
1815.000000	20.447900
1814.000000	20.447000
1813.000000	20.435100
1812.000000	20.406800
1811.000000	20.366500
1810.000000	20.320300
1809.000000	20.281700
1808.000000	20.250200
1807.000000	20.202900
1806.000000	20.151900
1805.000000	20.099900
1804.000000	20.064700
1803.000000	20.041300
1802.000000	19.989000
1801.000000	19.937600
1800.000000	19.889700
1799.000000	19.844100
1798.000000	19.802900
1797.000000	19.768200
1796.000000	19.724900
1795.000000	19.687300
1794.000000	19.644700
1793.000000	19.592300
1792.000000	19.541700
1791.000000	19.490000
1790.000000	19.443600
1789.000000	19.385200
1788.000000	19.332800
1787.000000	19.273200
1786.000000	19.198200
1785.000000	19.129400
1784.000000	19.071100
1783.000000	19.005600
1782.000000	18.932400
1781.000000	18.880000
1780.000000	18.797000
1779.000000	18.696100
1778.000000	18.627400
1777.000000	18.544000
1776.000000	18.443500
1775.000000	18.328200
1774.000000	18.234500
1773.000000	18.127700
1772.000000	18.021900
1771.000000	17.917700
1770.000000	17.792500
1769.000000	17.705600
1768.000000	17.626800
1767.000000	17.545300
1766.000000	17.471900
1765.000000	17.458100
1764.000000	17.427100
1763.000000	17.443400
1762.000000	17.490900
1761.000000	17.539500
1760.000000	17.597400
1759.000000	17.673200
1758.000000	17.750200
1757.000000	17.784800
1756.000000	17.838100
1755.000000	17.873500
1754.000000	17.888200
1753.000000	17.883000
1752.000000	17.857500
1751.000000	17.831400
1750.000000	17.818000
1749.000000	17.754300
1748.000000	17.673200
1747.000000	17.593600
1746.000000	17.507700
1745.000000	17.388100
1744.000000	17.245000
1743.000000	17.080600
1742.000000	16.870900
1741.000000	16.705700
1740.000000	16.520600
1739.000000	16.340400
1738.000000	16.201300
1737.000000	16.078200
1736.000000	15.991100
1735.000000	15.950700
1734.000000	15.966200
1733.000000	15.995600
1732.000000	16.057100
1731.000000	16.147700
1730.000000	16.243100
1729.000000	16.342500
1728.000000	16.460100
1727.000000	16.555900
1726.000000	16.619900
1725.000000	16.689200
1724.000000	16.732200
1723.000000	16.729800
1722.000000	16.759800
1721.000000	16.763900
1720.000000	16.776900
1719.000000	16.796700
1718.000000	16.814500
1717.000000	16.832400
1716.000000	16.882600
1715.000000	16.939300
1714.000000	16.995500
1713.000000	17.030200
1712.000000	17.040200
1711.000000	17.043200
1710.000000	17.044800
1709.000000	17.041100
1708.000000	17.008600
1707.000000	16.984400
1706.000000	16.948500
1705.000000	16.880700
1704.000000	16.833100
1703.000000	16.732500
1702.000000	16.609900
1701.000000	16.499800
1700.000000	16.361600
1699.000000	16.237500
1698.000000	16.120300
1697.000000	16.048200
1696.000000	16.030400
1695.000000	16.034200
1694.000000	16.137500
1693.000000	16.245800
1692.000000	16.368200
1691.000000	16.509100
1690.000000	16.628200
1689.000000	16.703300
1688.000000	16.719300
1687.000000	16.744500
1686.000000	16.746400
1685.000000	16.781900
1684.000000	16.919800
1683.000000	17.118000
1682.000000	17.452700
1681.000000	17.880800
1680.000000	18.338900
1679.000000	18.830900
1678.000000	19.292200
1677.000000	19.750000
1676.000000	20.108500
1675.000000	20.415500
1674.000000	20.746000
1673.000000	20.987700
1672.000000	21.158100
1671.000000	21.359800
1670.000000	21.534100
1669.000000	21.655700
1668.000000	21.748800
1667.000000	21.854200
1666.000000	21.917900
1665.000000	21.977500
1664.000000	22.041900
1663.000000	22.080900
1662.000000	22.107000
1661.000000	22.130700
1660.000000	22.159600
1659.000000	22.161300
1658.000000	22.157900
1657.000000	22.151300
1656.000000	22.124700
1655.000000	22.116300
1654.000000	22.086400
1653.000000	22.057300
1652.000000	22.017200
1651.000000	21.986100
1650.000000	21.945900
1649.000000	21.896100
1648.000000	21.832200
1647.000000	21.776000
1646.000000	21.715900
1645.000000	21.657800
1644.000000	21.590500
1643.000000	21.530600
1642.000000	21.461400
1641.000000	21.396100
1640.000000	21.322100
1639.000000	21.252100
1638.000000	21.189600
1637.000000	21.124500
1636.000000	21.047200
1635.000000	20.982600
1634.000000	20.901600
1633.000000	20.815700
1632.000000	20.735300
1631.000000	20.671800
1630.000000	20.578000
1629.000000	20.498100
1628.000000	20.419400
1627.000000	20.331600
1626.000000	20.252900
1625.000000	20.173700
1624.000000	20.122800
1623.000000	20.038600
1622.000000	19.963800
1621.000000	19.894600
1620.000000	19.837900
1619.000000	19.772200
1618.000000	19.672800
1617.000000	19.610100
1616.000000	19.547500
1615.000000	19.493600
1614.000000	19.417800
1613.000000	19.341500
1612.000000	19.299100
