PE UV       SUBTECH     SPECTRUM    ASCII       PEDS        4.00        
   -1
CICIMAUCR0098-1.Sample.ASC
24/04/17
15:24:50.00
24/04/17
15:24:50.00
Vinicio Soto Monge
C. cupreomarginata
250,000000
1
Lambda 1050
1050L1511233
PerkinElmer UV WinLab 6.3.2.0749 / 2.02.05 Lambda 900 UV/VIS/NIR, Aug  7 2015 09:38:08

0
0
3350/servo 860,8/2
0
0
UV/VIS
1
1
1
DoubleDePol,CommonBeamDepol,RBeamAtt,SBeamAtt,60mm sphere, WB InGaAs Detector
0
0
0
0
Program
Program
3350/servo 860,8/2
3350/0,2 860,8/0,2
3350/0,2 860,8/0,2
0
15.00
 
 
 
0
 
860,8
319,2
860,8
Front
100
on
S:100 R:100
0
0
0
0
 
0
 
 
 
0
 
 
0
0
0
0
0
 
 
 
 
0
0


0
0
#HDR
-1
-1
#GR
nm
%R
1.0
0.0
2500,000000
-1,000000
2251
8
65,024400
5,292200
#DATA
2500.000000	7.069600
2499.000000	7.011800
2498.000000	7.049700
2497.000000	7.066100
2496.000000	7.130600
2495.000000	6.979500
2494.000000	6.931800
2493.000000	6.928200
2492.000000	6.957700
2491.000000	6.884300
2490.000000	6.923900
2489.000000	6.886700
2488.000000	6.884700
2487.000000	6.978700
2486.000000	6.862800
2485.000000	6.932800
2484.000000	6.921100
2483.000000	6.954500
2482.000000	6.945000
2481.000000	6.894700
2480.000000	6.917000
2479.000000	6.885700
2478.000000	6.873100
2477.000000	6.917700
2476.000000	6.871300
2475.000000	6.895000
2474.000000	6.888000
2473.000000	6.933100
2472.000000	6.881100
2471.000000	6.929900
2470.000000	6.904900
2469.000000	6.914500
2468.000000	6.929900
2467.000000	6.904600
2466.000000	6.968800
2465.000000	6.948000
2464.000000	6.965100
2463.000000	6.979800
2462.000000	6.991600
2461.000000	7.048800
2460.000000	7.004300
2459.000000	7.055600
2458.000000	7.086500
2457.000000	7.112100
2456.000000	7.134700
2455.000000	7.171500
2454.000000	7.208600
2453.000000	7.255800
2452.000000	7.285100
2451.000000	7.321600
2450.000000	7.342900
2449.000000	7.399900
2448.000000	7.464800
2447.000000	7.471400
2446.000000	7.512300
2445.000000	7.553600
2444.000000	7.592500
2443.000000	7.641700
2442.000000	7.691200
2441.000000	7.709000
2440.000000	7.767100
2439.000000	7.807000
2438.000000	7.835800
2437.000000	7.886800
2436.000000	7.914800
2435.000000	7.922100
2434.000000	7.963100
2433.000000	8.011700
2432.000000	8.045900
2431.000000	8.069400
2430.000000	8.091200
2429.000000	8.109800
2428.000000	8.149100
2427.000000	8.160300
2426.000000	8.179900
2425.000000	8.204800
2424.000000	8.240900
2423.000000	8.246400
2422.000000	8.276000
2421.000000	8.301600
2420.000000	8.294600
2419.000000	8.269100
2418.000000	8.264600
2417.000000	8.277700
2416.000000	8.279800
2415.000000	8.288400
2414.000000	8.293500
2413.000000	8.316600
2412.000000	8.318000
2411.000000	8.333600
2410.000000	8.337300
2409.000000	8.342500
2408.000000	8.340700
2407.000000	8.359900
2406.000000	8.369900
2405.000000	8.380700
2404.000000	8.378500
2403.000000	8.388300
2402.000000	8.398800
2401.000000	8.412100
2400.000000	8.411800
2399.000000	8.428700
2398.000000	8.448100
2397.000000	8.454600
2396.000000	8.461900
2395.000000	8.458800
2394.000000	8.462600
2393.000000	8.478500
2392.000000	8.484900
2391.000000	8.494900
2390.000000	8.501000
2389.000000	8.508400
2388.000000	8.518300
2387.000000	8.522000
2386.000000	8.526400
2385.000000	8.533000
2384.000000	8.535900
2383.000000	8.526300
2382.000000	8.504200
2381.000000	8.510000
2380.000000	8.508100
2379.000000	8.478600
2378.000000	8.471400
2377.000000	8.486400
2376.000000	8.464400
2375.000000	8.446800
2374.000000	8.450200
2373.000000	8.424900
2372.000000	8.415100
2371.000000	8.401600
2370.000000	8.371300
2369.000000	8.357700
2368.000000	8.331700
2367.000000	8.314400
2366.000000	8.299300
2365.000000	8.268500
2364.000000	8.239200
2363.000000	8.209700
2362.000000	8.182000
2361.000000	8.144100
2360.000000	8.096600
2359.000000	8.062800
2358.000000	8.030400
2357.000000	7.997900
2356.000000	7.982000
2355.000000	7.962800
2354.000000	7.945300
2353.000000	7.936200
2352.000000	7.929100
2351.000000	7.925800
2350.000000	7.924500
2349.000000	7.934800
2348.000000	7.945700
2347.000000	7.965500
2346.000000	7.993700
2345.000000	8.018000
2344.000000	8.041300
2343.000000	8.056700
2342.000000	8.077000
2341.000000	8.094000
2340.000000	8.109400
2339.000000	8.134600
2338.000000	8.136600
2337.000000	8.130100
2336.000000	8.126300
2335.000000	8.106100
2334.000000	8.103100
2333.000000	8.110700
2332.000000	8.093400
2331.000000	8.078400
2330.000000	8.056600
2329.000000	8.022800
2328.000000	7.989200
2327.000000	7.950800
2326.000000	7.916800
2325.000000	7.883900
2324.000000	7.853200
2323.000000	7.821300
2322.000000	7.774800
2321.000000	7.728500
2320.000000	7.673000
2319.000000	7.613500
2318.000000	7.565400
2317.000000	7.519500
2316.000000	7.473000
2315.000000	7.419800
2314.000000	7.361500
2313.000000	7.298600
2312.000000	7.264100
2311.000000	7.227500
2310.000000	7.194700
2309.000000	7.148300
2308.000000	7.132600
2307.000000	7.120700
2306.000000	7.114300
2305.000000	7.095200
2304.000000	7.111400
2303.000000	7.122500
2302.000000	7.150900
2301.000000	7.167700
2300.000000	7.204500
2299.000000	7.256400
2298.000000	7.300000
2297.000000	7.339100
2296.000000	7.391300
2295.000000	7.437000
2294.000000	7.482200
2293.000000	7.512900
2292.000000	7.537500
2291.000000	7.548800
2290.000000	7.566200
2289.000000	7.580500
2288.000000	7.595800
2287.000000	7.595800
2286.000000	7.584700
2285.000000	7.583300
2284.000000	7.559200
2283.000000	7.543900
2282.000000	7.550700
2281.000000	7.507600
2280.000000	7.490500
2279.000000	7.467300
2278.000000	7.454600
2277.000000	7.450200
2276.000000	7.411700
2275.000000	7.396200
2274.000000	7.385300
2273.000000	7.373800
2272.000000	7.359700
2271.000000	7.364800
2270.000000	7.369300
2269.000000	7.382500
2268.000000	7.424600
2267.000000	7.434900
2266.000000	7.473900
2265.000000	7.539700
2264.000000	7.587800
2263.000000	7.666300
2262.000000	7.752800
2261.000000	7.844700
2260.000000	7.947500
2259.000000	8.056100
2258.000000	8.162600
2257.000000	8.292700
2256.000000	8.425800
2255.000000	8.539600
2254.000000	8.656800
2253.000000	8.789500
2252.000000	8.911800
2251.000000	9.035600
2250.000000	9.138100
2249.000000	9.232800
2248.000000	9.353600
2247.000000	9.427400
2246.000000	9.547800
2245.000000	9.622300
2244.000000	9.706800
2243.000000	9.792100
2242.000000	9.852200
2241.000000	9.908900
2240.000000	9.999700
2239.000000	10.034900
2238.000000	10.091900
2237.000000	10.133200
2236.000000	10.193200
2235.000000	10.230600
2234.000000	10.273000
2233.000000	10.298400
2232.000000	10.350800
2231.000000	10.361400
2230.000000	10.390300
2229.000000	10.417200
2228.000000	10.433700
2227.000000	10.461100
2226.000000	10.457900
2225.000000	10.449500
2224.000000	10.475900
2223.000000	10.475100
2222.000000	10.480900
2221.000000	10.496200
2220.000000	10.477000
2219.000000	10.476000
2218.000000	10.468700
2217.000000	10.463900
2216.000000	10.456000
2215.000000	10.457000
2214.000000	10.443200
2213.000000	10.415000
2212.000000	10.431200
2211.000000	10.412500
2210.000000	10.403600
2209.000000	10.392400
2208.000000	10.391200
2207.000000	10.366500
2206.000000	10.381600
2205.000000	10.379900
2204.000000	10.376900
2203.000000	10.381500
2202.000000	10.357400
2201.000000	10.347500
2200.000000	10.354700
2199.000000	10.330400
2198.000000	10.349100
2197.000000	10.341700
2196.000000	10.329000
2195.000000	10.316200
2194.000000	10.316500
2193.000000	10.321100
2192.000000	10.326100
2191.000000	10.318800
2190.000000	10.308200
2189.000000	10.295700
2188.000000	10.295400
2187.000000	10.274600
2186.000000	10.274100
2185.000000	10.282600
2184.000000	10.268200
2183.000000	10.263900
2182.000000	10.267100
2181.000000	10.257000
2180.000000	10.260500
2179.000000	10.259200
2178.000000	10.235500
2177.000000	10.252100
2176.000000	10.253100
2175.000000	10.257100
2174.000000	10.257400
2173.000000	10.244900
2172.000000	10.244900
2171.000000	10.258200
2170.000000	10.262500
2169.000000	10.268300
2168.000000	10.266300
2167.000000	10.287400
2166.000000	10.311700
2165.000000	10.320100
2164.000000	10.347300
2163.000000	10.363900
2162.000000	10.360900
2161.000000	10.364600
2160.000000	10.380700
2159.000000	10.401900
2158.000000	10.424600
2157.000000	10.427700
2156.000000	10.441900
2155.000000	10.472200
2154.000000	10.500000
2153.000000	10.527200
2152.000000	10.536600
2151.000000	10.550700
2150.000000	10.567700
2149.000000	10.578900
2148.000000	10.609800
2147.000000	10.621900
2146.000000	10.624600
2145.000000	10.663500
2144.000000	10.680200
2143.000000	10.670900
2142.000000	10.691000
2141.000000	10.704700
2140.000000	10.717500
2139.000000	10.729100
2138.000000	10.726900
2137.000000	10.731600
2136.000000	10.755400
2135.000000	10.764600
2134.000000	10.761200
2133.000000	10.772100
2132.000000	10.770700
2131.000000	10.756300
2130.000000	10.753300
2129.000000	10.759200
2128.000000	10.748000
2127.000000	10.741500
2126.000000	10.747900
2125.000000	10.737600
2124.000000	10.730200
2123.000000	10.713700
2122.000000	10.689300
2121.000000	10.676800
2120.000000	10.662400
2119.000000	10.625500
2118.000000	10.622800
2117.000000	10.626400
2116.000000	10.601600
2115.000000	10.575600
2114.000000	10.564600
2113.000000	10.544500
2112.000000	10.507400
2111.000000	10.494000
2110.000000	10.488600
2109.000000	10.464300
2108.000000	10.427700
2107.000000	10.414400
2106.000000	10.403300
2105.000000	10.372300
2104.000000	10.344500
2103.000000	10.345300
2102.000000	10.333400
2101.000000	10.300000
2100.000000	10.276700
2099.000000	10.266900
2098.000000	10.262900
2097.000000	10.246200
2096.000000	10.227300
2095.000000	10.209400
2094.000000	10.188400
2093.000000	10.167700
2092.000000	10.162200
2091.000000	10.160500
2090.000000	10.149700
2089.000000	10.128700
2088.000000	10.109300
2087.000000	10.098100
2086.000000	10.087200
2085.000000	10.070600
2084.000000	10.060100
2083.000000	10.056800
2082.000000	10.043800
2081.000000	10.035600
2080.000000	10.017100
2079.000000	9.988600
2078.000000	9.971500
2077.000000	9.955600
2076.000000	9.942400
2075.000000	9.928000
2074.000000	9.908800
2073.000000	9.908200
2072.000000	9.887000
2071.000000	9.869600
2070.000000	9.841800
2069.000000	9.826600
2068.000000	9.810300
2067.000000	9.807100
2066.000000	9.806800
2065.000000	9.793700
2064.000000	9.772000
2063.000000	9.749300
2062.000000	9.746700
2061.000000	9.754200
2060.000000	9.747700
2059.000000	9.746000
2058.000000	9.741300
2057.000000	9.744600
2056.000000	9.762800
2055.000000	9.768700
2054.000000	9.788100
2053.000000	9.806000
2052.000000	9.835300
2051.000000	9.884800
2050.000000	9.920900
2049.000000	9.948700
2048.000000	9.997200
2047.000000	10.044400
2046.000000	10.107000
2045.000000	10.183400
2044.000000	10.229000
2043.000000	10.285700
2042.000000	10.393400
2041.000000	10.432100
2040.000000	10.485000
2039.000000	10.562300
2038.000000	10.611700
2037.000000	10.662000
2036.000000	10.721000
2035.000000	10.781000
2034.000000	10.843500
2033.000000	10.890000
2032.000000	10.937000
2031.000000	10.984300
2030.000000	11.038400
2029.000000	11.070600
2028.000000	11.106700
2027.000000	11.158200
2026.000000	11.184300
2025.000000	11.217900
2024.000000	11.242800
2023.000000	11.279000
2022.000000	11.333800
2021.000000	11.347500
2020.000000	11.377000
2019.000000	11.424200
2018.000000	11.427800
2017.000000	11.465300
2016.000000	11.484800
2015.000000	11.502700
2014.000000	11.533300
2013.000000	11.537800
2012.000000	11.560600
2011.000000	11.574900
2010.000000	11.590400
2009.000000	11.596700
2008.000000	11.602500
2007.000000	11.595800
2006.000000	11.600100
2005.000000	11.598600
2004.000000	11.580300
2003.000000	11.589600
2002.000000	11.567300
2001.000000	11.556200
2000.000000	11.535000
1999.000000	11.527700
1998.000000	11.536000
1997.000000	11.491300
1996.000000	11.455900
1995.000000	11.441400
1994.000000	11.392600
1993.000000	11.379300
1992.000000	11.350900
1991.000000	11.331200
1990.000000	11.290600
1989.000000	11.252300
1988.000000	11.232800
1987.000000	11.180600
1986.000000	11.138900
1985.000000	11.109400
1984.000000	11.071700
1983.000000	11.032900
1982.000000	10.972500
1981.000000	10.957700
1980.000000	10.929000
1979.000000	10.872300
1978.000000	10.846900
1977.000000	10.822600
1976.000000	10.744700
1975.000000	10.726300
1974.000000	10.648400
1973.000000	10.632100
1972.000000	10.618800
1971.000000	10.574800
1970.000000	10.531100
1969.000000	10.502600
1968.000000	10.472500
1967.000000	10.443900
1966.000000	10.400600
1965.000000	10.366200
1964.000000	10.342900
1963.000000	10.317800
1962.000000	10.250600
1961.000000	10.252300
1960.000000	10.196000
1959.000000	10.177000
1958.000000	10.146400
1957.000000	10.103100
1956.000000	10.103700
1955.000000	10.063800
1954.000000	10.011100
1953.000000	9.986100
1952.000000	9.987000
1951.000000	9.963300
1950.000000	9.923200
1949.000000	9.916200
1948.000000	9.887600
1947.000000	9.876000
1946.000000	9.848700
1945.000000	9.831900
1944.000000	9.820500
1943.000000	9.798500
1942.000000	9.798300
1941.000000	9.818000
1940.000000	9.819100
1939.000000	9.819800
1938.000000	9.829100
1937.000000	9.833500
1936.000000	9.835200
1935.000000	9.867200
1934.000000	9.879500
1933.000000	9.905400
1932.000000	9.943500
1931.000000	9.991100
1930.000000	10.015300
1929.000000	10.069800
1928.000000	10.122100
1927.000000	10.186900
1926.000000	10.236000
1925.000000	10.294800
1924.000000	10.363300
1923.000000	10.421900
1922.000000	10.522900
1921.000000	10.613600
1920.000000	10.712600
1919.000000	10.799700
1918.000000	10.895900
1917.000000	10.984500
1916.000000	11.079400
1915.000000	11.177800
1914.000000	11.301400
1913.000000	11.449800
1912.000000	11.586100
1911.000000	11.709100
1910.000000	11.832900
1909.000000	11.926000
1908.000000	12.041800
1907.000000	12.190700
1906.000000	12.340600
1905.000000	12.547300
1904.000000	12.724700
1903.000000	12.861100
1902.000000	12.997300
1901.000000	13.167100
1900.000000	13.361900
1899.000000	13.550400
1898.000000	13.732400
1897.000000	13.918300
1896.000000	14.067900
1895.000000	14.217000
1894.000000	14.386900
1893.000000	14.560000
1892.000000	14.768900
1891.000000	15.007200
1890.000000	15.238000
1889.000000	15.429300
1888.000000	15.651100
1887.000000	15.868600
1886.000000	16.104700
1885.000000	16.394600
1884.000000	16.746600
1883.000000	17.129700
1882.000000	17.496100
1881.000000	17.857800
1880.000000	18.209700
1879.000000	18.545400
1878.000000	18.910600
1877.000000	19.261900
1876.000000	19.580600
1875.000000	19.892100
1874.000000	20.189100
1873.000000	20.465300
1872.000000	20.719400
1871.000000	20.947100
1870.000000	21.147800
1869.000000	21.337900
1868.000000	21.496100
1867.000000	21.593200
1866.000000	21.684100
1865.000000	21.739100
1864.000000	21.772600
1863.000000	21.800900
1862.000000	21.845000
1861.000000	21.884000
1860.000000	21.924300
1859.000000	21.950700
1858.000000	21.955100
1857.000000	21.941800
1856.000000	21.893600
1855.000000	21.854100
1854.000000	21.835100
1853.000000	21.776700
1852.000000	21.709800
1851.000000	21.635500
1850.000000	21.557000
1849.000000	21.508900
1848.000000	21.492600
1847.000000	21.435900
1846.000000	21.357900
1845.000000	21.255200
1844.000000	21.168000
1843.000000	21.124800
1842.000000	21.126000
1841.000000	21.131100
1840.000000	21.096900
1839.000000	21.033500
1838.000000	20.989900
1837.000000	20.948400
1836.000000	20.892300
1835.000000	20.837900
1834.000000	20.753200
1833.000000	20.663600
1832.000000	20.572900
1831.000000	20.500400
1830.000000	20.430300
1829.000000	20.360900
1828.000000	20.281600
1827.000000	20.198300
1826.000000	20.140400
1825.000000	20.075900
1824.000000	20.003100
1823.000000	19.944800
1822.000000	19.940800
1821.000000	19.938800
1820.000000	19.925800
1819.000000	19.890100
1818.000000	19.851100
1817.000000	19.821800
1816.000000	19.815300
1815.000000	19.811900
1814.000000	19.805200
1813.000000	19.800100
1812.000000	19.772400
1811.000000	19.751000
1810.000000	19.720900
1809.000000	19.685300
1808.000000	19.649500
1807.000000	19.613700
1806.000000	19.581600
1805.000000	19.536400
1804.000000	19.475400
1803.000000	19.420700
1802.000000	19.386800
1801.000000	19.361300
1800.000000	19.324100
1799.000000	19.266900
1798.000000	19.210000
1797.000000	19.172400
1796.000000	19.133000
1795.000000	19.093500
1794.000000	19.030600
1793.000000	18.967700
1792.000000	18.945700
1791.000000	18.907000
1790.000000	18.853000
1789.000000	18.790200
1788.000000	18.739900
1787.000000	18.678100
1786.000000	18.608200
1785.000000	18.544900
1784.000000	18.452200
1783.000000	18.391500
1782.000000	18.332400
1781.000000	18.251200
1780.000000	18.171300
1779.000000	18.108500
1778.000000	18.033300
1777.000000	17.947000
1776.000000	17.863800
1775.000000	17.768900
1774.000000	17.678100
1773.000000	17.563700
1772.000000	17.450600
1771.000000	17.329700
1770.000000	17.221300
1769.000000	17.124000
1768.000000	17.023900
1767.000000	16.950100
1766.000000	16.873900
1765.000000	16.795600
1764.000000	16.760900
1763.000000	16.745000
1762.000000	16.755600
1761.000000	16.799900
1760.000000	16.854600
1759.000000	16.918100
1758.000000	16.962400
1757.000000	17.034900
1756.000000	17.079700
1755.000000	17.131800
1754.000000	17.163000
1753.000000	17.158300
1752.000000	17.147700
1751.000000	17.152200
1750.000000	17.115100
1749.000000	17.064300
1748.000000	17.011000
1747.000000	16.975200
1746.000000	16.873600
1745.000000	16.772600
1744.000000	16.647000
1743.000000	16.502700
1742.000000	16.345800
1741.000000	16.174900
1740.000000	15.988500
1739.000000	15.812600
1738.000000	15.653900
1737.000000	15.502800
1736.000000	15.391100
1735.000000	15.316800
1734.000000	15.292300
1733.000000	15.301900
1732.000000	15.339100
1731.000000	15.386700
1730.000000	15.447000
1729.000000	15.543900
1728.000000	15.667400
1727.000000	15.763900
1726.000000	15.846700
1725.000000	15.921100
1724.000000	15.960100
1723.000000	15.988500
1722.000000	16.016300
1721.000000	16.010400
1720.000000	16.019000
1719.000000	16.047300
1718.000000	16.044100
1717.000000	16.069900
1716.000000	16.107100
1715.000000	16.151600
1714.000000	16.181800
1713.000000	16.234300
1712.000000	16.283800
1711.000000	16.306400
1710.000000	16.322800
1709.000000	16.316800
1708.000000	16.305000
1707.000000	16.290600
1706.000000	16.263200
1705.000000	16.220600
1704.000000	16.186100
1703.000000	16.115500
1702.000000	16.051000
1701.000000	15.952600
1700.000000	15.844200
1699.000000	15.714300
1698.000000	15.610400
1697.000000	15.519400
1696.000000	15.434400
1695.000000	15.429100
1694.000000	15.466000
1693.000000	15.514800
1692.000000	15.640400
1691.000000	15.773000
1690.000000	15.879000
1689.000000	15.983400
1688.000000	16.048200
1687.000000	16.054500
1686.000000	16.069300
1685.000000	16.072700
1684.000000	16.110100
1683.000000	16.247200
1682.000000	16.455000
1681.000000	16.776100
1680.000000	17.161400
1679.000000	17.606600
1678.000000	18.079000
1677.000000	18.527300
1676.000000	18.923000
1675.000000	19.294300
1674.000000	19.614600
1673.000000	19.857000
1672.000000	20.088900
1671.000000	20.293300
1670.000000	20.462000
1669.000000	20.611200
1668.000000	20.745000
1667.000000	20.937300
1666.000000	21.009700
1665.000000	21.109600
1664.000000	21.173600
1663.000000	21.234500
1662.000000	21.264300
1661.000000	21.296000
1660.000000	21.345200
1659.000000	21.364300
1658.000000	21.375700
1657.000000	21.385200
1656.000000	21.383200
1655.000000	21.388300
1654.000000	21.371200
1653.000000	21.357100
1652.000000	21.342800
1651.000000	21.306000
1650.000000	21.276600
1649.000000	21.240000
1648.000000	21.220000
1647.000000	21.164700
1646.000000	21.108300
1645.000000	21.043700
1644.000000	20.989900
1643.000000	20.951000
1642.000000	20.898700
1641.000000	20.833300
1640.000000	20.757300
1639.000000	20.730000
1638.000000	20.651400
1637.000000	20.602900
1636.000000	20.535600
1635.000000	20.488000
1634.000000	20.410100
1633.000000	20.343800
1632.000000	20.262500
1631.000000	20.202200
1630.000000	20.117800
1629.000000	20.028800
1628.000000	19.959600
1627.000000	19.893100
1626.000000	19.820200
1625.000000	19.747900
1624.000000	19.675400
1623.000000	19.603200
1622.000000	19.533200
1621.000000	19.478600
1620.000000	19.388900
1619.000000	19.307200
1618.000000	19.248700
1617.000000	19.189400
1616.000000	19.140000
1615.000000	19.061200
1614.000000	18.996700
1613.000000	18.928500
1612.000000	18.866600
1611.000000	18.811400
1610.000000	18.751600
