PE UV       SUBTECH     SPECTRUM    ASCII       PEDS        4.00        
   -1
CICIMAUCR0098-4.Sample.ASC
24/04/25
11:26:36.00
24/04/25
11:26:36.00
Vinicio Soto Monge
C. cupreomarginata
250,000000
1
Lambda 1050
1050L1511233
PerkinElmer UV WinLab 6.3.2.0749 / 2.02.05 Lambda 900 UV/VIS/NIR, Aug  7 2015 09:38:08

0
0
3350/servo 860,8/2
0
0
UV/VIS
1
1
1
DoubleDePol,CommonBeamDepol,RBeamAtt,SBeamAtt,60mm sphere, WB InGaAs Detector
0
0
0
0
Program
Program
3350/servo 860,8/2
3350/0,2 860,8/0,2
3350/0,2 860,8/0,2
0
15.00
 
 
 
0
 
860,8
319,2
860,8
Front
100
on
S:100 R:100
0
0
0
0
 
0
 
 
 
0
 
 
0
0
0
0
0
 
 
 
 
0
0


0
0
#HDR
-1
-1
#GR
nm
%R
1.0
0.0
2500,000000
-1,000000
2251
8
67,710500
4,817400
#DATA
2500.000000	6.159200
2499.000000	6.010700
2498.000000	5.996800
2497.000000	6.096200
2496.000000	6.000300
2495.000000	5.952100
2494.000000	6.034300
2493.000000	5.986400
2492.000000	5.994200
2491.000000	6.000100
2490.000000	5.984900
2489.000000	6.015900
2488.000000	5.947600
2487.000000	5.954200
2486.000000	5.867500
2485.000000	5.932200
2484.000000	5.957400
2483.000000	5.854900
2482.000000	5.953300
2481.000000	5.894100
2480.000000	5.861500
2479.000000	5.874000
2478.000000	5.899800
2477.000000	5.890800
2476.000000	5.896100
2475.000000	5.899400
2474.000000	5.867600
2473.000000	5.868300
2472.000000	5.920700
2471.000000	5.897000
2470.000000	5.912000
2469.000000	5.914100
2468.000000	5.916500
2467.000000	5.901100
2466.000000	5.926500
2465.000000	5.901500
2464.000000	5.933400
2463.000000	5.930600
2462.000000	5.920600
2461.000000	5.985400
2460.000000	5.967100
2459.000000	5.980300
2458.000000	5.989500
2457.000000	6.027200
2456.000000	6.057100
2455.000000	6.082000
2454.000000	6.085100
2453.000000	6.122600
2452.000000	6.146400
2451.000000	6.182100
2450.000000	6.229100
2449.000000	6.245300
2448.000000	6.257600
2447.000000	6.307800
2446.000000	6.334000
2445.000000	6.351000
2444.000000	6.358600
2443.000000	6.403100
2442.000000	6.428200
2441.000000	6.438100
2440.000000	6.466200
2439.000000	6.495200
2438.000000	6.532900
2437.000000	6.563000
2436.000000	6.598500
2435.000000	6.611100
2434.000000	6.638900
2433.000000	6.649800
2432.000000	6.646500
2431.000000	6.662700
2430.000000	6.707000
2429.000000	6.728500
2428.000000	6.745000
2427.000000	6.760900
2426.000000	6.779000
2425.000000	6.793800
2424.000000	6.815400
2423.000000	6.834500
2422.000000	6.826100
2421.000000	6.832100
2420.000000	6.854100
2419.000000	6.873900
2418.000000	6.870500
2417.000000	6.874400
2416.000000	6.885400
2415.000000	6.918000
2414.000000	6.923600
2413.000000	6.921100
2412.000000	6.929300
2411.000000	6.942500
2410.000000	6.968500
2409.000000	6.982600
2408.000000	7.000700
2407.000000	7.039700
2406.000000	7.046400
2405.000000	7.058200
2404.000000	7.076500
2403.000000	7.074200
2402.000000	7.092500
2401.000000	7.117900
2400.000000	7.139300
2399.000000	7.159100
2398.000000	7.158100
2397.000000	7.167600
2396.000000	7.197100
2395.000000	7.211800
2394.000000	7.231900
2393.000000	7.243000
2392.000000	7.241600
2391.000000	7.260900
2390.000000	7.287200
2389.000000	7.301200
2388.000000	7.304800
2387.000000	7.310000
2386.000000	7.316900
2385.000000	7.334200
2384.000000	7.338300
2383.000000	7.328900
2382.000000	7.332500
2381.000000	7.344400
2380.000000	7.349700
2379.000000	7.358200
2378.000000	7.363000
2377.000000	7.343900
2376.000000	7.331400
2375.000000	7.339900
2374.000000	7.327800
2373.000000	7.308200
2372.000000	7.315100
2371.000000	7.310700
2370.000000	7.307100
2369.000000	7.296600
2368.000000	7.272400
2367.000000	7.263900
2366.000000	7.246100
2365.000000	7.224300
2364.000000	7.211100
2363.000000	7.194500
2362.000000	7.179900
2361.000000	7.169200
2360.000000	7.148700
2359.000000	7.120300
2358.000000	7.106300
2357.000000	7.097100
2356.000000	7.089600
2355.000000	7.067000
2354.000000	7.053000
2353.000000	7.066900
2352.000000	7.070800
2351.000000	7.076300
2350.000000	7.085800
2349.000000	7.100400
2348.000000	7.101900
2347.000000	7.117200
2346.000000	7.147100
2345.000000	7.172400
2344.000000	7.205400
2343.000000	7.233800
2342.000000	7.246000
2341.000000	7.245200
2340.000000	7.269400
2339.000000	7.275600
2338.000000	7.280300
2337.000000	7.293800
2336.000000	7.301800
2335.000000	7.310600
2334.000000	7.301900
2333.000000	7.287400
2332.000000	7.287200
2331.000000	7.273300
2330.000000	7.248800
2329.000000	7.225100
2328.000000	7.206700
2327.000000	7.193000
2326.000000	7.156900
2325.000000	7.123700
2324.000000	7.095100
2323.000000	7.082300
2322.000000	7.053400
2321.000000	7.007200
2320.000000	6.971800
2319.000000	6.913400
2318.000000	6.878100
2317.000000	6.840200
2316.000000	6.805700
2315.000000	6.761200
2314.000000	6.721600
2313.000000	6.697200
2312.000000	6.676900
2311.000000	6.634300
2310.000000	6.605600
2309.000000	6.607300
2308.000000	6.589400
2307.000000	6.584000
2306.000000	6.574800
2305.000000	6.577700
2304.000000	6.603100
2303.000000	6.601400
2302.000000	6.637900
2301.000000	6.682100
2300.000000	6.685200
2299.000000	6.707700
2298.000000	6.728300
2297.000000	6.789100
2296.000000	6.818800
2295.000000	6.855300
2294.000000	6.890500
2293.000000	6.916000
2292.000000	6.920400
2291.000000	6.938900
2290.000000	6.963900
2289.000000	6.958900
2288.000000	6.967700
2287.000000	6.959400
2286.000000	6.949000
2285.000000	6.943400
2284.000000	6.933000
2283.000000	6.931500
2282.000000	6.925000
2281.000000	6.891700
2280.000000	6.853600
2279.000000	6.856400
2278.000000	6.830100
2277.000000	6.799000
2276.000000	6.809800
2275.000000	6.805800
2274.000000	6.813900
2273.000000	6.783300
2272.000000	6.806800
2271.000000	6.791500
2270.000000	6.801600
2269.000000	6.817200
2268.000000	6.853000
2267.000000	6.882200
2266.000000	6.916400
2265.000000	6.981300
2264.000000	7.014100
2263.000000	7.080000
2262.000000	7.138800
2261.000000	7.225600
2260.000000	7.318400
2259.000000	7.377500
2258.000000	7.480900
2257.000000	7.594300
2256.000000	7.675100
2255.000000	7.784000
2254.000000	7.867900
2253.000000	7.949800
2252.000000	8.037000
2251.000000	8.140900
2250.000000	8.230800
2249.000000	8.303800
2248.000000	8.387300
2247.000000	8.454500
2246.000000	8.533300
2245.000000	8.587100
2244.000000	8.667700
2243.000000	8.711700
2242.000000	8.761700
2241.000000	8.810300
2240.000000	8.881700
2239.000000	8.915200
2238.000000	8.944800
2237.000000	8.981700
2236.000000	9.023000
2235.000000	9.051500
2234.000000	9.078000
2233.000000	9.134800
2232.000000	9.141100
2231.000000	9.165200
2230.000000	9.202400
2229.000000	9.179800
2228.000000	9.208900
2227.000000	9.216100
2226.000000	9.242300
2225.000000	9.234800
2224.000000	9.238300
2223.000000	9.243700
2222.000000	9.250900
2221.000000	9.269600
2220.000000	9.257900
2219.000000	9.277800
2218.000000	9.269300
2217.000000	9.252700
2216.000000	9.255900
2215.000000	9.258500
2214.000000	9.242900
2213.000000	9.230500
2212.000000	9.219000
2211.000000	9.191800
2210.000000	9.211400
2209.000000	9.211700
2208.000000	9.194000
2207.000000	9.197500
2206.000000	9.197500
2205.000000	9.199000
2204.000000	9.196100
2203.000000	9.190000
2202.000000	9.175400
2201.000000	9.193600
2200.000000	9.201200
2199.000000	9.192000
2198.000000	9.197200
2197.000000	9.196400
2196.000000	9.183500
2195.000000	9.190900
2194.000000	9.183900
2193.000000	9.195700
2192.000000	9.188400
2191.000000	9.186700
2190.000000	9.178100
2189.000000	9.184200
2188.000000	9.187600
2187.000000	9.187400
2186.000000	9.180400
2185.000000	9.167700
2184.000000	9.167800
2183.000000	9.172300
2182.000000	9.158900
2181.000000	9.167600
2180.000000	9.163300
2179.000000	9.167000
2178.000000	9.165200
2177.000000	9.182400
2176.000000	9.180500
2175.000000	9.175800
2174.000000	9.168600
2173.000000	9.178900
2172.000000	9.179200
2171.000000	9.189300
2170.000000	9.191200
2169.000000	9.203100
2168.000000	9.208000
2167.000000	9.213400
2166.000000	9.220500
2165.000000	9.227800
2164.000000	9.248600
2163.000000	9.246900
2162.000000	9.256900
2161.000000	9.266800
2160.000000	9.278700
2159.000000	9.297900
2158.000000	9.308400
2157.000000	9.321600
2156.000000	9.331300
2155.000000	9.360200
2154.000000	9.373800
2153.000000	9.380600
2152.000000	9.383700
2151.000000	9.390600
2150.000000	9.391500
2149.000000	9.409700
2148.000000	9.424500
2147.000000	9.435200
2146.000000	9.453300
2145.000000	9.475200
2144.000000	9.483400
2143.000000	9.477200
2142.000000	9.481000
2141.000000	9.477700
2140.000000	9.497300
2139.000000	9.499300
2138.000000	9.489000
2137.000000	9.505000
2136.000000	9.504600
2135.000000	9.514200
2134.000000	9.513100
2133.000000	9.510700
2132.000000	9.515100
2131.000000	9.518200
2130.000000	9.510000
2129.000000	9.512500
2128.000000	9.510900
2127.000000	9.506900
2126.000000	9.500400
2125.000000	9.485000
2124.000000	9.460800
2123.000000	9.461800
2122.000000	9.469500
2121.000000	9.442600
2120.000000	9.424900
2119.000000	9.417500
2118.000000	9.409200
2117.000000	9.407400
2116.000000	9.384500
2115.000000	9.358800
2114.000000	9.328800
2113.000000	9.317500
2112.000000	9.324600
2111.000000	9.300500
2110.000000	9.287800
2109.000000	9.285900
2108.000000	9.277800
2107.000000	9.266100
2106.000000	9.245100
2105.000000	9.230300
2104.000000	9.217500
2103.000000	9.202800
2102.000000	9.189400
2101.000000	9.171800
2100.000000	9.164400
2099.000000	9.152800
2098.000000	9.131400
2097.000000	9.121900
2096.000000	9.112100
2095.000000	9.111400
2094.000000	9.103000
2093.000000	9.086700
2092.000000	9.077400
2091.000000	9.083000
2090.000000	9.074700
2089.000000	9.054800
2088.000000	9.053100
2087.000000	9.048000
2086.000000	9.030500
2085.000000	9.024300
2084.000000	9.025800
2083.000000	9.018600
2082.000000	9.010400
2081.000000	9.006200
2080.000000	8.981100
2079.000000	8.960900
2078.000000	8.961100
2077.000000	8.962000
2076.000000	8.941400
2075.000000	8.946700
2074.000000	8.935200
2073.000000	8.922800
2072.000000	8.923600
2071.000000	8.923400
2070.000000	8.906000
2069.000000	8.892900
2068.000000	8.893400
2067.000000	8.897800
2066.000000	8.884400
2065.000000	8.873700
2064.000000	8.863000
2063.000000	8.856400
2062.000000	8.859700
2061.000000	8.856300
2060.000000	8.848700
2059.000000	8.861700
2058.000000	8.870200
2057.000000	8.892300
2056.000000	8.901000
2055.000000	8.925600
2054.000000	8.936900
2053.000000	8.939400
2052.000000	8.959600
2051.000000	9.001500
2050.000000	9.033800
2049.000000	9.073500
2048.000000	9.104900
2047.000000	9.143700
2046.000000	9.202200
2045.000000	9.244200
2044.000000	9.262100
2043.000000	9.310400
2042.000000	9.365500
2041.000000	9.406800
2040.000000	9.443500
2039.000000	9.493200
2038.000000	9.523600
2037.000000	9.570300
2036.000000	9.604700
2035.000000	9.635200
2034.000000	9.672200
2033.000000	9.701900
2032.000000	9.744700
2031.000000	9.757000
2030.000000	9.772100
2029.000000	9.818200
2028.000000	9.845100
2027.000000	9.857300
2026.000000	9.868000
2025.000000	9.883100
2024.000000	9.909300
2023.000000	9.933300
2022.000000	9.937700
2021.000000	9.965100
2020.000000	9.977500
2019.000000	10.011000
2018.000000	10.021600
2017.000000	10.015500
2016.000000	10.023300
2015.000000	10.027500
2014.000000	10.030200
2013.000000	10.035800
2012.000000	10.034200
2011.000000	10.036200
2010.000000	10.020600
2009.000000	10.021500
2008.000000	10.018300
2007.000000	10.007900
2006.000000	10.021300
2005.000000	10.010700
2004.000000	9.989700
2003.000000	9.976000
2002.000000	9.962300
2001.000000	9.955400
2000.000000	9.944300
1999.000000	9.937400
1998.000000	9.906200
1997.000000	9.884800
1996.000000	9.870200
1995.000000	9.843300
1994.000000	9.808400
1993.000000	9.801900
1992.000000	9.749100
1991.000000	9.756300
1990.000000	9.716600
1989.000000	9.700700
1988.000000	9.666200
1987.000000	9.637400
1986.000000	9.611600
1985.000000	9.582500
1984.000000	9.539400
1983.000000	9.527200
1982.000000	9.504000
1981.000000	9.472600
1980.000000	9.422500
1979.000000	9.397100
1978.000000	9.360300
1977.000000	9.337000
1976.000000	9.318000
1975.000000	9.275500
1974.000000	9.271300
1973.000000	9.236400
1972.000000	9.209600
1971.000000	9.189100
1970.000000	9.148400
1969.000000	9.118700
1968.000000	9.113300
1967.000000	9.078800
1966.000000	9.056700
1965.000000	9.037500
1964.000000	8.994100
1963.000000	8.975800
1962.000000	8.948400
1961.000000	8.945100
1960.000000	8.899400
1959.000000	8.884800
1958.000000	8.868200
1957.000000	8.870400
1956.000000	8.833400
1955.000000	8.809100
1954.000000	8.792700
1953.000000	8.760100
1952.000000	8.741100
1951.000000	8.729500
1950.000000	8.710700
1949.000000	8.697500
1948.000000	8.680400
1947.000000	8.675000
1946.000000	8.638600
1945.000000	8.650700
1944.000000	8.645100
1943.000000	8.663200
1942.000000	8.653200
1941.000000	8.631900
1940.000000	8.656800
1939.000000	8.640100
1938.000000	8.627500
1937.000000	8.629600
1936.000000	8.656700
1935.000000	8.656100
1934.000000	8.687100
1933.000000	8.704900
1932.000000	8.737300
1931.000000	8.763900
1930.000000	8.783900
1929.000000	8.829700
1928.000000	8.866400
1927.000000	8.894900
1926.000000	8.945600
1925.000000	8.971400
1924.000000	9.038100
1923.000000	9.096600
1922.000000	9.144000
1921.000000	9.194600
1920.000000	9.240200
1919.000000	9.302600
1918.000000	9.370600
1917.000000	9.446900
1916.000000	9.519200
1915.000000	9.602900
1914.000000	9.672800
1913.000000	9.740300
1912.000000	9.822000
1911.000000	9.913700
1910.000000	9.987700
1909.000000	10.095200
1908.000000	10.184000
1907.000000	10.297400
1906.000000	10.386200
1905.000000	10.491300
1904.000000	10.582000
1903.000000	10.707100
1902.000000	10.792200
1901.000000	10.913300
1900.000000	11.031000
1899.000000	11.151100
1898.000000	11.277200
1897.000000	11.398500
1896.000000	11.524400
1895.000000	11.644000
1894.000000	11.790900
1893.000000	11.929400
1892.000000	12.104100
1891.000000	12.225900
1890.000000	12.399800
1889.000000	12.584100
1888.000000	12.757600
1887.000000	12.948300
1886.000000	13.170000
1885.000000	13.435800
1884.000000	13.719300
1883.000000	14.036400
1882.000000	14.368200
1881.000000	14.691200
1880.000000	15.021100
1879.000000	15.363200
1878.000000	15.682600
1877.000000	15.986900
1876.000000	16.293800
1875.000000	16.591700
1874.000000	16.853800
1873.000000	17.102600
1872.000000	17.335000
1871.000000	17.556700
1870.000000	17.746200
1869.000000	17.926800
1868.000000	18.063500
1867.000000	18.182200
1866.000000	18.293900
1865.000000	18.380800
1864.000000	18.472000
1863.000000	18.548300
1862.000000	18.625300
1861.000000	18.672100
1860.000000	18.710100
1859.000000	18.742400
1858.000000	18.742300
1857.000000	18.756300
1856.000000	18.756500
1855.000000	18.724800
1854.000000	18.700100
1853.000000	18.661300
1852.000000	18.636700
1851.000000	18.630400
1850.000000	18.615800
1849.000000	18.573100
1848.000000	18.488100
1847.000000	18.392600
1846.000000	18.315500
1845.000000	18.299200
1844.000000	18.304600
1843.000000	18.320300
1842.000000	18.304400
1841.000000	18.254800
1840.000000	18.204400
1839.000000	18.173900
1838.000000	18.141400
1837.000000	18.084000
1836.000000	18.027000
1835.000000	17.961100
1834.000000	17.897300
1833.000000	17.847000
1832.000000	17.803200
1831.000000	17.728500
1830.000000	17.654200
1829.000000	17.595900
1828.000000	17.527800
1827.000000	17.460500
1826.000000	17.388800
1825.000000	17.332400
1824.000000	17.314200
1823.000000	17.318800
1822.000000	17.305100
1821.000000	17.262100
1820.000000	17.203300
1819.000000	17.170800
1818.000000	17.158400
1817.000000	17.153100
1816.000000	17.166300
1815.000000	17.156600
1814.000000	17.136800
1813.000000	17.117900
1812.000000	17.096600
1811.000000	17.076600
1810.000000	17.052800
1809.000000	17.020900
1808.000000	16.994000
1807.000000	16.949800
1806.000000	16.894600
1805.000000	16.864300
1804.000000	16.829000
1803.000000	16.783400
1802.000000	16.742900
1801.000000	16.707100
1800.000000	16.661000
1799.000000	16.606900
1798.000000	16.567800
1797.000000	16.539000
1796.000000	16.508600
1795.000000	16.448200
1794.000000	16.401300
1793.000000	16.364400
1792.000000	16.306500
1791.000000	16.250300
1790.000000	16.186200
1789.000000	16.151700
1788.000000	16.094000
1787.000000	16.038800
1786.000000	15.975300
1785.000000	15.898400
1784.000000	15.831600
1783.000000	15.763400
1782.000000	15.703900
1781.000000	15.636300
1780.000000	15.575200
1779.000000	15.492300
1778.000000	15.423200
1777.000000	15.354900
1776.000000	15.273800
1775.000000	15.175900
1774.000000	15.073500
1773.000000	14.985700
1772.000000	14.897500
1771.000000	14.801000
1770.000000	14.708600
1769.000000	14.620600
1768.000000	14.538400
1767.000000	14.445500
1766.000000	14.388000
1765.000000	14.361700
1764.000000	14.322000
1763.000000	14.314700
1762.000000	14.333900
1761.000000	14.371500
1760.000000	14.425600
1759.000000	14.457400
1758.000000	14.514300
1757.000000	14.565200
1756.000000	14.589800
1755.000000	14.626900
1754.000000	14.641500
1753.000000	14.619800
1752.000000	14.614500
1751.000000	14.587200
1750.000000	14.564000
1749.000000	14.527300
1748.000000	14.445200
1747.000000	14.399600
1746.000000	14.321400
1745.000000	14.230000
1744.000000	14.123200
1743.000000	13.995500
1742.000000	13.837300
1741.000000	13.670300
1740.000000	13.504700
1739.000000	13.381900
1738.000000	13.246400
1737.000000	13.150000
1736.000000	13.065400
1735.000000	13.014600
1734.000000	12.991500
1733.000000	13.001800
1732.000000	13.054100
1731.000000	13.118100
1730.000000	13.198900
1729.000000	13.286700
1728.000000	13.362900
1727.000000	13.442200
1726.000000	13.503600
1725.000000	13.563000
1724.000000	13.604100
1723.000000	13.613400
1722.000000	13.629000
1721.000000	13.618100
1720.000000	13.614300
1719.000000	13.622900
1718.000000	13.628900
1717.000000	13.647900
1716.000000	13.671200
1715.000000	13.710400
1714.000000	13.730900
1713.000000	13.754000
1712.000000	13.766200
1711.000000	13.771600
1710.000000	13.762300
1709.000000	13.753000
1708.000000	13.738800
1707.000000	13.724800
1706.000000	13.695900
1705.000000	13.639900
1704.000000	13.593700
1703.000000	13.510900
1702.000000	13.467600
1701.000000	13.351400
1700.000000	13.239500
1699.000000	13.131800
1698.000000	13.046200
1697.000000	13.004400
1696.000000	12.949200
1695.000000	12.949600
1694.000000	13.005100
1693.000000	13.080800
1692.000000	13.197500
1691.000000	13.295900
1690.000000	13.392700
1689.000000	13.475200
1688.000000	13.530000
1687.000000	13.543400
1686.000000	13.529300
1685.000000	13.534500
1684.000000	13.618700
1683.000000	13.777800
1682.000000	14.021000
1681.000000	14.334800
1680.000000	14.691600
1679.000000	15.106500
1678.000000	15.489900
1677.000000	15.867300
1676.000000	16.208100
1675.000000	16.531600
1674.000000	16.778800
1673.000000	16.999900
1672.000000	17.216100
1671.000000	17.387500
1670.000000	17.525700
1669.000000	17.634400
1668.000000	17.716800
1667.000000	17.824200
1666.000000	17.902400
1665.000000	17.988700
1664.000000	18.013200
1663.000000	18.061300
1662.000000	18.112400
1661.000000	18.130900
1660.000000	18.139000
1659.000000	18.169500
1658.000000	18.177800
1657.000000	18.172300
1656.000000	18.172600
1655.000000	18.169900
1654.000000	18.145400
1653.000000	18.124400
1652.000000	18.095800
1651.000000	18.068700
1650.000000	18.029900
1649.000000	18.000800
1648.000000	17.953000
1647.000000	17.905800
1646.000000	17.865400
1645.000000	17.814600
1644.000000	17.779200
1643.000000	17.717000
1642.000000	17.651500
1641.000000	17.600400
1640.000000	17.542600
1639.000000	17.494400
1638.000000	17.426800
1637.000000	17.380800
1636.000000	17.309000
1635.000000	17.255400
1634.000000	17.187400
1633.000000	17.134800
1632.000000	17.087700
1631.000000	17.000700
1630.000000	16.918400
1629.000000	16.861300
1628.000000	16.807400
1627.000000	16.741200
1626.000000	16.680400
1625.000000	16.605400
1624.000000	16.542800
1623.000000	16.491700
1622.000000	16.416500
1621.000000	16.348300
1620.000000	16.298100
1619.000000	16.236500
1618.000000	16.165000
1617.000000	16.090000
1616.000000	16.040500
1615.000000	15.991700
1614.000000	15.954000
1613.000000	15.899400
1612.000000	15.833200
1611.000000	15.784800
1610.000000	15.745500
1609.000000	15.686400
1608.000000	15.620900
1607.000000	15.580100
1606.000000	15.544300
1605.000000	15.500000
1604.000000	15.449200
1603.000000	15.400000
1602.000000	15.352000
1601.000000	15.297200
1600.000000	15.265300
1599.000000	15.236700
1598.000000	15.193000
