PE UV       SUBTECH     SPECTRUM    ASCII       PEDS        4.00        
   -1
CICIMAUCR0013-2.Sample.ASC
24/04/11
15:59:46.00
24/04/11
15:59:46.00
Vinicio Soto Monge
C. resplendens
250,000000
1
Lambda 1050
1050L1511233
PerkinElmer UV WinLab 6.3.2.0749 / 2.02.05 Lambda 900 UV/VIS/NIR, Aug  7 2015 09:38:08

0
0
3350/2 860,8/2
0
0
UV/VIS
1
1
1
DoubleDePol,CommonBeamDepol,RBeamAtt,SBeamAtt,60mm sphere, WB InGaAs Detector
0
0
0
0
Program
Program
3350/2 860,8/2
3350/0,2 860,8/0,2
3350/0,2 860,8/0,2
0
15.00
 
 
 
0
 
860,8
319,2
860,8
Front
100
on
S:100 R:100
0
0
0
0
 
0
 
 
 
0
 
 
0
0
0
0
0
 
 
 
 
0
0


0
0
#HDR
-1
-1
#GR
nm
%R
1.0
0.0
2400,000000
-1,000000
2151
8
74,743200
5,012800
#DATA
2400.000000	17.583258
2399.000000	18.255201
2398.000000	16.856922
2397.000000	16.728914
2396.000000	17.000188
2395.000000	17.477146
2394.000000	18.124121
2393.000000	17.163764
2392.000000	17.446135
2391.000000	16.793909
2390.000000	17.487351
2389.000000	17.349138
2388.000000	16.815408
2387.000000	18.026926
2386.000000	17.083710
2385.000000	17.962427
2384.000000	16.699884
2383.000000	17.747528
2382.000000	18.059424
2381.000000	18.127292
2380.000000	17.795581
2379.000000	17.105309
2378.000000	17.664006
2377.000000	17.229453
2376.000000	17.004448
2375.000000	17.235496
2374.000000	17.257591
2373.000000	16.829081
2372.000000	17.820251
2371.000000	17.253132
2370.000000	17.238766
2369.000000	17.469220
2368.000000	17.258780
2367.000000	17.015148
2366.000000	16.946488
2365.000000	16.584459
2364.000000	17.073901
2363.000000	17.227075
2362.000000	17.095203
2361.000000	16.373325
2360.000000	16.427620
2359.000000	15.794912
2358.000000	16.333595
2357.000000	16.117111
2356.000000	15.474892
2355.000000	15.716839
2354.000000	15.860798
2353.000000	15.037267
2352.000000	15.571591
2351.000000	16.311798
2350.000000	15.984249
2349.000000	15.185190
2348.000000	14.952655
2347.000000	16.179233
2346.000000	15.953336
2345.000000	15.791444
2344.000000	14.980100
2343.000000	16.257999
2342.000000	16.611210
2341.000000	16.777165
2340.000000	16.513223
2339.000000	16.545720
2338.000000	16.676205
2337.000000	16.497370
2336.000000	15.972656
2335.000000	16.459424
2334.000000	16.082434
2333.000000	16.410083
2332.000000	16.617650
2331.000000	16.127415
2330.000000	16.274347
2329.000000	15.829093
2328.000000	15.854953
2327.000000	15.614294
2326.000000	15.490645
2325.000000	15.646890
2324.000000	15.361746
2323.000000	14.851893
2322.000000	14.975938
2321.000000	15.181028
2320.000000	14.743701
2319.000000	14.693469
2318.000000	14.547627
2317.000000	14.194119
2316.000000	14.306671
2315.000000	13.955739
2314.000000	13.586378
2313.000000	13.295487
2312.000000	13.234753
2311.000000	13.243670
2310.000000	13.144295
2309.000000	13.163120
2308.000000	13.487896
2307.000000	13.121309
2306.000000	12.823285
2305.000000	12.915129
2304.000000	13.252389
2303.000000	13.604212
2302.000000	13.755999
2301.000000	13.551008
2300.000000	13.222170
2299.000000	14.052736
2298.000000	13.959900
2297.000000	13.692688
2296.000000	13.874495
2295.000000	14.043422
2294.000000	14.115253
2293.000000	14.057590
2292.000000	14.232858
2291.000000	14.298348
2290.000000	14.437948
2289.000000	14.411098
2288.000000	14.612225
2287.000000	14.829304
2286.000000	14.789970
2285.000000	14.451126
2284.000000	13.916009
2283.000000	13.816931
2282.000000	13.990812
2281.000000	14.353237
2280.000000	14.282397
2279.000000	13.912046
2278.000000	13.871919
2277.000000	13.770167
2276.000000	13.702299
2275.000000	13.634629
2274.000000	13.553980
2273.000000	13.731031
2272.000000	13.891636
2271.000000	13.951974
2270.000000	13.863696
2269.000000	13.635224
2268.000000	13.553980
2267.000000	13.736084
2266.000000	13.842394
2265.000000	14.003890
2264.000000	14.104949
2263.000000	14.267932
2262.000000	14.549410
2261.000000	14.686236
2260.000000	14.918473
2259.000000	15.382453
2258.000000	15.706039
2257.000000	15.869418
2256.000000	16.111068
2255.000000	16.492119
2254.000000	16.637565
2253.000000	16.827793
2252.000000	16.819272
2251.000000	17.205179
2250.000000	17.644983
2249.000000	17.633292
2248.000000	17.726425
2247.000000	18.395296
2246.000000	18.512802
2245.000000	18.327824
2244.000000	18.661715
2243.000000	18.933980
2242.000000	19.178998
2241.000000	19.292937
2240.000000	19.307303
2239.000000	19.372694
2238.000000	19.271041
2237.000000	19.303241
2236.000000	19.247064
2235.000000	19.590961
2234.000000	19.596807
2233.000000	19.623756
2232.000000	19.817254
2231.000000	19.922771
2230.000000	19.979047
2229.000000	19.922871
2228.000000	20.041169
2227.000000	19.972310
2226.000000	19.909198
2225.000000	19.969041
2224.000000	19.984199
2223.000000	19.998566
2222.000000	20.050680
2221.000000	20.250718
2220.000000	20.112604
2219.000000	19.998962
2218.000000	19.784360
2217.000000	19.753448
2216.000000	19.758997
2215.000000	19.673988
2214.000000	19.866099
2213.000000	19.696974
2212.000000	19.526660
2211.000000	19.529732
2210.000000	19.893048
2209.000000	19.813588
2208.000000	19.656253
2207.000000	19.707675
2206.000000	19.958241
2205.000000	19.731453
2204.000000	19.389042
2203.000000	19.769895
2202.000000	19.778317
2201.000000	19.715799
2200.000000	19.599086
2199.000000	19.574118
2198.000000	19.704405
2197.000000	19.518833
2196.000000	19.358625
2195.000000	19.561238
2194.000000	19.538054
2193.000000	19.250532
2192.000000	19.409650
2191.000000	19.402318
2190.000000	19.378242
2189.000000	19.708863
2188.000000	19.312950
2187.000000	19.367938
2186.000000	19.256674
2185.000000	19.479598
2184.000000	19.219520
2183.000000	19.280552
2182.000000	19.196832
2181.000000	19.614740
2180.000000	19.683698
2179.000000	19.639410
2178.000000	19.520121
2177.000000	19.352879
2176.000000	19.378540
2175.000000	19.542612
2174.000000	19.270050
2173.000000	19.235571
2172.000000	19.298881
2171.000000	19.502188
2170.000000	19.491785
2169.000000	19.622765
2168.000000	19.454334
2167.000000	19.538054
2166.000000	19.611074
2165.000000	19.227546
2164.000000	19.679239
2163.000000	19.870260
2162.000000	19.806950
2161.000000	19.683599
2160.000000	19.894931
2159.000000	19.380917
2158.000000	19.474645
2157.000000	19.676366
2156.000000	19.606120
2155.000000	19.804770
2154.000000	19.987172
2153.000000	19.853219
2152.000000	19.865009
2151.000000	20.176608
2150.000000	20.220895
2149.000000	19.705396
2148.000000	19.893048
2147.000000	19.785252
2146.000000	19.990045
2145.000000	20.036710
2144.000000	20.257851
2143.000000	20.168781
2142.000000	20.643361
2141.000000	20.372087
2140.000000	20.704096
2139.000000	20.482856
2138.000000	20.271920
2137.000000	20.426084
2136.000000	20.423112
2135.000000	20.003718
2134.000000	20.159269
2133.000000	20.488701
2132.000000	20.378825
2131.000000	20.610963
2130.000000	20.855486
2129.000000	19.906027
2128.000000	20.375753
2127.000000	20.561920
2126.000000	20.432227
2125.000000	20.711427
2124.000000	20.357424
2123.000000	20.054247
2122.000000	20.545968
2121.000000	20.593525
2120.000000	20.192559
2119.000000	20.251114
2118.000000	20.237937
2117.000000	20.262310
2116.000000	20.243782
2115.000000	20.309470
2114.000000	20.158576
2113.000000	19.810319
2112.000000	19.976570
2111.000000	20.227335
2110.000000	20.025416
2109.000000	20.310164
2108.000000	20.048402
2107.000000	20.053058
2106.000000	19.802393
2105.000000	19.812597
2104.000000	19.946847
2103.000000	19.338215
2102.000000	19.604535
2101.000000	19.915143
2100.000000	19.456712
2099.000000	19.462260
2098.000000	19.451560
2097.000000	19.331577
2096.000000	19.320678
2095.000000	19.465331
2094.000000	19.493568
2093.000000	19.371406
2092.000000	19.361102
2091.000000	19.211792
2090.000000	19.380323
2089.000000	19.413019
2088.000000	19.099538
2087.000000	19.253504
2086.000000	19.312059
2085.000000	19.594925
2084.000000	19.390330
2083.000000	19.324840
2082.000000	19.036227
2081.000000	19.378738
2080.000000	19.400337
2079.000000	19.132630
2078.000000	19.049306
2077.000000	19.023744
2076.000000	19.142141
2075.000000	19.060501
2074.000000	18.896726
2073.000000	18.832128
2072.000000	19.079425
2071.000000	19.184843
2070.000000	18.886819
2069.000000	18.686385
2068.000000	18.802702
2067.000000	18.929026
2066.000000	18.638630
2065.000000	18.808052
2064.000000	18.638333
2063.000000	18.742265
2062.000000	18.598107
2061.000000	18.564916
2060.000000	18.920604
2059.000000	18.808250
2058.000000	18.638828
2057.000000	18.565015
2056.000000	18.708975
2055.000000	18.721459
2054.000000	18.804485
2053.000000	18.803098
2052.000000	18.797847
2051.000000	18.940816
2050.000000	19.136295
2049.000000	19.048612
2048.000000	19.138178
2047.000000	19.297792
2046.000000	19.558068
2045.000000	19.497036
2044.000000	19.687958
2043.000000	19.836376
2042.000000	19.989252
2041.000000	20.144408
2040.000000	20.218616
2039.000000	20.431435
2038.000000	20.622555
2037.000000	20.696863
2036.000000	20.693990
2035.000000	20.849343
2034.000000	21.000832
2033.000000	20.985971
2032.000000	21.070384
2031.000000	21.230692
2030.000000	21.338785
2029.000000	21.366329
2028.000000	21.423100
2027.000000	21.595891
2026.000000	21.672973
2025.000000	21.859734
2024.000000	21.847547
2023.000000	21.851808
2022.000000	21.846358
2021.000000	21.991408
2020.000000	22.099105
2019.000000	22.093556
2018.000000	22.129224
2017.000000	22.125162
2016.000000	22.221465
2015.000000	22.354130
2014.000000	22.434382
2013.000000	22.371270
2012.000000	22.356012
2011.000000	22.459053
2010.000000	22.537324
2009.000000	22.441714
2008.000000	22.328271
2007.000000	22.402380
2006.000000	22.407731
2005.000000	22.395247
2004.000000	22.408424
2003.000000	22.353040
2002.000000	22.310932
2001.000000	22.283785
2000.000000	22.285073
1999.000000	22.294881
1998.000000	22.311725
1997.000000	22.268725
1996.000000	22.182429
1995.000000	22.112579
1994.000000	22.004189
1993.000000	21.951380
1992.000000	21.933943
1991.000000	21.913830
1990.000000	21.874100
1989.000000	21.808709
1988.000000	21.691699
1987.000000	21.640674
1986.000000	21.591928
1985.000000	21.483735
1984.000000	21.435881
1983.000000	21.398628
1982.000000	21.293309
1981.000000	21.198690
1980.000000	21.149448
1979.000000	21.060873
1978.000000	20.982404
1977.000000	20.856278
1976.000000	20.785933
1975.000000	20.756012
1974.000000	20.662681
1973.000000	20.601550
1972.000000	20.542203
1971.000000	20.422419
1970.000000	20.312542
1969.000000	20.269047
1968.000000	20.187605
1967.000000	20.126475
1966.000000	19.984398
1965.000000	19.949423
1964.000000	19.867585
1963.000000	19.816065
1962.000000	19.698262
1961.000000	19.621180
1960.000000	19.587196
1959.000000	19.506250
1958.000000	19.457405
1957.000000	19.429763
1956.000000	19.286100
1955.000000	19.176422
1954.000000	19.124703
1953.000000	19.035534
1952.000000	18.989166
1951.000000	18.951913
1950.000000	18.806863
1949.000000	18.770799
1948.000000	18.716901
1947.000000	18.663895
1946.000000	18.676676
1945.000000	18.560458
1944.000000	18.555306
1943.000000	18.501705
1942.000000	18.550253
1941.000000	18.570663
1940.000000	18.632091
1939.000000	18.606133
1938.000000	18.547875
1937.000000	18.494770
1936.000000	18.545894
1935.000000	18.626047
1934.000000	18.665480
1933.000000	18.681729
1932.000000	18.708380
1931.000000	18.859077
1930.000000	18.922685
1929.000000	19.010864
1928.000000	19.061294
1927.000000	19.136196
1926.000000	19.252117
1925.000000	19.470682
1924.000000	19.629701
1923.000000	19.758699
1922.000000	19.843609
1921.000000	20.065146
1920.000000	20.385463
1919.000000	20.389525
1918.000000	20.413006
1917.000000	20.686460
1916.000000	21.066719
1915.000000	21.098820
1914.000000	21.365140
1913.000000	21.558241
1912.000000	21.784534
1911.000000	22.042135
1910.000000	22.223546
1909.000000	22.348185
1908.000000	22.659486
1907.000000	23.133968
1906.000000	23.465282
1905.000000	23.717434
1904.000000	23.722586
1903.000000	23.974441
1902.000000	24.266224
1901.000000	24.385216
1900.000000	24.958477
1899.000000	25.171097
1898.000000	25.325261
1897.000000	25.515985
1896.000000	25.843337
1895.000000	26.018208
1894.000000	26.353783
1893.000000	26.744049
1892.000000	26.983519
1891.000000	27.200499
1890.000000	27.528048
1889.000000	27.703019
1888.000000	27.932482
1887.000000	28.220104
1886.000000	28.577971
1885.000000	28.918302
1884.000000	29.293607
1883.000000	29.607979
1882.000000	29.972088
1881.000000	30.508592
1880.000000	30.919268
1879.000000	31.358973
1878.000000	31.717732
1877.000000	32.240068
1876.000000	32.438520
1875.000000	32.651041
1874.000000	33.033777
1873.000000	33.427510
1872.000000	33.451883
1871.000000	33.658757
1870.000000	33.713943
1869.000000	33.860181
1868.000000	34.204475
1867.000000	34.086276
1866.000000	33.863946
1865.000000	34.136904
1864.000000	34.237864
1863.000000	34.201007
1862.000000	34.186046
1861.000000	34.388461
1860.000000	34.602964
1859.000000	34.329312
1858.000000	34.171581
1857.000000	34.249159
1856.000000	34.248267
1855.000000	34.107181
1854.000000	34.293248
1853.000000	34.103020
1852.000000	33.810048
1851.000000	33.905360
1850.000000	33.930625
1849.000000	34.033765
1848.000000	34.229145
1847.000000	33.912989
1846.000000	33.476752
1845.000000	33.339529
1844.000000	33.434644
1843.000000	33.552249
1842.000000	33.675303
1841.000000	33.564237
1840.000000	33.382232
1839.000000	33.316544
1838.000000	33.394220
1837.000000	33.470411
1836.000000	33.392437
1835.000000	33.127009
1834.000000	32.961153
1833.000000	32.944706
1832.000000	32.963432
1831.000000	32.930142
1830.000000	32.768150
1829.000000	32.620228
1828.000000	32.572076
1827.000000	32.555332
1826.000000	32.555729
1825.000000	32.301892
1824.000000	32.188746
1823.000000	32.314971
1822.000000	32.382839
1821.000000	32.405428
1820.000000	32.297830
1819.000000	32.127913
1818.000000	32.117807
1817.000000	32.163481
1816.000000	32.153474
1815.000000	32.190034
1814.000000	32.111367
1813.000000	32.173191
1812.000000	32.183396
1811.000000	32.112556
1810.000000	32.071934
1809.000000	32.000103
1808.000000	31.961165
1807.000000	31.955716
1806.000000	31.903601
1805.000000	31.806902
1804.000000	31.717831
1803.000000	31.739232
1802.000000	31.708716
1801.000000	31.688306
1800.000000	31.614494
1799.000000	31.500158
1798.000000	31.464788
1797.000000	31.486981
1796.000000	31.414258
1795.000000	31.367494
1794.000000	31.312110
1793.000000	31.278423
1792.000000	31.218977
1791.000000	31.129114
1790.000000	31.101967
1789.000000	31.056391
1788.000000	30.957016
1787.000000	30.902128
1786.000000	30.847338
1785.000000	30.776993
1784.000000	30.689904
1783.000000	30.597465
1782.000000	30.495712
1781.000000	30.430618
1780.000000	30.365227
1779.000000	30.285965
1778.000000	30.162911
1777.000000	30.070373
1776.000000	29.969909
1775.000000	29.886981
1774.000000	29.761846
1773.000000	29.632055
1772.000000	29.479674
1771.000000	29.322240
1770.000000	29.217813
1769.000000	29.078906
1768.000000	28.935640
1767.000000	28.814072
1766.000000	28.734414
1765.000000	28.673878
1764.000000	28.640192
1763.000000	28.637616
1762.000000	28.643164
1761.000000	28.664366
1760.000000	28.675760
1759.000000	28.717472
1758.000000	28.823881
1757.000000	28.878671
1756.000000	28.908493
1755.000000	28.933163
1754.000000	28.953177
1753.000000	28.945350
1752.000000	28.940198
1751.000000	28.911862
1750.000000	28.865989
1749.000000	28.796437
1748.000000	28.697954
1747.000000	28.598183
1746.000000	28.479191
1745.000000	28.347913
1744.000000	28.220401
1743.000000	28.060589
1742.000000	27.860156
1741.000000	27.626135
1740.000000	27.378739
1739.000000	27.155517
1738.000000	26.927838
1737.000000	26.748210
1736.000000	26.588696
1735.000000	26.482881
1734.000000	26.460886
1733.000000	26.461183
1732.000000	26.495464
1731.000000	26.589290
1730.000000	26.713731
1729.000000	26.821924
1728.000000	26.937646
1727.000000	27.072193
1726.000000	27.167506
1725.000000	27.257072
1724.000000	27.326822
1723.000000	27.347232
1722.000000	27.398950
1721.000000	27.432538
1720.000000	27.384584
1719.000000	27.393303
1718.000000	27.440365
1717.000000	27.478708
1716.000000	27.543702
1715.000000	27.628017
1714.000000	27.673395
1713.000000	27.723924
1712.000000	27.770193
1711.000000	27.811112
1710.000000	27.809725
1709.000000	27.793080
1708.000000	27.816363
1707.000000	27.797836
1706.000000	27.759988
1705.000000	27.730860
1704.000000	27.728779
1703.000000	27.650508
1702.000000	27.534984
1701.000000	27.413119
1700.000000	27.298882
1699.000000	27.142538
1698.000000	26.951319
1697.000000	26.820735
1696.000000	26.799731
1695.000000	26.777835
1694.000000	26.793390
1693.000000	26.943888
1692.000000	27.114499
1691.000000	27.275995
1690.000000	27.440464
1689.000000	27.558960
1688.000000	27.634457
1687.000000	27.687266
1686.000000	27.693408
1685.000000	27.668540
1684.000000	27.715106
1683.000000	27.857381
1682.000000	28.143913
1681.000000	28.545375
1680.000000	29.083959
1679.000000	29.638594
1678.000000	30.168559
1677.000000	30.687922
1676.000000	31.133969
1675.000000	31.511156
1674.000000	31.861295
1673.000000	32.131479
1672.000000	32.366194
1671.000000	32.580597
1670.000000	32.769339
1669.000000	32.912704
1668.000000	33.033777
1667.000000	33.188734
1666.000000	33.275724
1665.000000	33.368757
1664.000000	33.460503
1663.000000	33.503503
1662.000000	33.575036
1661.000000	33.603967
1660.000000	33.664800
1659.000000	33.664999
1658.000000	33.695613
1657.000000	33.726625
1656.000000	33.752286
1655.000000	33.745449
1654.000000	33.749115
1653.000000	33.736136
1652.000000	33.689074
1651.000000	33.665098
1650.000000	33.667376
1649.000000	33.619126
1648.000000	33.551456
1647.000000	33.531839
1646.000000	33.479823
1645.000000	33.412351
1644.000000	33.370838
1643.000000	33.341016
1642.000000	33.254917
1641.000000	33.217565
1640.000000	33.162875
1639.000000	33.103329
1638.000000	33.018519
1637.000000	32.979879
1636.000000	32.930043
1635.000000	32.820760
1634.000000	32.772213
1633.000000	32.684034
1632.000000	32.644006
1631.000000	32.570491
1630.000000	32.470126
1629.000000	32.367581
1628.000000	32.314277
1627.000000	32.243635
1626.000000	32.161896
1625.000000	32.096406
1624.000000	31.982863
1623.000000	31.952546
1622.000000	31.845146
1621.000000	31.797390
1620.000000	31.707825
1619.000000	31.620537
1618.000000	31.581501
1617.000000	31.495403
1616.000000	31.430210
1615.000000	31.350056
1614.000000	31.275352
1613.000000	31.236117
1612.000000	31.146155
1611.000000	31.104047
1610.000000	31.030730
1609.000000	30.981588
1608.000000	30.881420
1607.000000	30.830197
1606.000000	30.827423
1605.000000	30.736866
1604.000000	30.690003
1603.000000	30.620352
1602.000000	30.523157
1601.000000	30.482436
1600.000000	30.439833
1599.000000	30.393960
1598.000000	30.352744
1597.000000	30.257035
1596.000000	30.229491
1595.000000	30.217998
1594.000000	30.180349
1593.000000	30.132990
1592.000000	30.097025
1591.000000	30.014989
1590.000000	30.003793
1589.000000	29.984176
1588.000000	29.952471
1587.000000	29.921262
1586.000000	29.896691
1585.000000	29.852799
1584.000000	29.840316
1583.000000	29.836154
1582.000000	29.859041
1581.000000	29.834470
1580.000000	29.816933
1579.000000	29.779680
1578.000000	29.806728
1577.000000	29.821986
1576.000000	29.844279
1575.000000	29.884108
1574.000000	29.876182
1573.000000	29.852007
1572.000000	29.891638
1571.000000	29.906499
1570.000000	29.909769
1569.000000	29.967333
1568.000000	30.034012
1567.000000	30.025194
1566.000000	30.069085
1565.000000	30.086919
1564.000000	30.130315
1563.000000	30.157958
1562.000000	30.162020
1561.000000	30.245245
1560.000000	30.265357
1559.000000	30.274274
1558.000000	30.281606
1557.000000	30.282201
1556.000000	30.304889
1555.000000	30.333523
1554.000000	30.339864
1553.000000	30.328569
1552.000000	30.349672
1551.000000	30.334910
1550.000000	30.345313
1549.000000	30.328866
1548.000000	30.337486
1547.000000	30.339170
1546.000000	30.334117
1545.000000	30.314797
1544.000000	30.320543
1543.000000	30.353140
1542.000000	30.338179
1541.000000	30.338873
1540.000000	30.317769
1539.000000	30.334216
1538.000000	30.350861
1537.000000	30.350068
1536.000000	30.341052
1535.000000	30.344124
1534.000000	30.361462
1533.000000	30.323119
1532.000000	30.321732
1531.000000	30.311131
1530.000000	30.307762
1529.000000	30.299341
1528.000000	30.269122
1527.000000	30.244353
1526.000000	30.234842
1525.000000	30.228005
1524.000000	30.193526
