PE UV       SUBTECH     SPECTRUM    ASCII       PEDS        4.00        
   -1
CICIMAUCR0158-1.Sample.ASC
24/04/19
10:31:38.00
24/04/19
10:31:38.00
Vinicio Soto Monge
C. cupreomarginata
250,000000
1
Lambda 1050
1050L1511233
PerkinElmer UV WinLab 6.3.2.0749 / 2.02.05 Lambda 900 UV/VIS/NIR, Aug  7 2015 09:38:08

0
0
3350/servo 860,8/2
0
0
UV/VIS
1
1
1
DoubleDePol,CommonBeamDepol,RBeamAtt,SBeamAtt,60mm sphere, WB InGaAs Detector
0
0
0
0
Program
Program
3350/servo 860,8/2
3350/0,2 860,8/0,2
3350/0,2 860,8/0,2
0
15.00
 
 
 
0
 
860,8
319,2
860,8
Front
100
on
S:100 R:100
0
0
0
0
 
0
 
 
 
0
 
 
0
0
0
0
0
 
 
 
 
0
0


0
0
#HDR
-1
-1
#GR
nm
%R
1.0
0.0
2500,000000
-1,000000
2251
8
62,375300
4,764000
#DATA
2500.000000	14.153100
2499.000000	14.113000
2498.000000	14.090900
2497.000000	13.983900
2496.000000	14.065200
2495.000000	14.106900
2494.000000	14.055600
2493.000000	14.003400
2492.000000	14.029400
2491.000000	14.044000
2490.000000	14.015100
2489.000000	14.007700
2488.000000	14.020200
2487.000000	13.969700
2486.000000	14.022800
2485.000000	14.088000
2484.000000	14.008300
2483.000000	14.030700
2482.000000	14.065700
2481.000000	14.099500
2480.000000	14.131100
2479.000000	14.086800
2478.000000	14.142900
2477.000000	14.134700
2476.000000	14.181600
2475.000000	14.197600
2474.000000	14.220400
2473.000000	14.283400
2472.000000	14.296900
2471.000000	14.341600
2470.000000	14.358400
2469.000000	14.422600
2468.000000	14.447300
2467.000000	14.493300
2466.000000	14.521200
2465.000000	14.559500
2464.000000	14.651000
2463.000000	14.693200
2462.000000	14.760200
2461.000000	14.777100
2460.000000	14.838900
2459.000000	14.917300
2458.000000	14.986800
2457.000000	15.018500
2456.000000	15.110300
2455.000000	15.187300
2454.000000	15.269000
2453.000000	15.330100
2452.000000	15.406100
2451.000000	15.492000
2450.000000	15.601600
2449.000000	15.697900
2448.000000	15.767700
2447.000000	15.857200
2446.000000	15.955400
2445.000000	16.059100
2444.000000	16.145200
2443.000000	16.241700
2442.000000	16.342200
2441.000000	16.426700
2440.000000	16.502400
2439.000000	16.604600
2438.000000	16.688800
2437.000000	16.764600
2436.000000	16.855100
2435.000000	16.944100
2434.000000	17.025900
2433.000000	17.104100
2432.000000	17.188400
2431.000000	17.273700
2430.000000	17.351900
2429.000000	17.441600
2428.000000	17.513300
2427.000000	17.582700
2426.000000	17.637500
2425.000000	17.713900
2424.000000	17.770600
2423.000000	17.829100
2422.000000	17.906500
2421.000000	17.973400
2420.000000	18.023000
2419.000000	18.080600
2418.000000	18.148500
2417.000000	18.216400
2416.000000	18.262800
2415.000000	18.314400
2414.000000	18.376200
2413.000000	18.423600
2412.000000	18.456200
2411.000000	18.507800
2410.000000	18.556600
2409.000000	18.594100
2408.000000	18.626000
2407.000000	18.656600
2406.000000	18.704800
2405.000000	18.752800
2404.000000	18.782500
2403.000000	18.805600
2402.000000	18.833100
2401.000000	18.865000
2400.000000	18.893500
2399.000000	18.922700
2398.000000	18.947800
2397.000000	18.960000
2396.000000	18.993100
2395.000000	19.011300
2394.000000	19.021700
2393.000000	19.041000
2392.000000	19.075400
2391.000000	19.095800
2390.000000	19.117900
2389.000000	19.130000
2388.000000	19.132400
2387.000000	19.137200
2386.000000	19.155500
2385.000000	19.171200
2384.000000	19.165600
2383.000000	19.187000
2382.000000	19.199700
2381.000000	19.195500
2380.000000	19.180500
2379.000000	19.188100
2378.000000	19.199600
2377.000000	19.181400
2376.000000	19.179600
2375.000000	19.181700
2374.000000	19.174900
2373.000000	19.162600
2372.000000	19.183500
2371.000000	19.193800
2370.000000	19.177700
2369.000000	19.176700
2368.000000	19.193600
2367.000000	19.206800
2366.000000	19.196200
2365.000000	19.209500
2364.000000	19.218000
2363.000000	19.199700
2362.000000	19.200400
2361.000000	19.212900
2360.000000	19.222000
2359.000000	19.231000
2358.000000	19.221100
2357.000000	19.217900
2356.000000	19.224600
2355.000000	19.223200
2354.000000	19.204100
2353.000000	19.214600
2352.000000	19.215500
2351.000000	19.191700
2350.000000	19.191600
2349.000000	19.201100
2348.000000	19.210000
2347.000000	19.202300
2346.000000	19.204400
2345.000000	19.218000
2344.000000	19.204100
2343.000000	19.209200
2342.000000	19.230500
2341.000000	19.230000
2340.000000	19.243700
2339.000000	19.263500
2338.000000	19.280900
2337.000000	19.288600
2336.000000	19.292200
2335.000000	19.312500
2334.000000	19.338100
2333.000000	19.367100
2332.000000	19.379000
2331.000000	19.389100
2330.000000	19.423000
2329.000000	19.426600
2328.000000	19.465600
2327.000000	19.512200
2326.000000	19.519000
2325.000000	19.560100
2324.000000	19.586600
2323.000000	19.586200
2322.000000	19.606600
2321.000000	19.611800
2320.000000	19.613100
2319.000000	19.607800
2318.000000	19.593500
2317.000000	19.582600
2316.000000	19.586500
2315.000000	19.580600
2314.000000	19.567000
2313.000000	19.540800
2312.000000	19.499600
2311.000000	19.460500
2310.000000	19.456700
2309.000000	19.431200
2308.000000	19.404800
2307.000000	19.393500
2306.000000	19.348600
2305.000000	19.328800
2304.000000	19.326800
2303.000000	19.332800
2302.000000	19.295600
2301.000000	19.283200
2300.000000	19.305900
2299.000000	19.291200
2298.000000	19.290800
2297.000000	19.295500
2296.000000	19.310300
2295.000000	19.315400
2294.000000	19.334400
2293.000000	19.392000
2292.000000	19.414300
2291.000000	19.424500
2290.000000	19.433700
2289.000000	19.457400
2288.000000	19.506800
2287.000000	19.542300
2286.000000	19.551300
2285.000000	19.613400
2284.000000	19.639200
2283.000000	19.675100
2282.000000	19.739600
2281.000000	19.774300
2280.000000	19.798800
2279.000000	19.809400
2278.000000	19.832000
2277.000000	19.884900
2276.000000	19.913500
2275.000000	19.940900
2274.000000	19.969600
2273.000000	20.005900
2272.000000	20.022500
2271.000000	20.050300
2270.000000	20.073800
2269.000000	20.132400
2268.000000	20.170600
2267.000000	20.202800
2266.000000	20.284100
2265.000000	20.348100
2264.000000	20.415300
2263.000000	20.483100
2262.000000	20.584900
2261.000000	20.674000
2260.000000	20.787200
2259.000000	20.905700
2258.000000	21.028600
2257.000000	21.146400
2256.000000	21.290200
2255.000000	21.395300
2254.000000	21.530300
2253.000000	21.677200
2252.000000	21.797200
2251.000000	21.924500
2250.000000	22.035900
2249.000000	22.177600
2248.000000	22.287700
2247.000000	22.372300
2246.000000	22.504700
2245.000000	22.599700
2244.000000	22.683000
2243.000000	22.749800
2242.000000	22.829700
2241.000000	22.921600
2240.000000	22.974200
2239.000000	23.003200
2238.000000	23.034800
2237.000000	23.116200
2236.000000	23.120900
2235.000000	23.114100
2234.000000	23.140900
2233.000000	23.132800
2232.000000	23.122800
2231.000000	23.104600
2230.000000	23.103200
2229.000000	23.089000
2228.000000	23.046300
2227.000000	22.992100
2226.000000	22.947300
2225.000000	22.903600
2224.000000	22.849700
2223.000000	22.807100
2222.000000	22.746800
2221.000000	22.703900
2220.000000	22.627400
2219.000000	22.566000
2218.000000	22.487000
2217.000000	22.419300
2216.000000	22.368600
2215.000000	22.290300
2214.000000	22.239800
2213.000000	22.172200
2212.000000	22.122100
2211.000000	22.065400
2210.000000	21.994400
2209.000000	21.945500
2208.000000	21.910500
2207.000000	21.882400
2206.000000	21.824000
2205.000000	21.799000
2204.000000	21.770600
2203.000000	21.724000
2202.000000	21.699500
2201.000000	21.648000
2200.000000	21.617900
2199.000000	21.595100
2198.000000	21.570200
2197.000000	21.551600
2196.000000	21.512300
2195.000000	21.489700
2194.000000	21.475800
2193.000000	21.459400
2192.000000	21.429800
2191.000000	21.399200
2190.000000	21.382000
2189.000000	21.367800
2188.000000	21.342200
2187.000000	21.339300
2186.000000	21.300000
2185.000000	21.287400
2184.000000	21.268600
2183.000000	21.234700
2182.000000	21.240000
2181.000000	21.208700
2180.000000	21.191600
2179.000000	21.180300
2178.000000	21.156000
2177.000000	21.135100
2176.000000	21.138400
2175.000000	21.139900
2174.000000	21.143600
2173.000000	21.144700
2172.000000	21.142900
2171.000000	21.144700
2170.000000	21.167200
2169.000000	21.191500
2168.000000	21.214400
2167.000000	21.214600
2166.000000	21.259700
2165.000000	21.294000
2164.000000	21.313200
2163.000000	21.366700
2162.000000	21.428100
2161.000000	21.477200
2160.000000	21.543100
2159.000000	21.588200
2158.000000	21.659000
2157.000000	21.728300
2156.000000	21.822400
2155.000000	21.899900
2154.000000	21.985900
2153.000000	22.050400
2152.000000	22.130900
2151.000000	22.223900
2150.000000	22.316500
2149.000000	22.407800
2148.000000	22.492400
2147.000000	22.585400
2146.000000	22.673800
2145.000000	22.754300
2144.000000	22.844300
2143.000000	22.942500
2142.000000	23.020600
2141.000000	23.096500
2140.000000	23.178800
2139.000000	23.262600
2138.000000	23.332400
2137.000000	23.412400
2136.000000	23.497100
2135.000000	23.572200
2134.000000	23.643800
2133.000000	23.710300
2132.000000	23.780700
2131.000000	23.833900
2130.000000	23.890000
2129.000000	23.948900
2128.000000	24.000900
2127.000000	24.032700
2126.000000	24.087500
2125.000000	24.129300
2124.000000	24.160400
2123.000000	24.211900
2122.000000	24.254200
2121.000000	24.271900
2120.000000	24.300600
2119.000000	24.331800
2118.000000	24.365200
2117.000000	24.383700
2116.000000	24.398300
2115.000000	24.412800
2114.000000	24.427700
2113.000000	24.440900
2112.000000	24.461800
2111.000000	24.475400
2110.000000	24.473300
2109.000000	24.482100
2108.000000	24.489500
2107.000000	24.495300
2106.000000	24.502700
2105.000000	24.511100
2104.000000	24.503500
2103.000000	24.488600
2102.000000	24.491300
2101.000000	24.494500
2100.000000	24.499500
2099.000000	24.512300
2098.000000	24.520300
2097.000000	24.514800
2096.000000	24.531800
2095.000000	24.542300
2094.000000	24.535400
2093.000000	24.542200
2092.000000	24.558700
2091.000000	24.568200
2090.000000	24.585300
2089.000000	24.602500
2088.000000	24.602400
2087.000000	24.606300
2086.000000	24.602600
2085.000000	24.592800
2084.000000	24.572400
2083.000000	24.547700
2082.000000	24.524200
2081.000000	24.504600
2080.000000	24.487900
2079.000000	24.432400
2078.000000	24.380600
2077.000000	24.321900
2076.000000	24.258200
2075.000000	24.194700
2074.000000	24.127500
2073.000000	24.051900
2072.000000	23.964500
2071.000000	23.890800
2070.000000	23.805700
2069.000000	23.714500
2068.000000	23.631500
2067.000000	23.530100
2066.000000	23.437300
2065.000000	23.347200
2064.000000	23.256400
2063.000000	23.186600
2062.000000	23.107400
2061.000000	23.028800
2060.000000	22.960100
2059.000000	22.909600
2058.000000	22.849200
2057.000000	22.790900
2056.000000	22.763400
2055.000000	22.768900
2054.000000	22.766500
2053.000000	22.794900
2052.000000	22.835200
2051.000000	22.879000
2050.000000	22.952600
2049.000000	23.009300
2048.000000	23.102300
2047.000000	23.204800
2046.000000	23.299400
2045.000000	23.411300
2044.000000	23.534200
2043.000000	23.663400
2042.000000	23.760900
2041.000000	23.866300
2040.000000	23.970100
2039.000000	24.091300
2038.000000	24.183200
2037.000000	24.267400
2036.000000	24.376100
2035.000000	24.462300
2034.000000	24.544100
2033.000000	24.622500
2032.000000	24.707600
2031.000000	24.769900
2030.000000	24.833600
2029.000000	24.883100
2028.000000	24.958500
2027.000000	25.009500
2026.000000	25.062500
2025.000000	25.100600
2024.000000	25.137400
2023.000000	25.203900
2022.000000	25.227500
2021.000000	25.245900
2020.000000	25.271100
2019.000000	25.289700
2018.000000	25.330300
2017.000000	25.331400
2016.000000	25.358100
2015.000000	25.359800
2014.000000	25.362900
2013.000000	25.368900
2012.000000	25.359000
2011.000000	25.339800
2010.000000	25.309200
2009.000000	25.296600
2008.000000	25.262700
2007.000000	25.236000
2006.000000	25.218700
2005.000000	25.166600
2004.000000	25.139100
2003.000000	25.092400
2002.000000	25.044400
2001.000000	24.970800
2000.000000	24.929000
1999.000000	24.852600
1998.000000	24.772600
1997.000000	24.725400
1996.000000	24.661600
1995.000000	24.597000
1994.000000	24.499600
1993.000000	24.426600
1992.000000	24.352600
1991.000000	24.278300
1990.000000	24.197900
1989.000000	24.110600
1988.000000	24.027700
1987.000000	23.940700
1986.000000	23.850600
1985.000000	23.770100
1984.000000	23.682600
1983.000000	23.584200
1982.000000	23.499000
1981.000000	23.408600
1980.000000	23.318400
1979.000000	23.241400
1978.000000	23.160600
1977.000000	23.089000
1976.000000	22.987700
1975.000000	22.910800
1974.000000	22.814800
1973.000000	22.738600
1972.000000	22.682700
1971.000000	22.569800
1970.000000	22.500100
1969.000000	22.413400
1968.000000	22.318400
1967.000000	22.253900
1966.000000	22.181000
1965.000000	22.101400
1964.000000	22.033200
1963.000000	21.940800
1962.000000	21.858600
1961.000000	21.781100
1960.000000	21.699400
1959.000000	21.612700
1958.000000	21.527000
1957.000000	21.466300
1956.000000	21.379400
1955.000000	21.278400
1954.000000	21.214000
1953.000000	21.149000
1952.000000	21.059500
1951.000000	20.996800
1950.000000	20.901200
1949.000000	20.853800
1948.000000	20.792300
1947.000000	20.723600
1946.000000	20.664000
1945.000000	20.612000
1944.000000	20.568400
1943.000000	20.500100
1942.000000	20.485700
1941.000000	20.425000
1940.000000	20.419500
1939.000000	20.408000
1938.000000	20.404900
1937.000000	20.409800
1936.000000	20.394100
1935.000000	20.418200
1934.000000	20.420500
1933.000000	20.445700
1932.000000	20.466800
1931.000000	20.498700
1930.000000	20.545300
1929.000000	20.630600
1928.000000	20.706200
1927.000000	20.803800
1926.000000	20.893800
1925.000000	21.016600
1924.000000	21.076200
1923.000000	21.186700
1922.000000	21.357200
1921.000000	21.551100
1920.000000	21.741600
1919.000000	21.884800
1918.000000	22.059500
1917.000000	22.230400
1916.000000	22.392500
1915.000000	22.593600
1914.000000	22.898200
1913.000000	23.214400
1912.000000	23.505000
1911.000000	23.760500
1910.000000	23.980600
1909.000000	24.195000
1908.000000	24.489200
1907.000000	24.843100
1906.000000	25.268600
1905.000000	25.729500
1904.000000	26.107100
1903.000000	26.480300
1902.000000	26.857000
1901.000000	27.290200
1900.000000	27.815000
1899.000000	28.322100
1898.000000	28.846400
1897.000000	29.283000
1896.000000	29.646500
1895.000000	30.033900
1894.000000	30.474500
1893.000000	30.970200
1892.000000	31.534000
1891.000000	32.056200
1890.000000	32.500300
1889.000000	32.926300
1888.000000	33.348200
1887.000000	33.741700
1886.000000	34.141000
1885.000000	34.588000
1884.000000	35.010200
1883.000000	35.351000
1882.000000	35.684600
1881.000000	35.985100
1880.000000	36.229000
1879.000000	36.485800
1878.000000	36.747600
1877.000000	36.974500
1876.000000	37.205000
1875.000000	37.450300
1874.000000	37.690100
1873.000000	37.925300
1872.000000	38.155600
1871.000000	38.387900
1870.000000	38.602700
1869.000000	38.797900
1868.000000	38.919000
1867.000000	38.986300
1866.000000	39.033900
1865.000000	39.090400
1864.000000	39.121400
1863.000000	39.173900
1862.000000	39.265100
1861.000000	39.356900
1860.000000	39.440900
1859.000000	39.529100
1858.000000	39.608900
1857.000000	39.635400
1856.000000	39.646000
1855.000000	39.720900
1854.000000	39.779600
1853.000000	39.778700
1852.000000	39.788600
1851.000000	39.764100
1850.000000	39.751800
1849.000000	39.830000
1848.000000	39.932400
1847.000000	39.972900
1846.000000	39.932900
1845.000000	39.840100
1844.000000	39.744800
1843.000000	39.775900
1842.000000	39.859400
1841.000000	39.878900
1840.000000	39.850100
1839.000000	39.789600
1838.000000	39.768700
1837.000000	39.787700
1836.000000	39.806900
1835.000000	39.773700
1834.000000	39.683800
1833.000000	39.605500
1832.000000	39.568500
1831.000000	39.572900
1830.000000	39.575100
1829.000000	39.539600
1828.000000	39.508900
1827.000000	39.518800
1826.000000	39.503600
1825.000000	39.472900
1824.000000	39.431600
1823.000000	39.432000
1822.000000	39.461200
1821.000000	39.512700
1820.000000	39.529900
1819.000000	39.487900
1818.000000	39.441500
1817.000000	39.418100
1816.000000	39.428300
1815.000000	39.424000
1814.000000	39.403500
1813.000000	39.375600
1812.000000	39.382100
1811.000000	39.374900
1810.000000	39.354400
1809.000000	39.328000
1808.000000	39.293100
1807.000000	39.300900
1806.000000	39.300700
1805.000000	39.278500
1804.000000	39.250500
1803.000000	39.243400
1802.000000	39.242000
1801.000000	39.218900
1800.000000	39.204100
1799.000000	39.188800
1798.000000	39.182100
1797.000000	39.170500
1796.000000	39.142700
1795.000000	39.121300
1794.000000	39.124900
1793.000000	39.119200
1792.000000	39.108400
1791.000000	39.107300
1790.000000	39.101100
1789.000000	39.102400
1788.000000	39.092100
1787.000000	39.091800
1786.000000	39.109900
1785.000000	39.122800
1784.000000	39.118500
1783.000000	39.121000
1782.000000	39.116300
1781.000000	39.113600
1780.000000	39.107800
1779.000000	39.095900
1778.000000	39.058400
1777.000000	39.038600
1776.000000	39.015000
1775.000000	38.990400
1774.000000	38.972600
1773.000000	38.942200
1772.000000	38.917200
1771.000000	38.906800
1770.000000	38.887500
1769.000000	38.856200
1768.000000	38.814300
1767.000000	38.778200
1766.000000	38.759500
1765.000000	38.743600
1764.000000	38.734700
1763.000000	38.708800
1762.000000	38.709000
1761.000000	38.718500
1760.000000	38.714400
1759.000000	38.726500
1758.000000	38.730700
1757.000000	38.724300
1756.000000	38.725700
1755.000000	38.751600
1754.000000	38.729600
1753.000000	38.718100
1752.000000	38.710600
1751.000000	38.691700
1750.000000	38.687000
1749.000000	38.669400
1748.000000	38.644900
1747.000000	38.601900
1746.000000	38.579100
1745.000000	38.536700
1744.000000	38.483200
1743.000000	38.453700
1742.000000	38.417400
1741.000000	38.387800
1740.000000	38.338700
1739.000000	38.299400
1738.000000	38.274000
1737.000000	38.243900
1736.000000	38.225500
1735.000000	38.201400
1734.000000	38.157500
1733.000000	38.145600
1732.000000	38.138100
1731.000000	38.107900
1730.000000	38.062700
1729.000000	38.048000
1728.000000	38.046300
1727.000000	38.030700
1726.000000	38.040200
1725.000000	38.055400
1724.000000	38.082500
1723.000000	38.108400
1722.000000	38.186500
1721.000000	38.296700
1720.000000	38.417900
1719.000000	38.565700
1718.000000	38.697900
1717.000000	38.867600
1716.000000	39.012200
1715.000000	39.163400
1714.000000	39.309800
1713.000000	39.411100
1712.000000	39.508300
1711.000000	39.625300
1710.000000	39.703500
1709.000000	39.773500
1708.000000	39.848300
1707.000000	39.900500
1706.000000	39.947200
1705.000000	39.978500
1704.000000	40.013100
1703.000000	40.029900
1702.000000	40.055400
1701.000000	40.052400
1700.000000	40.058500
1699.000000	40.067400
1698.000000	40.069800
1697.000000	40.070100
1696.000000	40.037600
1695.000000	40.034600
1694.000000	39.990300
1693.000000	39.940000
1692.000000	39.931600
1691.000000	39.906300
1690.000000	39.874000
1689.000000	39.914800
1688.000000	39.938800
1687.000000	40.002700
1686.000000	40.124100
1685.000000	40.242100
1684.000000	40.385400
1683.000000	40.535000
1682.000000	40.699300
1681.000000	40.852000
1680.000000	40.992200
1679.000000	41.149300
1678.000000	41.297500
1677.000000	41.439300
1676.000000	41.570300
1675.000000	41.664900
1674.000000	41.795100
1673.000000	41.933500
1672.000000	42.045400
1671.000000	42.155700
1670.000000	42.286200
1669.000000	42.410900
1668.000000	42.531500
1667.000000	42.708700
1666.000000	42.771000
1665.000000	42.857500
1664.000000	42.955300
1663.000000	43.054900
1662.000000	43.130800
1661.000000	43.204700
1660.000000	43.270800
1659.000000	43.332000
1658.000000	43.392000
1657.000000	43.434000
1656.000000	43.466800
1655.000000	43.478800
1654.000000	43.505200
1653.000000	43.520200
1652.000000	43.526300
1651.000000	43.534400
1650.000000	43.540300
1649.000000	43.525800
1648.000000	43.521300
1647.000000	43.498900
1646.000000	43.489000
1645.000000	43.477400
1644.000000	43.465200
1643.000000	43.448100
1642.000000	43.432400
1641.000000	43.417700
1640.000000	43.403300
1639.000000	43.409800
1638.000000	43.387300
1637.000000	43.373000
1636.000000	43.359700
1635.000000	43.331700
1634.000000	43.285100
1633.000000	43.257600
1632.000000	43.235200
1631.000000	43.198800
1630.000000	43.163100
1629.000000	43.139300
1628.000000	43.093700
1627.000000	43.060600
1626.000000	43.023600
1625.000000	42.994800
