PE UV       SUBTECH     SPECTRUM    ASCII       PEDS        4.00        
   -1
CICIMAUCR0020-5.Sample.ASC
24/04/25
10:32:19.00
24/04/25
10:32:19.00
Vinicio Soto Monge
C. resplendens
250,000000
1
Lambda 1050
1050L1511233
PerkinElmer UV WinLab 6.3.2.0749 / 2.02.05 Lambda 900 UV/VIS/NIR, Aug  7 2015 09:38:08

0
0
3350/servo 860,8/2
0
0
UV/VIS
1
1
1
DoubleDePol,CommonBeamDepol,RBeamAtt,SBeamAtt,60mm sphere, WB InGaAs Detector
0
0
0
0
Program
Program
3350/servo 860,8/2
3350/0,2 860,8/0,2
3350/0,2 860,8/0,2
0
15.00
 
 
 
0
 
860,8
319,2
860,8
Front
100
on
S:100 R:100
0
0
0
0
 
0
 
 
 
0
 
 
0
0
0
0
0
 
 
 
 
0
0


0
0
#HDR
-1
-1
#GR
nm
%R
1.0
0.0
2500,000000
-1,000000
2251
8
88,766800
5,704900
#DATA
2500.000000	8.821700
2499.000000	8.818200
2498.000000	8.674300
2497.000000	8.703700
2496.000000	8.658800
2495.000000	8.645000
2494.000000	8.663100
2493.000000	8.667800
2492.000000	8.645400
2491.000000	8.580400
2490.000000	8.641300
2489.000000	8.570300
2488.000000	8.605000
2487.000000	8.592600
2486.000000	8.505300
2485.000000	8.543000
2484.000000	8.530800
2483.000000	8.545300
2482.000000	8.570900
2481.000000	8.547300
2480.000000	8.557900
2479.000000	8.532900
2478.000000	8.472600
2477.000000	8.544900
2476.000000	8.533000
2475.000000	8.545900
2474.000000	8.545400
2473.000000	8.558500
2472.000000	8.521200
2471.000000	8.507600
2470.000000	8.566900
2469.000000	8.558100
2468.000000	8.570000
2467.000000	8.583400
2466.000000	8.592500
2465.000000	8.622600
2464.000000	8.641600
2463.000000	8.667800
2462.000000	8.695200
2461.000000	8.686300
2460.000000	8.740400
2459.000000	8.785800
2458.000000	8.835100
2457.000000	8.881900
2456.000000	8.935900
2455.000000	9.007000
2454.000000	9.057800
2453.000000	9.103300
2452.000000	9.203100
2451.000000	9.239100
2450.000000	9.311700
2449.000000	9.364200
2448.000000	9.446600
2447.000000	9.535400
2446.000000	9.579700
2445.000000	9.669600
2444.000000	9.749100
2443.000000	9.812700
2442.000000	9.881300
2441.000000	9.932000
2440.000000	10.007100
2439.000000	10.069500
2438.000000	10.156000
2437.000000	10.199500
2436.000000	10.262300
2435.000000	10.315400
2434.000000	10.368700
2433.000000	10.415700
2432.000000	10.477300
2431.000000	10.522300
2430.000000	10.560700
2429.000000	10.605200
2428.000000	10.646400
2427.000000	10.684000
2426.000000	10.728100
2425.000000	10.761800
2424.000000	10.805600
2423.000000	10.818500
2422.000000	10.864500
2421.000000	10.911500
2420.000000	10.930100
2419.000000	10.954900
2418.000000	11.000500
2417.000000	11.013000
2416.000000	11.013800
2415.000000	11.050200
2414.000000	11.085200
2413.000000	11.110000
2412.000000	11.139800
2411.000000	11.198800
2410.000000	11.267200
2409.000000	11.328100
2408.000000	11.376900
2407.000000	11.424400
2406.000000	11.446000
2405.000000	11.466200
2404.000000	11.488200
2403.000000	11.536800
2402.000000	11.593800
2401.000000	11.638700
2400.000000	11.666800
2399.000000	11.685700
2398.000000	11.730800
2397.000000	11.787000
2396.000000	11.825500
2395.000000	11.860100
2394.000000	11.899100
2393.000000	11.931000
2392.000000	11.967800
2391.000000	11.984100
2390.000000	12.013900
2389.000000	12.058700
2388.000000	12.066400
2387.000000	12.084400
2386.000000	12.107200
2385.000000	12.125300
2384.000000	12.154500
2383.000000	12.166000
2382.000000	12.168500
2381.000000	12.164900
2380.000000	12.166000
2379.000000	12.166700
2378.000000	12.160700
2377.000000	12.158000
2376.000000	12.154500
2375.000000	12.154200
2374.000000	12.144400
2373.000000	12.133100
2372.000000	12.118300
2371.000000	12.091700
2370.000000	12.070600
2369.000000	12.047400
2368.000000	12.000900
2367.000000	11.966400
2366.000000	11.930000
2365.000000	11.863500
2364.000000	11.808600
2363.000000	11.768500
2362.000000	11.708600
2361.000000	11.654600
2360.000000	11.607300
2359.000000	11.548800
2358.000000	11.512400
2357.000000	11.471000
2356.000000	11.427600
2355.000000	11.411800
2354.000000	11.398200
2353.000000	11.403200
2352.000000	11.428000
2351.000000	11.435400
2350.000000	11.451100
2349.000000	11.502700
2348.000000	11.561200
2347.000000	11.613200
2346.000000	11.669500
2345.000000	11.733600
2344.000000	11.785400
2343.000000	11.849500
2342.000000	11.902200
2341.000000	11.950100
2340.000000	11.991000
2339.000000	12.029700
2338.000000	12.056900
2337.000000	12.068000
2336.000000	12.075800
2335.000000	12.073700
2334.000000	12.087100
2333.000000	12.066900
2332.000000	12.013200
2331.000000	11.968800
2330.000000	11.938100
2329.000000	11.905000
2328.000000	11.845200
2327.000000	11.763900
2326.000000	11.677200
2325.000000	11.616800
2324.000000	11.537700
2323.000000	11.444600
2322.000000	11.347500
2321.000000	11.247000
2320.000000	11.142900
2319.000000	11.030500
2318.000000	10.909900
2317.000000	10.802500
2316.000000	10.669500
2315.000000	10.550200
2314.000000	10.465000
2313.000000	10.377400
2312.000000	10.274800
2311.000000	10.177900
2310.000000	10.129400
2309.000000	10.082900
2308.000000	10.041800
2307.000000	10.021200
2306.000000	10.015900
2305.000000	10.038400
2304.000000	10.088700
2303.000000	10.150500
2302.000000	10.206200
2301.000000	10.303900
2300.000000	10.405400
2299.000000	10.503100
2298.000000	10.606700
2297.000000	10.708700
2296.000000	10.787100
2295.000000	10.889600
2294.000000	10.976300
2293.000000	11.045800
2292.000000	11.098500
2291.000000	11.150400
2290.000000	11.159300
2289.000000	11.176300
2288.000000	11.158300
2287.000000	11.175700
2286.000000	11.141500
2285.000000	11.100500
2284.000000	11.056000
2283.000000	11.016800
2282.000000	10.958700
2281.000000	10.900900
2280.000000	10.854400
2279.000000	10.797500
2278.000000	10.733300
2277.000000	10.687200
2276.000000	10.652300
2275.000000	10.615100
2274.000000	10.572300
2273.000000	10.555100
2272.000000	10.565800
2271.000000	10.571400
2270.000000	10.593300
2269.000000	10.656100
2268.000000	10.697400
2267.000000	10.794100
2266.000000	10.899500
2265.000000	11.028300
2264.000000	11.188600
2263.000000	11.378800
2262.000000	11.580400
2261.000000	11.798600
2260.000000	12.019100
2259.000000	12.255000
2258.000000	12.509600
2257.000000	12.767400
2256.000000	13.025500
2255.000000	13.285300
2254.000000	13.564800
2253.000000	13.797000
2252.000000	14.023500
2251.000000	14.253900
2250.000000	14.485500
2249.000000	14.687900
2248.000000	14.864000
2247.000000	15.036000
2246.000000	15.225200
2245.000000	15.361900
2244.000000	15.492900
2243.000000	15.625700
2242.000000	15.756300
2241.000000	15.884700
2240.000000	15.974400
2239.000000	16.087000
2238.000000	16.168200
2237.000000	16.260600
2236.000000	16.329800
2235.000000	16.398200
2234.000000	16.455100
2233.000000	16.489500
2232.000000	16.553600
2231.000000	16.577600
2230.000000	16.625600
2229.000000	16.651600
2228.000000	16.668900
2227.000000	16.674500
2226.000000	16.671400
2225.000000	16.690000
2224.000000	16.668500
2223.000000	16.640200
2222.000000	16.660000
2221.000000	16.639400
2220.000000	16.609500
2219.000000	16.590100
2218.000000	16.554400
2217.000000	16.555800
2216.000000	16.506600
2215.000000	16.499000
2214.000000	16.462100
2213.000000	16.425700
2212.000000	16.414500
2211.000000	16.370100
2210.000000	16.342200
2209.000000	16.313600
2208.000000	16.316100
2207.000000	16.290400
2206.000000	16.277100
2205.000000	16.271300
2204.000000	16.242900
2203.000000	16.225800
2202.000000	16.188100
2201.000000	16.183000
2200.000000	16.165300
2199.000000	16.170900
2198.000000	16.157600
2197.000000	16.125400
2196.000000	16.117300
2195.000000	16.122800
2194.000000	16.089600
2193.000000	16.084400
2192.000000	16.079900
2191.000000	16.058700
2190.000000	16.046700
2189.000000	16.042200
2188.000000	16.014500
2187.000000	15.990900
2186.000000	15.979800
2185.000000	15.972700
2184.000000	15.950600
2183.000000	15.928900
2182.000000	15.915000
2181.000000	15.913000
2180.000000	15.884300
2179.000000	15.874800
2178.000000	15.871800
2177.000000	15.845900
2176.000000	15.853900
2175.000000	15.870900
2174.000000	15.874100
2173.000000	15.864300
2172.000000	15.865600
2171.000000	15.855400
2170.000000	15.881400
2169.000000	15.904700
2168.000000	15.888900
2167.000000	15.920600
2166.000000	15.943800
2165.000000	15.958400
2164.000000	15.991800
2163.000000	16.015400
2162.000000	16.063900
2161.000000	16.082900
2160.000000	16.099600
2159.000000	16.117200
2158.000000	16.172100
2157.000000	16.204900
2156.000000	16.210600
2155.000000	16.269100
2154.000000	16.327600
2153.000000	16.346800
2152.000000	16.381400
2151.000000	16.433600
2150.000000	16.474600
2149.000000	16.514200
2148.000000	16.566600
2147.000000	16.606400
2146.000000	16.633200
2145.000000	16.678600
2144.000000	16.720400
2143.000000	16.760500
2142.000000	16.790900
2141.000000	16.823700
2140.000000	16.851300
2139.000000	16.884300
2138.000000	16.910100
2137.000000	16.920900
2136.000000	16.965100
2135.000000	17.000700
2134.000000	17.006200
2133.000000	17.024400
2132.000000	17.035700
2131.000000	17.047300
2130.000000	17.048200
2129.000000	17.073400
2128.000000	17.094100
2127.000000	17.075100
2126.000000	17.085100
2125.000000	17.097000
2124.000000	17.080200
2123.000000	17.062400
2122.000000	17.061700
2121.000000	17.060500
2120.000000	17.050100
2119.000000	17.031400
2118.000000	16.998300
2117.000000	16.979000
2116.000000	16.974900
2115.000000	16.957200
2114.000000	16.939700
2113.000000	16.909500
2112.000000	16.877400
2111.000000	16.865300
2110.000000	16.838100
2109.000000	16.805500
2108.000000	16.779200
2107.000000	16.753800
2106.000000	16.744100
2105.000000	16.712300
2104.000000	16.676000
2103.000000	16.649400
2102.000000	16.617800
2101.000000	16.588300
2100.000000	16.556900
2099.000000	16.527500
2098.000000	16.502900
2097.000000	16.482800
2096.000000	16.460000
2095.000000	16.436000
2094.000000	16.407000
2093.000000	16.379700
2092.000000	16.353400
2091.000000	16.325200
2090.000000	16.311900
2089.000000	16.288900
2088.000000	16.262600
2087.000000	16.249100
2086.000000	16.218400
2085.000000	16.193800
2084.000000	16.175800
2083.000000	16.146600
2082.000000	16.107200
2081.000000	16.071600
2080.000000	16.046400
2079.000000	16.011800
2078.000000	15.969300
2077.000000	15.927600
2076.000000	15.902700
2075.000000	15.879200
2074.000000	15.854100
2073.000000	15.804100
2072.000000	15.750500
2071.000000	15.723100
2070.000000	15.688500
2069.000000	15.650500
2068.000000	15.609600
2067.000000	15.569800
2066.000000	15.545100
2065.000000	15.519600
2064.000000	15.489500
2063.000000	15.453400
2062.000000	15.418000
2061.000000	15.409300
2060.000000	15.390600
2059.000000	15.384700
2058.000000	15.369100
2057.000000	15.381100
2056.000000	15.396900
2055.000000	15.403300
2054.000000	15.441200
2053.000000	15.476400
2052.000000	15.523100
2051.000000	15.585400
2050.000000	15.639900
2049.000000	15.688700
2048.000000	15.764300
2047.000000	15.844100
2046.000000	15.908300
2045.000000	16.007600
2044.000000	16.101100
2043.000000	16.180900
2042.000000	16.256200
2041.000000	16.338400
2040.000000	16.446600
2039.000000	16.524400
2038.000000	16.596700
2037.000000	16.663800
2036.000000	16.738900
2035.000000	16.793700
2034.000000	16.886000
2033.000000	16.941700
2032.000000	16.979200
2031.000000	17.032400
2030.000000	17.085300
2029.000000	17.120300
2028.000000	17.172600
2027.000000	17.204100
2026.000000	17.230400
2025.000000	17.255300
2024.000000	17.270400
2023.000000	17.310900
2022.000000	17.342200
2021.000000	17.347400
2020.000000	17.363600
2019.000000	17.377000
2018.000000	17.381200
2017.000000	17.391900
2016.000000	17.384200
2015.000000	17.391400
2014.000000	17.395700
2013.000000	17.390200
2012.000000	17.371900
2011.000000	17.355900
2010.000000	17.338500
2009.000000	17.294900
2008.000000	17.280000
2007.000000	17.261300
2006.000000	17.209200
2005.000000	17.185700
2004.000000	17.130500
2003.000000	17.082600
2002.000000	17.036900
2001.000000	16.975900
2000.000000	16.941700
1999.000000	16.896600
1998.000000	16.821100
1997.000000	16.782900
1996.000000	16.729900
1995.000000	16.640600
1994.000000	16.594000
1993.000000	16.522700
1992.000000	16.443900
1991.000000	16.371800
1990.000000	16.320600
1989.000000	16.237100
1988.000000	16.147800
1987.000000	16.084000
1986.000000	15.989400
1985.000000	15.908300
1984.000000	15.843900
1983.000000	15.743700
1982.000000	15.683100
1981.000000	15.604600
1980.000000	15.530800
1979.000000	15.461000
1978.000000	15.381900
1977.000000	15.304700
1976.000000	15.229800
1975.000000	15.149300
1974.000000	15.069800
1973.000000	14.986000
1972.000000	14.917300
1971.000000	14.839300
1970.000000	14.790100
1969.000000	14.708600
1968.000000	14.618800
1967.000000	14.590800
1966.000000	14.518800
1965.000000	14.432200
1964.000000	14.391100
1963.000000	14.323900
1962.000000	14.254200
1961.000000	14.234400
1960.000000	14.145000
1959.000000	14.083800
1958.000000	14.014900
1957.000000	13.956000
1956.000000	13.913700
1955.000000	13.855000
1954.000000	13.795500
1953.000000	13.748800
1952.000000	13.696700
1951.000000	13.636900
1950.000000	13.588500
1949.000000	13.554000
1948.000000	13.506900
1947.000000	13.464800
1946.000000	13.443500
1945.000000	13.423200
1944.000000	13.404900
1943.000000	13.392500
1942.000000	13.375200
1941.000000	13.378600
1940.000000	13.369400
1939.000000	13.375000
1938.000000	13.375200
1937.000000	13.372000
1936.000000	13.401000
1935.000000	13.440900
1934.000000	13.463300
1933.000000	13.532700
1932.000000	13.570600
1931.000000	13.649300
1930.000000	13.720600
1929.000000	13.802000
1928.000000	13.875700
1927.000000	13.959600
1926.000000	14.072100
1925.000000	14.176100
1924.000000	14.298600
1923.000000	14.422800
1922.000000	14.569500
1921.000000	14.715000
1920.000000	14.857000
1919.000000	15.012400
1918.000000	15.177800
1917.000000	15.352800
1916.000000	15.510100
1915.000000	15.719800
1914.000000	15.929500
1913.000000	16.113100
1912.000000	16.299300
1911.000000	16.519600
1910.000000	16.739700
1909.000000	16.961800
1908.000000	17.205700
1907.000000	17.460300
1906.000000	17.732300
1905.000000	18.008000
1904.000000	18.285100
1903.000000	18.550500
1902.000000	18.827800
1901.000000	19.128800
1900.000000	19.444700
1899.000000	19.742000
1898.000000	20.082900
1897.000000	20.387200
1896.000000	20.709500
1895.000000	21.036200
1894.000000	21.392700
1893.000000	21.762400
1892.000000	22.172300
1891.000000	22.584200
1890.000000	22.968200
1889.000000	23.393600
1888.000000	23.815800
1887.000000	24.234900
1886.000000	24.714300
1885.000000	25.253600
1884.000000	25.808200
1883.000000	26.310600
1882.000000	26.865600
1881.000000	27.412500
1880.000000	27.918300
1879.000000	28.398700
1878.000000	28.897400
1877.000000	29.350300
1876.000000	29.777400
1875.000000	30.187800
1874.000000	30.571900
1873.000000	30.921500
1872.000000	31.243400
1871.000000	31.520600
1870.000000	31.771400
1869.000000	32.026000
1868.000000	32.200700
1867.000000	32.334700
1866.000000	32.462500
1865.000000	32.588100
1864.000000	32.709800
1863.000000	32.825500
1862.000000	32.931000
1861.000000	33.028300
1860.000000	33.098900
1859.000000	33.147000
1858.000000	33.193500
1857.000000	33.213100
1856.000000	33.215800
1855.000000	33.233800
1854.000000	33.221200
1853.000000	33.192500
1852.000000	33.185000
1851.000000	33.195600
1850.000000	33.185300
1849.000000	33.157700
1848.000000	33.107600
1847.000000	33.021900
1846.000000	32.952400
1845.000000	32.933600
1844.000000	32.923300
1843.000000	32.942800
1842.000000	32.941200
1841.000000	32.883500
1840.000000	32.841600
1839.000000	32.796200
1838.000000	32.743400
1837.000000	32.685500
1836.000000	32.621400
1835.000000	32.547500
1834.000000	32.470300
1833.000000	32.400000
1832.000000	32.343000
1831.000000	32.294400
1830.000000	32.216400
1829.000000	32.134900
1828.000000	32.054400
1827.000000	31.975300
1826.000000	31.909600
1825.000000	31.859800
1824.000000	31.841000
1823.000000	31.840300
1822.000000	31.821900
1821.000000	31.781300
1820.000000	31.727100
1819.000000	31.685600
1818.000000	31.651600
1817.000000	31.644600
1816.000000	31.642100
1815.000000	31.618500
1814.000000	31.609600
1813.000000	31.598800
1812.000000	31.578500
1811.000000	31.537500
1810.000000	31.493600
1809.000000	31.453500
1808.000000	31.426200
1807.000000	31.379100
1806.000000	31.320600
1805.000000	31.258800
1804.000000	31.225200
1803.000000	31.197500
1802.000000	31.150000
1801.000000	31.088200
1800.000000	31.031400
1799.000000	30.972600
1798.000000	30.935900
1797.000000	30.907900
1796.000000	30.862900
1795.000000	30.810100
1794.000000	30.754500
1793.000000	30.689900
1792.000000	30.637000
1791.000000	30.596400
1790.000000	30.537600
1789.000000	30.489200
1788.000000	30.436000
1787.000000	30.378800
1786.000000	30.305500
1785.000000	30.224500
1784.000000	30.156100
1783.000000	30.081700
1782.000000	30.013600
1781.000000	29.957200
1780.000000	29.862500
1779.000000	29.779700
1778.000000	29.707700
1777.000000	29.610200
1776.000000	29.508400
1775.000000	29.405500
1774.000000	29.298000
1773.000000	29.178400
1772.000000	29.060000
1771.000000	28.943700
1770.000000	28.825900
1769.000000	28.713900
1768.000000	28.622500
1767.000000	28.546100
1766.000000	28.471900
1765.000000	28.411600
1764.000000	28.384400
1763.000000	28.381300
1762.000000	28.414800
1761.000000	28.469600
1760.000000	28.529500
1759.000000	28.595200
1758.000000	28.679500
1757.000000	28.748300
1756.000000	28.796700
1755.000000	28.827300
1754.000000	28.846500
1753.000000	28.853100
1752.000000	28.847300
1751.000000	28.812700
1750.000000	28.780900
1749.000000	28.730000
1748.000000	28.642700
1747.000000	28.566000
1746.000000	28.463000
1745.000000	28.334100
1744.000000	28.177800
1743.000000	28.001500
1742.000000	27.790200
1741.000000	27.583900
1740.000000	27.361200
1739.000000	27.150500
1738.000000	26.974900
1737.000000	26.812700
1736.000000	26.703000
1735.000000	26.644300
1734.000000	26.606300
1733.000000	26.634900
1732.000000	26.702100
1731.000000	26.795500
1730.000000	26.922300
1729.000000	27.039400
1728.000000	27.164600
1727.000000	27.277100
1726.000000	27.377400
1725.000000	27.456200
1724.000000	27.507900
1723.000000	27.551800
1722.000000	27.593700
1721.000000	27.617000
1720.000000	27.647900
1719.000000	27.686900
1718.000000	27.742000
1717.000000	27.794700
1716.000000	27.848300
1715.000000	27.929600
1714.000000	27.997500
1713.000000	28.047800
1712.000000	28.103000
1711.000000	28.140400
1710.000000	28.160400
1709.000000	28.145800
1708.000000	28.100800
1707.000000	28.070500
1706.000000	28.031000
1705.000000	27.980000
1704.000000	27.881800
1703.000000	27.774000
1702.000000	27.664100
1701.000000	27.509100
1700.000000	27.333500
1699.000000	27.149700
1698.000000	27.014000
1697.000000	26.916000
1696.000000	26.867600
1695.000000	26.879900
1694.000000	26.936700
1693.000000	27.084100
1692.000000	27.217200
1691.000000	27.393400
1690.000000	27.548600
1689.000000	27.642300
1688.000000	27.711000
1687.000000	27.770900
1686.000000	27.780100
1685.000000	27.851100
1684.000000	27.992700
1683.000000	28.250900
1682.000000	28.608600
1681.000000	29.078800
1680.000000	29.615800
1679.000000	30.150900
1678.000000	30.648600
1677.000000	31.159700
1676.000000	31.540700
1675.000000	31.926300
1674.000000	32.220700
1673.000000	32.494900
1672.000000	32.735500
1671.000000	32.927700
1670.000000	33.122000
1669.000000	33.285900
1668.000000	33.428400
1667.000000	33.569700
1666.000000	33.655300
1665.000000	33.749700
1664.000000	33.819500
1663.000000	33.902900
1662.000000	33.961100
1661.000000	33.988600
1660.000000	34.043700
1659.000000	34.063000
1658.000000	34.091200
1657.000000	34.093200
1656.000000	34.112300
1655.000000	34.100000
1654.000000	34.075600
1653.000000	34.085700
1652.000000	34.058300
1651.000000	34.042000
1650.000000	34.013100
1649.000000	33.968800
1648.000000	33.910500
1647.000000	33.871200
1646.000000	33.820200
1645.000000	33.773500
1644.000000	33.712400
1643.000000	33.675400
1642.000000	33.614900
1641.000000	33.557200
1640.000000	33.504600
1639.000000	33.429500
1638.000000	33.366400
1637.000000	33.297800
1636.000000	33.226900
1635.000000	33.166800
1634.000000	33.096800
1633.000000	33.026100
1632.000000	32.936700
1631.000000	32.864100
1630.000000	32.784600
1629.000000	32.713100
1628.000000	32.620500
1627.000000	32.530600
1626.000000	32.455900
1625.000000	32.383800
1624.000000	32.303400
1623.000000	32.232300
1622.000000	32.154000
