PE UV       SUBTECH     SPECTRUM    ASCII       PEDS        4.00        
   -1
CICIMAUCR0158-2.Sample.ASC
24/04/11
11:32:05.00
24/04/11
11:32:05.00
Vinicio Soto Monge
C.cupreomarginata
250,000000
1
Lambda 1050
1050L1511233
PerkinElmer UV WinLab 6.3.2.0749 / 2.02.05 Lambda 900 UV/VIS/NIR, Aug  7 2015 09:38:08

0
0
3350/2 860,8/2
0
0
UV/VIS
1
1
1
DoubleDePol,CommonBeamDepol,RBeamAtt,SBeamAtt,60mm sphere, WB InGaAs Detector
0
0
0
0
Program
Program
3350/2 860,8/2
3350/0,2 860,8/0,2
3350/0,2 860,8/0,2
0
15.00
 
 
 
0
 
860,8
319,2
860,8
Front
100
on
S:100 R:100
0
0
0
0
 
0
 
 
 
0
 
 
0
0
0
0
0
 
 
 
 
0
0


0
0
#HDR
-1
-1
#GR
nm
%R
1.0
0.0
2400,000000
-1,000000
2151
8
75,735800
5,513200
#DATA
2400.000000	25.630070
2399.000000	27.095822
2398.000000	27.258716
2397.000000	26.359805
2396.000000	26.106990
2395.000000	26.976791
2394.000000	26.206880
2393.000000	26.734842
2392.000000	26.242968
2391.000000	27.728957
2390.000000	27.299888
2389.000000	26.630366
2388.000000	26.587898
2387.000000	26.938609
2386.000000	26.525392
2385.000000	27.005502
2384.000000	26.748001
2383.000000	26.764151
2382.000000	26.925151
2381.000000	26.782294
2380.000000	26.822968
2379.000000	26.680510
2378.000000	26.300888
2377.000000	26.400579
2376.000000	26.172387
2375.000000	26.757771
2374.000000	26.771827
2373.000000	26.782095
2372.000000	27.238878
2371.000000	26.874010
2370.000000	27.161019
2369.000000	26.156636
2368.000000	26.016072
2367.000000	26.566365
2366.000000	26.207079
2365.000000	26.299493
2364.000000	27.009091
2363.000000	27.380339
2362.000000	26.740026
2361.000000	26.237983
2360.000000	26.426000
2359.000000	26.655388
2358.000000	26.795952
2357.000000	26.388815
2356.000000	26.292215
2355.000000	26.111376
2354.000000	25.959149
2353.000000	26.000520
2352.000000	26.224725
2351.000000	26.103900
2350.000000	26.471658
2349.000000	26.072298
2348.000000	26.221036
2347.000000	25.258622
2346.000000	25.876804
2345.000000	25.629173
2344.000000	25.704738
2343.000000	25.651304
2342.000000	26.160624
2341.000000	26.456904
2340.000000	26.148960
2339.000000	26.470163
2338.000000	25.672339
2337.000000	25.767244
2336.000000	26.186942
2335.000000	25.824965
2334.000000	26.232600
2333.000000	26.058939
2332.000000	25.770135
2331.000000	25.680015
2330.000000	25.499774
2329.000000	25.320431
2328.000000	25.964034
2327.000000	26.279355
2326.000000	25.819781
2325.000000	26.069207
2324.000000	26.347344
2323.000000	25.885079
2322.000000	25.858561
2321.000000	25.655890
2320.000000	25.824666
2319.000000	26.170692
2318.000000	26.240875
2317.000000	25.933030
2316.000000	25.636649
2315.000000	25.836729
2314.000000	25.791967
2313.000000	25.643528
2312.000000	25.430788
2311.000000	25.430788
2310.000000	25.521606
2309.000000	25.190035
2308.000000	25.017271
2307.000000	25.303583
2306.000000	24.992149
2305.000000	24.752493
2304.000000	25.361104
2303.000000	25.417828
2302.000000	25.204690
2301.000000	25.287234
2300.000000	25.061534
2299.000000	24.969819
2298.000000	24.899736
2297.000000	24.901132
2296.000000	24.933930
2295.000000	24.953968
2294.000000	24.933531
2293.000000	25.042094
2292.000000	24.955962
2291.000000	25.110183
2290.000000	25.113672
2289.000000	25.065322
2288.000000	25.317241
2287.000000	24.985669
2286.000000	25.012686
2285.000000	25.245264
2284.000000	25.449729
2283.000000	25.095329
2282.000000	25.121548
2281.000000	25.377952
2280.000000	25.007003
2279.000000	25.017670
2278.000000	25.614717
2277.000000	25.679915
2276.000000	25.388818
2275.000000	25.584412
2274.000000	25.758471
2273.000000	25.755182
2272.000000	25.458004
2271.000000	25.552810
2270.000000	25.792167
2269.000000	25.850785
2268.000000	25.667055
2267.000000	25.626581
2266.000000	25.897440
2265.000000	25.785189
2264.000000	25.903123
2263.000000	26.379345
2262.000000	26.322222
2261.000000	26.212861
2260.000000	26.372666
2259.000000	26.479634
2258.000000	26.581916
2257.000000	26.664959
2256.000000	26.868328
2255.000000	27.271676
2254.000000	27.411941
2253.000000	27.484815
2252.000000	27.771724
2251.000000	27.935815
2250.000000	28.004303
2249.000000	28.185241
2248.000000	28.252931
2247.000000	28.095719
2246.000000	28.395588
2245.000000	28.520800
2244.000000	28.536152
2243.000000	28.745403
2242.000000	28.761054
2241.000000	29.117548
2240.000000	29.156627
2239.000000	29.106582
2238.000000	29.304269
2237.000000	29.529071
2236.000000	29.457493
2235.000000	29.102495
2234.000000	29.391099
2233.000000	29.552897
2232.000000	29.232691
2231.000000	29.325503
2230.000000	29.264991
2229.000000	29.403860
2228.000000	29.261502
2227.000000	29.298985
2226.000000	29.140876
2225.000000	29.166098
2224.000000	28.969707
2223.000000	28.865929
2222.000000	28.804520
2221.000000	28.620889
2220.000000	28.653688
2219.000000	28.564365
2218.000000	28.443041
2217.000000	28.437658
2216.000000	28.319724
2215.000000	28.180954
2214.000000	28.068703
2213.000000	27.870219
2212.000000	27.993735
2211.000000	27.744210
2210.000000	27.773319
2209.000000	27.661765
2208.000000	27.591284
2207.000000	27.699748
2206.000000	27.485014
2205.000000	27.588593
2204.000000	27.628668
2203.000000	27.385224
2202.000000	27.272573
2201.000000	27.593876
2200.000000	27.373161
2199.000000	27.059933
2198.000000	27.064519
2197.000000	26.943893
2196.000000	26.663962
2195.000000	26.907307
2194.000000	27.156434
2193.000000	26.979582
2192.000000	27.034113
2191.000000	27.265694
2190.000000	27.314443
2189.000000	27.184148
2188.000000	27.001315
2187.000000	26.789771
2186.000000	27.059833
2185.000000	26.809311
2184.000000	26.819579
2183.000000	26.583113
2182.000000	26.596770
2181.000000	26.852477
2180.000000	26.662068
2179.000000	26.984766
2178.000000	26.955258
2177.000000	26.718991
2176.000000	26.704336
2175.000000	26.737932
2174.000000	26.393102
2173.000000	26.558090
2172.000000	26.490500
2171.000000	26.655388
2170.000000	27.137492
2169.000000	27.017166
2168.000000	26.802831
2167.000000	26.903319
2166.000000	26.824763
2165.000000	26.470063
2164.000000	26.859156
2163.000000	27.176770
2162.000000	27.050861
2161.000000	27.093030
2160.000000	27.404464
2159.000000	27.421411
2158.000000	27.263900
2157.000000	27.403766
2156.000000	27.643821
2155.000000	27.723972
2154.000000	27.905509
2153.000000	27.853770
2152.000000	28.084454
2151.000000	27.927341
2150.000000	27.996826
2149.000000	28.702835
2148.000000	28.317331
2147.000000	29.013671
2146.000000	29.143069
2145.000000	28.871312
2144.000000	28.876795
2143.000000	28.919961
2142.000000	29.350426
2141.000000	28.673725
2140.000000	29.311945
2139.000000	29.343048
2138.000000	29.630756
2137.000000	29.996820
2136.000000	29.935610
2135.000000	30.128511
2134.000000	30.140972
2133.000000	29.752179
2132.000000	30.356803
2131.000000	30.148748
2130.000000	30.315730
2129.000000	30.273461
2128.000000	30.527972
2127.000000	30.478525
2126.000000	30.312241
2125.000000	30.793248
2124.000000	30.693857
2123.000000	30.334671
2122.000000	30.768824
2121.000000	30.534053
2120.000000	30.555686
2119.000000	30.680199
2118.000000	30.455895
2117.000000	30.787167
2116.000000	30.875095
2115.000000	30.947470
2114.000000	30.949065
2113.000000	30.739715
2112.000000	30.888353
2111.000000	30.764936
2110.000000	30.801922
2109.000000	30.841200
2108.000000	30.751677
2107.000000	31.006387
2106.000000	30.739914
2105.000000	30.898921
2104.000000	30.548009
2103.000000	30.501952
2102.000000	30.866621
2101.000000	30.693558
2100.000000	30.649096
2099.000000	30.961526
2098.000000	30.580210
2097.000000	30.866820
2096.000000	30.910983
2095.000000	30.680199
2094.000000	30.624373
2093.000000	30.818969
2092.000000	30.651688
2091.000000	30.556683
2090.000000	30.594764
2089.000000	30.967607
2088.000000	30.929825
2087.000000	30.576222
2086.000000	30.501753
2085.000000	30.601643
2084.000000	30.443833
2083.000000	30.561268
2082.000000	30.570240
2081.000000	30.491186
2080.000000	30.293300
2079.000000	30.432269
2078.000000	30.320316
2077.000000	30.168587
2076.000000	30.023936
2075.000000	29.981966
2074.000000	29.861540
2073.000000	29.852268
2072.000000	29.806909
2071.000000	29.678408
2070.000000	29.459387
2069.000000	29.219133
2068.000000	29.294798
2067.000000	29.080962
2066.000000	28.988150
2065.000000	28.791659
2064.000000	28.651694
2063.000000	28.608229
2062.000000	28.475341
2061.000000	28.461384
2060.000000	28.189328
2059.000000	28.110074
2058.000000	28.086547
2057.000000	27.986259
2056.000000	27.979878
2055.000000	27.771724
2054.000000	27.771625
2053.000000	27.918868
2052.000000	27.813893
2051.000000	27.907503
2050.000000	28.043082
2049.000000	28.031817
2048.000000	28.042783
2047.000000	28.308758
2046.000000	28.467764
2045.000000	28.673426
2044.000000	28.804121
2043.000000	28.939202
2042.000000	29.004001
2041.000000	29.208267
2040.000000	29.404159
2039.000000	29.473643
2038.000000	29.485606
2037.000000	29.667542
2036.000000	29.794348
2035.000000	29.836318
2034.000000	29.965218
2033.000000	30.051351
2032.000000	30.259405
2031.000000	30.385414
2030.000000	30.357301
2029.000000	30.479522
2028.000000	30.616696
2027.000000	30.634641
2026.000000	30.695352
2025.000000	30.680000
2024.000000	30.719776
2023.000000	30.762245
2022.000000	30.889450
2021.000000	30.948367
2020.000000	30.921351
2019.000000	30.966212
2018.000000	31.068096
2017.000000	31.101293
2016.000000	31.060818
2015.000000	31.012867
2014.000000	31.053441
2013.000000	31.005689
2012.000000	30.958237
2011.000000	30.982661
2010.000000	31.022138
2009.000000	31.003995
2008.000000	30.992231
2007.000000	30.938697
2006.000000	30.845287
2005.000000	30.855954
2004.000000	30.790258
2003.000000	30.762045
2002.000000	30.747989
2001.000000	30.664149
2000.000000	30.589182
1999.000000	30.390698
1998.000000	30.267380
1997.000000	30.255019
1996.000000	30.101794
1995.000000	29.999013
1994.000000	29.897827
1993.000000	29.821265
1992.000000	29.750384
1991.000000	29.660264
1990.000000	29.604039
1989.000000	29.499862
1988.000000	29.334874
1987.000000	29.208267
1986.000000	29.115754
1985.000000	29.034406
1984.000000	28.906902
1983.000000	28.782986
1982.000000	28.656678
1981.000000	28.537448
1980.000000	28.391800
1979.000000	28.297792
1978.000000	28.204083
1977.000000	28.056740
1976.000000	27.919067
1975.000000	27.794454
1974.000000	27.682202
1973.000000	27.656582
1972.000000	27.535158
1971.000000	27.405560
1970.000000	27.304374
1969.000000	27.230005
1968.000000	27.180758
1967.000000	27.082363
1966.000000	26.940603
1965.000000	26.818881
1964.000000	26.680510
1963.000000	26.653893
1962.000000	26.571848
1961.000000	26.473154
1960.000000	26.404567
1959.000000	26.300390
1958.000000	26.155340
1957.000000	26.012084
1956.000000	25.969417
1955.000000	25.841215
1954.000000	25.742521
1953.000000	25.664463
1952.000000	25.560087
1951.000000	25.464882
1950.000000	25.393305
1949.000000	25.316244
1948.000000	25.218447
1947.000000	25.152651
1946.000000	25.081173
1945.000000	25.066219
1944.000000	24.971613
1943.000000	24.873717
1942.000000	24.880795
1941.000000	24.896446
1940.000000	24.898241
1939.000000	24.864147
1938.000000	24.768643
1937.000000	24.815896
1936.000000	24.780705
1935.000000	24.722685
1934.000000	24.848994
1933.000000	24.928547
1932.000000	24.953370
1931.000000	25.058543
1930.000000	25.114869
1929.000000	25.227120
1928.000000	25.404669
1927.000000	25.446539
1926.000000	25.471063
1925.000000	25.631964
1924.000000	25.772528
1923.000000	25.870524
1922.000000	26.089145
1921.000000	26.487609
1920.000000	26.596670
1919.000000	26.532569
1918.000000	26.743415
1917.000000	27.165904
1916.000000	27.485213
1915.000000	27.849483
1914.000000	28.165702
1913.000000	28.375551
1912.000000	28.591082
1911.000000	29.072887
1910.000000	29.260106
1909.000000	29.657672
1908.000000	30.088934
1907.000000	30.678106
1906.000000	31.177656
1905.000000	31.578811
1904.000000	32.021936
1903.000000	32.616092
1902.000000	33.117137
1901.000000	33.488884
1900.000000	34.531648
1899.000000	34.889538
1898.000000	35.423780
1897.000000	35.802804
1896.000000	36.398755
1895.000000	37.097287
1894.000000	37.731918
1893.000000	38.352891
1892.000000	38.929701
1891.000000	39.547384
1890.000000	40.281108
1889.000000	40.766801
1888.000000	41.208829
1887.000000	41.951624
1886.000000	42.433230
1885.000000	42.935471
1884.000000	43.537304
1883.000000	43.778555
1882.000000	44.322766
1881.000000	44.793904
1880.000000	45.066259
1879.000000	45.426541
1878.000000	45.964572
1877.000000	46.454950
1876.000000	46.573682
1875.000000	46.838959
1874.000000	47.432018
1873.000000	47.761496
1872.000000	47.838856
1871.000000	48.370805
1870.000000	48.069739
1869.000000	48.255064
1868.000000	48.601489
1867.000000	48.396027
1866.000000	48.288760
1865.000000	48.716034
1864.000000	48.918007
1863.000000	48.780933
1862.000000	48.935852
1861.000000	49.377083
1860.000000	49.533597
1859.000000	49.247684
1858.000000	49.318963
1857.000000	49.596003
1856.000000	49.414267
1855.000000	49.400510
1854.000000	49.882814
1853.000000	49.725103
1852.000000	49.382566
1851.000000	49.569984
1850.000000	49.684628
1849.000000	49.952099
1848.000000	50.238809
1847.000000	50.021384
1846.000000	49.449059
1845.000000	49.403800
1844.000000	49.612353
1843.000000	49.792294
1842.000000	49.974828
1841.000000	49.656615
1840.000000	49.684728
1839.000000	49.603181
1838.000000	49.607667
1837.000000	49.631693
1836.000000	49.589225
1835.000000	49.395725
1834.000000	49.211198
1833.000000	49.243996
1832.000000	49.279187
1831.000000	49.359338
1830.000000	49.277492
1829.000000	49.141813
1828.000000	49.079008
1827.000000	49.128255
1826.000000	49.090472
1825.000000	48.822005
1824.000000	48.868361
1823.000000	49.054783
1822.000000	49.185577
1821.000000	49.162648
1820.000000	49.058073
1819.000000	48.870654
1818.000000	48.918406
1817.000000	48.929173
1816.000000	48.942432
1815.000000	48.819912
1814.000000	48.799276
1813.000000	48.884511
1812.000000	48.878231
1811.000000	48.801768
1810.000000	48.713043
1809.000000	48.659011
1808.000000	48.710152
1807.000000	48.734178
1806.000000	48.700881
1805.000000	48.588330
1804.000000	48.552541
1803.000000	48.615446
1802.000000	48.622026
1801.000000	48.567694
1800.000000	48.499207
1799.000000	48.429822
1798.000000	48.408090
1797.000000	48.438396
1796.000000	48.394631
1795.000000	48.377185
1794.000000	48.360338
1793.000000	48.337708
1792.000000	48.310393
1791.000000	48.306904
1790.000000	48.303813
1789.000000	48.260049
1788.000000	48.283177
1787.000000	48.316574
1786.000000	48.314979
1785.000000	48.312087
1784.000000	48.286168
1783.000000	48.266928
1782.000000	48.287464
1781.000000	48.283377
1780.000000	48.258952
1779.000000	48.271115
1778.000000	48.233830
1777.000000	48.217880
1776.000000	48.190066
1775.000000	48.141616
1774.000000	48.095260
1773.000000	48.015707
1772.000000	47.965762
1771.000000	47.964067
1770.000000	47.935656
1769.000000	47.893885
1768.000000	47.882620
1767.000000	47.842445
1766.000000	47.813933
1765.000000	47.784624
1764.000000	47.734978
1763.000000	47.666192
1762.000000	47.655126
1761.000000	47.646652
1760.000000	47.643861
1759.000000	47.626216
1758.000000	47.640870
1757.000000	47.651737
1756.000000	47.640870
1755.000000	47.631798
1754.000000	47.612159
1753.000000	47.613954
1752.000000	47.632397
1751.000000	47.600396
1750.000000	47.555834
1749.000000	47.536793
1748.000000	47.503197
1747.000000	47.452455
1746.000000	47.389450
1745.000000	47.334920
1744.000000	47.281585
1743.000000	47.231939
1742.000000	47.155177
1741.000000	47.095562
1740.000000	47.067649
1739.000000	46.991485
1738.000000	46.914624
1737.000000	46.875047
1736.000000	46.818921
1735.000000	46.798285
1734.000000	46.810746
1733.000000	46.765985
1732.000000	46.710856
1731.000000	46.692712
1730.000000	46.660014
1729.000000	46.634194
1728.000000	46.647154
1727.000000	46.639677
1726.000000	46.606779
1725.000000	46.600598
1724.000000	46.624026
1723.000000	46.685136
1722.000000	46.762795
1721.000000	46.871358
1720.000000	47.040433
1719.000000	47.220574
1718.000000	47.426336
1717.000000	47.645556
1716.000000	47.836663
1715.000000	48.040630
1714.000000	48.233033
1713.000000	48.398320
1712.000000	48.533301
1711.000000	48.647547
1710.000000	48.754515
1709.000000	48.893683
1708.000000	49.001050
1707.000000	49.081699
1706.000000	49.107320
1705.000000	49.139022
1704.000000	49.179596
1703.000000	49.201029
1702.000000	49.266027
1701.000000	49.267323
1700.000000	49.259747
1699.000000	49.279087
1698.000000	49.266227
1697.000000	49.275996
1696.000000	49.294639
1695.000000	49.265928
1694.000000	49.210201
1693.000000	49.171919
1692.000000	49.119283
1691.000000	49.082098
1690.000000	49.082198
1689.000000	49.062359
1688.000000	49.098248
1687.000000	49.213790
1686.000000	49.353955
1685.000000	49.512263
1684.000000	49.728193
1683.000000	49.896870
1682.000000	50.118582
1681.000000	50.372195
1680.000000	50.587028
1679.000000	50.790796
1678.000000	50.974925
1677.000000	51.164038
1676.000000	51.336204
1675.000000	51.500992
1674.000000	51.679937
1673.000000	51.824189
1672.000000	52.034437
1671.000000	52.205706
1670.000000	52.372289
1669.000000	52.546747
1668.000000	52.679735
1667.000000	52.870842
1666.000000	53.013499
1665.000000	53.154362
1664.000000	53.256345
1663.000000	53.387638
1662.000000	53.517934
1661.000000	53.632977
1660.000000	53.714823
1659.000000	53.787198
1658.000000	53.865156
1657.000000	53.947301
1656.000000	53.990268
1655.000000	54.034630
1654.000000	54.080488
1653.000000	54.078993
1652.000000	54.114981
1651.000000	54.143792
1650.000000	54.126745
1649.000000	54.121860
1648.000000	54.152664
1647.000000	54.112888
1646.000000	54.104314
1645.000000	54.101024
1644.000000	54.076201
1643.000000	54.045297
1642.000000	54.065136
1641.000000	54.032338
1640.000000	54.047092
1639.000000	54.013396
1638.000000	54.024462
1637.000000	53.969134
1636.000000	53.975115
1635.000000	53.965844
1634.000000	53.919288
1633.000000	53.870141
1632.000000	53.821990
1631.000000	53.782014
1630.000000	53.746524
1629.000000	53.671557
1628.000000	53.655307
1627.000000	53.596490
1626.000000	53.569773
1625.000000	53.517834
1624.000000	53.472275
1623.000000	53.390728
1622.000000	53.340783
1621.000000	53.335699
1620.000000	53.286253
1619.000000	53.283661
1618.000000	53.254750
1617.000000	53.222052
1616.000000	53.162736
1615.000000	53.127844
1614.000000	53.084080
1613.000000	53.060055
1612.000000	53.009312
1611.000000	52.935840
1610.000000	52.903740
1609.000000	52.810230
1608.000000	52.759587
1607.000000	52.685317
1606.000000	52.641055
1605.000000	52.546249
1604.000000	52.498198
1603.000000	52.417249
1602.000000	52.319652
1601.000000	52.284162
1600.000000	52.179886
1599.000000	52.117579
1598.000000	52.032942
1597.000000	51.939831
1596.000000	51.901549
1595.000000	51.838744
1594.000000	51.778730
1593.000000	51.704361
1592.000000	51.639164
1591.000000	51.594203
1590.000000	51.531199
1589.000000	51.484045
1588.000000	51.429016
1587.000000	51.390336
1586.000000	51.332316
1585.000000	51.275492
1584.000000	51.211192
1583.000000	51.162941
1582.000000	51.121869
1581.000000	51.110803
1580.000000	51.053381
1579.000000	51.015798
1578.000000	50.994464
1577.000000	50.980507
1576.000000	50.965155
1575.000000	50.921690
1574.000000	50.907634
1573.000000	50.924780
1572.000000	50.911222
1571.000000	50.930463
1570.000000	50.906338
1569.000000	50.939634
1568.000000	50.943821
1567.000000	50.971735
1566.000000	50.974426
1565.000000	50.950999
1564.000000	50.941229
1563.000000	50.978813
1562.000000	50.974626
1561.000000	50.967249
1560.000000	50.936145
1559.000000	50.899060
1558.000000	50.858685
1557.000000	50.851209
1556.000000	50.765774
1555.000000	50.710944
1554.000000	50.667877
1553.000000	50.603178
1552.000000	50.502690
1551.000000	50.440483
1550.000000	50.355646
1549.000000	50.261538
1548.000000	50.182982
1547.000000	50.118083
1546.000000	50.049895
1545.000000	49.962466
1544.000000	49.917306
1543.000000	49.853604
1542.000000	49.822501
1541.000000	49.770761
1540.000000	49.722012
1539.000000	49.690909
1538.000000	49.643855
1537.000000	49.588826
1536.000000	49.573174
1535.000000	49.514357
1534.000000	49.456138
1533.000000	49.406890
1532.000000	49.373693
1531.000000	49.314178
1530.000000	49.253466
1529.000000	49.191957
1528.000000	49.119781
1527.000000	49.083294
1526.000000	49.024975
1525.000000	48.962569
1524.000000	48.896075
