PE UV       SUBTECH     SPECTRUM    ASCII       PEDS        4.00        
   -1
CICIMAUCR0001-4.Sample.ASC
24/04/23
10:01:06.00
24/04/23
10:01:06.00
Vinicio Soto Monge
C. kalinini
250,000000
1
Lambda 1050
1050L1511233
PerkinElmer UV WinLab 6.3.2.0749 / 2.02.05 Lambda 900 UV/VIS/NIR, Aug  7 2015 09:38:08

0
0
3350/servo 860,8/2
0
0
UV/VIS
1
1
1
DoubleDePol,CommonBeamDepol,RBeamAtt,SBeamAtt,60mm sphere, WB InGaAs Detector
0
0
0
0
Program
Program
3350/servo 860,8/2
3350/0,2 860,8/0,2
3350/0,2 860,8/0,2
0
15.00
 
 
 
0
 
860,8
319,2
860,8
Front
100
on
S:100 R:100
0
0
0
0
 
0
 
 
 
0
 
 
0
0
0
0
0
 
 
 
 
0
0


0
0
#HDR
-1
-1
#GR
nm
%R
1.0
0.0
2500,000000
-1,000000
2251
8
99,252700
5,560900
#DATA
2500.000000	13.801100
2499.000000	13.796100
2498.000000	13.790200
2497.000000	13.766800
2496.000000	13.746300
2495.000000	13.782300
2494.000000	13.717500
2493.000000	13.705200
2492.000000	13.694400
2491.000000	13.727700
2490.000000	13.711900
2489.000000	13.662300
2488.000000	13.681800
2487.000000	13.620900
2486.000000	13.701900
2485.000000	13.725300
2484.000000	13.694100
2483.000000	13.693400
2482.000000	13.729500
2481.000000	13.660800
2480.000000	13.689200
2479.000000	13.722000
2478.000000	13.769500
2477.000000	13.783300
2476.000000	13.807000
2475.000000	13.848800
2474.000000	13.882400
2473.000000	13.926300
2472.000000	13.951700
2471.000000	13.974200
2470.000000	14.024300
2469.000000	14.050100
2468.000000	14.113800
2467.000000	14.178300
2466.000000	14.200600
2465.000000	14.283100
2464.000000	14.330200
2463.000000	14.377000
2462.000000	14.429500
2461.000000	14.478000
2460.000000	14.557400
2459.000000	14.617800
2458.000000	14.688000
2457.000000	14.764700
2456.000000	14.851300
2455.000000	14.943000
2454.000000	15.031000
2453.000000	15.105500
2452.000000	15.179300
2451.000000	15.285100
2450.000000	15.386300
2449.000000	15.483400
2448.000000	15.598200
2447.000000	15.687900
2446.000000	15.798600
2445.000000	15.891900
2444.000000	15.987900
2443.000000	16.109200
2442.000000	16.207400
2441.000000	16.320400
2440.000000	16.430800
2439.000000	16.537100
2438.000000	16.631800
2437.000000	16.734500
2436.000000	16.832000
2435.000000	16.947600
2434.000000	17.051800
2433.000000	17.151400
2432.000000	17.248300
2431.000000	17.341700
2430.000000	17.434400
2429.000000	17.525000
2428.000000	17.626900
2427.000000	17.707700
2426.000000	17.788600
2425.000000	17.840200
2424.000000	17.920300
2423.000000	18.023300
2422.000000	18.102000
2421.000000	18.172300
2420.000000	18.239600
2419.000000	18.309700
2418.000000	18.373200
2417.000000	18.459300
2416.000000	18.530000
2415.000000	18.599100
2414.000000	18.655500
2413.000000	18.706100
2412.000000	18.767700
2411.000000	18.835300
2410.000000	18.892900
2409.000000	18.934900
2408.000000	18.976200
2407.000000	19.022200
2406.000000	19.058800
2405.000000	19.097100
2404.000000	19.147600
2403.000000	19.201600
2402.000000	19.234400
2401.000000	19.266200
2400.000000	19.297400
2399.000000	19.340600
2398.000000	19.368000
2397.000000	19.403700
2396.000000	19.429400
2395.000000	19.452900
2394.000000	19.494400
2393.000000	19.516900
2392.000000	19.532300
2391.000000	19.548600
2390.000000	19.554900
2389.000000	19.566600
2388.000000	19.581600
2387.000000	19.599800
2386.000000	19.614900
2385.000000	19.610800
2384.000000	19.615700
2383.000000	19.622400
2382.000000	19.612300
2381.000000	19.619300
2380.000000	19.622300
2379.000000	19.633400
2378.000000	19.641200
2377.000000	19.622400
2376.000000	19.598600
2375.000000	19.583500
2374.000000	19.587400
2373.000000	19.580200
2372.000000	19.570300
2371.000000	19.571100
2370.000000	19.580500
2369.000000	19.561600
2368.000000	19.554400
2367.000000	19.570400
2366.000000	19.580500
2365.000000	19.582500
2364.000000	19.591100
2363.000000	19.595700
2362.000000	19.590300
2361.000000	19.592800
2360.000000	19.604000
2359.000000	19.609800
2358.000000	19.598900
2357.000000	19.604900
2356.000000	19.593700
2355.000000	19.580200
2354.000000	19.567300
2353.000000	19.556300
2352.000000	19.556100
2351.000000	19.551400
2350.000000	19.539200
2349.000000	19.535800
2348.000000	19.516100
2347.000000	19.489400
2346.000000	19.476500
2345.000000	19.478900
2344.000000	19.476100
2343.000000	19.469000
2342.000000	19.474700
2341.000000	19.466700
2340.000000	19.460200
2339.000000	19.466900
2338.000000	19.468700
2337.000000	19.465700
2336.000000	19.476600
2335.000000	19.496700
2334.000000	19.521800
2333.000000	19.518000
2332.000000	19.532500
2331.000000	19.575600
2330.000000	19.600100
2329.000000	19.620400
2328.000000	19.646100
2327.000000	19.681300
2326.000000	19.713500
2325.000000	19.744500
2324.000000	19.764900
2323.000000	19.805700
2322.000000	19.828200
2321.000000	19.843600
2320.000000	19.851300
2319.000000	19.844900
2318.000000	19.841400
2317.000000	19.837300
2316.000000	19.830600
2315.000000	19.810900
2314.000000	19.769600
2313.000000	19.742600
2312.000000	19.715600
2311.000000	19.706700
2310.000000	19.684000
2309.000000	19.643400
2308.000000	19.613000
2307.000000	19.569900
2306.000000	19.548300
2305.000000	19.519500
2304.000000	19.499500
2303.000000	19.502400
2302.000000	19.481700
2301.000000	19.474600
2300.000000	19.453200
2299.000000	19.428600
2298.000000	19.447100
2297.000000	19.459400
2296.000000	19.475900
2295.000000	19.487900
2294.000000	19.497500
2293.000000	19.516000
2292.000000	19.537300
2291.000000	19.576000
2290.000000	19.624200
2289.000000	19.632700
2288.000000	19.670700
2287.000000	19.722700
2286.000000	19.747700
2285.000000	19.786400
2284.000000	19.837800
2283.000000	19.870400
2282.000000	19.911000
2281.000000	19.947300
2280.000000	19.985400
2279.000000	20.035000
2278.000000	20.079000
2277.000000	20.099400
2276.000000	20.113400
2275.000000	20.161100
2274.000000	20.181800
2273.000000	20.220400
2272.000000	20.241600
2271.000000	20.256400
2270.000000	20.321700
2269.000000	20.348500
2268.000000	20.404600
2267.000000	20.431800
2266.000000	20.525300
2265.000000	20.571100
2264.000000	20.656700
2263.000000	20.761100
2262.000000	20.874100
2261.000000	20.986800
2260.000000	21.110300
2259.000000	21.243400
2258.000000	21.379200
2257.000000	21.535400
2256.000000	21.692300
2255.000000	21.852800
2254.000000	22.016700
2253.000000	22.182300
2252.000000	22.349600
2251.000000	22.502200
2250.000000	22.654000
2249.000000	22.824500
2248.000000	22.965100
2247.000000	23.117500
2246.000000	23.233700
2245.000000	23.350000
2244.000000	23.456200
2243.000000	23.594200
2242.000000	23.677200
2241.000000	23.762800
2240.000000	23.835500
2239.000000	23.888500
2238.000000	23.960500
2237.000000	23.970300
2236.000000	24.017900
2235.000000	24.017400
2234.000000	24.043700
2233.000000	24.030100
2232.000000	24.022500
2231.000000	24.037500
2230.000000	23.998800
2229.000000	23.959600
2228.000000	23.915900
2227.000000	23.866600
2226.000000	23.822500
2225.000000	23.767300
2224.000000	23.703900
2223.000000	23.636700
2222.000000	23.559400
2221.000000	23.482700
2220.000000	23.391300
2219.000000	23.329900
2218.000000	23.240100
2217.000000	23.148300
2216.000000	23.059000
2215.000000	22.990400
2214.000000	22.916000
2213.000000	22.823400
2212.000000	22.758600
2211.000000	22.701400
2210.000000	22.612700
2209.000000	22.573800
2208.000000	22.510300
2207.000000	22.459800
2206.000000	22.418900
2205.000000	22.372000
2204.000000	22.318600
2203.000000	22.278300
2202.000000	22.234600
2201.000000	22.206800
2200.000000	22.205600
2199.000000	22.169300
2198.000000	22.138100
2197.000000	22.095000
2196.000000	22.078700
2195.000000	22.044900
2194.000000	22.038400
2193.000000	22.030100
2192.000000	22.015400
2191.000000	21.984100
2190.000000	21.972100
2189.000000	21.964600
2188.000000	21.965300
2187.000000	21.956500
2186.000000	21.929300
2185.000000	21.903600
2184.000000	21.889600
2183.000000	21.879800
2182.000000	21.881300
2181.000000	21.876900
2180.000000	21.856800
2179.000000	21.824300
2178.000000	21.834200
2177.000000	21.827800
2176.000000	21.818500
2175.000000	21.834100
2174.000000	21.855700
2173.000000	21.844600
2172.000000	21.853200
2171.000000	21.868900
2170.000000	21.873100
2169.000000	21.915700
2168.000000	21.958000
2167.000000	21.980300
2166.000000	22.012000
2165.000000	22.054900
2164.000000	22.103300
2163.000000	22.161400
2162.000000	22.222500
2161.000000	22.287200
2160.000000	22.342600
2159.000000	22.419900
2158.000000	22.501700
2157.000000	22.590800
2156.000000	22.681800
2155.000000	22.780600
2154.000000	22.885000
2153.000000	22.989300
2152.000000	23.098000
2151.000000	23.194400
2150.000000	23.319800
2149.000000	23.430500
2148.000000	23.532000
2147.000000	23.661500
2146.000000	23.769300
2145.000000	23.875000
2144.000000	23.978200
2143.000000	24.092300
2142.000000	24.194600
2141.000000	24.306000
2140.000000	24.414900
2139.000000	24.515400
2138.000000	24.618600
2137.000000	24.705700
2136.000000	24.791700
2135.000000	24.897300
2134.000000	24.986900
2133.000000	25.071000
2132.000000	25.170400
2131.000000	25.263600
2130.000000	25.324700
2129.000000	25.390800
2128.000000	25.446600
2127.000000	25.507300
2126.000000	25.577600
2125.000000	25.637300
2124.000000	25.693500
2123.000000	25.765800
2122.000000	25.812800
2121.000000	25.850600
2120.000000	25.863000
2119.000000	25.899900
2118.000000	25.951500
2117.000000	25.971600
2116.000000	25.998500
2115.000000	26.024700
2114.000000	26.052000
2113.000000	26.067500
2112.000000	26.080900
2111.000000	26.098200
2110.000000	26.109800
2109.000000	26.110400
2108.000000	26.118000
2107.000000	26.124100
2106.000000	26.131200
2105.000000	26.129900
2104.000000	26.136300
2103.000000	26.137700
2102.000000	26.132200
2101.000000	26.135500
2100.000000	26.134900
2099.000000	26.140400
2098.000000	26.158200
2097.000000	26.167100
2096.000000	26.175400
2095.000000	26.183000
2094.000000	26.198000
2093.000000	26.216500
2092.000000	26.225600
2091.000000	26.250200
2090.000000	26.267700
2089.000000	26.277100
2088.000000	26.288100
2087.000000	26.282400
2086.000000	26.281500
2085.000000	26.262400
2084.000000	26.258100
2083.000000	26.251500
2082.000000	26.209700
2081.000000	26.177000
2080.000000	26.135100
2079.000000	26.074800
2078.000000	26.020300
2077.000000	25.954000
2076.000000	25.875500
2075.000000	25.806200
2074.000000	25.732800
2073.000000	25.632500
2072.000000	25.522400
2071.000000	25.433200
2070.000000	25.323100
2069.000000	25.211000
2068.000000	25.097900
2067.000000	24.971200
2066.000000	24.856000
2065.000000	24.745400
2064.000000	24.629000
2063.000000	24.515200
2062.000000	24.419100
2061.000000	24.326100
2060.000000	24.235500
2059.000000	24.147800
2058.000000	24.072100
2057.000000	24.039600
2056.000000	24.011500
2055.000000	23.984600
2054.000000	24.002800
2053.000000	24.021500
2052.000000	24.062300
2051.000000	24.132600
2050.000000	24.225400
2049.000000	24.339700
2048.000000	24.451900
2047.000000	24.566000
2046.000000	24.696900
2045.000000	24.881700
2044.000000	25.038100
2043.000000	25.183300
2042.000000	25.350200
2041.000000	25.491700
2040.000000	25.626500
2039.000000	25.788100
2038.000000	25.933900
2037.000000	26.064400
2036.000000	26.213800
2035.000000	26.325900
2034.000000	26.448400
2033.000000	26.563100
2032.000000	26.649000
2031.000000	26.759600
2030.000000	26.852900
2029.000000	26.944200
2028.000000	27.022900
2027.000000	27.105500
2026.000000	27.186800
2025.000000	27.251900
2024.000000	27.319600
2023.000000	27.364500
2022.000000	27.413600
2021.000000	27.477100
2020.000000	27.532000
2019.000000	27.556300
2018.000000	27.584800
2017.000000	27.608200
2016.000000	27.633500
2015.000000	27.653000
2014.000000	27.651500
2013.000000	27.659600
2012.000000	27.669400
2011.000000	27.640300
2010.000000	27.636100
2009.000000	27.623600
2008.000000	27.591600
2007.000000	27.551200
2006.000000	27.504700
2005.000000	27.472200
2004.000000	27.409500
2003.000000	27.357900
2002.000000	27.307000
2001.000000	27.233200
2000.000000	27.163000
1999.000000	27.080100
1998.000000	27.006700
1997.000000	26.941800
1996.000000	26.845300
1995.000000	26.744100
1994.000000	26.667100
1993.000000	26.573100
1992.000000	26.459600
1991.000000	26.351400
1990.000000	26.260900
1989.000000	26.161000
1988.000000	26.050900
1987.000000	25.930100
1986.000000	25.830700
1985.000000	25.705000
1984.000000	25.607700
1983.000000	25.478400
1982.000000	25.372500
1981.000000	25.286300
1980.000000	25.164800
1979.000000	25.044600
1978.000000	24.927600
1977.000000	24.825700
1976.000000	24.728600
1975.000000	24.635700
1974.000000	24.531700
1973.000000	24.431300
1972.000000	24.328800
1971.000000	24.226300
1970.000000	24.124400
1969.000000	24.033100
1968.000000	23.909600
1967.000000	23.844900
1966.000000	23.719400
1965.000000	23.638500
1964.000000	23.530800
1963.000000	23.445000
1962.000000	23.319900
1961.000000	23.231600
1960.000000	23.119700
1959.000000	23.015600
1958.000000	22.921100
1957.000000	22.821500
1956.000000	22.730600
1955.000000	22.636500
1954.000000	22.538100
1953.000000	22.432900
1952.000000	22.317300
1951.000000	22.236400
1950.000000	22.129700
1949.000000	22.060400
1948.000000	21.986900
1947.000000	21.919700
1946.000000	21.840300
1945.000000	21.787000
1944.000000	21.702500
1943.000000	21.661800
1942.000000	21.615300
1941.000000	21.590200
1940.000000	21.553300
1939.000000	21.526100
1938.000000	21.503600
1937.000000	21.488500
1936.000000	21.500700
1935.000000	21.523000
1934.000000	21.557900
1933.000000	21.593500
1932.000000	21.661300
1931.000000	21.709100
1930.000000	21.773400
1929.000000	21.856500
1928.000000	21.962200
1927.000000	22.053200
1926.000000	22.177100
1925.000000	22.312100
1924.000000	22.455700
1923.000000	22.605000
1922.000000	22.796100
1921.000000	23.013600
1920.000000	23.226900
1919.000000	23.416400
1918.000000	23.653200
1917.000000	23.898600
1916.000000	24.150900
1915.000000	24.448300
1914.000000	24.796000
1913.000000	25.130600
1912.000000	25.488300
1911.000000	25.816600
1910.000000	26.167200
1909.000000	26.512200
1908.000000	26.938600
1907.000000	27.419200
1906.000000	27.962400
1905.000000	28.502900
1904.000000	29.043100
1903.000000	29.560800
1902.000000	30.066400
1901.000000	30.659300
1900.000000	31.301100
1899.000000	31.962600
1898.000000	32.619900
1897.000000	33.201000
1896.000000	33.747300
1895.000000	34.350200
1894.000000	34.987400
1893.000000	35.623100
1892.000000	36.346800
1891.000000	37.002800
1890.000000	37.582900
1889.000000	38.180600
1888.000000	38.766600
1887.000000	39.312400
1886.000000	39.848600
1885.000000	40.387600
1884.000000	40.930800
1883.000000	41.381500
1882.000000	41.810600
1881.000000	42.221800
1880.000000	42.594100
1879.000000	42.972300
1878.000000	43.340800
1877.000000	43.694300
1876.000000	44.027400
1875.000000	44.356900
1874.000000	44.652200
1873.000000	44.948800
1872.000000	45.210100
1871.000000	45.441100
1870.000000	45.622500
1869.000000	45.794600
1868.000000	45.927600
1867.000000	46.024100
1866.000000	46.101200
1865.000000	46.196200
1864.000000	46.297700
1863.000000	46.403400
1862.000000	46.529600
1861.000000	46.656500
1860.000000	46.763200
1859.000000	46.836900
1858.000000	46.914800
1857.000000	46.974200
1856.000000	47.018200
1855.000000	47.079300
1854.000000	47.103900
1853.000000	47.104400
1852.000000	47.131300
1851.000000	47.159100
1850.000000	47.225500
1849.000000	47.313100
1848.000000	47.318100
1847.000000	47.267200
1846.000000	47.195500
1845.000000	47.140200
1844.000000	47.114800
1843.000000	47.156900
1842.000000	47.217900
1841.000000	47.209500
1840.000000	47.155200
1839.000000	47.106900
1838.000000	47.082900
1837.000000	47.051200
1836.000000	46.994000
1835.000000	46.919900
1834.000000	46.842700
1833.000000	46.782900
1832.000000	46.763600
1831.000000	46.757800
1830.000000	46.732800
1829.000000	46.693500
1828.000000	46.634600
1827.000000	46.609200
1826.000000	46.597200
1825.000000	46.554200
1824.000000	46.532100
1823.000000	46.610500
1822.000000	46.672900
1821.000000	46.660100
1820.000000	46.631700
1819.000000	46.592100
1818.000000	46.554800
1817.000000	46.544800
1816.000000	46.553900
1815.000000	46.542600
1814.000000	46.517700
1813.000000	46.504500
1812.000000	46.484500
1811.000000	46.453800
1810.000000	46.415700
1809.000000	46.376500
1808.000000	46.355700
1807.000000	46.347900
1806.000000	46.309700
1805.000000	46.254200
1804.000000	46.229200
1803.000000	46.227000
1802.000000	46.216200
1801.000000	46.195000
1800.000000	46.140500
1799.000000	46.104200
1798.000000	46.094000
1797.000000	46.069900
1796.000000	46.054800
1795.000000	46.011900
1794.000000	45.980000
1793.000000	45.981000
1792.000000	45.957600
1791.000000	45.933200
1790.000000	45.921500
1789.000000	45.904900
1788.000000	45.910300
1787.000000	45.917300
1786.000000	45.922000
1785.000000	45.917600
1784.000000	45.899800
1783.000000	45.871800
1782.000000	45.867800
1781.000000	45.845900
1780.000000	45.805000
1779.000000	45.780100
1778.000000	45.745800
1777.000000	45.705400
1776.000000	45.665500
1775.000000	45.607700
1774.000000	45.543400
1773.000000	45.498900
1772.000000	45.456400
1771.000000	45.404700
1770.000000	45.346200
1769.000000	45.292400
1768.000000	45.253500
1767.000000	45.212700
1766.000000	45.158100
1765.000000	45.115300
1764.000000	45.090400
1763.000000	45.066900
1762.000000	45.050800
1761.000000	45.020400
1760.000000	44.992600
1759.000000	44.981700
1758.000000	44.972300
1757.000000	44.959400
1756.000000	44.936100
1755.000000	44.928000
1754.000000	44.914800
1753.000000	44.895800
1752.000000	44.875400
1751.000000	44.833700
1750.000000	44.810900
1749.000000	44.755700
1748.000000	44.712500
1747.000000	44.650400
1746.000000	44.572600
1745.000000	44.504300
1744.000000	44.425700
1743.000000	44.336700
1742.000000	44.251200
1741.000000	44.188400
1740.000000	44.098600
1739.000000	44.034100
1738.000000	43.959700
1737.000000	43.899800
1736.000000	43.851000
1735.000000	43.792800
1734.000000	43.763700
1733.000000	43.702600
1732.000000	43.648500
1731.000000	43.619000
1730.000000	43.583300
1729.000000	43.521100
1728.000000	43.485000
1727.000000	43.470500
1726.000000	43.453200
1725.000000	43.439200
1724.000000	43.442800
1723.000000	43.515200
1722.000000	43.615700
1721.000000	43.762800
1720.000000	43.946300
1719.000000	44.165200
1718.000000	44.390800
1717.000000	44.608600
1716.000000	44.837500
1715.000000	45.054600
1714.000000	45.255000
1713.000000	45.435500
1712.000000	45.604200
1711.000000	45.747000
1710.000000	45.895300
1709.000000	45.998800
1708.000000	46.104900
1707.000000	46.197200
1706.000000	46.265300
1705.000000	46.332400
1704.000000	46.359100
1703.000000	46.393000
1702.000000	46.406800
1701.000000	46.435300
1700.000000	46.439300
1699.000000	46.429400
1698.000000	46.445500
1697.000000	46.434100
1696.000000	46.406300
1695.000000	46.360400
1694.000000	46.280800
1693.000000	46.213900
1692.000000	46.149700
1691.000000	46.085600
1690.000000	46.044700
1689.000000	46.058100
1688.000000	46.109900
1687.000000	46.204300
1686.000000	46.361000
1685.000000	46.544300
1684.000000	46.746800
1683.000000	46.968700
1682.000000	47.212000
1681.000000	47.460200
1680.000000	47.706300
1679.000000	47.910500
1678.000000	48.110100
1677.000000	48.324700
1676.000000	48.500800
1675.000000	48.699900
1674.000000	48.885400
1673.000000	49.084400
1672.000000	49.268100
1671.000000	49.441900
1670.000000	49.657200
1669.000000	49.850600
1668.000000	50.035500
1667.000000	50.215000
1666.000000	50.368600
1665.000000	50.546900
1664.000000	50.684500
1663.000000	50.821200
1662.000000	50.972400
1661.000000	51.099300
1660.000000	51.200400
1659.000000	51.300700
1658.000000	51.392000
1657.000000	51.466800
1656.000000	51.528800
1655.000000	51.572400
1654.000000	51.640300
1653.000000	51.676300
1652.000000	51.684300
1651.000000	51.700700
1650.000000	51.720300
1649.000000	51.699400
1648.000000	51.686100
1647.000000	51.684700
1646.000000	51.657700
1645.000000	51.662400
1644.000000	51.635100
1643.000000	51.625300
1642.000000	51.616400
1641.000000	51.613400
1640.000000	51.596700
1639.000000	51.576100
1638.000000	51.559900
1637.000000	51.534600
1636.000000	51.511000
1635.000000	51.479500
1634.000000	51.453500
1633.000000	51.415800
1632.000000	51.368100
1631.000000	51.328200
1630.000000	51.285000
1629.000000	51.240700
1628.000000	51.198900
1627.000000	51.138900
1626.000000	51.091400
1625.000000	51.052900
1624.000000	51.013500
