PE UV       SUBTECH     SPECTRUM    ASCII       PEDS        4.00        
   -1
CICIMAUCR0018-3.Sample.ASC
24/04/17
10:35:40.00
24/04/17
10:35:40.00
Vinicio Soto Monge
C. cupreomarginata
250,000000
1
Lambda 1050
1050L1511233
PerkinElmer UV WinLab 6.3.2.0749 / 2.02.05 Lambda 900 UV/VIS/NIR, Aug  7 2015 09:38:08

0
0
3350/servo 860,8/2
0
0
UV/VIS
1
1
1
DoubleDePol,CommonBeamDepol,RBeamAtt,SBeamAtt,60mm sphere, WB InGaAs Detector
0
0
0
0
Program
Program
3350/servo 860,8/2
3350/0,2 860,8/0,2
3350/0,2 860,8/0,2
0
15.00
 
 
 
0
 
860,8
319,2
860,8
Front
100
on
S:100 R:100
0
0
0
0
 
0
 
 
 
0
 
 
0
0
0
0
0
 
 
 
 
0
0


0
0
#HDR
-1
-1
#GR
nm
%R
1.0
0.0
2500,000000
-1,000000
2251
8
67,966100
4,192900
#DATA
2500.000000	15.283800
2499.000000	15.273900
2498.000000	15.100400
2497.000000	15.126100
2496.000000	15.100000
2495.000000	15.094900
2494.000000	15.075200
2493.000000	14.953900
2492.000000	14.937600
2491.000000	15.006000
2490.000000	15.069700
2489.000000	15.034100
2488.000000	14.980200
2487.000000	14.981300
2486.000000	14.966000
2485.000000	14.945800
2484.000000	15.001600
2483.000000	15.016700
2482.000000	15.003900
2481.000000	15.000900
2480.000000	15.041900
2479.000000	15.014100
2478.000000	15.128200
2477.000000	15.066500
2476.000000	15.038000
2475.000000	15.092900
2474.000000	15.180900
2473.000000	15.184200
2472.000000	15.197700
2471.000000	15.253500
2470.000000	15.320100
2469.000000	15.347900
2468.000000	15.397100
2467.000000	15.461000
2466.000000	15.476300
2465.000000	15.523800
2464.000000	15.574000
2463.000000	15.612900
2462.000000	15.657600
2461.000000	15.736100
2460.000000	15.777600
2459.000000	15.822500
2458.000000	15.921100
2457.000000	15.981400
2456.000000	16.044300
2455.000000	16.118600
2454.000000	16.204300
2453.000000	16.309500
2452.000000	16.377100
2451.000000	16.495900
2450.000000	16.581900
2449.000000	16.677400
2448.000000	16.772400
2447.000000	16.869100
2446.000000	16.969600
2445.000000	17.085600
2444.000000	17.192100
2443.000000	17.267900
2442.000000	17.379600
2441.000000	17.485900
2440.000000	17.589600
2439.000000	17.675900
2438.000000	17.759200
2437.000000	17.873100
2436.000000	17.966900
2435.000000	18.056300
2434.000000	18.133700
2433.000000	18.240500
2432.000000	18.314800
2431.000000	18.387900
2430.000000	18.481900
2429.000000	18.577200
2428.000000	18.636400
2427.000000	18.716000
2426.000000	18.801600
2425.000000	18.870900
2424.000000	18.929600
2423.000000	18.982200
2422.000000	19.055400
2421.000000	19.106300
2420.000000	19.156500
2419.000000	19.213800
2418.000000	19.283900
2417.000000	19.330000
2416.000000	19.379100
2415.000000	19.444900
2414.000000	19.499900
2413.000000	19.545900
2412.000000	19.597500
2411.000000	19.649000
2410.000000	19.673900
2409.000000	19.706100
2408.000000	19.743900
2407.000000	19.780200
2406.000000	19.807100
2405.000000	19.832800
2404.000000	19.859800
2403.000000	19.888400
2402.000000	19.905800
2401.000000	19.926500
2400.000000	19.970600
2399.000000	19.995500
2398.000000	19.999000
2397.000000	20.026700
2396.000000	20.036400
2395.000000	20.047200
2394.000000	20.065300
2393.000000	20.070600
2392.000000	20.078500
2391.000000	20.096300
2390.000000	20.097500
2389.000000	20.103400
2388.000000	20.107900
2387.000000	20.096700
2386.000000	20.090900
2385.000000	20.093400
2384.000000	20.092300
2383.000000	20.071400
2382.000000	20.069400
2381.000000	20.077800
2380.000000	20.055000
2379.000000	20.014200
2378.000000	20.007700
2377.000000	20.010300
2376.000000	19.987600
2375.000000	19.951900
2374.000000	19.927300
2373.000000	19.912800
2372.000000	19.904900
2371.000000	19.888400
2370.000000	19.871300
2369.000000	19.876700
2368.000000	19.872600
2367.000000	19.868900
2366.000000	19.873400
2365.000000	19.861500
2364.000000	19.853100
2363.000000	19.854400
2362.000000	19.851400
2361.000000	19.839800
2360.000000	19.847000
2359.000000	19.850000
2358.000000	19.831500
2357.000000	19.810000
2356.000000	19.791800
2355.000000	19.788300
2354.000000	19.774000
2353.000000	19.764300
2352.000000	19.768300
2351.000000	19.755400
2350.000000	19.739900
2349.000000	19.722900
2348.000000	19.715100
2347.000000	19.719500
2346.000000	19.700100
2345.000000	19.702800
2344.000000	19.692400
2343.000000	19.681100
2342.000000	19.683400
2341.000000	19.679600
2340.000000	19.684900
2339.000000	19.679200
2338.000000	19.686500
2337.000000	19.686100
2336.000000	19.693500
2335.000000	19.712900
2334.000000	19.716900
2333.000000	19.724900
2332.000000	19.737400
2331.000000	19.766700
2330.000000	19.809400
2329.000000	19.839800
2328.000000	19.846200
2327.000000	19.878300
2326.000000	19.895500
2325.000000	19.915400
2324.000000	19.959800
2323.000000	19.983500
2322.000000	19.985800
2321.000000	20.004000
2320.000000	20.013400
2319.000000	20.008000
2318.000000	19.991700
2317.000000	19.982200
2316.000000	19.967700
2315.000000	19.962200
2314.000000	19.939900
2313.000000	19.907500
2312.000000	19.883700
2311.000000	19.849000
2310.000000	19.822700
2309.000000	19.819100
2308.000000	19.793600
2307.000000	19.754100
2306.000000	19.722500
2305.000000	19.706400
2304.000000	19.696900
2303.000000	19.673800
2302.000000	19.683900
2301.000000	19.702300
2300.000000	19.700200
2299.000000	19.698300
2298.000000	19.722900
2297.000000	19.742700
2296.000000	19.742100
2295.000000	19.779100
2294.000000	19.794900
2293.000000	19.832700
2292.000000	19.857800
2291.000000	19.886400
2290.000000	19.934700
2289.000000	19.974300
2288.000000	20.001500
2287.000000	20.032600
2286.000000	20.061200
2285.000000	20.116500
2284.000000	20.180200
2283.000000	20.212300
2282.000000	20.248600
2281.000000	20.279900
2280.000000	20.332700
2279.000000	20.355200
2278.000000	20.363400
2277.000000	20.410200
2276.000000	20.467100
2275.000000	20.473100
2274.000000	20.524000
2273.000000	20.548300
2272.000000	20.599800
2271.000000	20.618700
2270.000000	20.680200
2269.000000	20.736700
2268.000000	20.790500
2267.000000	20.874900
2266.000000	20.936700
2265.000000	21.039100
2264.000000	21.139600
2263.000000	21.271800
2262.000000	21.392100
2261.000000	21.510900
2260.000000	21.652600
2259.000000	21.869000
2258.000000	22.003000
2257.000000	22.158800
2256.000000	22.327700
2255.000000	22.500400
2254.000000	22.721400
2253.000000	22.903300
2252.000000	23.061700
2251.000000	23.242400
2250.000000	23.410300
2249.000000	23.607700
2248.000000	23.753600
2247.000000	23.893200
2246.000000	24.033100
2245.000000	24.145900
2244.000000	24.299900
2243.000000	24.422000
2242.000000	24.526800
2241.000000	24.587100
2240.000000	24.700900
2239.000000	24.743400
2238.000000	24.807300
2237.000000	24.848300
2236.000000	24.875500
2235.000000	24.892100
2234.000000	24.933900
2233.000000	24.943700
2232.000000	24.922500
2231.000000	24.919600
2230.000000	24.902100
2229.000000	24.846700
2228.000000	24.831200
2227.000000	24.793000
2226.000000	24.736500
2225.000000	24.680500
2224.000000	24.637500
2223.000000	24.554900
2222.000000	24.486900
2221.000000	24.386400
2220.000000	24.328100
2219.000000	24.253200
2218.000000	24.167200
2217.000000	24.117500
2216.000000	24.045800
2215.000000	23.955400
2214.000000	23.891800
2213.000000	23.807300
2212.000000	23.725200
2211.000000	23.666300
2210.000000	23.615800
2209.000000	23.548000
2208.000000	23.494100
2207.000000	23.441400
2206.000000	23.393100
2205.000000	23.352200
2204.000000	23.304400
2203.000000	23.280800
2202.000000	23.246200
2201.000000	23.182200
2200.000000	23.152600
2199.000000	23.110200
2198.000000	23.106100
2197.000000	23.069100
2196.000000	23.007900
2195.000000	22.986400
2194.000000	22.963200
2193.000000	22.971300
2192.000000	22.940400
2191.000000	22.916200
2190.000000	22.876000
2189.000000	22.834900
2188.000000	22.821800
2187.000000	22.779300
2186.000000	22.745800
2185.000000	22.715900
2184.000000	22.685400
2183.000000	22.663200
2182.000000	22.655800
2181.000000	22.628600
2180.000000	22.608100
2179.000000	22.560600
2178.000000	22.560900
2177.000000	22.532800
2176.000000	22.525600
2175.000000	22.524800
2174.000000	22.500100
2173.000000	22.482800
2172.000000	22.499100
2171.000000	22.535400
2170.000000	22.550400
2169.000000	22.542500
2168.000000	22.551400
2167.000000	22.577600
2166.000000	22.599000
2165.000000	22.624700
2164.000000	22.649100
2163.000000	22.708800
2162.000000	22.770500
2161.000000	22.824200
2160.000000	22.883900
2159.000000	22.964600
2158.000000	23.029000
2157.000000	23.121000
2156.000000	23.222900
2155.000000	23.309300
2154.000000	23.393200
2153.000000	23.489900
2152.000000	23.611100
2151.000000	23.735000
2150.000000	23.826300
2149.000000	23.909500
2148.000000	24.032500
2147.000000	24.137900
2146.000000	24.253800
2145.000000	24.363200
2144.000000	24.470900
2143.000000	24.565700
2142.000000	24.672100
2141.000000	24.777700
2140.000000	24.882700
2139.000000	24.994700
2138.000000	25.102700
2137.000000	25.201000
2136.000000	25.299900
2135.000000	25.404800
2134.000000	25.505700
2133.000000	25.574300
2132.000000	25.653500
2131.000000	25.740100
2130.000000	25.822200
2129.000000	25.884000
2128.000000	25.957200
2127.000000	26.041100
2126.000000	26.105300
2125.000000	26.145100
2124.000000	26.220300
2123.000000	26.296400
2122.000000	26.353700
2121.000000	26.412000
2120.000000	26.438400
2119.000000	26.473300
2118.000000	26.512700
2117.000000	26.536200
2116.000000	26.574000
2115.000000	26.606500
2114.000000	26.624100
2113.000000	26.656700
2112.000000	26.668300
2111.000000	26.685300
2110.000000	26.704500
2109.000000	26.726300
2108.000000	26.741000
2107.000000	26.741500
2106.000000	26.762400
2105.000000	26.761900
2104.000000	26.754100
2103.000000	26.773200
2102.000000	26.796300
2101.000000	26.806800
2100.000000	26.810400
2099.000000	26.808300
2098.000000	26.813600
2097.000000	26.836300
2096.000000	26.869400
2095.000000	26.890200
2094.000000	26.902300
2093.000000	26.912100
2092.000000	26.936600
2091.000000	26.959900
2090.000000	26.977500
2089.000000	26.991800
2088.000000	27.005300
2087.000000	27.014500
2086.000000	27.012000
2085.000000	27.002000
2084.000000	26.992700
2083.000000	26.985100
2082.000000	26.973100
2081.000000	26.933700
2080.000000	26.906300
2079.000000	26.866500
2078.000000	26.796000
2077.000000	26.730500
2076.000000	26.673200
2075.000000	26.592000
2074.000000	26.514500
2073.000000	26.430400
2072.000000	26.326500
2071.000000	26.235800
2070.000000	26.145700
2069.000000	26.032200
2068.000000	25.911100
2067.000000	25.792700
2066.000000	25.661800
2065.000000	25.551200
2064.000000	25.440600
2063.000000	25.329400
2062.000000	25.237100
2061.000000	25.150200
2060.000000	25.059800
2059.000000	24.976700
2058.000000	24.909400
2057.000000	24.843300
2056.000000	24.815000
2055.000000	24.824800
2054.000000	24.826300
2053.000000	24.844900
2052.000000	24.899500
2051.000000	24.985400
2050.000000	25.060400
2049.000000	25.171600
2048.000000	25.284000
2047.000000	25.427200
2046.000000	25.564900
2045.000000	25.708200
2044.000000	25.873900
2043.000000	26.053400
2042.000000	26.222800
2041.000000	26.391400
2040.000000	26.563100
2039.000000	26.707100
2038.000000	26.841900
2037.000000	27.010800
2036.000000	27.166400
2035.000000	27.304600
2034.000000	27.436500
2033.000000	27.553300
2032.000000	27.686200
2031.000000	27.813300
2030.000000	27.894700
2029.000000	28.001900
2028.000000	28.083400
2027.000000	28.212900
2026.000000	28.335900
2025.000000	28.403800
2024.000000	28.468000
2023.000000	28.522700
2022.000000	28.619000
2021.000000	28.712900
2020.000000	28.757400
2019.000000	28.808100
2018.000000	28.857900
2017.000000	28.896600
2016.000000	28.936800
2015.000000	28.982800
2014.000000	29.007000
2013.000000	29.037900
2012.000000	29.045400
2011.000000	29.072300
2010.000000	29.059000
2009.000000	29.080600
2008.000000	29.059400
2007.000000	29.034600
2006.000000	29.022900
2005.000000	28.981500
2004.000000	28.962300
2003.000000	28.928200
2002.000000	28.904000
2001.000000	28.865700
2000.000000	28.778600
1999.000000	28.694400
1998.000000	28.666300
1997.000000	28.639100
1996.000000	28.532800
1995.000000	28.433700
1994.000000	28.389100
1993.000000	28.281500
1992.000000	28.196800
1991.000000	28.118300
1990.000000	28.039500
1989.000000	27.930000
1988.000000	27.838500
1987.000000	27.728700
1986.000000	27.617000
1985.000000	27.541900
1984.000000	27.429400
1983.000000	27.328800
1982.000000	27.240900
1981.000000	27.125800
1980.000000	27.016400
1979.000000	26.928000
1978.000000	26.839500
1977.000000	26.758600
1976.000000	26.663600
1975.000000	26.551200
1974.000000	26.438800
1973.000000	26.354700
1972.000000	26.280300
1971.000000	26.205000
1970.000000	26.109900
1969.000000	26.006100
1968.000000	25.927400
1967.000000	25.842400
1966.000000	25.726900
1965.000000	25.661500
1964.000000	25.561200
1963.000000	25.446100
1962.000000	25.346100
1961.000000	25.253600
1960.000000	25.168800
1959.000000	25.045200
1958.000000	24.931300
1957.000000	24.827000
1956.000000	24.722300
1955.000000	24.631700
1954.000000	24.569000
1953.000000	24.486100
1952.000000	24.368200
1951.000000	24.276300
1950.000000	24.197100
1949.000000	24.094800
1948.000000	23.994600
1947.000000	23.889300
1946.000000	23.788200
1945.000000	23.729900
1944.000000	23.667800
1943.000000	23.600900
1942.000000	23.519900
1941.000000	23.481100
1940.000000	23.381200
1939.000000	23.379200
1938.000000	23.361900
1937.000000	23.364900
1936.000000	23.366400
1935.000000	23.335900
1934.000000	23.326800
1933.000000	23.356800
1932.000000	23.361300
1931.000000	23.399700
1930.000000	23.420800
1929.000000	23.485300
1928.000000	23.573700
1927.000000	23.721200
1926.000000	23.846200
1925.000000	23.969700
1924.000000	24.063100
1923.000000	24.120900
1922.000000	24.256000
1921.000000	24.534600
1920.000000	24.848300
1919.000000	25.043900
1918.000000	25.304900
1917.000000	25.446200
1916.000000	25.549200
1915.000000	25.713900
1914.000000	26.078400
1913.000000	26.511400
1912.000000	26.926700
1911.000000	27.300300
1910.000000	27.653800
1909.000000	27.817000
1908.000000	28.065000
1907.000000	28.428000
1906.000000	28.939200
1905.000000	29.572400
1904.000000	30.141600
1903.000000	30.620700
1902.000000	31.076400
1901.000000	31.493200
1900.000000	32.130500
1899.000000	32.905300
1898.000000	33.609900
1897.000000	34.282300
1896.000000	34.724600
1895.000000	35.068800
1894.000000	35.543800
1893.000000	36.095600
1892.000000	36.770400
1891.000000	37.483900
1890.000000	38.115300
1889.000000	38.640100
1888.000000	39.177700
1887.000000	39.601100
1886.000000	40.056300
1885.000000	40.556400
1884.000000	41.118800
1883.000000	41.599600
1882.000000	42.007000
1881.000000	42.380400
1880.000000	42.621400
1879.000000	42.848400
1878.000000	43.117500
1877.000000	43.358500
1876.000000	43.541100
1875.000000	43.766800
1874.000000	43.986900
1873.000000	44.264200
1872.000000	44.555700
1871.000000	44.909900
1870.000000	45.340900
1869.000000	45.699400
1868.000000	45.918100
1867.000000	46.113500
1866.000000	46.107000
1865.000000	46.154800
1864.000000	46.139000
1863.000000	46.093000
1862.000000	46.123700
1861.000000	46.190400
1860.000000	46.312100
1859.000000	46.459000
1858.000000	46.606900
1857.000000	46.647800
1856.000000	46.561800
1855.000000	46.605800
1854.000000	46.785500
1853.000000	46.847400
1852.000000	46.879900
1851.000000	46.819200
1850.000000	46.598200
1849.000000	46.507300
1848.000000	46.746500
1847.000000	47.092400
1846.000000	47.198700
1845.000000	47.008300
1844.000000	46.665400
1843.000000	46.471000
1842.000000	46.582200
1841.000000	46.795800
1840.000000	46.821000
1839.000000	46.707100
1838.000000	46.605600
1837.000000	46.680500
1836.000000	46.848500
1835.000000	46.935400
1834.000000	46.837800
1833.000000	46.625400
1832.000000	46.490000
1831.000000	46.479800
1830.000000	46.551000
1829.000000	46.564000
1828.000000	46.493600
1827.000000	46.481700
1826.000000	46.574900
1825.000000	46.583000
1824.000000	46.474900
1823.000000	46.287000
1822.000000	46.246800
1821.000000	46.428200
1820.000000	46.623900
1819.000000	46.641400
1818.000000	46.518300
1817.000000	46.432800
1816.000000	46.466200
1815.000000	46.512700
1814.000000	46.505500
1813.000000	46.448900
1812.000000	46.416500
1811.000000	46.466400
1810.000000	46.471200
1809.000000	46.386700
1808.000000	46.296400
1807.000000	46.298300
1806.000000	46.319600
1805.000000	46.308800
1804.000000	46.267500
1803.000000	46.204600
1802.000000	46.181400
1801.000000	46.189600
1800.000000	46.208100
1799.000000	46.207800
1798.000000	46.158200
1797.000000	46.128800
1796.000000	46.112200
1795.000000	46.099100
1794.000000	46.085800
1793.000000	46.048300
1792.000000	46.027900
1791.000000	46.026600
1790.000000	46.013500
1789.000000	46.003200
1788.000000	46.001800
1787.000000	46.008500
1786.000000	46.008800
1785.000000	45.999000
1784.000000	46.000300
1783.000000	45.997200
1782.000000	45.982600
1781.000000	45.964600
1780.000000	45.966200
1779.000000	45.968200
1778.000000	45.920400
1777.000000	45.873400
1776.000000	45.826600
1775.000000	45.794000
1774.000000	45.744900
1773.000000	45.691700
1772.000000	45.675000
1771.000000	45.626900
1770.000000	45.587300
1769.000000	45.542200
1768.000000	45.502500
1767.000000	45.465300
1766.000000	45.449800
1765.000000	45.432700
1764.000000	45.415500
1763.000000	45.386900
1762.000000	45.382900
1761.000000	45.363500
1760.000000	45.336400
1759.000000	45.327600
1758.000000	45.309100
1757.000000	45.303000
1756.000000	45.303100
1755.000000	45.291400
1754.000000	45.271700
1753.000000	45.291400
1752.000000	45.290400
1751.000000	45.255900
1750.000000	45.217700
1749.000000	45.160000
1748.000000	45.118300
1747.000000	45.078100
1746.000000	45.017800
1745.000000	44.918300
1744.000000	44.863800
1743.000000	44.796200
1742.000000	44.702500
1741.000000	44.627600
1740.000000	44.585400
1739.000000	44.530100
1738.000000	44.454500
1737.000000	44.404700
1736.000000	44.363200
1735.000000	44.331200
1734.000000	44.275200
1733.000000	44.248000
1732.000000	44.216900
1731.000000	44.175400
1730.000000	44.150500
1729.000000	44.111100
1728.000000	44.060700
1727.000000	44.005300
1726.000000	43.970600
1725.000000	43.952100
1724.000000	43.951700
1723.000000	43.994200
1722.000000	44.076800
1721.000000	44.218400
1720.000000	44.366100
1719.000000	44.531900
1718.000000	44.726700
1717.000000	44.931300
1716.000000	45.136100
1715.000000	45.356500
1714.000000	45.515400
1713.000000	45.671200
1712.000000	45.855200
1711.000000	46.006700
1710.000000	46.125100
1709.000000	46.229500
1708.000000	46.326400
1707.000000	46.389100
1706.000000	46.436600
1705.000000	46.480300
1704.000000	46.540500
1703.000000	46.598800
1702.000000	46.585300
1701.000000	46.582800
1700.000000	46.585900
1699.000000	46.560100
1698.000000	46.549800
1697.000000	46.547000
1696.000000	46.517900
1695.000000	46.481700
1694.000000	46.450400
1693.000000	46.382100
1692.000000	46.345500
1691.000000	46.284400
1690.000000	46.209400
1689.000000	46.196700
1688.000000	46.189400
1687.000000	46.257100
1686.000000	46.381000
1685.000000	46.540900
1684.000000	46.719300
1683.000000	46.921600
1682.000000	47.134600
1681.000000	47.361500
1680.000000	47.582300
1679.000000	47.788700
1678.000000	47.978900
1677.000000	48.169400
1676.000000	48.360800
1675.000000	48.529700
1674.000000	48.720100
1673.000000	48.882000
1672.000000	49.052400
1671.000000	49.198600
1670.000000	49.381100
1669.000000	49.546300
1668.000000	49.719400
1667.000000	49.915900
1666.000000	50.045400
1665.000000	50.169800
1664.000000	50.297900
1663.000000	50.438100
1662.000000	50.549800
1661.000000	50.652100
1660.000000	50.766700
1659.000000	50.839500
1658.000000	50.940500
1657.000000	50.995700
1656.000000	51.048800
1655.000000	51.092000
1654.000000	51.120400
1653.000000	51.133400
1652.000000	51.150700
1651.000000	51.193200
1650.000000	51.227600
1649.000000	51.196100
1648.000000	51.187300
1647.000000	51.185300
1646.000000	51.185100
1645.000000	51.152900
1644.000000	51.145100
1643.000000	51.128700
1642.000000	51.115100
1641.000000	51.111100
1640.000000	51.122400
1639.000000	51.109300
1638.000000	51.089200
1637.000000	51.076600
1636.000000	51.060500
1635.000000	51.039200
1634.000000	51.015600
1633.000000	51.009300
1632.000000	50.975600
1631.000000	50.949200
1630.000000	50.910400
1629.000000	50.854400
1628.000000	50.818800
1627.000000	50.790000
1626.000000	50.744100
1625.000000	50.704300
