PE UV       SUBTECH     SPECTRUM    ASCII       PEDS        4.00        
   -1
CICIMAUCR0112-2.Sample.ASC
24/04/19
17:16:39.00
24/04/19
17:16:39.00
Vinicio Soto Monge
C. resplendens
250,000000
1
Lambda 1050
1050L1511233
PerkinElmer UV WinLab 6.3.2.0749 / 2.02.05 Lambda 900 UV/VIS/NIR, Aug  7 2015 09:38:08

0
0
3350/servo 860,8/2
0
0
UV/VIS
1
1
1
DoubleDePol,CommonBeamDepol,RBeamAtt,SBeamAtt,60mm sphere, WB InGaAs Detector
0
0
0
0
Program
Program
3350/servo 860,8/2
3350/0,2 860,8/0,2
3350/0,2 860,8/0,2
0
15.00
 
 
 
0
 
860,8
319,2
860,8
Front
100
on
S:100 R:100
0
0
0
0
 
0
 
 
 
0
 
 
0
0
0
0
0
 
 
 
 
0
0


0
0
#HDR
-1
-1
#GR
nm
%R
1.0
0.0
2500,000000
-1,000000
2251
8
89,711800
5,376500
#DATA
2500.000000	9.334063
2499.000000	9.403985
2498.000000	9.337269
2497.000000	9.317823
2496.000000	9.293205
2495.000000	9.247073
2494.000000	9.263933
2493.000000	9.272415
2492.000000	9.214284
2491.000000	9.197113
2490.000000	9.057785
2489.000000	9.166496
2488.000000	9.129259
2487.000000	9.087885
2486.000000	9.085299
2485.000000	9.023755
2484.000000	9.098849
2483.000000	9.117364
2482.000000	9.051786
2481.000000	9.074025
2480.000000	9.048269
2479.000000	9.010101
2478.000000	9.045786
2477.000000	9.023341
2476.000000	8.994379
2475.000000	9.061509
2474.000000	9.026444
2473.000000	9.054372
2472.000000	9.040615
2471.000000	9.015790
2470.000000	9.059647
2469.000000	9.075679
2468.000000	9.067508
2467.000000	9.084368
2466.000000	9.119950
2465.000000	9.120984
2464.000000	9.164634
2463.000000	9.185839
2462.000000	9.234557
2461.000000	9.270346
2460.000000	9.299825
2459.000000	9.370162
2458.000000	9.450428
2457.000000	9.501836
2456.000000	9.593790
2455.000000	9.646129
2454.000000	9.714190
2453.000000	9.790008
2452.000000	9.860862
2451.000000	9.962022
2450.000000	10.068355
2449.000000	10.161550
2448.000000	10.227439
2447.000000	10.322186
2446.000000	10.419106
2445.000000	10.518611
2444.000000	10.597947
2443.000000	10.690936
2442.000000	10.781546
2441.000000	10.893670
2440.000000	10.965248
2439.000000	11.047997
2438.000000	11.147502
2437.000000	11.221666
2436.000000	11.289933
2435.000000	11.371855
2434.000000	11.457810
2433.000000	11.518320
2432.000000	11.583692
2431.000000	11.652787
2430.000000	11.716607
2429.000000	11.783220
2428.000000	11.832145
2427.000000	11.885207
2426.000000	11.931237
2425.000000	11.983989
2424.000000	12.029501
2423.000000	12.064152
2422.000000	12.081115
2421.000000	12.104285
2420.000000	12.132419
2419.000000	12.187241
2418.000000	12.224477
2417.000000	12.236786
2416.000000	12.273196
2415.000000	12.297296
2414.000000	12.319328
2413.000000	12.332982
2412.000000	12.369598
2411.000000	12.382010
2410.000000	12.407456
2409.000000	12.449864
2408.000000	12.470655
2407.000000	12.479964
2406.000000	12.518339
2405.000000	12.529510
2404.000000	12.556300
2403.000000	12.593330
2402.000000	12.621879
2401.000000	12.645048
2400.000000	12.654564
2399.000000	12.680940
2398.000000	12.712178
2397.000000	12.739796
2396.000000	12.756138
2395.000000	12.794513
2394.000000	12.834026
2393.000000	12.832578
2392.000000	12.854092
2391.000000	12.880675
2390.000000	12.885744
2389.000000	12.896604
2388.000000	12.906534
2387.000000	12.903638
2386.000000	12.898984
2385.000000	12.896811
2384.000000	12.882330
2383.000000	12.860298
2382.000000	12.851093
2381.000000	12.841473
2380.000000	12.813752
2379.000000	12.784480
2378.000000	12.757587
2377.000000	12.724694
2376.000000	12.691801
2375.000000	12.656840
2374.000000	12.627774
2373.000000	12.591365
2372.000000	12.540992
2371.000000	12.496721
2370.000000	12.452347
2369.000000	12.400215
2368.000000	12.336395
2367.000000	12.262439
2366.000000	12.196136
2365.000000	12.124248
2364.000000	12.039948
2363.000000	11.959888
2362.000000	11.885311
2361.000000	11.807527
2360.000000	11.727778
2359.000000	11.645133
2358.000000	11.551213
2357.000000	11.486772
2356.000000	11.454293
2355.000000	11.397610
2354.000000	11.349306
2353.000000	11.331411
2352.000000	11.319102
2351.000000	11.324584
2350.000000	11.340824
2349.000000	11.344961
2348.000000	11.365959
2347.000000	11.412712
2346.000000	11.448604
2345.000000	11.500012
2344.000000	11.553695
2343.000000	11.593311
2342.000000	11.626411
2341.000000	11.656821
2340.000000	11.682163
2339.000000	11.698712
2338.000000	11.703264
2337.000000	11.705643
2336.000000	11.683300
2335.000000	11.653925
2334.000000	11.633651
2333.000000	11.582347
2332.000000	11.549351
2331.000000	11.497426
2330.000000	11.435261
2329.000000	11.356546
2328.000000	11.260454
2327.000000	11.188670
2326.000000	11.134469
2325.000000	11.038274
2324.000000	10.929769
2323.000000	10.835850
2322.000000	10.716588
2321.000000	10.606532
2320.000000	10.465342
2319.000000	10.357044
2318.000000	10.236024
2317.000000	10.091214
2316.000000	9.962022
2315.000000	9.819591
2314.000000	9.699502
2313.000000	9.577758
2312.000000	9.479494
2311.000000	9.378747
2310.000000	9.296826
2309.000000	9.215318
2308.000000	9.159773
2307.000000	9.134224
2306.000000	9.102056
2305.000000	9.119536
2304.000000	9.149843
2303.000000	9.194734
2302.000000	9.263312
2301.000000	9.352888
2300.000000	9.448980
2299.000000	9.527902
2298.000000	9.651611
2297.000000	9.758150
2296.000000	9.846484
2295.000000	9.933681
2294.000000	10.033290
2293.000000	10.104661
2292.000000	10.138794
2291.000000	10.187202
2290.000000	10.215854
2289.000000	10.242127
2288.000000	10.228784
2287.000000	10.241817
2286.000000	10.216682
2285.000000	10.182341
2284.000000	10.150793
2283.000000	10.106833
2282.000000	10.047771
2281.000000	10.011982
2280.000000	9.955299
2279.000000	9.891893
2278.000000	9.855690
2277.000000	9.799111
2276.000000	9.778010
2275.000000	9.735394
2274.000000	9.715224
2273.000000	9.718638
2272.000000	9.696813
2271.000000	9.727740
2270.000000	9.756185
2269.000000	9.842244
2268.000000	9.895616
2267.000000	9.987364
2266.000000	10.091938
2265.000000	10.242748
2264.000000	10.410107
2263.000000	10.615531
2262.000000	10.833677
2261.000000	11.065064
2260.000000	11.336687
2259.000000	11.613274
2258.000000	11.897206
2257.000000	12.198619
2256.000000	12.508823
2255.000000	12.807236
2254.000000	13.122198
2253.000000	13.441816
2252.000000	13.718300
2251.000000	13.977717
2250.000000	14.231860
2249.000000	14.494070
2248.000000	14.723801
2247.000000	14.951050
2246.000000	15.139717
2245.000000	15.323626
2244.000000	15.530084
2243.000000	15.669930
2242.000000	15.833462
2241.000000	15.961412
2240.000000	16.115015
2239.000000	16.227967
2238.000000	16.343298
2237.000000	16.433805
2236.000000	16.542619
2235.000000	16.625678
2234.000000	16.719908
2233.000000	16.766662
2232.000000	16.842273
2231.000000	16.890888
2230.000000	16.910748
2229.000000	16.944778
2228.000000	16.976119
2227.000000	16.994841
2226.000000	16.989670
2225.000000	16.980567
2224.000000	16.978395
2223.000000	16.960914
2222.000000	16.933607
2221.000000	16.901128
2220.000000	16.886234
2219.000000	16.853548
2218.000000	16.822620
2217.000000	16.787659
2216.000000	16.752181
2215.000000	16.707393
2214.000000	16.675845
2213.000000	16.634367
2212.000000	16.609646
2211.000000	16.570340
2210.000000	16.532483
2209.000000	16.524725
2208.000000	16.473214
2207.000000	16.471145
2206.000000	16.433391
2205.000000	16.415083
2204.000000	16.389948
2203.000000	16.368640
2202.000000	16.378259
2201.000000	16.334506
2200.000000	16.334299
2199.000000	16.326438
2198.000000	16.312578
2197.000000	16.311750
2196.000000	16.299338
2195.000000	16.296648
2194.000000	16.306785
2193.000000	16.273686
2192.000000	16.296545
2191.000000	16.289098
2190.000000	16.273996
2189.000000	16.259618
2188.000000	16.243896
2187.000000	16.250619
2186.000000	16.227243
2185.000000	16.198177
2184.000000	16.215658
2183.000000	16.184938
2182.000000	16.164768
2181.000000	16.148425
2180.000000	16.143046
2179.000000	16.117187
2178.000000	16.112946
2177.000000	16.120290
2176.000000	16.123497
2175.000000	16.109119
2174.000000	16.107981
2173.000000	16.126083
2172.000000	16.138598
2171.000000	16.137978
2170.000000	16.159699
2169.000000	16.185972
2168.000000	16.196936
2167.000000	16.228381
2166.000000	16.260549
2165.000000	16.281133
2164.000000	16.312474
2163.000000	16.350539
2162.000000	16.387982
2161.000000	16.419427
2160.000000	16.460284
2159.000000	16.493073
2158.000000	16.533000
2157.000000	16.598888
2156.000000	16.641297
2155.000000	16.681430
2154.000000	16.755801
2153.000000	16.810829
2152.000000	16.855616
2151.000000	16.933711
2150.000000	17.002702
2149.000000	17.054110
2148.000000	17.099622
2147.000000	17.141514
2146.000000	17.194783
2145.000000	17.249604
2144.000000	17.291909
2143.000000	17.334835
2142.000000	17.389553
2141.000000	17.414481
2140.000000	17.449029
2139.000000	17.495575
2138.000000	17.527123
2137.000000	17.560119
2136.000000	17.597356
2135.000000	17.614319
2134.000000	17.631179
2133.000000	17.659728
2132.000000	17.686518
2131.000000	17.692620
2130.000000	17.696137
2129.000000	17.698516
2128.000000	17.719307
2127.000000	17.712584
2126.000000	17.708963
2125.000000	17.704826
2124.000000	17.682380
2123.000000	17.670589
2122.000000	17.660245
2121.000000	17.650936
2120.000000	17.626215
2119.000000	17.601390
2118.000000	17.560533
2117.000000	17.540052
2116.000000	17.519262
2115.000000	17.472095
2114.000000	17.441064
2113.000000	17.417998
2112.000000	17.392346
2111.000000	17.353247
2110.000000	17.301012
2109.000000	17.274429
2108.000000	17.255603
2107.000000	17.235123
2106.000000	17.199955
2105.000000	17.160959
2104.000000	17.126929
2103.000000	17.087313
2102.000000	17.056489
2101.000000	17.023493
2100.000000	16.988739
2099.000000	16.961225
2098.000000	16.924919
2097.000000	16.902576
2096.000000	16.891819
2095.000000	16.863995
2094.000000	16.849617
2093.000000	16.827689
2092.000000	16.796865
2091.000000	16.780315
2090.000000	16.770696
2089.000000	16.762421
2088.000000	16.752594
2087.000000	16.755697
2086.000000	16.742871
2085.000000	16.704290
2084.000000	16.691050
2083.000000	16.679879
2082.000000	16.662191
2081.000000	16.637780
2080.000000	16.611921
2079.000000	16.571478
2078.000000	16.541895
2077.000000	16.518726
2076.000000	16.486557
2075.000000	16.453251
2074.000000	16.411462
2073.000000	16.380638
2072.000000	16.336575
2071.000000	16.295407
2070.000000	16.269962
2069.000000	16.240793
2068.000000	16.190627
2067.000000	16.149976
2066.000000	16.111808
2065.000000	16.086053
2064.000000	16.055850
2063.000000	16.009924
2062.000000	15.990995
2061.000000	15.975583
2060.000000	15.969067
2059.000000	15.965343
2058.000000	15.963585
2057.000000	15.983444
2056.000000	16.036610
2055.000000	16.080881
2054.000000	16.131358
2053.000000	16.216486
2052.000000	16.293235
2051.000000	16.404222
2050.000000	16.544998
2049.000000	16.654640
2048.000000	16.789624
2047.000000	16.964431
2046.000000	17.137480
2045.000000	17.336283
2044.000000	17.505815
2043.000000	17.678450
2042.000000	17.877874
2041.000000	18.070989
2040.000000	18.265552
2039.000000	18.449151
2038.000000	18.618786
2037.000000	18.784697
2036.000000	18.966952
2035.000000	19.116210
2034.000000	19.270123
2033.000000	19.448343
2032.000000	19.569466
2031.000000	19.722862
2030.000000	19.854639
2029.000000	19.994071
2028.000000	20.113229
2027.000000	20.224733
2026.000000	20.355993
2025.000000	20.458809
2024.000000	20.562348
2023.000000	20.680679
2022.000000	20.772116
2021.000000	20.875139
2020.000000	20.966886
2019.000000	21.032154
2018.000000	21.138900
2017.000000	21.234889
2016.000000	21.299433
2015.000000	21.379492
2014.000000	21.450243
2013.000000	21.490789
2012.000000	21.555334
2011.000000	21.589467
2010.000000	21.632393
2009.000000	21.683180
2008.000000	21.724451
2007.000000	21.744208
2006.000000	21.748242
2005.000000	21.750414
2004.000000	21.776480
2003.000000	21.775859
2002.000000	21.759206
2001.000000	21.742760
2000.000000	21.733140
1999.000000	21.721452
1998.000000	21.676354
1997.000000	21.666113
1996.000000	21.615740
1995.000000	21.571470
1994.000000	21.528130
1993.000000	21.472274
1992.000000	21.432865
1991.000000	21.341325
1990.000000	21.271609
1989.000000	21.202410
1988.000000	21.141176
1987.000000	21.068771
1986.000000	20.981884
1985.000000	20.911445
1984.000000	20.825903
1983.000000	20.759083
1982.000000	20.660199
1981.000000	20.562762
1980.000000	20.500493
1979.000000	20.376991
1978.000000	20.293311
1977.000000	20.219975
1976.000000	20.142605
1975.000000	20.045168
1974.000000	19.967178
1973.000000	19.872327
1972.000000	19.808610
1971.000000	19.703002
1970.000000	19.619840
1969.000000	19.556640
1968.000000	19.443585
1967.000000	19.383695
1966.000000	19.295051
1965.000000	19.215508
1964.000000	19.149309
1963.000000	19.058389
1962.000000	18.982570
1961.000000	18.901477
1960.000000	18.794834
1959.000000	18.730290
1958.000000	18.666780
1957.000000	18.563448
1956.000000	18.496939
1955.000000	18.410570
1954.000000	18.329269
1953.000000	18.249313
1952.000000	18.180321
1951.000000	18.103468
1950.000000	18.049268
1949.000000	17.981724
1948.000000	17.937660
1947.000000	17.884494
1946.000000	17.830294
1945.000000	17.769680
1944.000000	17.745993
1943.000000	17.728513
1942.000000	17.728926
1941.000000	17.717652
1940.000000	17.703998
1939.000000	17.704516
1938.000000	17.705653
1937.000000	17.725203
1936.000000	17.744235
1935.000000	17.789023
1934.000000	17.855118
1933.000000	17.913042
1932.000000	18.033442
1931.000000	18.120432
1930.000000	18.223350
1929.000000	18.320787
1928.000000	18.448220
1927.000000	18.549898
1926.000000	18.696673
1925.000000	18.859378
1924.000000	19.042874
1923.000000	19.220163
1922.000000	19.397245
1921.000000	19.603497
1920.000000	19.815230
1919.000000	19.991485
1918.000000	20.234973
1917.000000	20.485806
1916.000000	20.753291
1915.000000	21.013846
1914.000000	21.312362
1913.000000	21.562160
1912.000000	21.839782
1911.000000	22.105303
1910.000000	22.401130
1909.000000	22.708334
1908.000000	23.030951
1907.000000	23.368670
1906.000000	23.716318
1905.000000	24.051140
1904.000000	24.382446
1903.000000	24.721716
1902.000000	25.056538
1901.000000	25.420943
1900.000000	25.785865
1899.000000	26.124721
1898.000000	26.467405
1897.000000	26.843601
1896.000000	27.178424
1895.000000	27.535381
1894.000000	27.908061
1893.000000	28.263777
1892.000000	28.611012
1891.000000	28.940145
1890.000000	29.287587
1889.000000	29.640820
1888.000000	29.998399
1887.000000	30.379353
1886.000000	30.798476
1885.000000	31.261042
1884.000000	31.770877
1883.000000	32.271301
1882.000000	32.784447
1881.000000	33.333588
1880.000000	33.827392
1879.000000	34.319333
1878.000000	34.790381
1877.000000	35.217778
1876.000000	35.619834
1875.000000	35.982790
1874.000000	36.312337
1873.000000	36.606509
1872.000000	36.865720
1871.000000	37.072178
1870.000000	37.203645
1869.000000	37.339457
1868.000000	37.485508
1867.000000	37.569602
1866.000000	37.623906
1865.000000	37.685450
1864.000000	37.756821
1863.000000	37.830881
1862.000000	37.876186
1861.000000	37.910837
1860.000000	37.914457
1859.000000	37.866980
1858.000000	37.823847
1857.000000	37.807091
1856.000000	37.762820
1855.000000	37.697759
1854.000000	37.610045
1853.000000	37.494197
1852.000000	37.423654
1851.000000	37.396243
1850.000000	37.392002
1849.000000	37.345663
1848.000000	37.184406
1847.000000	37.002255
1846.000000	36.858790
1845.000000	36.797142
1844.000000	36.796625
1843.000000	36.824346
1842.000000	36.789074
1841.000000	36.687810
1840.000000	36.598131
1839.000000	36.539069
1838.000000	36.478559
1837.000000	36.383708
1836.000000	36.263826
1835.000000	36.132566
1834.000000	36.024061
1833.000000	35.957966
1832.000000	35.900559
1831.000000	35.809225
1830.000000	35.696480
1829.000000	35.588389
1828.000000	35.457025
1827.000000	35.351417
1826.000000	35.272289
1825.000000	35.186333
1824.000000	35.138856
1823.000000	35.180644
1822.000000	35.187264
1821.000000	35.126444
1820.000000	35.043488
1819.000000	34.976669
1818.000000	34.956499
1817.000000	34.967049
1816.000000	34.974393
1815.000000	34.945328
1814.000000	34.932812
1813.000000	34.922158
1812.000000	34.882542
1811.000000	34.825549
1810.000000	34.762556
1809.000000	34.706908
1808.000000	34.670498
1807.000000	34.628607
1806.000000	34.556408
1805.000000	34.469729
1804.000000	34.401772
1803.000000	34.350985
1802.000000	34.299163
1801.000000	34.217862
1800.000000	34.130356
1799.000000	34.081534
1798.000000	34.019369
1797.000000	33.952653
1796.000000	33.886764
1795.000000	33.829357
1794.000000	33.766468
1793.000000	33.680926
1792.000000	33.614210
1791.000000	33.529806
1790.000000	33.439920
1789.000000	33.368032
1788.000000	33.301213
1787.000000	33.213189
1786.000000	33.113994
1785.000000	33.016764
1784.000000	32.895123
1783.000000	32.797790
1782.000000	32.704801
1781.000000	32.586987
1780.000000	32.484172
1779.000000	32.362324
1778.000000	32.234684
1777.000000	32.086564
1776.000000	31.944443
1775.000000	31.781945
1774.000000	31.622447
1773.000000	31.435021
1772.000000	31.258456
1771.000000	31.076615
1770.000000	30.910911
1769.000000	30.753274
1768.000000	30.595638
1767.000000	30.447931
1766.000000	30.339427
1765.000000	30.237336
1764.000000	30.199064
1763.000000	30.192755
1762.000000	30.219234
1761.000000	30.263402
1760.000000	30.310465
1759.000000	30.397455
1758.000000	30.490444
1757.000000	30.558298
1756.000000	30.608774
1755.000000	30.628117
1754.000000	30.631841
1753.000000	30.621083
1752.000000	30.582398
1751.000000	30.524474
1750.000000	30.441415
1749.000000	30.349460
1748.000000	30.234646
1747.000000	30.082492
1746.000000	29.905927
1745.000000	29.730706
1744.000000	29.489390
1743.000000	29.214768
1742.000000	28.933732
1741.000000	28.633871
1740.000000	28.340734
1739.000000	28.049148
1738.000000	27.791178
1737.000000	27.569205
1736.000000	27.394708
1735.000000	27.282066
1734.000000	27.253001
1733.000000	27.275240
1732.000000	27.332233
1731.000000	27.436496
1730.000000	27.559068
1729.000000	27.697052
1728.000000	27.817658
1727.000000	27.941781
1726.000000	28.022151
1725.000000	28.109658
1724.000000	28.170168
1723.000000	28.191889
1722.000000	28.214231
1721.000000	28.254261
1720.000000	28.293567
1719.000000	28.352732
1718.000000	28.394417
1717.000000	28.499094
1716.000000	28.600772
1715.000000	28.681038
1714.000000	28.772475
1713.000000	28.874567
1712.000000	28.925043
1711.000000	28.959384
1710.000000	29.027031
1709.000000	29.005724
1708.000000	29.007068
1707.000000	28.989691
1706.000000	28.973865
1705.000000	28.905391
1704.000000	28.833296
1703.000000	28.735962
1702.000000	28.598806
1701.000000	28.424000
1700.000000	28.233884
1699.000000	28.051527
1698.000000	27.878271
1697.000000	27.742253
1696.000000	27.682053
1695.000000	27.692914
1694.000000	27.756631
1693.000000	27.907854
1692.000000	28.130655
1691.000000	28.316840
1690.000000	28.461030
1689.000000	28.618563
1688.000000	28.675039
1687.000000	28.709690
1686.000000	28.717034
1685.000000	28.781681
1684.000000	28.953902
1683.000000	29.282001
1682.000000	29.737533
1681.000000	30.362390
1680.000000	31.030690
1679.000000	31.748949
1678.000000	32.432557
1677.000000	33.054518
1676.000000	33.607280
1675.000000	34.116185
1674.000000	34.538721
1673.000000	34.893817
1672.000000	35.218399
1671.000000	35.493435
1670.000000	35.740543
1669.000000	35.955173
1668.000000	36.134945
1667.000000	36.290926
1666.000000	36.402016
1665.000000	36.526347
1664.000000	36.622956
1663.000000	36.722875
1662.000000	36.781523
1661.000000	36.862927
1660.000000	36.903267
1659.000000	36.927575
1658.000000	36.934298
1657.000000	36.942159
1656.000000	36.955296
1655.000000	36.972259
1654.000000	36.928299
1653.000000	36.896854
1652.000000	36.868926
1651.000000	36.839654
1650.000000	36.795797
1649.000000	36.736115
1648.000000	36.680570
1647.000000	36.608268
1646.000000	36.556550
1645.000000	36.489523
1644.000000	36.394879
1643.000000	36.323095
1642.000000	36.257516
1641.000000	36.164217
1640.000000	36.079296
1639.000000	35.995617
1638.000000	35.911523
1637.000000	35.810259
1636.000000	35.715305
1635.000000	35.629143
1634.000000	35.543291
1633.000000	35.460335
1632.000000	35.345211
1631.000000	35.237948
1630.000000	35.136581
1629.000000	35.035317
1628.000000	34.935294
1627.000000	34.833824
1626.000000	34.705666
1625.000000	34.597472
1624.000000	34.509966
1623.000000	34.398462
1622.000000	34.275476
1621.000000	34.182694
1620.000000	34.084844
