PE UV       SUBTECH     SPECTRUM    ASCII       PEDS        4.00        
   -1
CICIMAUCR0006-1.Sample.ASC
24/04/12
09:51:50.00
24/04/12
09:51:50.00
Vinicio Soto Monge
C. kalinini
250,000000
1
Lambda 1050
1050L1511233
PerkinElmer UV WinLab 6.3.2.0749 / 2.02.05 Lambda 900 UV/VIS/NIR, Aug  7 2015 09:38:08

0
0
3350/servo 860,8/2
0
0
UV/VIS
1
1
1
DoubleDePol,CommonBeamDepol,RBeamAtt,SBeamAtt,60mm sphere, WB InGaAs Detector
0
0
0
0
Program
Program
3350/servo 860,8/2
3350/0,2 860,8/0,2
3350/0,2 860,8/0,2
0
15.00
 
 
 
0
 
860,8
319,2
860,8
Front
100
on
S:100 R:100
0
0
0
0
 
0
 
 
 
0
 
 
0
0
0
0
0
 
 
 
 
0
0


0
0
#HDR
-1
-1
#GR
nm
%R
1.0
0.0
2500,000000
-1,000000
2251
8
44,260600
2,230600
#DATA
2500.000000	9.131500
2499.000000	9.052100
2498.000000	9.104500
2497.000000	9.012900
2496.000000	9.127200
2495.000000	9.148300
2494.000000	8.998300
2493.000000	9.100400
2492.000000	9.021700
2491.000000	9.073500
2490.000000	9.000800
2489.000000	8.957100
2488.000000	9.035200
2487.000000	8.968100
2486.000000	8.985100
2485.000000	8.908300
2484.000000	8.954100
2483.000000	8.981500
2482.000000	8.981900
2481.000000	8.965500
2480.000000	8.942900
2479.000000	9.005800
2478.000000	8.996400
2477.000000	9.028600
2476.000000	9.024000
2475.000000	9.072700
2474.000000	9.068500
2473.000000	9.102500
2472.000000	9.110900
2471.000000	9.118200
2470.000000	9.178800
2469.000000	9.211700
2468.000000	9.287300
2467.000000	9.312300
2466.000000	9.336800
2465.000000	9.383300
2464.000000	9.434600
2463.000000	9.498800
2462.000000	9.530300
2461.000000	9.597100
2460.000000	9.676300
2459.000000	9.734100
2458.000000	9.824300
2457.000000	9.900500
2456.000000	9.962700
2455.000000	10.065100
2454.000000	10.122800
2453.000000	10.158400
2452.000000	10.276500
2451.000000	10.358400
2450.000000	10.425400
2449.000000	10.481500
2448.000000	10.539600
2447.000000	10.611700
2446.000000	10.693000
2445.000000	10.749700
2444.000000	10.837200
2443.000000	10.894700
2442.000000	10.937500
2441.000000	11.020000
2440.000000	11.081300
2439.000000	11.154600
2438.000000	11.230600
2437.000000	11.273000
2436.000000	11.339900
2435.000000	11.377000
2434.000000	11.452500
2433.000000	11.508600
2432.000000	11.575800
2431.000000	11.631400
2430.000000	11.675500
2429.000000	11.719600
2428.000000	11.722600
2427.000000	11.650200
2426.000000	11.583600
2425.000000	11.555400
2424.000000	11.541500
2423.000000	11.583300
2422.000000	11.619200
2421.000000	11.656300
2420.000000	11.641100
2419.000000	11.630500
2418.000000	11.665300
2417.000000	11.653400
2416.000000	11.627600
2415.000000	11.638500
2414.000000	11.667200
2413.000000	11.667300
2412.000000	11.656000
2411.000000	11.679300
2410.000000	11.675300
2409.000000	11.642800
2408.000000	11.646900
2407.000000	11.665100
2406.000000	11.668900
2405.000000	11.677400
2404.000000	11.648600
2403.000000	11.627600
2402.000000	11.659600
2401.000000	11.686800
2400.000000	11.681200
2399.000000	11.651000
2398.000000	11.669400
2397.000000	11.659200
2396.000000	11.637900
2395.000000	11.641100
2394.000000	11.633700
2393.000000	11.604800
2392.000000	11.599300
2391.000000	11.576600
2390.000000	11.558700
2389.000000	11.550600
2388.000000	11.551200
2387.000000	11.531700
2386.000000	11.499900
2385.000000	11.500400
2384.000000	11.464100
2383.000000	11.428100
2382.000000	11.415400
2381.000000	11.397500
2380.000000	11.391400
2379.000000	11.364000
2378.000000	11.338600
2377.000000	11.321700
2376.000000	11.255600
2375.000000	11.215800
2374.000000	11.208200
2373.000000	11.188000
2372.000000	11.142300
2371.000000	11.095000
2370.000000	11.065200
2369.000000	11.037000
2368.000000	10.981000
2367.000000	10.926500
2366.000000	10.898600
2365.000000	10.862700
2364.000000	10.801200
2363.000000	10.740800
2362.000000	10.703700
2361.000000	10.663600
2360.000000	10.611900
2359.000000	10.566500
2358.000000	10.531000
2357.000000	10.504300
2356.000000	10.465300
2355.000000	10.433500
2354.000000	10.432800
2353.000000	10.432000
2352.000000	10.406600
2351.000000	10.388100
2350.000000	10.398300
2349.000000	10.414700
2348.000000	10.410000
2347.000000	10.401900
2346.000000	10.407200
2345.000000	10.391300
2344.000000	10.387900
2343.000000	10.404300
2342.000000	10.380100
2341.000000	10.369500
2340.000000	10.360000
2339.000000	10.327900
2338.000000	10.316300
2337.000000	10.280300
2336.000000	10.241600
2335.000000	10.235400
2334.000000	10.179900
2333.000000	10.148500
2332.000000	10.136600
2331.000000	10.105900
2330.000000	10.045700
2329.000000	10.011200
2328.000000	9.985000
2327.000000	9.976700
2326.000000	9.929900
2325.000000	9.878000
2324.000000	9.824600
2323.000000	9.788800
2322.000000	9.767300
2321.000000	9.701200
2320.000000	9.658900
2319.000000	9.632300
2318.000000	9.594300
2317.000000	9.529100
2316.000000	9.494400
2315.000000	9.422200
2314.000000	9.380100
2313.000000	9.354300
2312.000000	9.334400
2311.000000	9.335100
2310.000000	9.294600
2309.000000	9.289600
2308.000000	9.320700
2307.000000	9.325600
2306.000000	9.347400
2305.000000	9.395500
2304.000000	9.427000
2303.000000	9.454400
2302.000000	9.501300
2301.000000	9.570500
2300.000000	9.594000
2299.000000	9.639100
2298.000000	9.710300
2297.000000	9.747200
2296.000000	9.759300
2295.000000	9.794700
2294.000000	9.828400
2293.000000	9.826800
2292.000000	9.861100
2291.000000	9.874100
2290.000000	9.873800
2289.000000	9.839600
2288.000000	9.826700
2287.000000	9.808700
2286.000000	9.806900
2285.000000	9.752300
2284.000000	9.702000
2283.000000	9.675400
2282.000000	9.623100
2281.000000	9.578100
2280.000000	9.550700
2279.000000	9.531600
2278.000000	9.503200
2277.000000	9.454900
2276.000000	9.428800
2275.000000	9.419500
2274.000000	9.369100
2273.000000	9.374400
2272.000000	9.382700
2271.000000	9.417500
2270.000000	9.449300
2269.000000	9.477000
2268.000000	9.523300
2267.000000	9.593200
2266.000000	9.685200
2265.000000	9.743200
2264.000000	9.858500
2263.000000	9.981300
2262.000000	10.104700
2261.000000	10.239700
2260.000000	10.357500
2259.000000	10.475600
2258.000000	10.637500
2257.000000	10.775600
2256.000000	10.895900
2255.000000	11.015100
2254.000000	11.164700
2253.000000	11.328900
2252.000000	11.432800
2251.000000	11.569500
2250.000000	11.645300
2249.000000	11.767300
2248.000000	11.880100
2247.000000	11.965300
2246.000000	12.041100
2245.000000	12.129700
2244.000000	12.235400
2243.000000	12.272000
2242.000000	12.360100
2241.000000	12.434000
2240.000000	12.475000
2239.000000	12.564000
2238.000000	12.584600
2237.000000	12.632900
2236.000000	12.708400
2235.000000	12.751200
2234.000000	12.809900
2233.000000	12.797100
2232.000000	12.814000
2231.000000	12.848400
2230.000000	12.883600
2229.000000	12.924000
2228.000000	12.958000
2227.000000	12.908700
2226.000000	12.939100
2225.000000	12.954700
2224.000000	12.947900
2223.000000	12.954600
2222.000000	12.952900
2221.000000	12.939400
2220.000000	12.937900
2219.000000	12.925600
2218.000000	12.929600
2217.000000	12.926800
2216.000000	12.904000
2215.000000	12.878900
2214.000000	12.852800
2213.000000	12.858800
2212.000000	12.812200
2211.000000	12.781500
2210.000000	12.769200
2209.000000	12.765100
2208.000000	12.743500
2207.000000	12.732600
2206.000000	12.730500
2205.000000	12.723600
2204.000000	12.721300
2203.000000	12.701100
2202.000000	12.685100
2201.000000	12.627800
2200.000000	12.631500
2199.000000	12.625900
2198.000000	12.618500
2197.000000	12.601300
2196.000000	12.585400
2195.000000	12.579800
2194.000000	12.587000
2193.000000	12.567200
2192.000000	12.571100
2191.000000	12.552900
2190.000000	12.534300
2189.000000	12.514900
2188.000000	12.521200
2187.000000	12.507000
2186.000000	12.480000
2185.000000	12.465800
2184.000000	12.446400
2183.000000	12.446800
2182.000000	12.409900
2181.000000	12.400600
2180.000000	12.391200
2179.000000	12.409900
2178.000000	12.400700
2177.000000	12.390700
2176.000000	12.382200
2175.000000	12.377600
2174.000000	12.382700
2173.000000	12.373700
2172.000000	12.366000
2171.000000	12.374900
2170.000000	12.374600
2169.000000	12.398800
2168.000000	12.406600
2167.000000	12.411400
2166.000000	12.424700
2165.000000	12.459200
2164.000000	12.439900
2163.000000	12.435200
2162.000000	12.437100
2161.000000	12.444200
2160.000000	12.459800
2159.000000	12.450600
2158.000000	12.462100
2157.000000	12.475900
2156.000000	12.498300
2155.000000	12.515400
2154.000000	12.517100
2153.000000	12.527400
2152.000000	12.520100
2151.000000	12.538600
2150.000000	12.540000
2149.000000	12.541500
2148.000000	12.535400
2147.000000	12.537700
2146.000000	12.529600
2145.000000	12.517400
2144.000000	12.529500
2143.000000	12.544500
2142.000000	12.537300
2141.000000	12.527900
2140.000000	12.546900
2139.000000	12.545100
2138.000000	12.535400
2137.000000	12.534500
2136.000000	12.527700
2135.000000	12.502900
2134.000000	12.470100
2133.000000	12.452500
2132.000000	12.440400
2131.000000	12.416500
2130.000000	12.388100
2129.000000	12.357600
2128.000000	12.334400
2127.000000	12.305200
2126.000000	12.269200
2125.000000	12.265300
2124.000000	12.221600
2123.000000	12.177800
2122.000000	12.149600
2121.000000	12.115600
2120.000000	12.078500
2119.000000	12.043900
2118.000000	12.010000
2117.000000	11.985400
2116.000000	11.942600
2115.000000	11.905100
2114.000000	11.869000
2113.000000	11.825500
2112.000000	11.815500
2111.000000	11.788000
2110.000000	11.747900
2109.000000	11.718100
2108.000000	11.698000
2107.000000	11.660400
2106.000000	11.639600
2105.000000	11.624600
2104.000000	11.604100
2103.000000	11.578200
2102.000000	11.556000
2101.000000	11.551400
2100.000000	11.532000
2099.000000	11.507200
2098.000000	11.507500
2097.000000	11.514000
2096.000000	11.502700
2095.000000	11.479500
2094.000000	11.461100
2093.000000	11.452800
2092.000000	11.450300
2091.000000	11.437900
2090.000000	11.417300
2089.000000	11.422100
2088.000000	11.412100
2087.000000	11.396600
2086.000000	11.413600
2085.000000	11.398500
2084.000000	11.384600
2083.000000	11.380200
2082.000000	11.377700
2081.000000	11.380600
2080.000000	11.366000
2079.000000	11.344400
2078.000000	11.339300
2077.000000	11.350000
2076.000000	11.342500
2075.000000	11.324600
2074.000000	11.325200
2073.000000	11.331900
2072.000000	11.330000
2071.000000	11.336900
2070.000000	11.330800
2069.000000	11.348300
2068.000000	11.365700
2067.000000	11.359400
2066.000000	11.354800
2065.000000	11.362400
2064.000000	11.377000
2063.000000	11.389500
2062.000000	11.404400
2061.000000	11.411600
2060.000000	11.435600
2059.000000	11.451100
2058.000000	11.478800
2057.000000	11.512500
2056.000000	11.527700
2055.000000	11.562400
2054.000000	11.610600
2053.000000	11.642300
2052.000000	11.690600
2051.000000	11.742200
2050.000000	11.817600
2049.000000	11.862200
2048.000000	11.923100
2047.000000	12.016000
2046.000000	12.108500
2045.000000	12.171100
2044.000000	12.234500
2043.000000	12.303100
2042.000000	12.376900
2041.000000	12.466000
2040.000000	12.509900
2039.000000	12.569800
2038.000000	12.643500
2037.000000	12.708400
2036.000000	12.764000
2035.000000	12.814600
2034.000000	12.868900
2033.000000	12.923800
2032.000000	12.985000
2031.000000	13.012900
2030.000000	13.054200
2029.000000	13.098300
2028.000000	13.143400
2027.000000	13.196900
2026.000000	13.236200
2025.000000	13.236300
2024.000000	13.262200
2023.000000	13.308100
2022.000000	13.330400
2021.000000	13.348100
2020.000000	13.356000
2019.000000	13.381100
2018.000000	13.408400
2017.000000	13.415800
2016.000000	13.429800
2015.000000	13.430000
2014.000000	13.424700
2013.000000	13.414800
2012.000000	13.413200
2011.000000	13.431000
2010.000000	13.431800
2009.000000	13.431300
2008.000000	13.401600
2007.000000	13.394300
2006.000000	13.384700
2005.000000	13.354400
2004.000000	13.324700
2003.000000	13.306400
2002.000000	13.275500
2001.000000	13.234200
2000.000000	13.225400
1999.000000	13.192400
1998.000000	13.145300
1997.000000	13.116900
1996.000000	13.084600
1995.000000	13.050200
1994.000000	12.984800
1993.000000	12.906600
1992.000000	12.871200
1991.000000	12.839200
1990.000000	12.791000
1989.000000	12.743500
1988.000000	12.693000
1987.000000	12.637300
1986.000000	12.583400
1985.000000	12.530900
1984.000000	12.468100
1983.000000	12.415400
1982.000000	12.364800
1981.000000	12.312400
1980.000000	12.241700
1979.000000	12.179000
1978.000000	12.129400
1977.000000	12.075700
1976.000000	12.037500
1975.000000	11.964700
1974.000000	11.909700
1973.000000	11.840600
1972.000000	11.811800
1971.000000	11.759800
1970.000000	11.711600
1969.000000	11.621600
1968.000000	11.614000
1967.000000	11.547400
1966.000000	11.499900
1965.000000	11.443500
1964.000000	11.406500
1963.000000	11.359900
1962.000000	11.300400
1961.000000	11.238500
1960.000000	11.197400
1959.000000	11.140700
1958.000000	11.103100
1957.000000	11.038800
1956.000000	11.023100
1955.000000	10.966000
1954.000000	10.923500
1953.000000	10.866900
1952.000000	10.808200
1951.000000	10.787500
1950.000000	10.740000
1949.000000	10.719100
1948.000000	10.660000
1947.000000	10.638000
1946.000000	10.613800
1945.000000	10.589700
1944.000000	10.576500
1943.000000	10.534100
1942.000000	10.527700
1941.000000	10.543500
1940.000000	10.531200
1939.000000	10.549600
1938.000000	10.517800
1937.000000	10.492800
1936.000000	10.509200
1935.000000	10.509500
1934.000000	10.534500
1933.000000	10.574700
1932.000000	10.612300
1931.000000	10.661200
1930.000000	10.710500
1929.000000	10.772400
1928.000000	10.795200
1927.000000	10.852400
1926.000000	10.893000
1925.000000	10.973100
1924.000000	11.037300
1923.000000	11.169500
1922.000000	11.243500
1921.000000	11.328600
1920.000000	11.425100
1919.000000	11.507200
1918.000000	11.578200
1917.000000	11.684900
1916.000000	11.866500
1915.000000	12.017300
1914.000000	12.150700
1913.000000	12.292000
1912.000000	12.415700
1911.000000	12.516200
1910.000000	12.657000
1909.000000	12.818600
1908.000000	12.991400
1907.000000	13.191200
1906.000000	13.427700
1905.000000	13.644800
1904.000000	13.818700
1903.000000	13.989300
1902.000000	14.207400
1901.000000	14.400600
1900.000000	14.561800
1899.000000	14.748000
1898.000000	14.932000
1897.000000	15.091000
1896.000000	15.279300
1895.000000	15.499200
1894.000000	15.683300
1893.000000	15.907700
1892.000000	16.143300
1891.000000	16.345400
1890.000000	16.548400
1889.000000	16.750500
1888.000000	16.944900
1887.000000	17.154800
1886.000000	17.401200
1885.000000	17.655900
1884.000000	17.924800
1883.000000	18.237300
1882.000000	18.510900
1881.000000	18.778000
1880.000000	19.031600
1879.000000	19.302600
1878.000000	19.570200
1877.000000	19.857800
1876.000000	20.165900
1875.000000	20.412800
1874.000000	20.629500
1873.000000	20.872200
1872.000000	21.070700
1871.000000	21.191200
1870.000000	21.277500
1869.000000	21.322200
1868.000000	21.317900
1867.000000	21.298700
1866.000000	21.286500
1865.000000	21.267600
1864.000000	21.269300
1863.000000	21.311600
1862.000000	21.361300
1861.000000	21.403000
1860.000000	21.452900
1859.000000	21.493200
1858.000000	21.482400
1857.000000	21.448300
1856.000000	21.443000
1855.000000	21.411700
1854.000000	21.363300
1853.000000	21.312900
1852.000000	21.261800
1851.000000	21.237100
1850.000000	21.270400
1849.000000	21.280300
1848.000000	21.225100
1847.000000	21.170300
1846.000000	21.087700
1845.000000	21.003900
1844.000000	20.968600
1843.000000	20.957400
1842.000000	20.940200
1841.000000	20.922900
1840.000000	20.937400
1839.000000	20.944100
1838.000000	20.902000
1837.000000	20.833200
1836.000000	20.739400
1835.000000	20.645500
1834.000000	20.560500
1833.000000	20.502800
1832.000000	20.441800
1831.000000	20.364700
1830.000000	20.306500
1829.000000	20.276600
1828.000000	20.235800
1827.000000	20.162100
1826.000000	20.096300
1825.000000	20.033000
1824.000000	20.004700
1823.000000	20.032000
1822.000000	20.039300
1821.000000	20.008100
1820.000000	19.989400
1819.000000	19.964200
1818.000000	19.937300
1817.000000	19.899000
1816.000000	19.870400
1815.000000	19.845900
1814.000000	19.839500
1813.000000	19.857300
1812.000000	19.837000
1811.000000	19.795100
1810.000000	19.766600
1809.000000	19.755600
1808.000000	19.743000
1807.000000	19.704400
1806.000000	19.661300
1805.000000	19.632900
1804.000000	19.613500
1803.000000	19.593400
1802.000000	19.565700
1801.000000	19.525500
1800.000000	19.484700
1799.000000	19.439100
1798.000000	19.419800
1797.000000	19.406200
1796.000000	19.373300
1795.000000	19.345400
1794.000000	19.318900
1793.000000	19.283600
1792.000000	19.251000
1791.000000	19.219800
1790.000000	19.187700
1789.000000	19.156800
1788.000000	19.130700
1787.000000	19.102200
1786.000000	19.078000
1785.000000	19.018500
1784.000000	18.971200
1783.000000	18.925800
1782.000000	18.890800
1781.000000	18.853700
1780.000000	18.815500
1779.000000	18.764600
1778.000000	18.709300
1777.000000	18.655100
1776.000000	18.595600
1775.000000	18.536500
1774.000000	18.439400
1773.000000	18.361900
1772.000000	18.300000
1771.000000	18.227000
1770.000000	18.152000
1769.000000	18.080700
1768.000000	18.019700
1767.000000	17.963600
1766.000000	17.908700
1765.000000	17.863600
1764.000000	17.861500
1763.000000	17.845200
1762.000000	17.872200
1761.000000	17.925100
1760.000000	17.950200
1759.000000	17.986900
1758.000000	18.025300
1757.000000	18.068600
1756.000000	18.111400
1755.000000	18.118900
1754.000000	18.143200
1753.000000	18.154100
1752.000000	18.128800
1751.000000	18.119600
1750.000000	18.086200
1749.000000	18.064500
1748.000000	18.006800
1747.000000	17.957100
1746.000000	17.889800
1745.000000	17.814900
1744.000000	17.716700
1743.000000	17.623000
1742.000000	17.503500
1741.000000	17.368700
1740.000000	17.222000
1739.000000	17.102400
1738.000000	16.985700
1737.000000	16.906700
1736.000000	16.818400
1735.000000	16.769600
1734.000000	16.734600
1733.000000	16.745300
1732.000000	16.744200
1731.000000	16.809200
1730.000000	16.878700
1729.000000	16.936700
1728.000000	16.996200
1727.000000	17.044800
1726.000000	17.093000
1725.000000	17.131400
1724.000000	17.169900
1723.000000	17.193000
1722.000000	17.188300
1721.000000	17.222200
1720.000000	17.223600
1719.000000	17.241300
1718.000000	17.256800
1717.000000	17.285500
1716.000000	17.310900
1715.000000	17.356000
1714.000000	17.404400
1713.000000	17.445000
1712.000000	17.472500
1711.000000	17.475200
1710.000000	17.495500
1709.000000	17.481400
1708.000000	17.479100
1707.000000	17.453500
1706.000000	17.444300
1705.000000	17.404500
1704.000000	17.385400
1703.000000	17.336800
1702.000000	17.277000
1701.000000	17.209700
1700.000000	17.120300
1699.000000	17.048800
1698.000000	16.976000
1697.000000	16.937300
1696.000000	16.913200
1695.000000	16.937000
1694.000000	17.007000
1693.000000	17.057600
1692.000000	17.168200
1691.000000	17.271600
1690.000000	17.347900
1689.000000	17.424700
1688.000000	17.458300
1687.000000	17.496400
1686.000000	17.496400
1685.000000	17.516400
1684.000000	17.580800
1683.000000	17.729200
1682.000000	17.936800
1681.000000	18.222300
1680.000000	18.542400
1679.000000	18.873700
1678.000000	19.192000
1677.000000	19.487900
1676.000000	19.736200
1675.000000	19.951800
1674.000000	20.121200
1673.000000	20.302900
1672.000000	20.447000
1671.000000	20.567800
1670.000000	20.680200
1669.000000	20.759600
1668.000000	20.849600
1667.000000	20.927800
1666.000000	20.989800
1665.000000	21.033300
1664.000000	21.068200
1663.000000	21.126500
1662.000000	21.158000
1661.000000	21.191200
1660.000000	21.203000
1659.000000	21.222500
1658.000000	21.233100
1657.000000	21.247600
1656.000000	21.240700
1655.000000	21.240000
1654.000000	21.259100
1653.000000	21.231600
1652.000000	21.195200
1651.000000	21.188400
1650.000000	21.175800
1649.000000	21.131000
1648.000000	21.104400
1647.000000	21.074800
1646.000000	21.039200
1645.000000	21.019300
1644.000000	20.983700
1643.000000	20.931700
1642.000000	20.906500
1641.000000	20.856500
1640.000000	20.810700
1639.000000	20.766100
1638.000000	20.702800
1637.000000	20.671400
1636.000000	20.624600
1635.000000	20.589900
1634.000000	20.557500
1633.000000	20.514900
1632.000000	20.450800
1631.000000	20.393800
1630.000000	20.350100
1629.000000	20.293000
1628.000000	20.233300
1627.000000	20.170200
1626.000000	20.121200
1625.000000	20.071300
1624.000000	20.001500
1623.000000	19.947600
1622.000000	19.894500
1621.000000	19.834500
1620.000000	19.787600
1619.000000	19.735200
