PE UV       SUBTECH     SPECTRUM    ASCII       PEDS        4.00        
   -1
CICIMAUCR0158-4.Sample.ASC
24/04/25
13:19:11.00
24/04/25
13:19:11.00
Vinicio Soto Monge
C. cupreomarginata
250,000000
1
Lambda 1050
1050L1511233
PerkinElmer UV WinLab 6.3.2.0749 / 2.02.05 Lambda 900 UV/VIS/NIR, Aug  7 2015 09:38:08

0
0
3350/servo 860,8/2
0
0
UV/VIS
1
1
1
DoubleDePol,CommonBeamDepol,RBeamAtt,SBeamAtt,60mm sphere, WB InGaAs Detector
0
0
0
0
Program
Program
3350/servo 860,8/2
3350/0,2 860,8/0,2
3350/0,2 860,8/0,2
0
15.00
 
 
 
0
 
860,8
319,2
860,8
Front
100
on
S:100 R:100
0
0
0
0
 
0
 
 
 
0
 
 
0
0
0
0
0
 
 
 
 
0
0


0
0
#HDR
-1
-1
#GR
nm
%R
1.0
0.0
2500,000000
-1,000000
2251
8
71,606100
5,632000
#DATA
2500.000000	15.359700
2499.000000	15.196000
2498.000000	15.346900
2497.000000	15.284300
2496.000000	15.287000
2495.000000	15.272000
2494.000000	15.327100
2493.000000	15.158200
2492.000000	15.273500
2491.000000	15.213600
2490.000000	15.177200
2489.000000	15.194000
2488.000000	15.175100
2487.000000	15.232400
2486.000000	15.155800
2485.000000	15.196500
2484.000000	15.169700
2483.000000	15.225600
2482.000000	15.310800
2481.000000	15.238000
2480.000000	15.267600
2479.000000	15.298500
2478.000000	15.324600
2477.000000	15.304900
2476.000000	15.327900
2475.000000	15.387600
2474.000000	15.344300
2473.000000	15.415200
2472.000000	15.436900
2471.000000	15.473200
2470.000000	15.509100
2469.000000	15.554700
2468.000000	15.578200
2467.000000	15.617400
2466.000000	15.667500
2465.000000	15.738400
2464.000000	15.811400
2463.000000	15.821800
2462.000000	15.861300
2461.000000	15.905200
2460.000000	15.939800
2459.000000	16.032000
2458.000000	16.085700
2457.000000	16.127800
2456.000000	16.209200
2455.000000	16.291000
2454.000000	16.379900
2453.000000	16.456600
2452.000000	16.550800
2451.000000	16.615300
2450.000000	16.680400
2449.000000	16.767300
2448.000000	16.871000
2447.000000	16.967300
2446.000000	17.068800
2445.000000	17.165000
2444.000000	17.251300
2443.000000	17.349400
2442.000000	17.441900
2441.000000	17.559800
2440.000000	17.640100
2439.000000	17.725800
2438.000000	17.806300
2437.000000	17.918900
2436.000000	18.020500
2435.000000	18.106000
2434.000000	18.187400
2433.000000	18.266800
2432.000000	18.354400
2431.000000	18.437400
2430.000000	18.529600
2429.000000	18.600400
2428.000000	18.687800
2427.000000	18.761700
2426.000000	18.821500
2425.000000	18.878700
2424.000000	18.956100
2423.000000	19.033400
2422.000000	19.096400
2421.000000	19.152300
2420.000000	19.219400
2419.000000	19.271600
2418.000000	19.317700
2417.000000	19.389200
2416.000000	19.456800
2415.000000	19.497600
2414.000000	19.554700
2413.000000	19.606000
2412.000000	19.649800
2411.000000	19.711800
2410.000000	19.790100
2409.000000	19.890800
2408.000000	19.988100
2407.000000	20.075600
2406.000000	20.097700
2405.000000	20.122700
2404.000000	20.167300
2403.000000	20.205600
2402.000000	20.244800
2401.000000	20.286100
2400.000000	20.334900
2399.000000	20.349000
2398.000000	20.394700
2397.000000	20.440500
2396.000000	20.471200
2395.000000	20.516800
2394.000000	20.540600
2393.000000	20.548500
2392.000000	20.576200
2391.000000	20.629700
2390.000000	20.659800
2389.000000	20.669500
2388.000000	20.677600
2387.000000	20.672800
2386.000000	20.701100
2385.000000	20.727800
2384.000000	20.738700
2383.000000	20.761300
2382.000000	20.757400
2381.000000	20.755500
2380.000000	20.762100
2379.000000	20.780800
2378.000000	20.773100
2377.000000	20.775000
2376.000000	20.791000
2375.000000	20.780200
2374.000000	20.768600
2373.000000	20.772500
2372.000000	20.787400
2371.000000	20.779400
2370.000000	20.788700
2369.000000	20.805200
2368.000000	20.796000
2367.000000	20.789700
2366.000000	20.793900
2365.000000	20.810100
2364.000000	20.822900
2363.000000	20.839300
2362.000000	20.844300
2361.000000	20.834100
2360.000000	20.839100
2359.000000	20.852200
2358.000000	20.841200
2357.000000	20.828100
2356.000000	20.839100
2355.000000	20.847800
2354.000000	20.828000
2353.000000	20.818600
2352.000000	20.829800
2351.000000	20.829400
2350.000000	20.810900
2349.000000	20.806700
2348.000000	20.815100
2347.000000	20.812400
2346.000000	20.819300
2345.000000	20.819900
2344.000000	20.820600
2343.000000	20.834200
2342.000000	20.831800
2341.000000	20.814100
2340.000000	20.837700
2339.000000	20.852100
2338.000000	20.850900
2337.000000	20.872700
2336.000000	20.889400
2335.000000	20.914500
2334.000000	20.952500
2333.000000	20.981700
2332.000000	20.989500
2331.000000	20.988800
2330.000000	21.024700
2329.000000	21.072700
2328.000000	21.094400
2327.000000	21.115100
2326.000000	21.143400
2325.000000	21.173100
2324.000000	21.225700
2323.000000	21.234700
2322.000000	21.231700
2321.000000	21.244100
2320.000000	21.280100
2319.000000	21.267600
2318.000000	21.276700
2317.000000	21.273900
2316.000000	21.250600
2315.000000	21.231800
2314.000000	21.220300
2313.000000	21.204100
2312.000000	21.172900
2311.000000	21.147400
2310.000000	21.114100
2309.000000	21.080100
2308.000000	21.048500
2307.000000	21.024600
2306.000000	20.989700
2305.000000	20.980100
2304.000000	20.961200
2303.000000	20.948300
2302.000000	20.916400
2301.000000	20.920300
2300.000000	20.924300
2299.000000	20.917800
2298.000000	20.922600
2297.000000	20.924600
2296.000000	20.925700
2295.000000	20.940000
2294.000000	20.954700
2293.000000	20.980700
2292.000000	21.016500
2291.000000	21.035300
2290.000000	21.063800
2289.000000	21.086500
2288.000000	21.131200
2287.000000	21.172900
2286.000000	21.204300
2285.000000	21.232000
2284.000000	21.291500
2283.000000	21.325300
2282.000000	21.365100
2281.000000	21.418600
2280.000000	21.456600
2279.000000	21.466400
2278.000000	21.507200
2277.000000	21.551200
2276.000000	21.584500
2275.000000	21.618300
2274.000000	21.646300
2273.000000	21.689900
2272.000000	21.712600
2271.000000	21.738900
2270.000000	21.779000
2269.000000	21.816500
2268.000000	21.867300
2267.000000	21.916500
2266.000000	21.969200
2265.000000	22.043200
2264.000000	22.133100
2263.000000	22.202500
2262.000000	22.311700
2261.000000	22.390100
2260.000000	22.494900
2259.000000	22.645600
2258.000000	22.757600
2257.000000	22.888200
2256.000000	23.021400
2255.000000	23.193800
2254.000000	23.315100
2253.000000	23.440500
2252.000000	23.586000
2251.000000	23.732600
2250.000000	23.887400
2249.000000	24.025900
2248.000000	24.137400
2247.000000	24.260800
2246.000000	24.386300
2245.000000	24.466100
2244.000000	24.582300
2243.000000	24.672700
2242.000000	24.735900
2241.000000	24.829100
2240.000000	24.910700
2239.000000	24.939600
2238.000000	24.970000
2237.000000	24.988800
2236.000000	25.053900
2235.000000	25.066100
2234.000000	25.069900
2233.000000	25.074400
2232.000000	25.083600
2231.000000	25.058300
2230.000000	25.050500
2229.000000	25.011700
2228.000000	24.996900
2227.000000	24.930200
2226.000000	24.888000
2225.000000	24.858000
2224.000000	24.804500
2223.000000	24.730800
2222.000000	24.663400
2221.000000	24.608900
2220.000000	24.525400
2219.000000	24.479900
2218.000000	24.406800
2217.000000	24.329600
2216.000000	24.263400
2215.000000	24.180600
2214.000000	24.111600
2213.000000	24.062500
2212.000000	23.982300
2211.000000	23.935900
2210.000000	23.867600
2209.000000	23.816800
2208.000000	23.776400
2207.000000	23.717000
2206.000000	23.669100
2205.000000	23.637500
2204.000000	23.611000
2203.000000	23.567600
2202.000000	23.539200
2201.000000	23.501200
2200.000000	23.471100
2199.000000	23.438300
2198.000000	23.404600
2197.000000	23.392600
2196.000000	23.352900
2195.000000	23.356500
2194.000000	23.320000
2193.000000	23.317300
2192.000000	23.284000
2191.000000	23.265300
2190.000000	23.239500
2189.000000	23.219600
2188.000000	23.220800
2187.000000	23.195300
2186.000000	23.169000
2185.000000	23.174500
2184.000000	23.150300
2183.000000	23.131800
2182.000000	23.115500
2181.000000	23.102400
2180.000000	23.072900
2179.000000	23.073300
2178.000000	23.072800
2177.000000	23.051100
2176.000000	23.051900
2175.000000	23.045800
2174.000000	23.070600
2173.000000	23.066800
2172.000000	23.061000
2171.000000	23.077900
2170.000000	23.103700
2169.000000	23.128400
2168.000000	23.153800
2167.000000	23.181100
2166.000000	23.212000
2165.000000	23.258600
2164.000000	23.302600
2163.000000	23.329500
2162.000000	23.407100
2161.000000	23.472000
2160.000000	23.539600
2159.000000	23.591500
2158.000000	23.654800
2157.000000	23.742000
2156.000000	23.830300
2155.000000	23.933000
2154.000000	24.024100
2153.000000	24.095800
2152.000000	24.202900
2151.000000	24.298600
2150.000000	24.408400
2149.000000	24.516000
2148.000000	24.619300
2147.000000	24.701800
2146.000000	24.800900
2145.000000	24.885000
2144.000000	24.980300
2143.000000	25.072900
2142.000000	25.175100
2141.000000	25.284500
2140.000000	25.388800
2139.000000	25.471400
2138.000000	25.572100
2137.000000	25.659500
2136.000000	25.748300
2135.000000	25.823100
2134.000000	25.903000
2133.000000	25.970200
2132.000000	26.042800
2131.000000	26.123900
2130.000000	26.173400
2129.000000	26.232200
2128.000000	26.307900
2127.000000	26.361500
2126.000000	26.405900
2125.000000	26.449500
2124.000000	26.493300
2123.000000	26.531300
2122.000000	26.573700
2121.000000	26.621100
2120.000000	26.655600
2119.000000	26.675400
2118.000000	26.707500
2117.000000	26.733600
2116.000000	26.763600
2115.000000	26.789900
2114.000000	26.784800
2113.000000	26.793000
2112.000000	26.814500
2111.000000	26.832100
2110.000000	26.844000
2109.000000	26.844600
2108.000000	26.840100
2107.000000	26.842400
2106.000000	26.836900
2105.000000	26.844200
2104.000000	26.850500
2103.000000	26.841100
2102.000000	26.848300
2101.000000	26.847300
2100.000000	26.842900
2099.000000	26.851700
2098.000000	26.856000
2097.000000	26.849300
2096.000000	26.860900
2095.000000	26.870600
2094.000000	26.866700
2093.000000	26.871400
2092.000000	26.871600
2091.000000	26.887900
2090.000000	26.895500
2089.000000	26.889500
2088.000000	26.901300
2087.000000	26.898400
2086.000000	26.875900
2085.000000	26.859900
2084.000000	26.851100
2083.000000	26.839700
2082.000000	26.802800
2081.000000	26.765600
2080.000000	26.720300
2079.000000	26.670200
2078.000000	26.614400
2077.000000	26.549100
2076.000000	26.482800
2075.000000	26.419800
2074.000000	26.344600
2073.000000	26.248900
2072.000000	26.149200
2071.000000	26.063700
2070.000000	25.958100
2069.000000	25.859400
2068.000000	25.757300
2067.000000	25.657200
2066.000000	25.547300
2065.000000	25.436400
2064.000000	25.351200
2063.000000	25.261500
2062.000000	25.155100
2061.000000	25.060600
2060.000000	24.991100
2059.000000	24.927500
2058.000000	24.859900
2057.000000	24.812400
2056.000000	24.773400
2055.000000	24.761400
2054.000000	24.772900
2053.000000	24.781400
2052.000000	24.796300
2051.000000	24.849600
2050.000000	24.919500
2049.000000	24.984300
2048.000000	25.065600
2047.000000	25.169200
2046.000000	25.276900
2045.000000	25.385400
2044.000000	25.494600
2043.000000	25.608900
2042.000000	25.749200
2041.000000	25.854400
2040.000000	25.960900
2039.000000	26.070500
2038.000000	26.174700
2037.000000	26.294700
2036.000000	26.380000
2035.000000	26.473700
2034.000000	26.565300
2033.000000	26.636300
2032.000000	26.724000
2031.000000	26.785400
2030.000000	26.858500
2029.000000	26.925900
2028.000000	26.989800
2027.000000	27.054700
2026.000000	27.090700
2025.000000	27.126200
2024.000000	27.181500
2023.000000	27.223600
2022.000000	27.259400
2021.000000	27.285700
2020.000000	27.293000
2019.000000	27.329900
2018.000000	27.341900
2017.000000	27.345600
2016.000000	27.375000
2015.000000	27.373700
2014.000000	27.382000
2013.000000	27.358400
2012.000000	27.348500
2011.000000	27.342700
2010.000000	27.332800
2009.000000	27.286300
2008.000000	27.259300
2007.000000	27.218100
2006.000000	27.185200
2005.000000	27.145300
2004.000000	27.086700
2003.000000	27.042900
2002.000000	26.988200
2001.000000	26.927900
2000.000000	26.867700
1999.000000	26.790400
1998.000000	26.731800
1997.000000	26.630600
1996.000000	26.562100
1995.000000	26.474400
1994.000000	26.390000
1993.000000	26.307800
1992.000000	26.216400
1991.000000	26.138600
1990.000000	26.034300
1989.000000	25.941600
1988.000000	25.849300
1987.000000	25.742100
1986.000000	25.650200
1985.000000	25.541600
1984.000000	25.453700
1983.000000	25.347200
1982.000000	25.247300
1981.000000	25.156400
1980.000000	25.064900
1979.000000	24.965900
1978.000000	24.868900
1977.000000	24.774400
1976.000000	24.691400
1975.000000	24.592600
1974.000000	24.500800
1973.000000	24.413600
1972.000000	24.326600
1971.000000	24.235200
1970.000000	24.144500
1969.000000	24.036700
1968.000000	23.974700
1967.000000	23.888000
1966.000000	23.782800
1965.000000	23.716700
1964.000000	23.612900
1963.000000	23.534000
1962.000000	23.463700
1961.000000	23.370800
1960.000000	23.271000
1959.000000	23.174900
1958.000000	23.080100
1957.000000	22.993800
1956.000000	22.935200
1955.000000	22.846600
1954.000000	22.739600
1953.000000	22.646100
1952.000000	22.593200
1951.000000	22.487800
1950.000000	22.402000
1949.000000	22.341700
1948.000000	22.263900
1947.000000	22.201200
1946.000000	22.140100
1945.000000	22.071200
1944.000000	22.004400
1943.000000	21.962300
1942.000000	21.932700
1941.000000	21.906500
1940.000000	21.865200
1939.000000	21.836000
1938.000000	21.824500
1937.000000	21.818600
1936.000000	21.799700
1935.000000	21.809400
1934.000000	21.846800
1933.000000	21.873700
1932.000000	21.907200
1931.000000	21.964700
1930.000000	22.010200
1929.000000	22.093000
1928.000000	22.170200
1927.000000	22.258500
1926.000000	22.340000
1925.000000	22.468300
1924.000000	22.573900
1923.000000	22.713800
1922.000000	22.861700
1921.000000	23.057800
1920.000000	23.217800
1919.000000	23.385300
1918.000000	23.595300
1917.000000	23.776500
1916.000000	23.952400
1915.000000	24.198900
1914.000000	24.497800
1913.000000	24.778400
1912.000000	25.057100
1911.000000	25.310600
1910.000000	25.604500
1909.000000	25.877700
1908.000000	26.217000
1907.000000	26.592800
1906.000000	27.023900
1905.000000	27.453400
1904.000000	27.876500
1903.000000	28.275000
1902.000000	28.704100
1901.000000	29.158200
1900.000000	29.683200
1899.000000	30.170300
1898.000000	30.679300
1897.000000	31.193400
1896.000000	31.619000
1895.000000	32.050700
1894.000000	32.527300
1893.000000	33.040500
1892.000000	33.611200
1891.000000	34.139100
1890.000000	34.631600
1889.000000	35.079200
1888.000000	35.542100
1887.000000	35.973300
1886.000000	36.405300
1885.000000	36.842400
1884.000000	37.285500
1883.000000	37.661100
1882.000000	38.007000
1881.000000	38.344900
1880.000000	38.633400
1879.000000	38.923600
1878.000000	39.229300
1877.000000	39.494000
1876.000000	39.742500
1875.000000	40.006400
1874.000000	40.263300
1873.000000	40.510300
1872.000000	40.734600
1871.000000	40.928300
1870.000000	41.125900
1869.000000	41.319200
1868.000000	41.429400
1867.000000	41.529100
1866.000000	41.587900
1865.000000	41.671000
1864.000000	41.735800
1863.000000	41.800600
1862.000000	41.893200
1861.000000	42.001500
1860.000000	42.108600
1859.000000	42.180000
1858.000000	42.243000
1857.000000	42.309400
1856.000000	42.334000
1855.000000	42.384800
1854.000000	42.426500
1853.000000	42.444000
1852.000000	42.483000
1851.000000	42.488500
1850.000000	42.519300
1849.000000	42.567500
1848.000000	42.623000
1847.000000	42.647200
1846.000000	42.603000
1845.000000	42.540900
1844.000000	42.499900
1843.000000	42.520400
1842.000000	42.575200
1841.000000	42.588300
1840.000000	42.564000
1839.000000	42.532600
1838.000000	42.511600
1837.000000	42.508900
1836.000000	42.507000
1835.000000	42.463400
1834.000000	42.399800
1833.000000	42.336100
1832.000000	42.310000
1831.000000	42.320400
1830.000000	42.303700
1829.000000	42.279900
1828.000000	42.245700
1827.000000	42.220400
1826.000000	42.208000
1825.000000	42.190300
1824.000000	42.164000
1823.000000	42.188100
1822.000000	42.236700
1821.000000	42.250300
1820.000000	42.241000
1819.000000	42.205900
1818.000000	42.168900
1817.000000	42.153200
1816.000000	42.148700
1815.000000	42.142400
1814.000000	42.136400
1813.000000	42.126100
1812.000000	42.126400
1811.000000	42.098200
1810.000000	42.056400
1809.000000	42.045900
1808.000000	42.052100
1807.000000	42.047500
1806.000000	42.022400
1805.000000	41.976900
1804.000000	41.954400
1803.000000	41.959100
1802.000000	41.949100
1801.000000	41.939500
1800.000000	41.922700
1799.000000	41.891400
1798.000000	41.864700
1797.000000	41.857800
1796.000000	41.845500
1795.000000	41.834100
1794.000000	41.835200
1793.000000	41.824300
1792.000000	41.804300
1791.000000	41.803800
1790.000000	41.783800
1789.000000	41.788500
1788.000000	41.780700
1787.000000	41.779300
1786.000000	41.789800
1785.000000	41.782900
1784.000000	41.795900
1783.000000	41.784600
1782.000000	41.782700
1781.000000	41.778700
1780.000000	41.765200
1779.000000	41.750100
1778.000000	41.732700
1777.000000	41.691700
1776.000000	41.667000
1775.000000	41.641000
1774.000000	41.608700
1773.000000	41.588100
1772.000000	41.544000
1771.000000	41.520600
1770.000000	41.490800
1769.000000	41.454100
1768.000000	41.433900
1767.000000	41.411200
1766.000000	41.373800
1765.000000	41.345300
1764.000000	41.326900
1763.000000	41.310000
1762.000000	41.290600
1761.000000	41.286700
1760.000000	41.274500
1759.000000	41.271900
1758.000000	41.260400
1757.000000	41.257700
1756.000000	41.254800
1755.000000	41.263200
1754.000000	41.249000
1753.000000	41.239000
1752.000000	41.237800
1751.000000	41.233500
1750.000000	41.202700
1749.000000	41.172000
1748.000000	41.131400
1747.000000	41.102100
1746.000000	41.062400
1745.000000	41.016500
1744.000000	40.964200
1743.000000	40.912900
1742.000000	40.877500
1741.000000	40.827100
1740.000000	40.776300
1739.000000	40.726700
1738.000000	40.711800
1737.000000	40.674600
1736.000000	40.644000
1735.000000	40.620500
1734.000000	40.581700
1733.000000	40.555400
1732.000000	40.527500
1731.000000	40.517100
1730.000000	40.482900
1729.000000	40.468600
1728.000000	40.451700
1727.000000	40.453100
1726.000000	40.444300
1725.000000	40.433800
1724.000000	40.476600
1723.000000	40.516100
1722.000000	40.597200
1721.000000	40.691500
1720.000000	40.824100
1719.000000	40.967000
1718.000000	41.121400
1717.000000	41.273300
1716.000000	41.424900
1715.000000	41.578500
1714.000000	41.710100
1713.000000	41.825600
1712.000000	41.932300
1711.000000	42.053700
1710.000000	42.108700
1709.000000	42.208800
1708.000000	42.273100
1707.000000	42.355400
1706.000000	42.405400
1705.000000	42.405800
1704.000000	42.430300
1703.000000	42.454600
1702.000000	42.456300
1701.000000	42.467400
1700.000000	42.474300
1699.000000	42.455000
1698.000000	42.475300
1697.000000	42.445700
1696.000000	42.429900
1695.000000	42.398500
1694.000000	42.377600
1693.000000	42.330800
1692.000000	42.297100
1691.000000	42.264500
1690.000000	42.248800
1689.000000	42.247200
1688.000000	42.284000
1687.000000	42.347700
1686.000000	42.449500
1685.000000	42.594700
1684.000000	42.746300
1683.000000	42.904600
1682.000000	43.063400
1681.000000	43.233800
1680.000000	43.386600
1679.000000	43.538900
1678.000000	43.686500
1677.000000	43.812300
1676.000000	43.952800
1675.000000	44.104900
1674.000000	44.213700
1673.000000	44.357100
1672.000000	44.485900
1671.000000	44.618800
1670.000000	44.746800
1669.000000	44.861500
1668.000000	44.985300
1667.000000	45.124300
1666.000000	45.227100
1665.000000	45.341400
1664.000000	45.431500
1663.000000	45.538300
1662.000000	45.634900
1661.000000	45.713400
1660.000000	45.757500
1659.000000	45.822100
1658.000000	45.890000
1657.000000	45.947300
1656.000000	45.986600
1655.000000	46.011900
1654.000000	46.032600
1653.000000	46.069800
1652.000000	46.081900
1651.000000	46.086300
1650.000000	46.075800
1649.000000	46.082300
1648.000000	46.075600
1647.000000	46.074000
1646.000000	46.056100
1645.000000	46.043900
1644.000000	46.029500
1643.000000	46.033800
1642.000000	46.022800
1641.000000	46.010200
1640.000000	46.001600
1639.000000	45.986000
1638.000000	45.990000
1637.000000	45.978700
1636.000000	45.960600
1635.000000	45.938800
1634.000000	45.903900
1633.000000	45.859300
1632.000000	45.838200
1631.000000	45.824400
1630.000000	45.778700
1629.000000	45.748900
1628.000000	45.719400
1627.000000	45.680300
1626.000000	45.646200
1625.000000	45.611700
