PE UV       SUBTECH     SPECTRUM    ASCII       PEDS        4.00        
   -1
CICIMAUCR0104-3.Sample.ASC
24/04/22
09:54:19.00
24/04/22
09:54:19.00
Vinicio Soto Monge
C. resplendens
250,000000
1
Lambda 1050
1050L1511233
PerkinElmer UV WinLab 6.3.2.0749 / 2.02.05 Lambda 900 UV/VIS/NIR, Aug  7 2015 09:38:08

0
0
3350/servo 860,8/2
0
0
UV/VIS
1
1
1
DoubleDePol,CommonBeamDepol,RBeamAtt,SBeamAtt,60mm sphere, WB InGaAs Detector
0
0
0
0
Program
Program
3350/servo 860,8/2
3350/0,2 860,8/0,2
3350/0,2 860,8/0,2
0
15.00
 
 
 
0
 
860,8
319,2
860,8
Front
100
on
S:100 R:100
0
0
0
0
 
0
 
 
 
0
 
 
0
0
0
0
0
 
 
 
 
0
0


0
0
#HDR
-1
-1
#GR
nm
%R
1.0
0.0
2500,000000
-1,000000
2251
8
90,434600
6,014800
#DATA
2500.000000	16.801800
2499.000000	16.753900
2498.000000	16.790000
2497.000000	16.804900
2496.000000	16.739200
2495.000000	16.699800
2494.000000	16.658700
2493.000000	16.632600
2492.000000	16.715300
2491.000000	16.687100
2490.000000	16.642100
2489.000000	16.703400
2488.000000	16.710000
2487.000000	16.657800
2486.000000	16.699000
2485.000000	16.769700
2484.000000	16.773000
2483.000000	16.747700
2482.000000	16.764400
2481.000000	16.797000
2480.000000	16.795500
2479.000000	16.840600
2478.000000	16.845900
2477.000000	16.852400
2476.000000	16.921300
2475.000000	16.931900
2474.000000	16.994500
2473.000000	17.060100
2472.000000	17.028900
2471.000000	17.108400
2470.000000	17.160900
2469.000000	17.182400
2468.000000	17.241900
2467.000000	17.320100
2466.000000	17.342200
2465.000000	17.419100
2464.000000	17.444700
2463.000000	17.534400
2462.000000	17.592900
2461.000000	17.633500
2460.000000	17.738500
2459.000000	17.792300
2458.000000	17.883200
2457.000000	17.966700
2456.000000	18.037400
2455.000000	18.114200
2454.000000	18.228500
2453.000000	18.328000
2452.000000	18.450600
2451.000000	18.561600
2450.000000	18.664400
2449.000000	18.765600
2448.000000	18.880200
2447.000000	18.997100
2446.000000	19.097100
2445.000000	19.226000
2444.000000	19.341400
2443.000000	19.442100
2442.000000	19.558800
2441.000000	19.680300
2440.000000	19.789300
2439.000000	19.888000
2438.000000	20.020900
2437.000000	20.109100
2436.000000	20.224000
2435.000000	20.331400
2434.000000	20.423800
2433.000000	20.522100
2432.000000	20.624800
2431.000000	20.712800
2430.000000	20.812000
2429.000000	20.900500
2428.000000	21.000700
2427.000000	21.084000
2426.000000	21.174500
2425.000000	21.256700
2424.000000	21.387700
2423.000000	21.548800
2422.000000	21.678600
2421.000000	21.799300
2420.000000	21.899300
2419.000000	21.973000
2418.000000	22.049600
2417.000000	22.118200
2416.000000	22.181100
2415.000000	22.250400
2414.000000	22.352400
2413.000000	22.418400
2412.000000	22.475700
2411.000000	22.552500
2410.000000	22.595600
2409.000000	22.666400
2408.000000	22.758600
2407.000000	22.802600
2406.000000	22.817300
2405.000000	22.856100
2404.000000	22.913800
2403.000000	22.976600
2402.000000	23.015900
2401.000000	23.040500
2400.000000	23.072500
2399.000000	23.119000
2398.000000	23.171700
2397.000000	23.202100
2396.000000	23.240400
2395.000000	23.275000
2394.000000	23.277500
2393.000000	23.313100
2392.000000	23.356000
2391.000000	23.362400
2390.000000	23.359600
2389.000000	23.380300
2388.000000	23.414200
2387.000000	23.442700
2386.000000	23.469200
2385.000000	23.462400
2384.000000	23.460100
2383.000000	23.453600
2382.000000	23.461700
2381.000000	23.469300
2380.000000	23.453300
2379.000000	23.461900
2378.000000	23.461900
2377.000000	23.441900
2376.000000	23.430000
2375.000000	23.425700
2374.000000	23.416100
2373.000000	23.397800
2372.000000	23.390200
2371.000000	23.391100
2370.000000	23.392000
2369.000000	23.372800
2368.000000	23.376900
2367.000000	23.376900
2366.000000	23.367000
2365.000000	23.361900
2364.000000	23.373100
2363.000000	23.377700
2362.000000	23.352500
2361.000000	23.340000
2360.000000	23.344500
2359.000000	23.339800
2358.000000	23.336500
2357.000000	23.331600
2356.000000	23.328400
2355.000000	23.334500
2354.000000	23.318700
2353.000000	23.311100
2352.000000	23.324900
2351.000000	23.319600
2350.000000	23.308800
2349.000000	23.320200
2348.000000	23.324000
2347.000000	23.315700
2346.000000	23.313900
2345.000000	23.322800
2344.000000	23.304700
2343.000000	23.328000
2342.000000	23.342800
2341.000000	23.334700
2340.000000	23.334800
2339.000000	23.339100
2338.000000	23.371200
2337.000000	23.383000
2336.000000	23.379900
2335.000000	23.382400
2334.000000	23.394000
2333.000000	23.432400
2332.000000	23.451000
2331.000000	23.448400
2330.000000	23.456600
2329.000000	23.500400
2328.000000	23.550200
2327.000000	23.566500
2326.000000	23.567900
2325.000000	23.574800
2324.000000	23.598100
2323.000000	23.601000
2322.000000	23.616600
2321.000000	23.624600
2320.000000	23.610900
2319.000000	23.595700
2318.000000	23.593700
2317.000000	23.591800
2316.000000	23.557800
2315.000000	23.510000
2314.000000	23.477000
2313.000000	23.431100
2312.000000	23.415100
2311.000000	23.377300
2310.000000	23.317100
2309.000000	23.301800
2308.000000	23.287700
2307.000000	23.254500
2306.000000	23.237700
2305.000000	23.233300
2304.000000	23.215100
2303.000000	23.186500
2302.000000	23.194400
2301.000000	23.197700
2300.000000	23.192400
2299.000000	23.211600
2298.000000	23.229300
2297.000000	23.231700
2296.000000	23.252100
2295.000000	23.272700
2294.000000	23.304600
2293.000000	23.314500
2292.000000	23.361200
2291.000000	23.398400
2290.000000	23.406300
2289.000000	23.448600
2288.000000	23.487400
2287.000000	23.512700
2286.000000	23.563300
2285.000000	23.593900
2284.000000	23.647700
2283.000000	23.691000
2282.000000	23.731600
2281.000000	23.768000
2280.000000	23.798500
2279.000000	23.849900
2278.000000	23.887700
2277.000000	23.911500
2276.000000	23.947600
2275.000000	23.996000
2274.000000	24.015200
2273.000000	24.065600
2272.000000	24.119900
2271.000000	24.143600
2270.000000	24.212100
2269.000000	24.266400
2268.000000	24.343200
2267.000000	24.421600
2266.000000	24.503000
2265.000000	24.610200
2264.000000	24.735800
2263.000000	24.835500
2262.000000	24.963100
2261.000000	25.127500
2260.000000	25.274500
2259.000000	25.480800
2258.000000	25.617000
2257.000000	25.793500
2256.000000	25.981400
2255.000000	26.171300
2254.000000	26.396200
2253.000000	26.559200
2252.000000	26.727800
2251.000000	26.932500
2250.000000	27.084500
2249.000000	27.289200
2248.000000	27.429800
2247.000000	27.593900
2246.000000	27.709500
2245.000000	27.872400
2244.000000	27.989900
2243.000000	28.068300
2242.000000	28.173300
2241.000000	28.256100
2240.000000	28.349800
2239.000000	28.420300
2238.000000	28.446200
2237.000000	28.496700
2236.000000	28.536900
2235.000000	28.554100
2234.000000	28.593900
2233.000000	28.590500
2232.000000	28.570000
2231.000000	28.561400
2230.000000	28.530500
2229.000000	28.494800
2228.000000	28.469200
2227.000000	28.433700
2226.000000	28.376600
2225.000000	28.300600
2224.000000	28.255900
2223.000000	28.176100
2222.000000	28.100500
2221.000000	28.003500
2220.000000	27.908200
2219.000000	27.835300
2218.000000	27.757700
2217.000000	27.657500
2216.000000	27.581100
2215.000000	27.514400
2214.000000	27.428400
2213.000000	27.353000
2212.000000	27.286600
2211.000000	27.198900
2210.000000	27.127800
2209.000000	27.080400
2208.000000	27.027600
2207.000000	26.968300
2206.000000	26.916200
2205.000000	26.889000
2204.000000	26.836700
2203.000000	26.786100
2202.000000	26.745600
2201.000000	26.729200
2200.000000	26.690400
2199.000000	26.656900
2198.000000	26.629200
2197.000000	26.598600
2196.000000	26.572800
2195.000000	26.546200
2194.000000	26.515600
2193.000000	26.500300
2192.000000	26.489500
2191.000000	26.459200
2190.000000	26.429400
2189.000000	26.426800
2188.000000	26.403900
2187.000000	26.365200
2186.000000	26.337700
2185.000000	26.342300
2184.000000	26.323100
2183.000000	26.298400
2182.000000	26.281900
2181.000000	26.250200
2180.000000	26.216000
2179.000000	26.206100
2178.000000	26.194100
2177.000000	26.189200
2176.000000	26.182000
2175.000000	26.177400
2174.000000	26.173500
2173.000000	26.178600
2172.000000	26.190300
2171.000000	26.204400
2170.000000	26.224900
2169.000000	26.221700
2168.000000	26.264400
2167.000000	26.306700
2166.000000	26.343600
2165.000000	26.371000
2164.000000	26.422400
2163.000000	26.472500
2162.000000	26.542600
2161.000000	26.592000
2160.000000	26.669900
2159.000000	26.741400
2158.000000	26.823100
2157.000000	26.924200
2156.000000	27.026200
2155.000000	27.123000
2154.000000	27.215600
2153.000000	27.316300
2152.000000	27.444300
2151.000000	27.551600
2150.000000	27.661000
2149.000000	27.770900
2148.000000	27.872300
2147.000000	27.999300
2146.000000	28.121400
2145.000000	28.217800
2144.000000	28.321200
2143.000000	28.432500
2142.000000	28.544900
2141.000000	28.651000
2140.000000	28.759600
2139.000000	28.871700
2138.000000	28.961700
2137.000000	29.059500
2136.000000	29.149800
2135.000000	29.250000
2134.000000	29.341000
2133.000000	29.417900
2132.000000	29.495200
2131.000000	29.578900
2130.000000	29.650300
2129.000000	29.709400
2128.000000	29.770700
2127.000000	29.835400
2126.000000	29.889800
2125.000000	29.947100
2124.000000	29.995300
2123.000000	30.050200
2122.000000	30.095500
2121.000000	30.124700
2120.000000	30.159500
2119.000000	30.203400
2118.000000	30.219100
2117.000000	30.231100
2116.000000	30.267900
2115.000000	30.283100
2114.000000	30.297800
2113.000000	30.305400
2112.000000	30.321800
2111.000000	30.344400
2110.000000	30.330400
2109.000000	30.355400
2108.000000	30.375900
2107.000000	30.373600
2106.000000	30.370100
2105.000000	30.364000
2104.000000	30.372600
2103.000000	30.374600
2102.000000	30.383600
2101.000000	30.383200
2100.000000	30.375800
2099.000000	30.379500
2098.000000	30.393000
2097.000000	30.401500
2096.000000	30.399200
2095.000000	30.418200
2094.000000	30.438000
2093.000000	30.451700
2092.000000	30.469900
2091.000000	30.479600
2090.000000	30.482500
2089.000000	30.499000
2088.000000	30.516100
2087.000000	30.520100
2086.000000	30.512000
2085.000000	30.495400
2084.000000	30.483500
2083.000000	30.475200
2082.000000	30.443500
2081.000000	30.408500
2080.000000	30.362000
2079.000000	30.305400
2078.000000	30.250200
2077.000000	30.177300
2076.000000	30.104800
2075.000000	30.012600
2074.000000	29.937300
2073.000000	29.858900
2072.000000	29.744400
2071.000000	29.641600
2070.000000	29.535400
2069.000000	29.424400
2068.000000	29.316600
2067.000000	29.201100
2066.000000	29.097000
2065.000000	28.997200
2064.000000	28.887600
2063.000000	28.780400
2062.000000	28.676400
2061.000000	28.606900
2060.000000	28.532800
2059.000000	28.467100
2058.000000	28.419200
2057.000000	28.400200
2056.000000	28.384900
2055.000000	28.394300
2054.000000	28.417000
2053.000000	28.463300
2052.000000	28.536800
2051.000000	28.619700
2050.000000	28.737300
2049.000000	28.871700
2048.000000	29.013000
2047.000000	29.161400
2046.000000	29.331400
2045.000000	29.497000
2044.000000	29.674400
2043.000000	29.833500
2042.000000	30.003900
2041.000000	30.186800
2040.000000	30.359500
2039.000000	30.511000
2038.000000	30.682500
2037.000000	30.835100
2036.000000	30.983600
2035.000000	31.118700
2034.000000	31.258000
2033.000000	31.389400
2032.000000	31.501800
2031.000000	31.606800
2030.000000	31.722400
2029.000000	31.837500
2028.000000	31.901000
2027.000000	31.976500
2026.000000	32.068600
2025.000000	32.164300
2024.000000	32.229200
2023.000000	32.270900
2022.000000	32.332200
2021.000000	32.390900
2020.000000	32.451600
2019.000000	32.495500
2018.000000	32.524800
2017.000000	32.563600
2016.000000	32.579900
2015.000000	32.612400
2014.000000	32.620500
2013.000000	32.618500
2012.000000	32.621800
2011.000000	32.608000
2010.000000	32.624200
2009.000000	32.620600
2008.000000	32.575500
2007.000000	32.560200
2006.000000	32.507700
2005.000000	32.490500
2004.000000	32.420300
2003.000000	32.376800
2002.000000	32.335400
2001.000000	32.245200
2000.000000	32.192700
1999.000000	32.119200
1998.000000	32.032900
1997.000000	31.949400
1996.000000	31.881000
1995.000000	31.775200
1994.000000	31.685200
1993.000000	31.597400
1992.000000	31.497900
1991.000000	31.391700
1990.000000	31.287900
1989.000000	31.170300
1988.000000	31.066500
1987.000000	30.952700
1986.000000	30.840100
1985.000000	30.735700
1984.000000	30.617300
1983.000000	30.511800
1982.000000	30.386100
1981.000000	30.282600
1980.000000	30.169500
1979.000000	30.051300
1978.000000	29.929700
1977.000000	29.830600
1976.000000	29.720500
1975.000000	29.617600
1974.000000	29.522700
1973.000000	29.415100
1972.000000	29.313100
1971.000000	29.218500
1970.000000	29.124300
1969.000000	28.994100
1968.000000	28.896800
1967.000000	28.809200
1966.000000	28.706500
1965.000000	28.610900
1964.000000	28.497500
1963.000000	28.408700
1962.000000	28.310200
1961.000000	28.171000
1960.000000	28.082000
1959.000000	27.971200
1958.000000	27.878400
1957.000000	27.758300
1956.000000	27.659000
1955.000000	27.543800
1954.000000	27.450500
1953.000000	27.337800
1952.000000	27.234800
1951.000000	27.129700
1950.000000	27.058000
1949.000000	26.974000
1948.000000	26.891000
1947.000000	26.817700
1946.000000	26.748700
1945.000000	26.677300
1944.000000	26.589100
1943.000000	26.563700
1942.000000	26.529800
1941.000000	26.504400
1940.000000	26.492000
1939.000000	26.480800
1938.000000	26.454700
1937.000000	26.462500
1936.000000	26.484200
1935.000000	26.502200
1934.000000	26.527600
1933.000000	26.569400
1932.000000	26.663900
1931.000000	26.744900
1930.000000	26.853900
1929.000000	26.967200
1928.000000	27.082700
1927.000000	27.213000
1926.000000	27.358700
1925.000000	27.521100
1924.000000	27.691500
1923.000000	27.878900
1922.000000	28.105000
1921.000000	28.373800
1920.000000	28.609600
1919.000000	28.820800
1918.000000	29.098700
1917.000000	29.363200
1916.000000	29.644200
1915.000000	29.969700
1914.000000	30.345900
1913.000000	30.731000
1912.000000	31.089700
1911.000000	31.485400
1910.000000	31.816100
1909.000000	32.195800
1908.000000	32.627700
1907.000000	33.112200
1906.000000	33.691500
1905.000000	34.235200
1904.000000	34.723200
1903.000000	35.239500
1902.000000	35.757200
1901.000000	36.350200
1900.000000	36.986400
1899.000000	37.582400
1898.000000	38.208400
1897.000000	38.750600
1896.000000	39.261700
1895.000000	39.807900
1894.000000	40.396200
1893.000000	41.015100
1892.000000	41.653000
1891.000000	42.272800
1890.000000	42.830200
1889.000000	43.347800
1888.000000	43.840200
1887.000000	44.355500
1886.000000	44.856600
1885.000000	45.353000
1884.000000	45.814000
1883.000000	46.217200
1882.000000	46.593600
1881.000000	46.972200
1880.000000	47.303000
1879.000000	47.652000
1878.000000	47.979400
1877.000000	48.272000
1876.000000	48.570200
1875.000000	48.854800
1874.000000	49.125000
1873.000000	49.369600
1872.000000	49.584200
1871.000000	49.766700
1870.000000	49.914600
1869.000000	50.062300
1868.000000	50.162200
1867.000000	50.237400
1866.000000	50.313900
1865.000000	50.403900
1864.000000	50.482400
1863.000000	50.587400
1862.000000	50.717000
1861.000000	50.823000
1860.000000	50.891600
1859.000000	50.936600
1858.000000	50.989000
1857.000000	51.048400
1856.000000	51.085400
1855.000000	51.135300
1854.000000	51.167700
1853.000000	51.155400
1852.000000	51.166400
1851.000000	51.221600
1850.000000	51.283800
1849.000000	51.321600
1848.000000	51.309200
1847.000000	51.206200
1846.000000	51.130100
1845.000000	51.138300
1844.000000	51.153200
1843.000000	51.234000
1842.000000	51.266600
1841.000000	51.207600
1840.000000	51.149800
1839.000000	51.098000
1838.000000	51.071000
1837.000000	51.013400
1836.000000	50.943200
1835.000000	50.881000
1834.000000	50.820300
1833.000000	50.771600
1832.000000	50.749300
1831.000000	50.726900
1830.000000	50.691500
1829.000000	50.647700
1828.000000	50.580300
1827.000000	50.528500
1826.000000	50.495100
1825.000000	50.462300
1824.000000	50.462200
1823.000000	50.545400
1822.000000	50.581600
1821.000000	50.530400
1820.000000	50.468400
1819.000000	50.407300
1818.000000	50.370400
1817.000000	50.375800
1816.000000	50.369200
1815.000000	50.333900
1814.000000	50.317600
1813.000000	50.299500
1812.000000	50.276200
1811.000000	50.211100
1810.000000	50.145100
1809.000000	50.126100
1808.000000	50.119300
1807.000000	50.098900
1806.000000	50.044700
1805.000000	49.994200
1804.000000	49.974600
1803.000000	49.964600
1802.000000	49.939300
1801.000000	49.878500
1800.000000	49.828200
1799.000000	49.799100
1798.000000	49.762300
1797.000000	49.742500
1796.000000	49.713500
1795.000000	49.680100
1794.000000	49.655400
1793.000000	49.638500
1792.000000	49.610900
1791.000000	49.588800
1790.000000	49.567200
1789.000000	49.560600
1788.000000	49.573600
1787.000000	49.574100
1786.000000	49.554400
1785.000000	49.541100
1784.000000	49.514000
1783.000000	49.493300
1782.000000	49.473500
1781.000000	49.455200
1780.000000	49.432900
1779.000000	49.382000
1778.000000	49.337200
1777.000000	49.303100
1776.000000	49.262600
1775.000000	49.198000
1774.000000	49.132600
1773.000000	49.092800
1772.000000	49.046400
1771.000000	48.991600
1770.000000	48.942600
1769.000000	48.903300
1768.000000	48.853000
1767.000000	48.805500
1766.000000	48.757500
1765.000000	48.718600
1764.000000	48.693200
1763.000000	48.676200
1762.000000	48.650200
1761.000000	48.643600
1760.000000	48.628000
1759.000000	48.620900
1758.000000	48.614400
1757.000000	48.578800
1756.000000	48.571800
1755.000000	48.571600
1754.000000	48.542400
1753.000000	48.519000
1752.000000	48.488600
1751.000000	48.455200
1750.000000	48.422300
1749.000000	48.384300
1748.000000	48.335700
1747.000000	48.281000
1746.000000	48.219800
1745.000000	48.158300
1744.000000	48.085200
1743.000000	48.008600
1742.000000	47.949500
1741.000000	47.876300
1740.000000	47.814200
1739.000000	47.774400
1738.000000	47.707300
1737.000000	47.680500
1736.000000	47.659600
1735.000000	47.615500
1734.000000	47.590500
1733.000000	47.588600
1732.000000	47.553700
1731.000000	47.548400
1730.000000	47.531100
1729.000000	47.521000
1728.000000	47.518400
1727.000000	47.517500
1726.000000	47.519300
1725.000000	47.540700
1724.000000	47.591800
1723.000000	47.670300
1722.000000	47.765300
1721.000000	47.892200
1720.000000	48.066600
1719.000000	48.251600
1718.000000	48.446100
1717.000000	48.644800
1716.000000	48.843100
1715.000000	49.023700
1714.000000	49.190100
1713.000000	49.340500
1712.000000	49.485800
1711.000000	49.589800
1710.000000	49.710500
1709.000000	49.793500
1708.000000	49.859400
1707.000000	49.921500
1706.000000	49.954600
1705.000000	50.014500
1704.000000	50.002200
1703.000000	50.003300
1702.000000	50.013300
1701.000000	49.996900
1700.000000	50.000600
1699.000000	49.997400
1698.000000	49.982300
1697.000000	49.953300
1696.000000	49.954200
1695.000000	49.932500
1694.000000	49.879300
1693.000000	49.859200
1692.000000	49.796000
1691.000000	49.780400
1690.000000	49.773100
1689.000000	49.779800
1688.000000	49.859900
1687.000000	49.954800
1686.000000	50.100400
1685.000000	50.298600
1684.000000	50.489700
1683.000000	50.731400
1682.000000	50.934400
1681.000000	51.155400
1680.000000	51.362100
1679.000000	51.577200
1678.000000	51.789100
1677.000000	51.953200
1676.000000	52.137500
1675.000000	52.307200
1674.000000	52.476900
1673.000000	52.669500
1672.000000	52.818800
1671.000000	52.979900
1670.000000	53.155700
1669.000000	53.312300
1668.000000	53.474200
1667.000000	53.639700
1666.000000	53.770300
1665.000000	53.885700
1664.000000	54.035000
1663.000000	54.107600
1662.000000	54.232100
1661.000000	54.326100
1660.000000	54.429300
1659.000000	54.498100
1658.000000	54.551300
1657.000000	54.610900
1656.000000	54.643900
1655.000000	54.681600
1654.000000	54.720000
1653.000000	54.714800
1652.000000	54.723400
1651.000000	54.744700
1650.000000	54.744700
1649.000000	54.726600
1648.000000	54.713700
1647.000000	54.705900
1646.000000	54.678000
1645.000000	54.653200
1644.000000	54.644500
1643.000000	54.635700
1642.000000	54.604700
1641.000000	54.598500
1640.000000	54.594500
1639.000000	54.569600
1638.000000	54.539800
1637.000000	54.525600
1636.000000	54.493700
1635.000000	54.475900
1634.000000	54.443100
1633.000000	54.400200
1632.000000	54.358200
1631.000000	54.327500
1630.000000	54.282700
1629.000000	54.243900
1628.000000	54.197400
1627.000000	54.173700
1626.000000	54.118200
1625.000000	54.075400
1624.000000	54.055500
