PE UV       SUBTECH     SPECTRUM    ASCII       PEDS        4.00        
   -1
CICIMAUCR0158-2.Sample.ASC
24/04/11
11:32:05.00
24/04/11
11:32:05.00
Vinicio Soto Monge
C.cupreomarginata
250,000000
1
Lambda 1050
1050L1511233
PerkinElmer UV WinLab 6.3.2.0749 / 2.02.05 Lambda 900 UV/VIS/NIR, Aug  7 2015 09:38:08

0
0
3350/2 860,8/2
0
0
UV/VIS
1
1
1
DoubleDePol,CommonBeamDepol,RBeamAtt,SBeamAtt,60mm sphere, WB InGaAs Detector
0
0
0
0
Program
Program
3350/2 860,8/2
3350/0,2 860,8/0,2
3350/0,2 860,8/0,2
0
15.00
 
 
 
0
 
860,8
319,2
860,8
Front
100
on
S:100 R:100
0
0
0
0
 
0
 
 
 
0
 
 
0
0
0
0
0
 
 
 
 
0
0


0
0
#HDR
-1
-1
#GR
nm
%R
1.0
0.0
2400,000000
-1,000000
2151
8
75,735800
5,513200
#DATA
2400.000000	25.709600
2399.000000	27.179900
2398.000000	27.343300
2397.000000	26.441600
2396.000000	26.188000
2395.000000	27.060500
2394.000000	26.288200
2393.000000	26.817800
2392.000000	26.324400
2391.000000	27.815000
2390.000000	27.384600
2389.000000	26.713000
2388.000000	26.670400
2387.000000	27.022200
2386.000000	26.607700
2385.000000	27.089300
2384.000000	26.831000
2383.000000	26.847200
2382.000000	27.008700
2381.000000	26.865400
2380.000000	26.906200
2379.000000	26.763300
2378.000000	26.382500
2377.000000	26.482500
2376.000000	26.253600
2375.000000	26.840800
2374.000000	26.854900
2373.000000	26.865200
2372.000000	27.323400
2371.000000	26.957400
2370.000000	27.245300
2369.000000	26.237800
2368.000000	26.096800
2367.000000	26.648800
2366.000000	26.288400
2365.000000	26.381100
2364.000000	27.092900
2363.000000	27.465300
2362.000000	26.823000
2361.000000	26.319400
2360.000000	26.508000
2359.000000	26.738100
2358.000000	26.879100
2357.000000	26.470700
2356.000000	26.373800
2355.000000	26.192400
2354.000000	26.039700
2353.000000	26.081200
2352.000000	26.306100
2351.000000	26.184900
2350.000000	26.553800
2349.000000	26.153200
2348.000000	26.302400
2347.000000	25.337000
2346.000000	25.957100
2345.000000	25.708700
2344.000000	25.784500
2343.000000	25.730900
2342.000000	26.241800
2341.000000	26.539000
2340.000000	26.230100
2339.000000	26.552300
2338.000000	25.752000
2337.000000	25.847200
2336.000000	26.268200
2335.000000	25.905100
2334.000000	26.314000
2333.000000	26.139800
2332.000000	25.850100
2331.000000	25.759700
2330.000000	25.578900
2329.000000	25.399000
2328.000000	26.044600
2327.000000	26.360900
2326.000000	25.899900
2325.000000	26.150100
2324.000000	26.429100
2323.000000	25.965400
2322.000000	25.938800
2321.000000	25.735500
2320.000000	25.904800
2319.000000	26.251900
2318.000000	26.322300
2317.000000	26.013500
2316.000000	25.716200
2315.000000	25.916900
2314.000000	25.872000
2313.000000	25.723100
2312.000000	25.509700
2311.000000	25.509700
2310.000000	25.600800
2309.000000	25.268200
2308.000000	25.094900
2307.000000	25.382100
2306.000000	25.069700
2305.000000	24.829300
2304.000000	25.439800
2303.000000	25.496700
2302.000000	25.282900
2301.000000	25.365700
2300.000000	25.139300
2299.000000	25.047300
2298.000000	24.977000
2297.000000	24.978400
2296.000000	25.011300
2295.000000	25.031400
2294.000000	25.010900
2293.000000	25.119800
2292.000000	25.033400
2291.000000	25.188100
2290.000000	25.191600
2289.000000	25.143100
2288.000000	25.395800
2287.000000	25.063200
2286.000000	25.090300
2285.000000	25.323600
2284.000000	25.528700
2283.000000	25.173200
2282.000000	25.199500
2281.000000	25.456700
2280.000000	25.084600
2279.000000	25.095300
2278.000000	25.694200
2277.000000	25.759600
2276.000000	25.467600
2275.000000	25.663800
2274.000000	25.838400
2273.000000	25.835100
2272.000000	25.537000
2271.000000	25.632100
2270.000000	25.872200
2269.000000	25.931000
2268.000000	25.746700
2267.000000	25.706100
2266.000000	25.977800
2265.000000	25.865200
2264.000000	25.983500
2263.000000	26.461200
2262.000000	26.403900
2261.000000	26.294200
2260.000000	26.454500
2259.000000	26.561800
2258.000000	26.664400
2257.000000	26.747700
2256.000000	26.951700
2255.000000	27.356300
2254.000000	27.497000
2253.000000	27.570100
2252.000000	27.857900
2251.000000	28.022500
2250.000000	28.091200
2249.000000	28.272700
2248.000000	28.340600
2247.000000	28.182900
2246.000000	28.483700
2245.000000	28.609300
2244.000000	28.624700
2243.000000	28.834600
2242.000000	28.850300
2241.000000	29.207900
2240.000000	29.247100
2239.000000	29.196900
2238.000000	29.395200
2237.000000	29.620700
2236.000000	29.548900
2235.000000	29.192800
2234.000000	29.482300
2233.000000	29.644600
2232.000000	29.323400
2231.000000	29.416500
2230.000000	29.355800
2229.000000	29.495100
2228.000000	29.352300
2227.000000	29.389900
2226.000000	29.231300
2225.000000	29.256600
2224.000000	29.059600
2223.000000	28.955500
2222.000000	28.893900
2221.000000	28.709700
2220.000000	28.742600
2219.000000	28.653000
2218.000000	28.531300
2217.000000	28.525900
2216.000000	28.407600
2215.000000	28.268400
2214.000000	28.155800
2213.000000	27.956700
2212.000000	28.080600
2211.000000	27.830300
2210.000000	27.859500
2209.000000	27.747600
2208.000000	27.676900
2207.000000	27.785700
2206.000000	27.570300
2205.000000	27.674200
2204.000000	27.714400
2203.000000	27.470200
2202.000000	27.357200
2201.000000	27.679500
2200.000000	27.458100
2199.000000	27.143900
2198.000000	27.148500
2197.000000	27.027500
2196.000000	26.746700
2195.000000	26.990800
2194.000000	27.240700
2193.000000	27.063300
2192.000000	27.118000
2191.000000	27.350300
2190.000000	27.399200
2189.000000	27.268500
2188.000000	27.085100
2187.000000	26.872900
2186.000000	27.143800
2185.000000	26.892500
2184.000000	26.902800
2183.000000	26.665600
2182.000000	26.679300
2181.000000	26.935800
2180.000000	26.744800
2179.000000	27.068500
2178.000000	27.038900
2177.000000	26.801900
2176.000000	26.787200
2175.000000	26.820900
2174.000000	26.475000
2173.000000	26.640500
2172.000000	26.572700
2171.000000	26.738100
2170.000000	27.221700
2169.000000	27.101000
2168.000000	26.886000
2167.000000	26.986800
2166.000000	26.908000
2165.000000	26.552200
2164.000000	26.942500
2163.000000	27.261100
2162.000000	27.134800
2161.000000	27.177100
2160.000000	27.489500
2159.000000	27.506500
2158.000000	27.348500
2157.000000	27.488800
2156.000000	27.729600
2155.000000	27.810000
2154.000000	27.992100
2153.000000	27.940200
2152.000000	28.171600
2151.000000	28.014000
2150.000000	28.083700
2149.000000	28.791900
2148.000000	28.405200
2147.000000	29.103700
2146.000000	29.233500
2145.000000	28.960900
2144.000000	28.966400
2143.000000	29.009700
2142.000000	29.441500
2141.000000	28.762700
2140.000000	29.402900
2139.000000	29.434100
2138.000000	29.722700
2137.000000	30.089900
2136.000000	30.028500
2135.000000	30.222000
2134.000000	30.234500
2133.000000	29.844500
2132.000000	30.451000
2131.000000	30.242300
2130.000000	30.409800
2129.000000	30.367400
2128.000000	30.622700
2127.000000	30.573100
2126.000000	30.406300
2125.000000	30.888800
2124.000000	30.789100
2123.000000	30.428800
2122.000000	30.864300
2121.000000	30.628800
2120.000000	30.650500
2119.000000	30.775400
2118.000000	30.550400
2117.000000	30.882700
2116.000000	30.970900
2115.000000	31.043500
2114.000000	31.045100
2113.000000	30.835100
2112.000000	30.984200
2111.000000	30.860400
2110.000000	30.897500
2109.000000	30.936900
2108.000000	30.847100
2107.000000	31.102600
2106.000000	30.835300
2105.000000	30.994800
2104.000000	30.642800
2103.000000	30.596600
2102.000000	30.962400
2101.000000	30.788800
2100.000000	30.744200
2099.000000	31.057600
2098.000000	30.675100
2097.000000	30.962600
2096.000000	31.006900
2095.000000	30.775400
2094.000000	30.719400
2093.000000	30.914600
2092.000000	30.746800
2091.000000	30.651500
2090.000000	30.689700
2089.000000	31.063700
2088.000000	31.025800
2087.000000	30.671100
2086.000000	30.596400
2085.000000	30.696600
2084.000000	30.538300
2083.000000	30.656100
2082.000000	30.665100
2081.000000	30.585800
2080.000000	30.387300
2079.000000	30.526700
2078.000000	30.414400
2077.000000	30.262200
2076.000000	30.117100
2075.000000	30.075000
2074.000000	29.954200
2073.000000	29.944900
2072.000000	29.899400
2071.000000	29.770500
2070.000000	29.550800
2069.000000	29.309800
2068.000000	29.385700
2067.000000	29.171200
2066.000000	29.078100
2065.000000	28.881000
2064.000000	28.740600
2063.000000	28.697000
2062.000000	28.563700
2061.000000	28.549700
2060.000000	28.276800
2059.000000	28.197300
2058.000000	28.173700
2057.000000	28.073100
2056.000000	28.066700
2055.000000	27.857900
2054.000000	27.857800
2053.000000	28.005500
2052.000000	27.900200
2051.000000	27.994100
2050.000000	28.130100
2049.000000	28.118800
2048.000000	28.129800
2047.000000	28.396600
2046.000000	28.556100
2045.000000	28.762400
2044.000000	28.893500
2043.000000	29.029000
2042.000000	29.094000
2041.000000	29.298900
2040.000000	29.495400
2039.000000	29.565100
2038.000000	29.577100
2037.000000	29.759600
2036.000000	29.886800
2035.000000	29.928900
2034.000000	30.058200
2033.000000	30.144600
2032.000000	30.353300
2031.000000	30.479700
2030.000000	30.451500
2029.000000	30.574100
2028.000000	30.711700
2027.000000	30.729700
2026.000000	30.790600
2025.000000	30.775200
2024.000000	30.815100
2023.000000	30.857700
2022.000000	30.985300
2021.000000	31.044400
2020.000000	31.017300
2019.000000	31.062300
2018.000000	31.164500
2017.000000	31.197800
2016.000000	31.157200
2015.000000	31.109100
2014.000000	31.149800
2013.000000	31.101900
2012.000000	31.054300
2011.000000	31.078800
2010.000000	31.118400
2009.000000	31.100200
2008.000000	31.088400
2007.000000	31.034700
2006.000000	30.941000
2005.000000	30.951700
2004.000000	30.885800
2003.000000	30.857500
2002.000000	30.843400
2001.000000	30.759300
2000.000000	30.684100
1999.000000	30.485000
1998.000000	30.361300
1997.000000	30.348900
1996.000000	30.195200
1995.000000	30.092100
1994.000000	29.990600
1993.000000	29.913800
1992.000000	29.842700
1991.000000	29.752300
1990.000000	29.695900
1989.000000	29.591400
1988.000000	29.425900
1987.000000	29.298900
1986.000000	29.206100
1985.000000	29.124500
1984.000000	28.996600
1983.000000	28.872300
1982.000000	28.745600
1981.000000	28.626000
1980.000000	28.479900
1979.000000	28.385600
1978.000000	28.291600
1977.000000	28.143800
1976.000000	28.005700
1975.000000	27.880700
1974.000000	27.768100
1973.000000	27.742400
1972.000000	27.620600
1971.000000	27.490600
1970.000000	27.389100
1969.000000	27.314500
1968.000000	27.265100
1967.000000	27.166400
1966.000000	27.024200
1965.000000	26.902100
1964.000000	26.763300
1963.000000	26.736600
1962.000000	26.654300
1961.000000	26.555300
1960.000000	26.486500
1959.000000	26.382000
1958.000000	26.236500
1957.000000	26.092800
1956.000000	26.050000
1955.000000	25.921400
1954.000000	25.822400
1953.000000	25.744100
1952.000000	25.639400
1951.000000	25.543900
1950.000000	25.472100
1949.000000	25.394800
1948.000000	25.296700
1947.000000	25.230700
1946.000000	25.159000
1945.000000	25.144000
1944.000000	25.049100
1943.000000	24.950900
1942.000000	24.958000
1941.000000	24.973700
1940.000000	24.975500
1939.000000	24.941300
1938.000000	24.845500
1937.000000	24.892900
1936.000000	24.857600
1935.000000	24.799400
1934.000000	24.926100
1933.000000	25.005900
1932.000000	25.030800
1931.000000	25.136300
1930.000000	25.192800
1929.000000	25.305400
1928.000000	25.483500
1927.000000	25.525500
1926.000000	25.550100
1925.000000	25.711500
1924.000000	25.852500
1923.000000	25.950800
1922.000000	26.170100
1921.000000	26.569800
1920.000000	26.679200
1919.000000	26.614900
1918.000000	26.826400
1917.000000	27.250200
1916.000000	27.570500
1915.000000	27.935900
1914.000000	28.253100
1913.000000	28.463600
1912.000000	28.679800
1911.000000	29.163100
1910.000000	29.350900
1909.000000	29.749700
1908.000000	30.182300
1907.000000	30.773300
1906.000000	31.274400
1905.000000	31.676800
1904.000000	32.121300
1903.000000	32.717300
1902.000000	33.219900
1901.000000	33.592800
1900.000000	34.638800
1899.000000	34.997800
1898.000000	35.533700
1897.000000	35.913900
1896.000000	36.511700
1895.000000	37.212400
1894.000000	37.849000
1893.000000	38.471900
1892.000000	39.050500
1891.000000	39.670100
1890.000000	40.406100
1889.000000	40.893300
1888.000000	41.336700
1887.000000	42.081800
1886.000000	42.564900
1885.000000	43.068700
1884.000000	43.672400
1883.000000	43.914400
1882.000000	44.460300
1881.000000	44.932900
1880.000000	45.206100
1879.000000	45.567500
1878.000000	46.107200
1877.000000	46.599100
1876.000000	46.718200
1875.000000	46.984300
1874.000000	47.579200
1873.000000	47.909700
1872.000000	47.987300
1871.000000	48.520900
1870.000000	48.218900
1869.000000	48.404800
1868.000000	48.752300
1867.000000	48.546200
1866.000000	48.438600
1865.000000	48.867200
1864.000000	49.069800
1863.000000	48.932300
1862.000000	49.087700
1861.000000	49.530300
1860.000000	49.687300
1859.000000	49.400500
1858.000000	49.472000
1857.000000	49.749900
1856.000000	49.567600
1855.000000	49.553800
1854.000000	50.037600
1853.000000	49.879400
1852.000000	49.535800
1851.000000	49.723800
1850.000000	49.838800
1849.000000	50.107100
1848.000000	50.394700
1847.000000	50.176600
1846.000000	49.602500
1845.000000	49.557100
1844.000000	49.766300
1843.000000	49.946800
1842.000000	50.129900
1841.000000	49.810700
1840.000000	49.838900
1839.000000	49.757100
1838.000000	49.761600
1837.000000	49.785700
1836.000000	49.743100
1835.000000	49.549000
1834.000000	49.363900
1833.000000	49.396800
1832.000000	49.432100
1831.000000	49.512500
1830.000000	49.430400
1829.000000	49.294300
1828.000000	49.231300
1827.000000	49.280700
1826.000000	49.242800
1825.000000	48.973500
1824.000000	49.020000
1823.000000	49.207000
1822.000000	49.338200
1821.000000	49.315200
1820.000000	49.210300
1819.000000	49.022300
1818.000000	49.070200
1817.000000	49.081000
1816.000000	49.094300
1815.000000	48.971400
1814.000000	48.950700
1813.000000	49.036200
1812.000000	49.029900
1811.000000	48.953200
1810.000000	48.864200
1809.000000	48.810000
1808.000000	48.861300
1807.000000	48.885400
1806.000000	48.852000
1805.000000	48.739100
1804.000000	48.703200
1803.000000	48.766300
1802.000000	48.772900
1801.000000	48.718400
1800.000000	48.649700
1799.000000	48.580100
1798.000000	48.558300
1797.000000	48.588700
1796.000000	48.544800
1795.000000	48.527300
1794.000000	48.510400
1793.000000	48.487700
1792.000000	48.460300
1791.000000	48.456800
1790.000000	48.453700
1789.000000	48.409800
1788.000000	48.433000
1787.000000	48.466500
1786.000000	48.464900
1785.000000	48.462000
1784.000000	48.436000
1783.000000	48.416700
1782.000000	48.437300
1781.000000	48.433200
1780.000000	48.408700
1779.000000	48.420900
1778.000000	48.383500
1777.000000	48.367500
1776.000000	48.339600
1775.000000	48.291000
1774.000000	48.244500
1773.000000	48.164700
1772.000000	48.114600
1771.000000	48.112900
1770.000000	48.084400
1769.000000	48.042500
1768.000000	48.031200
1767.000000	47.990900
1766.000000	47.962300
1765.000000	47.932900
1764.000000	47.883100
1763.000000	47.814100
1762.000000	47.803000
1761.000000	47.794500
1760.000000	47.791700
1759.000000	47.774000
1758.000000	47.788700
1757.000000	47.799600
1756.000000	47.788700
1755.000000	47.779600
1754.000000	47.759900
1753.000000	47.761700
1752.000000	47.780200
1751.000000	47.748100
1750.000000	47.703400
1749.000000	47.684300
1748.000000	47.650600
1747.000000	47.599700
1746.000000	47.536500
1745.000000	47.481800
1744.000000	47.428300
1743.000000	47.378500
1742.000000	47.301500
1741.000000	47.241700
1740.000000	47.213700
1739.000000	47.137300
1738.000000	47.060200
1737.000000	47.020500
1736.000000	46.964200
1735.000000	46.943500
1734.000000	46.956000
1733.000000	46.911100
1732.000000	46.855800
1731.000000	46.837600
1730.000000	46.804800
1729.000000	46.778900
1728.000000	46.791900
1727.000000	46.784400
1726.000000	46.751400
1725.000000	46.745200
1724.000000	46.768700
1723.000000	46.830000
1722.000000	46.907900
1721.000000	47.016800
1720.000000	47.186400
1719.000000	47.367100
1718.000000	47.573500
1717.000000	47.793400
1716.000000	47.985100
1715.000000	48.189700
1714.000000	48.382700
1713.000000	48.548500
1712.000000	48.683900
1711.000000	48.798500
1710.000000	48.905800
1709.000000	49.045400
1708.000000	49.153100
1707.000000	49.234000
1706.000000	49.259700
1705.000000	49.291500
1704.000000	49.332200
1703.000000	49.353700
1702.000000	49.418900
1701.000000	49.420200
1700.000000	49.412600
1699.000000	49.432000
1698.000000	49.419100
1697.000000	49.428900
1696.000000	49.447600
1695.000000	49.418800
1694.000000	49.362900
1693.000000	49.324500
1692.000000	49.271700
1691.000000	49.234400
1690.000000	49.234500
1689.000000	49.214600
1688.000000	49.250600
1687.000000	49.366500
1686.000000	49.507100
1685.000000	49.665900
1684.000000	49.882500
1683.000000	50.051700
1682.000000	50.274100
1681.000000	50.528500
1680.000000	50.744000
1679.000000	50.948400
1678.000000	51.133100
1677.000000	51.322800
1676.000000	51.495500
1675.000000	51.660800
1674.000000	51.840300
1673.000000	51.985000
1672.000000	52.195900
1671.000000	52.367700
1670.000000	52.534800
1669.000000	52.709800
1668.000000	52.843200
1667.000000	53.034900
1666.000000	53.178000
1665.000000	53.319300
1664.000000	53.421600
1663.000000	53.553300
1662.000000	53.684000
1661.000000	53.799400
1660.000000	53.881500
1659.000000	53.954100
1658.000000	54.032300
1657.000000	54.114700
1656.000000	54.157800
1655.000000	54.202300
1654.000000	54.248300
1653.000000	54.246800
1652.000000	54.282900
1651.000000	54.311800
1650.000000	54.294700
1649.000000	54.289800
1648.000000	54.320700
1647.000000	54.280800
1646.000000	54.272200
1645.000000	54.268900
1644.000000	54.244000
1643.000000	54.213000
1642.000000	54.232900
1641.000000	54.200000
1640.000000	54.214800
1639.000000	54.181000
1638.000000	54.192100
1637.000000	54.136600
1636.000000	54.142600
1635.000000	54.133300
1634.000000	54.086600
1633.000000	54.037300
1632.000000	53.989000
1631.000000	53.948900
1630.000000	53.913300
1629.000000	53.838100
1628.000000	53.821800
1627.000000	53.762800
1626.000000	53.736000
1625.000000	53.683900
1624.000000	53.638200
1623.000000	53.556400
1622.000000	53.506300
1621.000000	53.501200
1620.000000	53.451600
1619.000000	53.449000
1618.000000	53.420000
1617.000000	53.387200
1616.000000	53.327700
1615.000000	53.292700
1614.000000	53.248800
1613.000000	53.224700
1612.000000	53.173800
1611.000000	53.100100
1610.000000	53.067900
1609.000000	52.974100
1608.000000	52.923300
1607.000000	52.848800
1606.000000	52.804400
1605.000000	52.709300
1604.000000	52.661100
1603.000000	52.579900
1602.000000	52.482000
1601.000000	52.446400
1600.000000	52.341800
1599.000000	52.279300
1598.000000	52.194400
1597.000000	52.101000
1596.000000	52.062600
1595.000000	51.999600
1594.000000	51.939400
1593.000000	51.864800
1592.000000	51.799400
1591.000000	51.754300
1590.000000	51.691100
1589.000000	51.643800
1588.000000	51.588600
1587.000000	51.549800
1586.000000	51.491600
1585.000000	51.434600
1584.000000	51.370100
1583.000000	51.321700
1582.000000	51.280500
1581.000000	51.269400
1580.000000	51.211800
1579.000000	51.174100
1578.000000	51.152700
1577.000000	51.138700
1576.000000	51.123300
1575.000000	51.079700
1574.000000	51.065600
1573.000000	51.082800
1572.000000	51.069200
1571.000000	51.088500
1570.000000	51.064300
1569.000000	51.097700
1568.000000	51.101900
1567.000000	51.129900
1566.000000	51.132600
1565.000000	51.109100
1564.000000	51.099300
1563.000000	51.137000
1562.000000	51.132800
1561.000000	51.125400
1560.000000	51.094200
1559.000000	51.057000
1558.000000	51.016500
1557.000000	51.009000
1556.000000	50.923300
1555.000000	50.868300
1554.000000	50.825100
1553.000000	50.760200
1552.000000	50.659400
1551.000000	50.597000
1550.000000	50.511900
1549.000000	50.417500
1548.000000	50.338700
1547.000000	50.273600
1546.000000	50.205200
1545.000000	50.117500
1544.000000	50.072200
1543.000000	50.008300
1542.000000	49.977100
1541.000000	49.925200
1540.000000	49.876300
1539.000000	49.845100
1538.000000	49.797900
1537.000000	49.742700
1536.000000	49.727000
1535.000000	49.668000
1534.000000	49.609600
1533.000000	49.560200
1532.000000	49.526900
1531.000000	49.467200
1530.000000	49.406300
1529.000000	49.344600
1528.000000	49.272200
1527.000000	49.235600
1526.000000	49.177100
1525.000000	49.114500
1524.000000	49.047800
