PE UV       SUBTECH     SPECTRUM    ASCII       PEDS        4.00        
   -1
CICIMAUCR0014-5.Sample.ASC
24/04/23
11:16:56.00
24/04/23
11:16:56.00
Vinicio Soto Monge
C. cupreomarginata
250,000000
1
Lambda 1050
1050L1511233
PerkinElmer UV WinLab 6.3.2.0749 / 2.02.05 Lambda 900 UV/VIS/NIR, Aug  7 2015 09:38:08

0
0
3350/servo 860,8/2
0
0
UV/VIS
1
1
1
DoubleDePol,CommonBeamDepol,RBeamAtt,SBeamAtt,60mm sphere, WB InGaAs Detector
0
0
0
0
Program
Program
3350/servo 860,8/2
3350/0,2 860,8/0,2
3350/0,2 860,8/0,2
0
15.00
 
 
 
0
 
860,8
319,2
860,8
Front
100
on
S:100 R:100
0
0
0
0
 
0
 
 
 
0
 
 
0
0
0
0
0
 
 
 
 
0
0


0
0
#HDR
-1
-1
#GR
nm
%R
1.0
0.0
2500,000000
-1,000000
2251
8
75,082300
5,658100
#DATA
2500.000000	9.128577
2499.000000	9.143193
2498.000000	9.009369
2497.000000	9.042026
2496.000000	9.060181
2495.000000	9.126865
2494.000000	8.931724
2493.000000	8.968263
2492.000000	9.004573
2491.000000	8.928641
2490.000000	8.939945
2489.000000	8.925786
2488.000000	8.831584
2487.000000	8.908430
2486.000000	8.814000
2485.000000	8.930810
2484.000000	8.878971
2483.000000	8.930810
2482.000000	8.879541
2481.000000	8.941544
2480.000000	8.850653
2479.000000	8.902264
2478.000000	8.866867
2477.000000	8.921105
2476.000000	8.916651
2475.000000	8.931838
2474.000000	8.954789
2473.000000	8.963809
2472.000000	8.965408
2471.000000	8.948052
2470.000000	8.986075
2469.000000	9.025812
2468.000000	9.008341
2467.000000	9.019189
2466.000000	9.039057
2465.000000	9.086329
2464.000000	9.076738
2463.000000	9.167286
2462.000000	9.194005
2461.000000	9.218098
2460.000000	9.280328
2459.000000	9.256464
2458.000000	9.379326
2457.000000	9.428425
2456.000000	9.432879
2455.000000	9.516347
2454.000000	9.595477
2453.000000	9.642863
2452.000000	9.715827
2451.000000	9.800895
2450.000000	9.881052
2449.000000	9.945680
2448.000000	10.030519
2447.000000	10.080874
2446.000000	10.170052
2445.000000	10.267794
2444.000000	10.317578
2443.000000	10.401390
2442.000000	10.483831
2441.000000	10.545719
2440.000000	10.616513
2439.000000	10.687079
2438.000000	10.760613
2437.000000	10.815765
2436.000000	10.901859
2435.000000	10.968543
2434.000000	11.009535
2433.000000	11.083412
2432.000000	11.148383
2431.000000	11.197825
2430.000000	11.270218
2429.000000	11.318175
2428.000000	11.357912
2427.000000	11.407125
2426.000000	11.462504
2425.000000	11.515828
2424.000000	11.561274
2423.000000	11.588792
2422.000000	11.628414
2421.000000	11.679683
2420.000000	11.712225
2419.000000	11.750135
2418.000000	11.786331
2417.000000	11.813849
2416.000000	11.842053
2415.000000	11.881789
2414.000000	11.902799
2413.000000	11.928833
2412.000000	11.965144
2411.000000	12.014700
2410.000000	12.048270
2409.000000	12.082068
2408.000000	12.142586
2407.000000	12.154347
2406.000000	12.184263
2405.000000	12.214065
2404.000000	12.245352
2403.000000	12.290112
2402.000000	12.342637
2401.000000	12.368557
2400.000000	12.389567
2399.000000	12.432728
2398.000000	12.469610
2397.000000	12.510259
2396.000000	12.557418
2395.000000	12.600237
2394.000000	12.637917
2393.000000	12.672287
2392.000000	12.706085
2391.000000	12.755299
2390.000000	12.783617
2389.000000	12.811820
2388.000000	12.827007
2387.000000	12.844020
2386.000000	12.851785
2385.000000	12.881929
2384.000000	12.906136
2383.000000	12.911046
2382.000000	12.933426
2381.000000	12.927032
2380.000000	12.918468
2379.000000	12.929544
2378.000000	12.932170
2377.000000	12.928060
2376.000000	12.930914
2375.000000	12.925662
2374.000000	12.902482
2373.000000	12.890151
2372.000000	12.878504
2371.000000	12.874736
2370.000000	12.865030
2369.000000	12.852013
2368.000000	12.834657
2367.000000	12.783502
2366.000000	12.739998
2365.000000	12.723099
2364.000000	12.677882
2363.000000	12.613825
2362.000000	12.582424
2361.000000	12.542117
2360.000000	12.481942
2359.000000	12.433185
2358.000000	12.401099
2357.000000	12.366501
2356.000000	12.345948
2355.000000	12.322312
2354.000000	12.314433
2353.000000	12.316146
2352.000000	12.302101
2351.000000	12.319343
2350.000000	12.356339
2349.000000	12.392878
2348.000000	12.471323
2347.000000	12.528415
2346.000000	12.576829
2345.000000	12.629011
2344.000000	12.696266
2343.000000	12.758724
2342.000000	12.808280
2341.000000	12.867770
2340.000000	12.944388
2339.000000	12.986522
2338.000000	13.008103
2337.000000	13.026144
2336.000000	13.050808
2335.000000	13.046926
2334.000000	13.066223
2333.000000	13.053662
2332.000000	13.029798
2331.000000	13.018836
2330.000000	12.988235
2329.000000	12.958661
2328.000000	12.908192
2327.000000	12.840709
2326.000000	12.795378
2325.000000	12.746963
2324.000000	12.684733
2323.000000	12.610171
2322.000000	12.525560
2321.000000	12.431472
2320.000000	12.329848
2319.000000	12.236331
2318.000000	12.139617
2317.000000	12.039934
2316.000000	11.940023
2315.000000	11.847534
2314.000000	11.742941
2313.000000	11.644742
2312.000000	11.544945
2311.000000	11.461819
2310.000000	11.407353
2309.000000	11.348092
2308.000000	11.316463
2307.000000	11.300248
2306.000000	11.286318
2305.000000	11.310411
2304.000000	11.347407
2303.000000	11.384516
2302.000000	11.445491
2301.000000	11.557734
2300.000000	11.643258
2299.000000	11.722730
2298.000000	11.846734
2297.000000	11.953040
2296.000000	12.044273
2295.000000	12.172845
2294.000000	12.268075
2293.000000	12.325281
2292.000000	12.402698
2291.000000	12.471893
2290.000000	12.514256
2289.000000	12.555476
2288.000000	12.564839
2287.000000	12.553079
2286.000000	12.549310
2285.000000	12.523847
2284.000000	12.503865
2283.000000	12.469610
2282.000000	12.430559
2281.000000	12.371183
2280.000000	12.329734
2279.000000	12.268645
2278.000000	12.217833
2277.000000	12.179582
2276.000000	12.139731
2275.000000	12.107646
2274.000000	12.083324
2273.000000	12.061629
2272.000000	12.054322
2271.000000	12.049983
2270.000000	12.105248
2269.000000	12.123517
2268.000000	12.194426
2267.000000	12.285431
2266.000000	12.387283
2265.000000	12.508204
2264.000000	12.669432
2263.000000	12.879874
2262.000000	13.060514
2261.000000	13.287055
2260.000000	13.527299
2259.000000	13.818583
2258.000000	14.062366
2257.000000	14.344973
2256.000000	14.608624
2255.000000	14.923887
2254.000000	15.192106
2253.000000	15.441484
2252.000000	15.711416
2251.000000	15.956341
2250.000000	16.250252
2249.000000	16.437057
2248.000000	16.646585
2247.000000	16.842183
2246.000000	17.058562
2245.000000	17.210313
2244.000000	17.368230
2243.000000	17.502054
2242.000000	17.658715
2241.000000	17.805099
2240.000000	17.908322
2239.000000	18.019081
2238.000000	18.147081
2237.000000	18.197094
2236.000000	18.321669
2235.000000	18.380017
2234.000000	18.443389
2233.000000	18.482440
2232.000000	18.552778
2231.000000	18.601078
2230.000000	18.613638
2229.000000	18.680664
2228.000000	18.712522
2227.000000	18.718574
2226.000000	18.687401
2225.000000	18.700532
2224.000000	18.692882
2223.000000	18.690142
2222.000000	18.676668
2221.000000	18.642869
2220.000000	18.628254
2219.000000	18.614894
2218.000000	18.583265
2217.000000	18.573217
2216.000000	18.510187
2215.000000	18.491575
2214.000000	18.456406
2213.000000	18.412788
2212.000000	18.381387
2211.000000	18.353526
2210.000000	18.317672
2209.000000	18.291182
2208.000000	18.262407
2207.000000	18.258182
2206.000000	18.221529
2205.000000	18.220844
2204.000000	18.211709
2203.000000	18.189558
2202.000000	18.148908
2201.000000	18.130867
2200.000000	18.132123
2199.000000	18.121961
2198.000000	18.110200
2197.000000	18.066239
2196.000000	18.075944
2195.000000	18.079827
2194.000000	18.039634
2193.000000	18.016226
2192.000000	18.016226
2191.000000	17.999098
2190.000000	17.974206
2189.000000	17.973978
2188.000000	17.963016
2187.000000	17.934927
2186.000000	17.916201
2185.000000	17.904097
2184.000000	17.874637
2183.000000	17.838669
2182.000000	17.817774
2181.000000	17.800760
2180.000000	17.790141
2179.000000	17.774155
2178.000000	17.764906
2177.000000	17.741955
2176.000000	17.735218
2175.000000	17.728025
2174.000000	17.722087
2173.000000	17.709984
2172.000000	17.685092
2171.000000	17.694911
2170.000000	17.721174
2169.000000	17.737502
2168.000000	17.735333
2167.000000	17.748350
2166.000000	17.769702
2165.000000	17.789799
2164.000000	17.824853
2163.000000	17.820400
2162.000000	17.835015
2161.000000	17.865046
2160.000000	17.899986
2159.000000	17.925678
2158.000000	17.941093
2157.000000	17.985853
2156.000000	18.036893
2155.000000	18.061671
2154.000000	18.109172
2153.000000	18.159299
2152.000000	18.184648
2151.000000	18.207941
2150.000000	18.254300
2149.000000	18.313676
2148.000000	18.365402
2147.000000	18.389266
2146.000000	18.426718
2145.000000	18.467482
2144.000000	18.510758
2143.000000	18.554491
2142.000000	18.581781
2141.000000	18.603362
2140.000000	18.629624
2139.000000	18.661367
2138.000000	18.699733
2137.000000	18.730563
2136.000000	18.769842
2135.000000	18.779662
2134.000000	18.778977
2133.000000	18.808437
2132.000000	18.828190
2131.000000	18.850114
2130.000000	18.860505
2129.000000	18.856851
2128.000000	18.859820
2127.000000	18.874321
2126.000000	18.864615
2125.000000	18.849315
2124.000000	18.838810
2123.000000	18.828419
2122.000000	18.821796
2121.000000	18.800558
2120.000000	18.771783
2119.000000	18.751459
2118.000000	18.731819
2117.000000	18.717203
2116.000000	18.688657
2115.000000	18.654516
2114.000000	18.631908
2113.000000	18.609870
2112.000000	18.591372
2111.000000	18.554947
2110.000000	18.511672
2109.000000	18.489862
2108.000000	18.458462
2107.000000	18.427975
2106.000000	18.392577
2105.000000	18.352156
2104.000000	18.325551
2103.000000	18.289241
2102.000000	18.259096
2101.000000	18.227924
2100.000000	18.186132
2099.000000	18.145825
2098.000000	18.126985
2097.000000	18.122303
2096.000000	18.081197
2095.000000	18.037122
2094.000000	18.013942
2093.000000	17.979801
2092.000000	17.962902
2091.000000	17.956964
2090.000000	17.920311
2089.000000	17.891080
2088.000000	17.856140
2087.000000	17.814006
2086.000000	17.795850
2085.000000	17.772899
2084.000000	17.735218
2083.000000	17.702448
2082.000000	17.679839
2081.000000	17.638619
2080.000000	17.591460
2079.000000	17.553780
2078.000000	17.520209
2077.000000	17.485954
2076.000000	17.441422
2075.000000	17.397119
2074.000000	17.364119
2073.000000	17.308626
2072.000000	17.253361
2071.000000	17.200836
2070.000000	17.154363
2069.000000	17.119993
2068.000000	17.072721
2067.000000	17.029445
2066.000000	16.991194
2065.000000	16.959565
2064.000000	16.912863
2063.000000	16.870387
2062.000000	16.833391
2061.000000	16.808613
2060.000000	16.789087
2059.000000	16.750265
2058.000000	16.751407
2057.000000	16.753690
2056.000000	16.750607
2055.000000	16.746611
2054.000000	16.774129
2053.000000	16.809070
2052.000000	16.832820
2051.000000	16.897220
2050.000000	16.953627
2049.000000	17.019397
2048.000000	17.099326
2047.000000	17.171262
2046.000000	17.267634
2045.000000	17.372683
2044.000000	17.452612
2043.000000	17.562458
2042.000000	17.650950
2041.000000	17.748921
2040.000000	17.810238
2039.000000	17.910720
2038.000000	17.995444
2037.000000	18.073546
2036.000000	18.152448
2035.000000	18.231235
2034.000000	18.296891
2033.000000	18.363004
2032.000000	18.447500
2031.000000	18.493745
2030.000000	18.535650
2029.000000	18.562826
2028.000000	18.618662
2027.000000	18.652118
2026.000000	18.686374
2025.000000	18.720172
2024.000000	18.752258
2023.000000	18.784800
2022.000000	18.820083
2021.000000	18.814032
2020.000000	18.812890
2019.000000	18.853996
2018.000000	18.869411
2017.000000	18.860390
2016.000000	18.865415
2015.000000	18.866899
2014.000000	18.848287
2013.000000	18.858449
2012.000000	18.853083
2011.000000	18.815288
2010.000000	18.798617
2009.000000	18.764818
2008.000000	18.735930
2007.000000	18.717546
2006.000000	18.666163
2005.000000	18.613410
2004.000000	18.583151
2003.000000	18.521948
2002.000000	18.461088
2001.000000	18.423407
2000.000000	18.360720
1999.000000	18.279763
1998.000000	18.219017
1997.000000	18.163410
1996.000000	18.103349
1995.000000	18.015427
1994.000000	17.924536
1993.000000	17.835586
1992.000000	17.770616
1991.000000	17.681209
1990.000000	17.608017
1989.000000	17.508791
1988.000000	17.434914
1987.000000	17.334089
1986.000000	17.241029
1985.000000	17.154591
1984.000000	17.033213
1983.000000	16.957167
1982.000000	16.862736
1981.000000	16.784292
1980.000000	16.683467
1979.000000	16.566771
1978.000000	16.475309
1977.000000	16.377910
1976.000000	16.315793
1975.000000	16.197841
1974.000000	16.119168
1973.000000	15.994251
1972.000000	15.936702
1971.000000	15.850036
1970.000000	15.746014
1969.000000	15.675220
1968.000000	15.572796
1967.000000	15.483847
1966.000000	15.417163
1965.000000	15.323418
1964.000000	15.261758
1963.000000	15.181829
1962.000000	15.101101
1961.000000	15.004044
1960.000000	14.931994
1959.000000	14.874103
1958.000000	14.773849
1957.000000	14.697574
1956.000000	14.641623
1955.000000	14.563864
1954.000000	14.472402
1953.000000	14.391217
1952.000000	14.339948
1951.000000	14.292676
1950.000000	14.236726
1949.000000	14.185800
1948.000000	14.124483
1947.000000	14.079837
1946.000000	14.012925
1945.000000	13.968964
1944.000000	13.925916
1943.000000	13.893374
1942.000000	13.872592
1941.000000	13.875789
1940.000000	13.854437
1939.000000	13.845873
1938.000000	13.814244
1937.000000	13.814016
1936.000000	13.818240
1935.000000	13.840849
1934.000000	13.855693
1933.000000	13.912899
1932.000000	13.980154
1931.000000	14.035647
1930.000000	14.093310
1929.000000	14.150288
1928.000000	14.233985
1927.000000	14.306493
1926.000000	14.390989
1925.000000	14.529152
1924.000000	14.645049
1923.000000	14.789264
1922.000000	14.907673
1921.000000	15.068673
1920.000000	15.200556
1919.000000	15.349223
1918.000000	15.540482
1917.000000	15.733454
1916.000000	15.931449
1915.000000	16.136410
1914.000000	16.356329
1913.000000	16.546788
1912.000000	16.758486
1911.000000	16.999986
1910.000000	17.234064
1909.000000	17.499770
1908.000000	17.773013
1907.000000	18.051851
1906.000000	18.349644
1905.000000	18.669132
1904.000000	18.963841
1903.000000	19.276021
1902.000000	19.639470
1901.000000	19.985677
1900.000000	20.340219
1899.000000	20.710861
1898.000000	21.098517
1897.000000	21.522483
1896.000000	21.925782
1895.000000	22.343240
1894.000000	22.795638
1893.000000	23.253060
1892.000000	23.787899
1891.000000	24.280376
1890.000000	24.752871
1889.000000	25.291935
1888.000000	25.869251
1887.000000	26.426927
1886.000000	27.000246
1885.000000	27.640135
1884.000000	28.300691
1883.000000	28.988080
1882.000000	29.656858
1881.000000	30.334199
1880.000000	30.964154
1879.000000	31.578009
1878.000000	32.191064
1877.000000	32.773975
1876.000000	33.311326
1875.000000	33.831436
1874.000000	34.330763
1873.000000	34.816618
1872.000000	35.241612
1871.000000	35.615337
1870.000000	35.961087
1869.000000	36.304211
1868.000000	36.561011
1867.000000	36.783556
1866.000000	36.963396
1865.000000	37.131932
1864.000000	37.282427
1863.000000	37.444341
1862.000000	37.590040
1861.000000	37.719068
1860.000000	37.843986
1859.000000	37.940700
1858.000000	38.024625
1857.000000	38.088911
1856.000000	38.106838
1855.000000	38.144290
1854.000000	38.171352
1853.000000	38.134356
1852.000000	38.126135
1851.000000	38.127620
1850.000000	38.135612
1849.000000	38.127848
1848.000000	38.087084
1847.000000	38.034788
1846.000000	37.955772
1845.000000	37.880182
1844.000000	37.829599
1843.000000	37.834851
1842.000000	37.852435
1841.000000	37.832225
1840.000000	37.779700
1839.000000	37.738251
1838.000000	37.696688
1837.000000	37.635371
1836.000000	37.571999
1835.000000	37.497322
1834.000000	37.398895
1833.000000	37.315769
1832.000000	37.246802
1831.000000	37.172582
1830.000000	37.094023
1829.000000	37.007814
1828.000000	36.907104
1827.000000	36.824891
1826.000000	36.743478
1825.000000	36.674053
1824.000000	36.619930
1823.000000	36.586132
1822.000000	36.570146
1821.000000	36.549364
1820.000000	36.521161
1819.000000	36.475030
1818.000000	36.424561
1817.000000	36.404350
1816.000000	36.410744
1815.000000	36.393046
1814.000000	36.368382
1813.000000	36.351483
1812.000000	36.324535
1811.000000	36.270869
1810.000000	36.209438
1809.000000	36.166048
1808.000000	36.143553
1807.000000	36.107128
1806.000000	36.047410
1805.000000	35.974446
1804.000000	35.906278
1803.000000	35.863459
1802.000000	35.820526
1801.000000	35.769600
1800.000000	35.699034
1799.000000	35.626527
1798.000000	35.571147
1797.000000	35.521706
1796.000000	35.478430
1795.000000	35.413231
1794.000000	35.363903
1793.000000	35.309323
1792.000000	35.242525
1791.000000	35.181665
1790.000000	35.110071
1789.000000	35.052180
1788.000000	34.978303
1787.000000	34.918813
1786.000000	34.843451
1785.000000	34.757698
1784.000000	34.680510
1783.000000	34.612570
1782.000000	34.513116
1781.000000	34.425993
1780.000000	34.331334
1779.000000	34.255402
1778.000000	34.154006
1777.000000	34.039365
1776.000000	33.948132
1775.000000	33.832463
1774.000000	33.703777
1773.000000	33.562646
1772.000000	33.420372
1771.000000	33.296710
1770.000000	33.150098
1769.000000	33.021184
1768.000000	32.910539
1767.000000	32.797040
1766.000000	32.690849
1765.000000	32.624736
1764.000000	32.591851
1763.000000	32.559879
1762.000000	32.600300
1761.000000	32.633528
1760.000000	32.701354
1759.000000	32.774546
1758.000000	32.843970
1757.000000	32.895467
1756.000000	32.975853
1755.000000	33.014561
1754.000000	33.021641
1753.000000	33.027692
1752.000000	33.014675
1751.000000	32.996292
1750.000000	32.957583
1749.000000	32.887588
1748.000000	32.812569
1747.000000	32.714371
1746.000000	32.589453
1745.000000	32.460196
1744.000000	32.290975
1743.000000	32.111706
1742.000000	31.896469
1741.000000	31.657252
1740.000000	31.419178
1739.000000	31.200515
1738.000000	30.994184
1737.000000	30.773923
1736.000000	30.646607
1735.000000	30.575128
1734.000000	30.509015
1733.000000	30.511070
1732.000000	30.562453
1731.000000	30.659510
1730.000000	30.757480
1729.000000	30.896442
1728.000000	31.003433
1727.000000	31.133032
1726.000000	31.240251
1725.000000	31.342218
1724.000000	31.403877
1723.000000	31.460627
1722.000000	31.504474
1721.000000	31.550833
1720.000000	31.577209
1719.000000	31.651543
1718.000000	31.700414
1717.000000	31.771551
1716.000000	31.854563
1715.000000	31.937803
1714.000000	32.029036
1713.000000	32.094122
1712.000000	32.179303
1711.000000	32.216185
1710.000000	32.230572
1709.000000	32.245530
1708.000000	32.226575
1707.000000	32.199628
1706.000000	32.172909
1705.000000	32.098004
1704.000000	32.021500
1703.000000	31.917250
1702.000000	31.809003
1701.000000	31.637841
1700.000000	31.471589
1699.000000	31.304080
1698.000000	31.125839
1697.000000	31.012111
1696.000000	30.935608
1695.000000	30.903750
1694.000000	30.982423
1693.000000	31.094552
1692.000000	31.249044
1691.000000	31.419407
1690.000000	31.588171
1689.000000	31.749856
1688.000000	31.821335
1687.000000	31.872033
1686.000000	31.909942
1685.000000	31.968519
1684.000000	32.134314
1683.000000	32.371018
1682.000000	32.781397
1681.000000	33.247497
1680.000000	33.794326
1679.000000	34.394935
1678.000000	35.032540
1677.000000	35.557902
1676.000000	36.042158
1675.000000	36.491016
1674.000000	36.876502
1673.000000	37.213118
1672.000000	37.508512
1671.000000	37.777873
1670.000000	38.013435
1669.000000	38.191449
1668.000000	38.392185
1667.000000	38.564032
1666.000000	38.657777
1665.000000	38.775044
1664.000000	38.864337
1663.000000	38.954999
1662.000000	39.029219
1661.000000	39.104580
1660.000000	39.151396
1659.000000	39.206775
1658.000000	39.213398
1657.000000	39.221505
1656.000000	39.224702
1655.000000	39.227328
1654.000000	39.220592
1653.000000	39.221162
1652.000000	39.186450
1651.000000	39.175489
1650.000000	39.094989
1649.000000	39.056395
1648.000000	39.011063
1647.000000	38.951002
1646.000000	38.896194
1645.000000	38.813068
1644.000000	38.739305
1643.000000	38.691804
1642.000000	38.614616
1641.000000	38.544506
1640.000000	38.467089
1639.000000	38.382479
1638.000000	38.302207
1637.000000	38.224905
1636.000000	38.158792
1635.000000	38.061964
1634.000000	37.962737
1633.000000	37.879954
1632.000000	37.780956
1631.000000	37.681958
1630.000000	37.599974
1629.000000	37.479624
1628.000000	37.368066
1627.000000	37.261075
1626.000000	37.174752
1625.000000	37.081235
1624.000000	36.966936
1623.000000	36.867367
1622.000000	36.789380
