PE UV       SUBTECH     SPECTRUM    ASCII       PEDS        4.00        
   -1
CICIMAUCR0112-3.Sample.ASC
24/04/22
10:19:40.00
24/04/22
10:19:40.00
Vinicio Soto Monge
C. resplendens
250,000000
1
Lambda 1050
1050L1511233
PerkinElmer UV WinLab 6.3.2.0749 / 2.02.05 Lambda 900 UV/VIS/NIR, Aug  7 2015 09:38:08

0
0
3350/servo 860,8/2
0
0
UV/VIS
1
1
1
DoubleDePol,CommonBeamDepol,RBeamAtt,SBeamAtt,60mm sphere, WB InGaAs Detector
0
0
0
0
Program
Program
3350/servo 860,8/2
3350/0,2 860,8/0,2
3350/0,2 860,8/0,2
0
15.00
 
 
 
0
 
860,8
319,2
860,8
Front
100
on
S:100 R:100
0
0
0
0
 
0
 
 
 
0
 
 
0
0
0
0
0
 
 
 
 
0
0


0
0
#HDR
-1
-1
#GR
nm
%R
1.0
0.0
2500,000000
-1,000000
2251
8
88,787000
5,681000
#DATA
2500.000000	15.154268
2499.000000	15.155252
2498.000000	15.121003
2497.000000	15.027112
2496.000000	15.015696
2495.000000	14.981938
2494.000000	15.005854
2493.000000	14.948083
2492.000000	14.884997
2491.000000	14.950051
2490.000000	14.865117
2489.000000	14.872596
2488.000000	14.878305
2487.000000	14.884997
2486.000000	14.859310
2485.000000	14.782839
2484.000000	14.754495
2483.000000	14.817876
2482.000000	14.816793
2481.000000	14.829785
2480.000000	14.815317
2479.000000	14.860786
2478.000000	14.909897
2477.000000	14.895724
2476.000000	14.891000
2475.000000	14.900449
2474.000000	14.941095
2473.000000	14.992272
2472.000000	14.982037
2471.000000	15.045221
2470.000000	15.077699
2469.000000	15.109291
2468.000000	15.144229
2467.000000	15.186746
2466.000000	15.240088
2465.000000	15.296482
2464.000000	15.371870
2463.000000	15.433578
2462.000000	15.459855
2461.000000	15.598230
2460.000000	15.652065
2459.000000	15.736409
2458.000000	15.870060
2457.000000	15.973793
2456.000000	16.070144
2455.000000	16.195036
2454.000000	16.313924
2453.000000	16.437734
2452.000000	16.559575
2451.000000	16.703757
2450.000000	16.842428
2449.000000	16.978736
2448.000000	17.105203
2447.000000	17.254208
2446.000000	17.384021
2445.000000	17.555956
2444.000000	17.687836
2443.000000	17.829066
2442.000000	18.006611
2441.000000	18.117528
2440.000000	18.253542
2439.000000	18.408451
2438.000000	18.542693
2437.000000	18.660007
2436.000000	18.795233
2435.000000	18.940793
2434.000000	19.073263
2433.000000	19.188707
2432.000000	19.311434
2431.000000	19.422941
2430.000000	19.537893
2429.000000	19.654321
2428.000000	19.761006
2427.000000	19.866215
2426.000000	19.971620
2425.000000	20.067774
2424.000000	20.118952
2423.000000	20.167078
2422.000000	20.221503
2421.000000	20.276125
2420.000000	20.327991
2419.000000	20.410859
2418.000000	20.488215
2417.000000	20.556911
2416.000000	20.630330
2415.000000	20.685247
2414.000000	20.745184
2413.000000	20.767820
2412.000000	20.806597
2411.000000	20.860529
2410.000000	20.908459
2409.000000	20.952747
2408.000000	20.977155
2407.000000	20.996543
2406.000000	21.041126
2405.000000	21.092795
2404.000000	21.123010
2403.000000	21.140134
2402.000000	21.155684
2401.000000	21.188556
2400.000000	21.239930
2399.000000	21.261287
2398.000000	21.263845
2397.000000	21.291698
2396.000000	21.309905
2395.000000	21.324569
2394.000000	21.347205
2393.000000	21.347501
2392.000000	21.352618
2391.000000	21.374073
2390.000000	21.375648
2389.000000	21.366397
2388.000000	21.359704
2387.000000	21.360295
2386.000000	21.346910
2385.000000	21.327817
2384.000000	21.306952
2383.000000	21.277919
2382.000000	21.250461
2381.000000	21.224774
2380.000000	21.194953
2379.000000	21.148500
2378.000000	21.100177
2377.000000	21.067108
2376.000000	21.013077
2375.000000	20.956880
2374.000000	20.923615
2373.000000	20.891433
2372.000000	20.836319
2371.000000	20.767820
2370.000000	20.709065
2369.000000	20.666056
2368.000000	20.620390
2367.000000	20.565276
2366.000000	20.507210
2365.000000	20.447667
2364.000000	20.379463
2363.000000	20.311752
2362.000000	20.252406
2361.000000	20.195127
2360.000000	20.135978
2359.000000	20.067381
2358.000000	20.007641
2357.000000	19.948098
2356.000000	19.905484
2355.000000	19.870152
2354.000000	19.846925
2353.000000	19.827832
2352.000000	19.801259
2351.000000	19.784233
2350.000000	19.775769
2349.000000	19.772423
2348.000000	19.781280
2347.000000	19.784036
2346.000000	19.786398
2345.000000	19.793189
2344.000000	19.800078
2343.000000	19.821730
2342.000000	19.831080
2341.000000	19.810314
2340.000000	19.808444
2339.000000	19.802145
2338.000000	19.785808
2337.000000	19.774391
2336.000000	19.756282
2335.000000	19.732170
2334.000000	19.693196
2333.000000	19.668690
2332.000000	19.647235
2331.000000	19.608852
2330.000000	19.556986
2329.000000	19.529429
2328.000000	19.494885
2327.000000	19.440853
2326.000000	19.375898
2325.000000	19.308974
2324.000000	19.247364
2323.000000	19.161445
2322.000000	19.080841
2321.000000	18.990100
2320.000000	18.897981
2319.000000	18.788048
2318.000000	18.665420
2317.000000	18.525765
2316.000000	18.412880
2315.000000	18.291334
2314.000000	18.153647
2313.000000	18.054738
2312.000000	17.949037
2311.000000	17.840187
2310.000000	17.756729
2309.000000	17.682620
2308.000000	17.627014
2307.000000	17.603984
2306.000000	17.572786
2305.000000	17.579577
2304.000000	17.620912
2303.000000	17.644729
2302.000000	17.692757
2301.000000	17.733010
2300.000000	17.802395
2299.000000	17.873157
2298.000000	17.957993
2297.000000	18.028952
2296.000000	18.118709
2295.000000	18.193999
2294.000000	18.260037
2293.000000	18.326567
2292.000000	18.378827
2291.000000	18.411305
2290.000000	18.451558
2289.000000	18.480198
2288.000000	18.502342
2287.000000	18.497618
2286.000000	18.523009
2285.000000	18.504704
2284.000000	18.504408
2283.000000	18.495551
2282.000000	18.502145
2281.000000	18.487874
2280.000000	18.443094
2279.000000	18.424099
2278.000000	18.408648
2277.000000	18.393688
2276.000000	18.362392
2275.000000	18.363671
2274.000000	18.369379
2273.000000	18.371643
2272.000000	18.396936
2271.000000	18.442012
2270.000000	18.483445
2269.000000	18.569364
2268.000000	18.668569
2267.000000	18.810980
2266.000000	18.950831
2265.000000	19.134577
2264.000000	19.335251
2263.000000	19.554231
2262.000000	19.797913
2261.000000	20.072499
2260.000000	20.362437
2259.000000	20.657986
2258.000000	20.951271
2257.000000	21.261385
2256.000000	21.596104
2255.000000	21.928461
2254.000000	22.242216
2253.000000	22.540914
2252.000000	22.859099
2251.000000	23.160946
2250.000000	23.455904
2249.000000	23.689942
2248.000000	23.927522
2247.000000	24.164414
2246.000000	24.389200
2245.000000	24.597550
2244.000000	24.778147
2243.000000	24.940438
2242.000000	25.083340
2241.000000	25.240710
2240.000000	25.329286
2239.000000	25.437054
2238.000000	25.530846
2237.000000	25.604659
2236.000000	25.650817
2235.000000	25.719414
2234.000000	25.716363
2233.000000	25.762423
2232.000000	25.771477
2231.000000	25.749432
2230.000000	25.750711
2229.000000	25.730240
2228.000000	25.675126
2227.000000	25.621784
2226.000000	25.559387
2225.000000	25.501025
2224.000000	25.413138
2223.000000	25.349462
2222.000000	25.261181
2221.000000	25.149182
2220.000000	25.076451
2219.000000	24.952248
2218.000000	24.848122
2217.000000	24.760825
2216.000000	24.649318
2215.000000	24.572847
2214.000000	24.467343
2213.000000	24.375028
2212.000000	24.308792
2211.000000	24.218642
2210.000000	24.147683
2209.000000	24.073377
2208.000000	24.013539
2207.000000	23.962460
2206.000000	23.903016
2205.000000	23.836289
2204.000000	23.811094
2203.000000	23.742300
2202.000000	23.707952
2201.000000	23.676163
2200.000000	23.646441
2199.000000	23.613569
2198.000000	23.566624
2197.000000	23.534442
2196.000000	23.524698
2195.000000	23.497338
2194.000000	23.462301
2193.000000	23.457184
2192.000000	23.440551
2191.000000	23.428150
2190.000000	23.403841
2189.000000	23.374316
2188.000000	23.344298
2187.000000	23.336031
2186.000000	23.309360
2185.000000	23.293121
2184.000000	23.261923
2183.000000	23.250113
2182.000000	23.213600
2181.000000	23.197459
2180.000000	23.169902
2179.000000	23.161241
2178.000000	23.161438
2177.000000	23.156124
2176.000000	23.121579
2175.000000	23.119808
2174.000000	23.143723
2173.000000	23.145790
2172.000000	23.159076
2171.000000	23.182008
2170.000000	23.219603
2169.000000	23.235055
2168.000000	23.265466
2167.000000	23.312214
2166.000000	23.352369
2165.000000	23.396558
2164.000000	23.468206
2163.000000	23.515742
2162.000000	23.585914
2161.000000	23.683151
2160.000000	23.758145
2159.000000	23.850559
2158.000000	23.939135
2157.000000	24.074165
2156.000000	24.184294
2155.000000	24.284385
2154.000000	24.394416
2153.000000	24.519406
2152.000000	24.654829
2151.000000	24.773029
2150.000000	24.894280
2149.000000	24.998996
2148.000000	25.132057
2147.000000	25.256359
2146.000000	25.367472
2145.000000	25.486951
2144.000000	25.596097
2143.000000	25.725418
2142.000000	25.838500
2141.000000	25.935638
2140.000000	26.038386
2139.000000	26.150386
2138.000000	26.258448
2137.000000	26.351748
2136.000000	26.445442
2135.000000	26.512661
2134.000000	26.606158
2133.000000	26.686369
2132.000000	26.767957
2131.000000	26.839802
2130.000000	26.889404
2129.000000	26.940680
2128.000000	27.005734
2127.000000	27.046086
2126.000000	27.079843
2125.000000	27.108876
2124.000000	27.139582
2123.000000	27.167336
2122.000000	27.189480
2121.000000	27.202865
2120.000000	27.197649
2119.000000	27.200405
2118.000000	27.195090
2117.000000	27.191645
2116.000000	27.184264
2115.000000	27.186429
2114.000000	27.175013
2113.000000	27.142338
2112.000000	27.131611
2111.000000	27.113502
2110.000000	27.085649
2109.000000	27.072560
2108.000000	27.041952
2107.000000	27.011836
2106.000000	26.995007
2105.000000	26.959675
2104.000000	26.928181
2103.000000	26.905250
2102.000000	26.876315
2101.000000	26.848758
2100.000000	26.815690
2099.000000	26.794530
2098.000000	26.782031
2097.000000	26.768351
2096.000000	26.759690
2095.000000	26.760379
2094.000000	26.759690
2093.000000	26.755163
2092.000000	26.754277
2091.000000	26.752210
2090.000000	26.753096
2089.000000	26.754375
2088.000000	26.746797
2087.000000	26.741089
2086.000000	26.731050
2085.000000	26.714811
2084.000000	26.680857
2083.000000	26.636865
2082.000000	26.596120
2081.000000	26.552324
2080.000000	26.487270
2079.000000	26.416113
2078.000000	26.344072
2077.000000	26.264845
2076.000000	26.173022
2075.000000	26.089268
2074.000000	25.996755
2073.000000	25.882788
2072.000000	25.768820
2071.000000	25.642255
2070.000000	25.528287
2069.000000	25.399360
2068.000000	25.266693
2067.000000	25.154201
2066.000000	25.022518
2065.000000	24.903728
2064.000000	24.795370
2063.000000	24.677957
2062.000000	24.567139
2061.000000	24.466064
2060.000000	24.384476
2059.000000	24.314599
2058.000000	24.266276
2057.000000	24.242656
2056.000000	24.241868
2055.000000	24.253186
2054.000000	24.293833
2053.000000	24.360659
2052.000000	24.452581
2051.000000	24.574324
2050.000000	24.724903
2049.000000	24.892410
2048.000000	25.069660
2047.000000	25.274369
2046.000000	25.493349
2045.000000	25.719513
2044.000000	25.955223
2043.000000	26.195658
2042.000000	26.413751
2041.000000	26.687058
2040.000000	26.916273
2039.000000	27.143618
2038.000000	27.345374
2037.000000	27.556874
2036.000000	27.758236
2035.000000	27.961666
2034.000000	28.165588
2033.000000	28.314494
2032.000000	28.480328
2031.000000	28.649508
2030.000000	28.798709
2029.000000	28.947025
2028.000000	29.087959
2027.000000	29.203403
2026.000000	29.321209
2025.000000	29.430354
2024.000000	29.547767
2023.000000	29.663211
2022.000000	29.757692
2021.000000	29.839378
2020.000000	29.926675
2019.000000	30.009149
2018.000000	30.074990
2017.000000	30.143391
2016.000000	30.183250
2015.000000	30.241907
2014.000000	30.285703
2013.000000	30.342884
2012.000000	30.383432
2011.000000	30.399179
2010.000000	30.407741
2009.000000	30.426539
2008.000000	30.411284
2007.000000	30.416500
2006.000000	30.401147
2005.000000	30.374476
2004.000000	30.367783
2003.000000	30.322117
2002.000000	30.272515
2001.000000	30.242793
2000.000000	30.187974
1999.000000	30.152740
1998.000000	30.074695
1997.000000	29.993796
1996.000000	29.912503
1995.000000	29.826682
1994.000000	29.729544
1993.000000	29.621285
1992.000000	29.551211
1991.000000	29.454762
1990.000000	29.342172
1989.000000	29.228106
1988.000000	29.109414
1987.000000	28.997119
1986.000000	28.874392
1985.000000	28.765641
1984.000000	28.643111
1983.000000	28.509558
1982.000000	28.413994
1981.000000	28.288708
1980.000000	28.149841
1979.000000	28.028688
1978.000000	27.924366
1977.000000	27.784317
1976.000000	27.687080
1975.000000	27.560712
1974.000000	27.467117
1973.000000	27.346063
1972.000000	27.233178
1971.000000	27.130036
1970.000000	27.009966
1969.000000	26.891373
1968.000000	26.786558
1967.000000	26.710579
1966.000000	26.574960
1965.000000	26.486089
1964.000000	26.387376
1963.000000	26.269274
1962.000000	26.180403
1961.000000	26.050787
1960.000000	25.970183
1959.000000	25.839878
1958.000000	25.732405
1957.000000	25.634873
1956.000000	25.519725
1955.000000	25.412154
1954.000000	25.309209
1953.000000	25.202524
1952.000000	25.099973
1951.000000	25.013267
1950.000000	24.940536
1949.000000	24.839559
1948.000000	24.791039
1947.000000	24.692523
1946.000000	24.630225
1945.000000	24.585838
1944.000000	24.520686
1943.000000	24.473937
1942.000000	24.451006
1941.000000	24.441656
1940.000000	24.442050
1939.000000	24.451597
1938.000000	24.478662
1937.000000	24.509663
1936.000000	24.531906
1935.000000	24.558970
1934.000000	24.609262
1933.000000	24.691342
1932.000000	24.773816
1931.000000	24.887292
1930.000000	25.010019
1929.000000	25.165421
1928.000000	25.321019
1927.000000	25.470024
1926.000000	25.668040
1925.000000	25.843027
1924.000000	25.995378
1923.000000	26.228923
1922.000000	26.502131
1921.000000	26.826811
1920.000000	27.110352
1919.000000	27.377064
1918.000000	27.637576
1917.000000	27.879979
1916.000000	28.151711
1915.000000	28.513691
1914.000000	28.963165
1913.000000	29.430453
1912.000000	29.837213
1911.000000	30.198013
1910.000000	30.519740
1909.000000	30.830150
1908.000000	31.262794
1907.000000	31.762658
1906.000000	32.374423
1905.000000	32.997703
1904.000000	33.523253
1903.000000	34.008453
1902.000000	34.495030
1901.000000	35.070971
1900.000000	35.721316
1899.000000	36.341938
1898.000000	36.969253
1897.000000	37.470396
1896.000000	37.915835
1895.000000	38.421997
1894.000000	38.991147
1893.000000	39.627320
1892.000000	40.326283
1891.000000	40.980465
1890.000000	41.535640
1889.000000	42.087370
1888.000000	42.654945
1887.000000	43.186893
1886.000000	43.763916
1885.000000	44.378043
1884.000000	44.993056
1883.000000	45.532976
1882.000000	46.030084
1881.000000	46.501111
1880.000000	46.897439
1879.000000	47.340221
1878.000000	47.754264
1877.000000	48.171457
1876.000000	48.545543
1875.000000	48.910476
1874.000000	49.270784
1873.000000	49.622135
1872.000000	49.944256
1871.000000	50.211559
1870.000000	50.436739
1869.000000	50.629539
1868.000000	50.715655
1867.000000	50.765848
1866.000000	50.802164
1865.000000	50.835724
1864.000000	50.878536
1863.000000	50.964553
1862.000000	51.072616
1861.000000	51.177628
1860.000000	51.282147
1859.000000	51.358815
1858.000000	51.396509
1857.000000	51.394639
1856.000000	51.410090
1855.000000	51.444438
1854.000000	51.436958
1853.000000	51.403103
1852.000000	51.378006
1851.000000	51.319152
1850.000000	51.321416
1849.000000	51.411468
1848.000000	51.441289
1847.000000	51.398182
1846.000000	51.261873
1845.000000	51.112278
1844.000000	51.010711
1843.000000	51.055098
1842.000000	51.101354
1841.000000	51.057066
1840.000000	51.004019
1839.000000	50.923513
1838.000000	50.871548
1837.000000	50.812793
1836.000000	50.742916
1835.000000	50.614481
1834.000000	50.465870
1833.000000	50.359284
1832.000000	50.285274
1831.000000	50.238919
1830.000000	50.179672
1829.000000	50.113240
1828.000000	50.033620
1827.000000	49.979096
1826.000000	49.923195
1825.000000	49.835997
1824.000000	49.766120
1823.000000	49.792201
1822.000000	49.856271
1821.000000	49.901641
1820.000000	49.883828
1819.000000	49.813164
1818.000000	49.751161
1817.000000	49.731379
1816.000000	49.723112
1815.000000	49.700476
1814.000000	49.679906
1813.000000	49.640441
1812.000000	49.619084
1811.000000	49.571155
1810.000000	49.494487
1809.000000	49.421953
1808.000000	49.378846
1807.000000	49.352962
1806.000000	49.305820
1805.000000	49.231613
1804.000000	49.168134
1803.000000	49.142250
1802.000000	49.113610
1801.000000	49.056922
1800.000000	48.975432
1799.000000	48.924353
1798.000000	48.868255
1797.000000	48.828888
1796.000000	48.788832
1795.000000	48.738639
1794.000000	48.679194
1793.000000	48.631659
1792.000000	48.602232
1791.000000	48.549283
1790.000000	48.507455
1789.000000	48.461298
1788.000000	48.431280
1787.000000	48.406774
1786.000000	48.367013
1785.000000	48.312588
1784.000000	48.262100
1783.000000	48.199703
1782.000000	48.143900
1781.000000	48.074713
1780.000000	47.999226
1779.000000	47.915965
1778.000000	47.825125
1777.000000	47.726806
1776.000000	47.619334
1775.000000	47.500150
1774.000000	47.375553
1773.000000	47.241409
1772.000000	47.128721
1771.000000	47.003731
1770.000000	46.880905
1769.000000	46.757489
1768.000000	46.642045
1767.000000	46.552485
1766.000000	46.458693
1765.000000	46.389407
1764.000000	46.358701
1763.000000	46.327108
1762.000000	46.318645
1761.000000	46.325337
1760.000000	46.357224
1759.000000	46.389407
1758.000000	46.411649
1757.000000	46.425723
1756.000000	46.426707
1755.000000	46.431038
1754.000000	46.428282
1753.000000	46.391769
1752.000000	46.357126
1751.000000	46.307622
1750.000000	46.239221
1749.000000	46.156846
1748.000000	46.054196
1747.000000	45.919561
1746.000000	45.763765
1745.000000	45.568800
1744.000000	45.382692
1743.000000	45.186643
1742.000000	44.975931
1741.000000	44.754097
1740.000000	44.519470
1739.000000	44.302655
1738.000000	44.107985
1737.000000	43.966460
1736.000000	43.822475
1735.000000	43.721301
1734.000000	43.655165
1733.000000	43.611763
1732.000000	43.601330
1731.000000	43.590012
1730.000000	43.583812
1729.000000	43.602118
1728.000000	43.605267
1727.000000	43.603003
1726.000000	43.613829
1725.000000	43.618160
1724.000000	43.627706
1723.000000	43.689316
1722.000000	43.778876
1721.000000	43.913905
1720.000000	44.092336
1719.000000	44.293601
1718.000000	44.510021
1717.000000	44.740909
1716.000000	44.982623
1715.000000	45.206819
1714.000000	45.426881
1713.000000	45.617713
1712.000000	45.748215
1711.000000	45.876060
1710.000000	45.994161
1709.000000	46.052228
1708.000000	46.108227
1707.000000	46.132832
1706.000000	46.149760
1705.000000	46.138737
1704.000000	46.109310
1703.000000	46.030182
1702.000000	45.930485
1701.000000	45.818485
1700.000000	45.728728
1699.000000	45.613678
1698.000000	45.502761
1697.000000	45.447352
1696.000000	45.415563
1695.000000	45.400801
1694.000000	45.394010
1693.000000	45.406312
1692.000000	45.432786
1691.000000	45.470382
1690.000000	45.494199
1689.000000	45.543309
1688.000000	45.625193
1687.000000	45.717214
1686.000000	45.898893
1685.000000	46.139623
1684.000000	46.473849
1683.000000	46.868997
1682.000000	47.330871
1681.000000	47.811150
1680.000000	48.331485
1679.000000	48.853689
1678.000000	49.306608
1677.000000	49.743976
1676.000000	50.134596
1675.000000	50.492246
1674.000000	50.841433
1673.000000	51.152630
1672.000000	51.441879
1671.000000	51.732999
1670.000000	51.969595
1669.000000	52.241130
1668.000000	52.458436
1667.000000	52.672790
1666.000000	52.835081
1665.000000	52.992451
1664.000000	53.158679
1663.000000	53.294790
1662.000000	53.414959
1661.000000	53.541229
1660.000000	53.625474
1659.000000	53.696729
1658.000000	53.769853
1657.000000	53.831758
1656.000000	53.875357
1655.000000	53.893072
1654.000000	53.891005
1653.000000	53.891989
1652.000000	53.900945
1651.000000	53.882148
1650.000000	53.851441
1649.000000	53.830281
1648.000000	53.805579
1647.000000	53.756960
1646.000000	53.715231
1645.000000	53.678718
1644.000000	53.649685
1643.000000	53.602248
1642.000000	53.552350
1641.000000	53.511113
1640.000000	53.468203
1639.000000	53.427359
1638.000000	53.395767
1637.000000	53.344984
1636.000000	53.282488
1635.000000	53.206018
1634.000000	53.127283
1633.000000	53.054257
1632.000000	52.985070
1631.000000	52.904564
1630.000000	52.819826
1629.000000	52.728692
1628.000000	52.641592
1627.000000	52.555772
1626.000000	52.477529
1625.000000	52.391611
1624.000000	52.306282
