PE UV       SUBTECH     SPECTRUM    ASCII       PEDS        4.00        
   -1
CICIMAUCR0002-3.Sample.ASC
24/05/03
15:09:39.00
24/05/03
15:09:39.00
Vinicio Soto Monge
C. kalinini
250,000000
1
Lambda 1050
1050L1511233
PerkinElmer UV WinLab 6.3.2.0749 / 2.02.05 Lambda 900 UV/VIS/NIR, Aug  7 2015 09:38:08

0
0
3350/servo 860,8/2
0
0
UV/VIS
1
1
1
DoubleDePol,CommonBeamDepol,RBeamAtt,SBeamAtt,60mm sphere, WB InGaAs Detector
0
0
0
0
Program
Program
3350/servo 860,8/2
3350/0,2 860,8/0,2
3350/0,2 860,8/0,2
0
15.00
 
 
 
0
 
860,8
319,2
860,8
Front
100
on
S:100 R:100
0
0
0
0
 
0
 
 
 
0
 
 
0
0
0
0
0
 
 
 
 
0
0


0
0
#HDR
-1
-1
#GR
nm
%R
1.0
0.0
2500,000000
-1,000000
2251
8
99,074100
5,519500
#DATA
2500.000000	8.339492
2499.000000	8.508928
2498.000000	8.335669
2497.000000	8.320476
2496.000000	8.216037
2495.000000	8.470292
2494.000000	8.300353
2493.000000	8.142085
2492.000000	8.203460
2491.000000	8.215735
2490.000000	8.165931
2489.000000	8.079804
2488.000000	8.114114
2487.000000	8.105360
2486.000000	8.171666
2485.000000	8.164019
2484.000000	8.148122
2483.000000	8.180721
2482.000000	8.122465
2481.000000	8.084734
2480.000000	8.129407
2479.000000	8.142186
2478.000000	8.161604
2477.000000	8.124578
2476.000000	8.139570
2475.000000	8.130514
2474.000000	8.124779
2473.000000	8.164925
2472.000000	8.168647
2471.000000	8.145305
2470.000000	8.177200
2469.000000	8.168346
2468.000000	8.194807
2467.000000	8.195210
2466.000000	8.198832
2465.000000	8.238173
2464.000000	8.268256
2463.000000	8.293611
2462.000000	8.326613
2461.000000	8.368972
2460.000000	8.418676
2459.000000	8.519090
2458.000000	8.543942
2457.000000	8.567184
2456.000000	8.650594
2455.000000	8.763283
2454.000000	8.770528
2453.000000	8.843876
2452.000000	8.930707
2451.000000	9.023675
2450.000000	9.100546
2449.000000	9.158399
2448.000000	9.204783
2447.000000	9.301675
2446.000000	9.392631
2445.000000	9.455415
2444.000000	9.549390
2443.000000	9.615695
2442.000000	9.683309
2441.000000	9.776881
2440.000000	9.828899
2439.000000	9.901744
2438.000000	9.995015
2437.000000	10.059710
2436.000000	10.140907
2435.000000	10.193529
2434.000000	10.240013
2433.000000	10.297464
2432.000000	10.365279
2431.000000	10.408946
2430.000000	10.476157
2429.000000	10.523748
2428.000000	10.557655
2427.000000	10.594681
2426.000000	10.658471
2425.000000	10.694391
2424.000000	10.729606
2423.000000	10.783939
2422.000000	10.825694
2421.000000	10.857891
2420.000000	10.875901
2419.000000	10.909104
2418.000000	10.954381
2417.000000	10.968266
2416.000000	10.978327
2415.000000	11.022497
2414.000000	11.045639
2413.000000	11.060731
2412.000000	11.080049
2411.000000	11.106612
2410.000000	11.127942
2409.000000	11.164164
2408.000000	11.188613
2407.000000	11.196360
2406.000000	11.212559
2405.000000	11.230972
2404.000000	11.263571
2403.000000	11.284298
2402.000000	11.306031
2401.000000	11.341850
2400.000000	11.352616
2399.000000	11.371532
2398.000000	11.393767
2397.000000	11.418720
2396.000000	11.444578
2395.000000	11.456753
2394.000000	11.482108
2393.000000	11.488446
2392.000000	11.501225
2391.000000	11.519134
2390.000000	11.545696
2389.000000	11.539257
2388.000000	11.543483
2387.000000	11.541269
2386.000000	11.538251
2385.000000	11.532616
2384.000000	11.527686
2383.000000	11.521750
2382.000000	11.511387
2381.000000	11.493880
2380.000000	11.468424
2379.000000	11.448804
2378.000000	11.427574
2377.000000	11.398899
2376.000000	11.357043
2375.000000	11.332795
2374.000000	11.303717
2373.000000	11.258641
2372.000000	11.221917
2371.000000	11.164767
2370.000000	11.106813
2369.000000	11.069485
2368.000000	11.028232
2367.000000	10.959713
2366.000000	10.891899
2365.000000	10.840384
2364.000000	10.766633
2363.000000	10.704754
2362.000000	10.642071
2361.000000	10.560271
2360.000000	10.503625
2359.000000	10.437420
2358.000000	10.378157
2357.000000	10.340829
2356.000000	10.292433
2355.000000	10.255809
2354.000000	10.235586
2353.000000	10.224116
2352.000000	10.217173
2351.000000	10.219185
2350.000000	10.242528
2349.000000	10.262852
2348.000000	10.272813
2347.000000	10.307928
2346.000000	10.346766
2345.000000	10.378962
2344.000000	10.412065
2343.000000	10.446274
2342.000000	10.459354
2341.000000	10.480785
2340.000000	10.501411
2339.000000	10.504027
2338.000000	10.500204
2337.000000	10.498795
2336.000000	10.503826
2335.000000	10.468107
2334.000000	10.436011
2333.000000	10.409449
2332.000000	10.369907
2331.000000	10.316983
2330.000000	10.263456
2329.000000	10.217173
2328.000000	10.143120
2327.000000	10.074098
2326.000000	10.003869
2325.000000	9.930420
2324.000000	9.838357
2323.000000	9.739855
2322.000000	9.633202
2321.000000	9.514778
2320.000000	9.425130
2319.000000	9.327533
2318.000000	9.198645
2317.000000	9.076398
2316.000000	8.976185
2315.000000	8.871646
2314.000000	8.774955
2313.000000	8.679873
2312.000000	8.596463
2311.000000	8.518990
2310.000000	8.461136
2309.000000	8.430951
2308.000000	8.398251
2307.000000	8.395736
2306.000000	8.387586
2305.000000	8.414350
2304.000000	8.448156
2303.000000	8.503696
2302.000000	8.568190
2301.000000	8.646972
2300.000000	8.719516
2299.000000	8.802926
2298.000000	8.870338
2297.000000	8.956364
2296.000000	9.041686
2295.000000	9.113927
2294.000000	9.171379
2293.000000	9.239696
2292.000000	9.278232
2291.000000	9.306907
2290.000000	9.343934
2289.000000	9.353995
2288.000000	9.352788
2287.000000	9.331558
2286.000000	9.345745
2285.000000	9.321597
2284.000000	9.308014
2283.000000	9.271793
2282.000000	9.248450
2281.000000	9.212731
2280.000000	9.185666
2279.000000	9.151759
2278.000000	9.124794
2277.000000	9.119763
2276.000000	9.111412
2275.000000	9.095314
2274.000000	9.089075
2273.000000	9.110406
2272.000000	9.098634
2271.000000	9.134855
2270.000000	9.198343
2269.000000	9.253179
2268.000000	9.327433
2267.000000	9.448875
2266.000000	9.549491
2265.000000	9.677473
2264.000000	9.833729
2263.000000	10.019967
2262.000000	10.202081
2261.000000	10.415687
2260.000000	10.622753
2259.000000	10.841491
2258.000000	11.085281
2257.000000	11.331688
2256.000000	11.606367
2255.000000	11.843417
2254.000000	12.073826
2253.000000	12.320031
2252.000000	12.547623
2251.000000	12.794130
2250.000000	13.014477
2249.000000	13.199408
2248.000000	13.392791
2247.000000	13.582450
2246.000000	13.744642
2245.000000	13.893552
2244.000000	14.050613
2243.000000	14.217433
2242.000000	14.297623
2241.000000	14.428725
2240.000000	14.532962
2239.000000	14.621504
2238.000000	14.725942
2237.000000	14.807843
2236.000000	14.842555
2235.000000	14.920934
2234.000000	14.980901
2233.000000	15.034227
2232.000000	15.059482
2231.000000	15.094999
2230.000000	15.119146
2229.000000	15.143495
2228.000000	15.131623
2227.000000	15.129711
2226.000000	15.119750
2225.000000	15.115222
2224.000000	15.082824
2223.000000	15.062198
2222.000000	15.008067
2221.000000	14.978889
2220.000000	14.950616
2219.000000	14.911175
2218.000000	14.875054
2217.000000	14.819615
2216.000000	14.797480
2215.000000	14.759145
2214.000000	14.716686
2213.000000	14.669195
2212.000000	14.641425
2211.000000	14.606411
2210.000000	14.559223
2209.000000	14.538697
2208.000000	14.521995
2207.000000	14.483560
2206.000000	14.460117
2205.000000	14.419066
2204.000000	14.395924
2203.000000	14.379323
2202.000000	14.360005
2201.000000	14.346925
2200.000000	14.311005
2199.000000	14.285046
2198.000000	14.269250
2197.000000	14.253554
2196.000000	14.250032
2195.000000	14.228702
2194.000000	14.200127
2193.000000	14.189864
2192.000000	14.182419
2191.000000	14.168232
2190.000000	14.162799
2189.000000	14.130602
2188.000000	14.112592
2187.000000	14.082307
2186.000000	14.087438
2185.000000	14.082810
2184.000000	14.043670
2183.000000	14.027974
2182.000000	13.992860
2181.000000	13.989439
2180.000000	13.979981
2179.000000	13.944263
2178.000000	13.950199
2177.000000	13.949495
2176.000000	13.948589
2175.000000	13.941043
2174.000000	13.948287
2173.000000	13.947482
2172.000000	13.949193
2171.000000	13.977767
2170.000000	13.997689
2169.000000	14.004028
2168.000000	14.029785
2167.000000	14.053732
2166.000000	14.082810
2165.000000	14.110982
2164.000000	14.151429
2163.000000	14.178495
2162.000000	14.206969
2161.000000	14.237556
2160.000000	14.283034
2159.000000	14.313621
2158.000000	14.373185
2157.000000	14.420676
2156.000000	14.461022
2155.000000	14.539100
2154.000000	14.594337
2153.000000	14.648670
2152.000000	14.708838
2151.000000	14.761359
2150.000000	14.825954
2149.000000	14.878676
2148.000000	14.937234
2147.000000	15.002131
2146.000000	15.050829
2145.000000	15.110896
2144.000000	15.160600
2143.000000	15.208895
2142.000000	15.264234
2141.000000	15.323597
2140.000000	15.375816
2139.000000	15.410327
2138.000000	15.448862
2137.000000	15.488203
2136.000000	15.511244
2135.000000	15.560243
2134.000000	15.596163
2133.000000	15.617997
2132.000000	15.649992
2131.000000	15.687220
2130.000000	15.711267
2129.000000	15.726259
2128.000000	15.728472
2127.000000	15.740445
2126.000000	15.758154
2125.000000	15.761575
2124.000000	15.753827
2123.000000	15.750909
2122.000000	15.757550
2121.000000	15.755739
2120.000000	15.740345
2119.000000	15.727466
2118.000000	15.722938
2117.000000	15.704023
2116.000000	15.698086
2115.000000	15.666191
2114.000000	15.634397
2113.000000	15.618600
2112.000000	15.590327
2111.000000	15.563161
2110.000000	15.542032
2109.000000	15.518589
2108.000000	15.491926
2107.000000	15.463452
2106.000000	15.440612
2105.000000	15.410025
2104.000000	15.391713
2103.000000	15.369477
2102.000000	15.341707
2101.000000	15.320477
2100.000000	15.295424
2099.000000	15.278722
2098.000000	15.256587
2097.000000	15.238375
2096.000000	15.221774
2095.000000	15.209599
2094.000000	15.204066
2093.000000	15.190181
2092.000000	15.169454
2091.000000	15.171466
2090.000000	15.167039
2089.000000	15.151544
2088.000000	15.139269
2087.000000	15.133233
2086.000000	15.120756
2085.000000	15.104255
2084.000000	15.083629
2083.000000	15.053746
2082.000000	15.037849
2081.000000	15.011891
2080.000000	14.985630
2079.000000	14.963897
2078.000000	14.929990
2077.000000	14.885115
2076.000000	14.846278
2075.000000	14.815892
2074.000000	14.775344
2073.000000	14.717189
2072.000000	14.662756
2071.000000	14.611442
2070.000000	14.551274
2069.000000	14.500665
2068.000000	14.455790
2067.000000	14.403470
2066.000000	14.342397
2065.000000	14.292291
2064.000000	14.239669
2063.000000	14.176281
2062.000000	14.128388
2061.000000	14.075666
2060.000000	14.032804
2059.000000	14.005839
2058.000000	13.989036
2057.000000	13.979377
2056.000000	13.984911
2055.000000	13.991250
2054.000000	14.009662
2053.000000	14.055241
2052.000000	14.114906
2051.000000	14.186544
2050.000000	14.272872
2049.000000	14.365639
2048.000000	14.477624
2047.000000	14.609027
2046.000000	14.749587
2045.000000	14.909062
2044.000000	15.050024
2043.000000	15.217548
2042.000000	15.388695
2041.000000	15.567790
2040.000000	15.737527
2039.000000	15.896701
2038.000000	16.060502
2037.000000	16.206696
2036.000000	16.356814
2035.000000	16.508844
2034.000000	16.657553
2033.000000	16.782618
2032.000000	16.905368
2031.000000	17.017353
2030.000000	17.135978
2029.000000	17.254402
2028.000000	17.364174
2027.000000	17.461368
2026.000000	17.552425
2025.000000	17.664007
2024.000000	17.748222
2023.000000	17.816137
2022.000000	17.908703
2021.000000	17.985674
2020.000000	18.066468
2019.000000	18.158933
2018.000000	18.214674
2017.000000	18.268704
2016.000000	18.344468
2015.000000	18.403428
2014.000000	18.435927
2013.000000	18.494686
2012.000000	18.546000
2011.000000	18.585642
2010.000000	18.617940
2009.000000	18.636252
2008.000000	18.667342
2007.000000	18.687666
2006.000000	18.694005
2005.000000	18.734855
2004.000000	18.733345
2003.000000	18.747633
2002.000000	18.709902
2001.000000	18.716140
2000.000000	18.697325
1999.000000	18.698834
1998.000000	18.648225
1997.000000	18.607375
1996.000000	18.582322
1995.000000	18.531411
1994.000000	18.494485
1993.000000	18.449711
1992.000000	18.395178
1991.000000	18.351611
1990.000000	18.274440
1989.000000	18.191130
1988.000000	18.158229
1987.000000	18.069688
1986.000000	18.000464
1985.000000	17.929631
1984.000000	17.878116
1983.000000	17.776394
1982.000000	17.704555
1981.000000	17.607260
1980.000000	17.530994
1979.000000	17.440440
1978.000000	17.370311
1977.000000	17.313564
1976.000000	17.213452
1975.000000	17.134570
1974.000000	17.065850
1973.000000	16.984854
1972.000000	16.911606
1971.000000	16.852243
1970.000000	16.779901
1969.000000	16.703031
1968.000000	16.645177
1967.000000	16.549995
1966.000000	16.488922
1965.000000	16.425937
1964.000000	16.351280
1963.000000	16.275920
1962.000000	16.178524
1961.000000	16.128116
1960.000000	16.071872
1959.000000	16.003051
1958.000000	15.922358
1957.000000	15.850015
1956.000000	15.786225
1955.000000	15.689534
1954.000000	15.628561
1953.000000	15.569198
1952.000000	15.505811
1951.000000	15.427633
1950.000000	15.364446
1949.000000	15.335872
1948.000000	15.270371
1947.000000	15.229421
1946.000000	15.201349
1945.000000	15.140779
1944.000000	15.116027
1943.000000	15.062802
1942.000000	15.070046
1941.000000	15.040968
1940.000000	15.053344
1939.000000	15.044591
1938.000000	15.061293
1937.000000	15.066022
1936.000000	15.112405
1935.000000	15.156273
1934.000000	15.160399
1933.000000	15.219259
1932.000000	15.281841
1931.000000	15.357806
1930.000000	15.431959
1929.000000	15.522815
1928.000000	15.645565
1927.000000	15.754028
1926.000000	15.861284
1925.000000	15.972263
1924.000000	16.103465
1923.000000	16.256501
1922.000000	16.432779
1921.000000	16.590543
1920.000000	16.766922
1919.000000	16.952657
1918.000000	17.134067
1917.000000	17.291228
1916.000000	17.477567
1915.000000	17.695600
1914.000000	17.943415
1913.000000	18.215982
1912.000000	18.468526
1911.000000	18.696722
1910.000000	18.909925
1909.000000	19.101195
1908.000000	19.357260
1907.000000	19.653270
1906.000000	19.995765
1905.000000	20.315620
1904.000000	20.623704
1903.000000	20.901402
1902.000000	21.201235
1901.000000	21.538900
1900.000000	21.884312
1899.000000	22.225297
1898.000000	22.517685
1897.000000	22.832107
1896.000000	23.097229
1895.000000	23.372109
1894.000000	23.655341
1893.000000	23.970770
1892.000000	24.349888
1891.000000	24.685440
1890.000000	25.012339
1889.000000	25.339237
1888.000000	25.663420
1887.000000	25.999877
1886.000000	26.354747
1885.000000	26.771394
1884.000000	27.248914
1883.000000	27.667876
1882.000000	28.104345
1881.000000	28.554497
1880.000000	28.975974
1879.000000	29.375517
1878.000000	29.780997
1877.000000	30.141602
1876.000000	30.481379
1875.000000	30.803147
1874.000000	31.103181
1873.000000	31.390136
1872.000000	31.629399
1871.000000	31.836867
1870.000000	32.023911
1869.000000	32.189825
1868.000000	32.289435
1867.000000	32.342157
1866.000000	32.370631
1865.000000	32.415908
1864.000000	32.442873
1863.000000	32.451425
1862.000000	32.499117
1861.000000	32.544393
1860.000000	32.567736
1859.000000	32.560089
1858.000000	32.554757
1857.000000	32.530307
1856.000000	32.477082
1855.000000	32.443778
1854.000000	32.383107
1853.000000	32.304627
1852.000000	32.244862
1851.000000	32.174431
1850.000000	32.103799
1849.000000	32.050574
1848.000000	32.009724
1847.000000	31.926113
1846.000000	31.829321
1845.000000	31.744804
1844.000000	31.660086
1843.000000	31.638052
1842.000000	31.628292
1841.000000	31.581908
1840.000000	31.535424
1839.000000	31.476564
1838.000000	31.397179
1837.000000	31.339627
1836.000000	31.275535
1835.000000	31.184981
1834.000000	31.094025
1833.000000	30.998239
1832.000000	30.922074
1831.000000	30.854561
1830.000000	30.774371
1829.000000	30.685628
1828.000000	30.594974
1827.000000	30.523638
1826.000000	30.465381
1825.000000	30.399579
1824.000000	30.333676
1823.000000	30.325124
1822.000000	30.334481
1821.000000	30.335286
1820.000000	30.322608
1819.000000	30.281960
1818.000000	30.252379
1817.000000	30.240406
1816.000000	30.242619
1815.000000	30.234872
1814.000000	30.222496
1813.000000	30.196940
1812.000000	30.171283
1811.000000	30.150053
1810.000000	30.102160
1809.000000	30.042898
1808.000000	30.008186
1807.000000	29.970656
1806.000000	29.919343
1805.000000	29.864205
1804.000000	29.805949
1803.000000	29.752623
1802.000000	29.712377
1801.000000	29.660862
1800.000000	29.603310
1799.000000	29.555115
1798.000000	29.502393
1797.000000	29.470096
1796.000000	29.414154
1795.000000	29.359922
1794.000000	29.310721
1793.000000	29.270374
1792.000000	29.201755
1791.000000	29.135952
1790.000000	29.076187
1789.000000	29.009882
1788.000000	28.951324
1787.000000	28.893872
1786.000000	28.830787
1785.000000	28.751301
1784.000000	28.664470
1783.000000	28.568583
1782.000000	28.470785
1781.000000	28.397034
1780.000000	28.306682
1779.000000	28.185843
1778.000000	28.071242
1777.000000	27.957446
1776.000000	27.808335
1775.000000	27.676831
1774.000000	27.530033
1773.000000	27.358987
1772.000000	27.201021
1771.000000	27.042754
1770.000000	26.877242
1769.000000	26.718672
1768.000000	26.580125
1767.000000	26.444898
1766.000000	26.316815
1765.000000	26.246887
1764.000000	26.218916
1763.000000	26.210666
1762.000000	26.235115
1761.000000	26.296189
1760.000000	26.341868
1759.000000	26.411192
1758.000000	26.479107
1757.000000	26.537967
1756.000000	26.600449
1755.000000	26.620572
1754.000000	26.632847
1753.000000	26.641399
1752.000000	26.614133
1751.000000	26.575094
1750.000000	26.526094
1749.000000	26.446206
1748.000000	26.356860
1747.000000	26.243164
1746.000000	26.109246
1745.000000	25.908619
1744.000000	25.709602
1743.000000	25.470943
1742.000000	25.201898
1741.000000	24.930136
1740.000000	24.643081
1739.000000	24.399089
1738.000000	24.133968
1737.000000	23.914224
1736.000000	23.740059
1735.000000	23.634614
1734.000000	23.546475
1733.000000	23.517196
1732.000000	23.537823
1731.000000	23.615598
1730.000000	23.712088
1729.000000	23.810892
1728.000000	23.924688
1727.000000	24.030837
1726.000000	24.105192
1725.000000	24.170491
1724.000000	24.227439
1723.000000	24.286199
1722.000000	24.350592
1721.000000	24.423035
1720.000000	24.478877
1719.000000	24.564903
1718.000000	24.677592
1717.000000	24.797726
1716.000000	24.938085
1715.000000	25.058118
1714.000000	25.173122
1713.000000	25.293357
1712.000000	25.382502
1711.000000	25.445688
1710.000000	25.505152
1709.000000	25.550227
1708.000000	25.574878
1707.000000	25.590775
1706.000000	25.594599
1705.000000	25.591077
1704.000000	25.533324
1703.000000	25.478086
1702.000000	25.410372
1701.000000	25.296275
1700.000000	25.142836
1699.000000	25.026425
1698.000000	24.921684
1697.000000	24.839884
1696.000000	24.813322
1695.000000	24.824993
1694.000000	24.899448
1693.000000	25.000164
1692.000000	25.156822
1691.000000	25.295269
1690.000000	25.423352
1689.000000	25.520043
1688.000000	25.571357
1687.000000	25.616332
1686.000000	25.659999
1685.000000	25.760010
1684.000000	25.939508
1683.000000	26.226764
1682.000000	26.646028
1681.000000	27.162184
1680.000000	27.718988
1679.000000	28.329220
1678.000000	28.872743
1677.000000	29.409324
1676.000000	29.842774
1675.000000	30.253184
1674.000000	30.619423
1673.000000	30.921269
1672.000000	31.197458
1671.000000	31.454026
1670.000000	31.698421
1669.000000	31.883150
1668.000000	32.053492
1667.000000	32.215985
1666.000000	32.361073
1665.000000	32.487546
1664.000000	32.607781
1663.000000	32.715641
1662.000000	32.818972
1661.000000	32.899968
1660.000000	32.985189
1659.000000	33.040829
1658.000000	33.088118
1657.000000	33.125748
1656.000000	33.172534
1655.000000	33.181891
1654.000000	33.191349
1653.000000	33.188331
1652.000000	33.196179
1651.000000	33.183401
1650.000000	33.157241
1649.000000	33.121422
1648.000000	33.072020
1647.000000	33.029057
1646.000000	33.005714
1645.000000	32.948162
1644.000000	32.899163
1643.000000	32.843321
1642.000000	32.782348
1641.000000	32.716747
1640.000000	32.666239
1639.000000	32.604159
1638.000000	32.545400
1637.000000	32.469737
1636.000000	32.402627
1635.000000	32.338937
1634.000000	32.262268
1633.000000	32.183487
1632.000000	32.105611
1631.000000	32.024012
1630.000000	31.936577
1629.000000	31.842401
1628.000000	31.758991
1627.000000	31.667431
1626.000000	31.593077
1625.000000	31.508560
1624.000000	31.407341
1623.000000	31.324836
1622.000000	31.248067
1621.000000	31.160029
1620.000000	31.062432
1619.000000	30.981437
