PE UV       SUBTECH     SPECTRUM    ASCII       PEDS        4.00        
   -1
CICIMAUCR0009-1.Sample.ASC
24/04/17
11:03:30.00
24/04/17
11:03:30.00
Vinicio Soto Monge
C. kalinini
250,000000
1
Lambda 1050
1050L1511233
PerkinElmer UV WinLab 6.3.2.0749 / 2.02.05 Lambda 900 UV/VIS/NIR, Aug  7 2015 09:38:08

0
0
3350/servo 860,8/2
0
0
UV/VIS
1
1
1
DoubleDePol,CommonBeamDepol,RBeamAtt,SBeamAtt,60mm sphere, WB InGaAs Detector
0
0
0
0
Program
Program
3350/servo 860,8/2
3350/0,2 860,8/0,2
3350/0,2 860,8/0,2
0
15.00
 
 
 
0
 
860,8
319,2
860,8
Front
100
on
S:100 R:100
0
0
0
0
 
0
 
 
 
0
 
 
0
0
0
0
0
 
 
 
 
0
0


0
0
#HDR
-1
-1
#GR
nm
%R
1.0
0.0
2500,000000
-1,000000
2251
8
92,705800
4,951600
#DATA
2500.000000	6.562400
2499.000000	6.490700
2498.000000	6.457000
2497.000000	6.452900
2496.000000	6.332700
2495.000000	6.389400
2494.000000	6.415800
2493.000000	6.294400
2492.000000	6.335100
2491.000000	6.259900
2490.000000	6.319900
2489.000000	6.302500
2488.000000	6.204400
2487.000000	6.246600
2486.000000	6.222500
2485.000000	6.184600
2484.000000	6.176700
2483.000000	6.177600
2482.000000	6.164400
2481.000000	6.200300
2480.000000	6.145500
2479.000000	6.153800
2478.000000	6.176200
2477.000000	6.122000
2476.000000	6.110800
2475.000000	6.143200
2474.000000	6.141100
2473.000000	6.130200
2472.000000	6.080100
2471.000000	6.150700
2470.000000	6.124800
2469.000000	6.175600
2468.000000	6.125000
2467.000000	6.119300
2466.000000	6.138700
2465.000000	6.144900
2464.000000	6.146400
2463.000000	6.171600
2462.000000	6.163100
2461.000000	6.153300
2460.000000	6.209000
2459.000000	6.220900
2458.000000	6.253600
2457.000000	6.255400
2456.000000	6.284600
2455.000000	6.309100
2454.000000	6.326300
2453.000000	6.378500
2452.000000	6.415100
2451.000000	6.435600
2450.000000	6.478800
2449.000000	6.521600
2448.000000	6.567200
2447.000000	6.608100
2446.000000	6.629100
2445.000000	6.668700
2444.000000	6.707100
2443.000000	6.732000
2442.000000	6.762900
2441.000000	6.799300
2440.000000	6.854500
2439.000000	6.871200
2438.000000	6.896700
2437.000000	6.932000
2436.000000	6.978300
2435.000000	7.006000
2434.000000	7.032100
2433.000000	7.054000
2432.000000	7.097600
2431.000000	7.112800
2430.000000	7.144400
2429.000000	7.162300
2428.000000	7.180400
2427.000000	7.202500
2426.000000	7.206500
2425.000000	7.226500
2424.000000	7.232200
2423.000000	7.243500
2422.000000	7.227800
2421.000000	7.210900
2420.000000	7.210400
2419.000000	7.207200
2418.000000	7.222600
2417.000000	7.226500
2416.000000	7.230000
2415.000000	7.246900
2414.000000	7.247300
2413.000000	7.239600
2412.000000	7.242400
2411.000000	7.252900
2410.000000	7.268900
2409.000000	7.268100
2408.000000	7.277700
2407.000000	7.276000
2406.000000	7.286100
2405.000000	7.289000
2404.000000	7.286800
2403.000000	7.309700
2402.000000	7.328700
2401.000000	7.334500
2400.000000	7.321400
2399.000000	7.336300
2398.000000	7.366500
2397.000000	7.371300
2396.000000	7.378500
2395.000000	7.399100
2394.000000	7.403400
2393.000000	7.413300
2392.000000	7.420300
2391.000000	7.437100
2390.000000	7.445900
2389.000000	7.441600
2388.000000	7.455300
2387.000000	7.456200
2386.000000	7.448200
2385.000000	7.442100
2384.000000	7.435900
2383.000000	7.431200
2382.000000	7.427400
2381.000000	7.430200
2380.000000	7.425100
2379.000000	7.401200
2378.000000	7.404200
2377.000000	7.386500
2376.000000	7.366500
2375.000000	7.359300
2374.000000	7.343000
2373.000000	7.324100
2372.000000	7.301400
2371.000000	7.277900
2370.000000	7.252600
2369.000000	7.229800
2368.000000	7.205200
2367.000000	7.173700
2366.000000	7.142300
2365.000000	7.107300
2364.000000	7.058900
2363.000000	7.020500
2362.000000	6.978000
2361.000000	6.931800
2360.000000	6.894100
2359.000000	6.864700
2358.000000	6.813800
2357.000000	6.774900
2356.000000	6.761900
2355.000000	6.744100
2354.000000	6.721400
2353.000000	6.704900
2352.000000	6.703700
2351.000000	6.704900
2350.000000	6.712500
2349.000000	6.719600
2348.000000	6.738800
2347.000000	6.772500
2346.000000	6.793200
2345.000000	6.819900
2344.000000	6.847000
2343.000000	6.865900
2342.000000	6.885200
2341.000000	6.913700
2340.000000	6.917500
2339.000000	6.916400
2338.000000	6.919500
2337.000000	6.920200
2336.000000	6.916900
2335.000000	6.901700
2334.000000	6.885800
2333.000000	6.871700
2332.000000	6.844900
2331.000000	6.820500
2330.000000	6.777100
2329.000000	6.751000
2328.000000	6.705600
2327.000000	6.662800
2326.000000	6.616200
2325.000000	6.562900
2324.000000	6.522900
2323.000000	6.485700
2322.000000	6.434800
2321.000000	6.379400
2320.000000	6.330200
2319.000000	6.253000
2318.000000	6.191600
2317.000000	6.137600
2316.000000	6.075100
2315.000000	6.020000
2314.000000	5.976200
2313.000000	5.928500
2312.000000	5.863900
2311.000000	5.825900
2310.000000	5.785800
2309.000000	5.772800
2308.000000	5.767400
2307.000000	5.741500
2306.000000	5.731900
2305.000000	5.741600
2304.000000	5.768500
2303.000000	5.781500
2302.000000	5.817500
2301.000000	5.831600
2300.000000	5.871300
2299.000000	5.929600
2298.000000	5.952600
2297.000000	6.009000
2296.000000	6.047500
2295.000000	6.090700
2294.000000	6.116700
2293.000000	6.139100
2292.000000	6.157300
2291.000000	6.172000
2290.000000	6.200300
2289.000000	6.198200
2288.000000	6.200400
2287.000000	6.174500
2286.000000	6.178100
2285.000000	6.163100
2284.000000	6.144500
2283.000000	6.135500
2282.000000	6.092700
2281.000000	6.065200
2280.000000	6.048700
2279.000000	6.037400
2278.000000	6.014500
2277.000000	6.004900
2276.000000	5.975700
2275.000000	5.954000
2274.000000	5.956900
2273.000000	5.955900
2272.000000	5.957600
2271.000000	5.980800
2270.000000	5.964500
2269.000000	5.996000
2268.000000	6.007200
2267.000000	6.063900
2266.000000	6.105000
2265.000000	6.197600
2264.000000	6.234900
2263.000000	6.322300
2262.000000	6.397800
2261.000000	6.504600
2260.000000	6.636000
2259.000000	6.731300
2258.000000	6.862300
2257.000000	7.009600
2256.000000	7.157500
2255.000000	7.290700
2254.000000	7.410600
2253.000000	7.558100
2252.000000	7.693800
2251.000000	7.831800
2250.000000	7.950900
2249.000000	8.074000
2248.000000	8.191700
2247.000000	8.322200
2246.000000	8.404500
2245.000000	8.519100
2244.000000	8.612200
2243.000000	8.667600
2242.000000	8.786000
2241.000000	8.872500
2240.000000	8.935200
2239.000000	9.010000
2238.000000	9.077500
2237.000000	9.153300
2236.000000	9.219400
2235.000000	9.254700
2234.000000	9.329000
2233.000000	9.378800
2232.000000	9.407600
2231.000000	9.427300
2230.000000	9.472800
2229.000000	9.534500
2228.000000	9.532800
2227.000000	9.549800
2226.000000	9.589600
2225.000000	9.598800
2224.000000	9.594000
2223.000000	9.614000
2222.000000	9.631400
2221.000000	9.629900
2220.000000	9.600600
2219.000000	9.634600
2218.000000	9.616200
2217.000000	9.641300
2216.000000	9.621700
2215.000000	9.610000
2214.000000	9.601800
2213.000000	9.608500
2212.000000	9.615400
2211.000000	9.593600
2210.000000	9.592800
2209.000000	9.585800
2208.000000	9.580900
2207.000000	9.583900
2206.000000	9.586700
2205.000000	9.569500
2204.000000	9.567200
2203.000000	9.577600
2202.000000	9.583600
2201.000000	9.555000
2200.000000	9.559800
2199.000000	9.557200
2198.000000	9.575900
2197.000000	9.585700
2196.000000	9.590300
2195.000000	9.574000
2194.000000	9.579400
2193.000000	9.571200
2192.000000	9.571100
2191.000000	9.573600
2190.000000	9.571200
2189.000000	9.561400
2188.000000	9.556300
2187.000000	9.549000
2186.000000	9.544000
2185.000000	9.542700
2184.000000	9.548200
2183.000000	9.512800
2182.000000	9.529400
2181.000000	9.516900
2180.000000	9.512700
2179.000000	9.511400
2178.000000	9.508200
2177.000000	9.521700
2176.000000	9.533300
2175.000000	9.520100
2174.000000	9.524000
2173.000000	9.527900
2172.000000	9.527800
2171.000000	9.557100
2170.000000	9.577500
2169.000000	9.570400
2168.000000	9.587200
2167.000000	9.599400
2166.000000	9.616000
2165.000000	9.626200
2164.000000	9.653900
2163.000000	9.673600
2162.000000	9.683900
2161.000000	9.692700
2160.000000	9.726400
2159.000000	9.742700
2158.000000	9.760500
2157.000000	9.769800
2156.000000	9.791400
2155.000000	9.812000
2154.000000	9.838500
2153.000000	9.851600
2152.000000	9.875300
2151.000000	9.907400
2150.000000	9.929200
2149.000000	9.947400
2148.000000	9.969400
2147.000000	9.985800
2146.000000	10.013900
2145.000000	10.031300
2144.000000	10.043200
2143.000000	10.053100
2142.000000	10.068000
2141.000000	10.079600
2140.000000	10.087900
2139.000000	10.086900
2138.000000	10.099200
2137.000000	10.104800
2136.000000	10.112500
2135.000000	10.115800
2134.000000	10.134900
2133.000000	10.117300
2132.000000	10.121200
2131.000000	10.127500
2130.000000	10.121400
2129.000000	10.113500
2128.000000	10.106600
2127.000000	10.107900
2126.000000	10.099600
2125.000000	10.086900
2124.000000	10.081100
2123.000000	10.056600
2122.000000	10.047000
2121.000000	10.039500
2120.000000	10.015700
2119.000000	9.986700
2118.000000	9.972300
2117.000000	9.964900
2116.000000	9.931600
2115.000000	9.917000
2114.000000	9.898900
2113.000000	9.878000
2112.000000	9.850900
2111.000000	9.823700
2110.000000	9.816700
2109.000000	9.803500
2108.000000	9.771300
2107.000000	9.748200
2106.000000	9.721000
2105.000000	9.707700
2104.000000	9.691100
2103.000000	9.661500
2102.000000	9.640300
2101.000000	9.619700
2100.000000	9.603300
2099.000000	9.587200
2098.000000	9.578500
2097.000000	9.549900
2096.000000	9.517000
2095.000000	9.508300
2094.000000	9.504300
2093.000000	9.485300
2092.000000	9.473000
2091.000000	9.453200
2090.000000	9.437300
2089.000000	9.440400
2088.000000	9.432800
2087.000000	9.418600
2086.000000	9.415600
2085.000000	9.405000
2084.000000	9.384100
2083.000000	9.372600
2082.000000	9.365400
2081.000000	9.370600
2080.000000	9.379200
2079.000000	9.375200
2078.000000	9.344300
2077.000000	9.325000
2076.000000	9.326700
2075.000000	9.310200
2074.000000	9.310100
2073.000000	9.302600
2072.000000	9.289700
2071.000000	9.277900
2070.000000	9.279800
2069.000000	9.281200
2068.000000	9.267000
2067.000000	9.250500
2066.000000	9.241400
2065.000000	9.236400
2064.000000	9.240500
2063.000000	9.248500
2062.000000	9.243200
2061.000000	9.251300
2060.000000	9.257700
2059.000000	9.259600
2058.000000	9.259700
2057.000000	9.283200
2056.000000	9.326400
2055.000000	9.339500
2054.000000	9.357700
2053.000000	9.403600
2052.000000	9.453000
2051.000000	9.505500
2050.000000	9.563100
2049.000000	9.633800
2048.000000	9.718400
2047.000000	9.798000
2046.000000	9.881300
2045.000000	9.969600
2044.000000	10.057300
2043.000000	10.160400
2042.000000	10.252500
2041.000000	10.364000
2040.000000	10.463400
2039.000000	10.568600
2038.000000	10.676500
2037.000000	10.774100
2036.000000	10.876900
2035.000000	10.968200
2034.000000	11.059800
2033.000000	11.139000
2032.000000	11.217800
2031.000000	11.314200
2030.000000	11.403500
2029.000000	11.469700
2028.000000	11.552500
2027.000000	11.624400
2026.000000	11.707700
2025.000000	11.783100
2024.000000	11.812600
2023.000000	11.884800
2022.000000	11.956000
2021.000000	12.029100
2020.000000	12.100100
2019.000000	12.153400
2018.000000	12.232700
2017.000000	12.272200
2016.000000	12.349900
2015.000000	12.418500
2014.000000	12.434400
2013.000000	12.481700
2012.000000	12.519800
2011.000000	12.560600
2010.000000	12.613800
2009.000000	12.637200
2008.000000	12.658000
2007.000000	12.708600
2006.000000	12.707200
2005.000000	12.732300
2004.000000	12.737300
2003.000000	12.781800
2002.000000	12.758500
2001.000000	12.765900
2000.000000	12.764100
1999.000000	12.750600
1998.000000	12.754000
1997.000000	12.747700
1996.000000	12.739500
1995.000000	12.740900
1994.000000	12.695800
1993.000000	12.683900
1992.000000	12.648800
1991.000000	12.644700
1990.000000	12.619400
1989.000000	12.577400
1988.000000	12.530400
1987.000000	12.512200
1986.000000	12.471300
1985.000000	12.421400
1984.000000	12.379200
1983.000000	12.351200
1982.000000	12.300600
1981.000000	12.250700
1980.000000	12.201400
1979.000000	12.154000
1978.000000	12.109900
1977.000000	12.064400
1976.000000	12.008100
1975.000000	11.979500
1974.000000	11.936200
1973.000000	11.895100
1972.000000	11.825100
1971.000000	11.810500
1970.000000	11.768400
1969.000000	11.711500
1968.000000	11.677900
1967.000000	11.645700
1966.000000	11.614700
1965.000000	11.574000
1964.000000	11.522300
1963.000000	11.491000
1962.000000	11.456600
1961.000000	11.385800
1960.000000	11.373700
1959.000000	11.337100
1958.000000	11.271300
1957.000000	11.261400
1956.000000	11.212300
1955.000000	11.158700
1954.000000	11.126300
1953.000000	11.114800
1952.000000	11.057100
1951.000000	11.033000
1950.000000	11.007500
1949.000000	10.965900
1948.000000	10.952500
1947.000000	10.922100
1946.000000	10.894000
1945.000000	10.862900
1944.000000	10.847100
1943.000000	10.826700
1942.000000	10.828500
1941.000000	10.831800
1940.000000	10.849500
1939.000000	10.861500
1938.000000	10.871700
1937.000000	10.893300
1936.000000	10.916500
1935.000000	10.933200
1934.000000	10.986500
1933.000000	11.031400
1932.000000	11.083300
1931.000000	11.120500
1930.000000	11.192200
1929.000000	11.252500
1928.000000	11.324900
1927.000000	11.394400
1926.000000	11.482100
1925.000000	11.553700
1924.000000	11.647200
1923.000000	11.773000
1922.000000	11.865000
1921.000000	11.993400
1920.000000	12.121100
1919.000000	12.231200
1918.000000	12.356200
1917.000000	12.496600
1916.000000	12.632600
1915.000000	12.771100
1914.000000	12.929300
1913.000000	13.094200
1912.000000	13.251700
1911.000000	13.400400
1910.000000	13.560000
1909.000000	13.711000
1908.000000	13.882000
1907.000000	14.071400
1906.000000	14.283000
1905.000000	14.476700
1904.000000	14.642000
1903.000000	14.817900
1902.000000	14.999300
1901.000000	15.192400
1900.000000	15.389000
1899.000000	15.571800
1898.000000	15.758200
1897.000000	15.949200
1896.000000	16.111600
1895.000000	16.301000
1894.000000	16.508200
1893.000000	16.685400
1892.000000	16.876300
1891.000000	17.062200
1890.000000	17.253900
1889.000000	17.422600
1888.000000	17.639400
1887.000000	17.857700
1886.000000	18.109000
1885.000000	18.409600
1884.000000	18.752500
1883.000000	19.108300
1882.000000	19.466600
1881.000000	19.872100
1880.000000	20.290100
1879.000000	20.676300
1878.000000	21.038700
1877.000000	21.405300
1876.000000	21.716600
1875.000000	22.007300
1874.000000	22.281300
1873.000000	22.518000
1872.000000	22.733100
1871.000000	22.912500
1870.000000	23.032400
1869.000000	23.155700
1868.000000	23.274500
1867.000000	23.356700
1866.000000	23.393800
1865.000000	23.431100
1864.000000	23.473500
1863.000000	23.499200
1862.000000	23.518700
1861.000000	23.514000
1860.000000	23.496300
1859.000000	23.451100
1858.000000	23.401700
1857.000000	23.359000
1856.000000	23.301300
1855.000000	23.213400
1854.000000	23.128400
1853.000000	23.028100
1852.000000	22.922500
1851.000000	22.844200
1850.000000	22.794600
1849.000000	22.723800
1848.000000	22.597300
1847.000000	22.458700
1846.000000	22.327000
1845.000000	22.252400
1844.000000	22.225700
1843.000000	22.214400
1842.000000	22.178600
1841.000000	22.117500
1840.000000	22.051100
1839.000000	21.973200
1838.000000	21.900500
1837.000000	21.826500
1836.000000	21.742700
1835.000000	21.640700
1834.000000	21.542100
1833.000000	21.464200
1832.000000	21.389800
1831.000000	21.299100
1830.000000	21.197300
1829.000000	21.092200
1828.000000	20.979800
1827.000000	20.901800
1826.000000	20.825100
1825.000000	20.752000
1824.000000	20.693800
1823.000000	20.680600
1822.000000	20.685000
1821.000000	20.643600
1820.000000	20.593900
1819.000000	20.546600
1818.000000	20.532000
1817.000000	20.534000
1816.000000	20.540400
1815.000000	20.537500
1814.000000	20.525000
1813.000000	20.524500
1812.000000	20.499600
1811.000000	20.455900
1810.000000	20.409700
1809.000000	20.380000
1808.000000	20.368500
1807.000000	20.331600
1806.000000	20.256900
1805.000000	20.189000
1804.000000	20.141200
1803.000000	20.111300
1802.000000	20.066000
1801.000000	20.003800
1800.000000	19.934100
1799.000000	19.861000
1798.000000	19.825400
1797.000000	19.782100
1796.000000	19.740200
1795.000000	19.689600
1794.000000	19.634400
1793.000000	19.569300
1792.000000	19.503700
1791.000000	19.448100
1790.000000	19.386500
1789.000000	19.311000
1788.000000	19.236600
1787.000000	19.159400
1786.000000	19.081200
1785.000000	18.986600
1784.000000	18.886900
1783.000000	18.796900
1782.000000	18.703000
1781.000000	18.622400
1780.000000	18.513700
1779.000000	18.432800
1778.000000	18.323400
1777.000000	18.225400
1776.000000	18.110200
1775.000000	17.961300
1774.000000	17.812300
1773.000000	17.652000
1772.000000	17.506600
1771.000000	17.348500
1770.000000	17.211700
1769.000000	17.081300
1768.000000	16.930000
1767.000000	16.829500
1766.000000	16.707400
1765.000000	16.642900
1764.000000	16.586100
1763.000000	16.586500
1762.000000	16.603700
1761.000000	16.651500
1760.000000	16.702700
1759.000000	16.776500
1758.000000	16.827400
1757.000000	16.907400
1756.000000	16.963000
1755.000000	16.995900
1754.000000	17.015400
1753.000000	17.013300
1752.000000	16.968900
1751.000000	16.931800
1750.000000	16.884400
1749.000000	16.827400
1748.000000	16.738000
1747.000000	16.628800
1746.000000	16.506500
1745.000000	16.346600
1744.000000	16.165900
1743.000000	15.962900
1742.000000	15.734300
1741.000000	15.502400
1740.000000	15.260800
1739.000000	15.002200
1738.000000	14.790200
1737.000000	14.583300
1736.000000	14.443400
1735.000000	14.349300
1734.000000	14.286400
1733.000000	14.305100
1732.000000	14.350300
1731.000000	14.421000
1730.000000	14.543500
1729.000000	14.654600
1728.000000	14.786000
1727.000000	14.872000
1726.000000	14.993700
1725.000000	15.050000
1724.000000	15.117200
1723.000000	15.149300
1722.000000	15.170600
1721.000000	15.157800
1720.000000	15.142000
1719.000000	15.163500
1718.000000	15.180200
1717.000000	15.172600
1716.000000	15.225400
1715.000000	15.288100
1714.000000	15.326500
1713.000000	15.393000
1712.000000	15.424400
1711.000000	15.450200
1710.000000	15.471500
1709.000000	15.470800
1708.000000	15.467000
1707.000000	15.434700
1706.000000	15.418600
1705.000000	15.403400
1704.000000	15.327200
1703.000000	15.266400
1702.000000	15.175600
1701.000000	15.070100
1700.000000	14.911300
1699.000000	14.763600
1698.000000	14.641400
1697.000000	14.508700
1696.000000	14.480900
1695.000000	14.480700
1694.000000	14.526000
1693.000000	14.630600
1692.000000	14.781900
1691.000000	14.958900
1690.000000	15.146700
1689.000000	15.249600
1688.000000	15.296800
1687.000000	15.320600
1686.000000	15.289600
1685.000000	15.303200
1684.000000	15.344200
1683.000000	15.514100
1682.000000	15.828400
1681.000000	16.271200
1680.000000	16.813700
1679.000000	17.387200
1678.000000	17.972500
1677.000000	18.519500
1676.000000	19.030800
1675.000000	19.432400
1674.000000	19.793900
1673.000000	20.105100
1672.000000	20.383000
1671.000000	20.638200
1670.000000	20.835400
1669.000000	20.991700
1668.000000	21.163700
1667.000000	21.300100
1666.000000	21.402400
1665.000000	21.513100
1664.000000	21.592900
1663.000000	21.650300
1662.000000	21.717200
1661.000000	21.771800
1660.000000	21.804000
1659.000000	21.837400
1658.000000	21.867100
1657.000000	21.873200
1656.000000	21.881400
1655.000000	21.858600
1654.000000	21.857400
1653.000000	21.819800
1652.000000	21.808100
1651.000000	21.771300
1650.000000	21.729500
1649.000000	21.694200
1648.000000	21.639700
1647.000000	21.597300
1646.000000	21.538800
1645.000000	21.481500
1644.000000	21.403800
1643.000000	21.355800
1642.000000	21.285900
1641.000000	21.207500
1640.000000	21.135100
1639.000000	21.069500
1638.000000	20.980800
1637.000000	20.901300
1636.000000	20.807200
1635.000000	20.734100
1634.000000	20.646700
1633.000000	20.562600
1632.000000	20.459400
1631.000000	20.366400
1630.000000	20.280600
1629.000000	20.209000
1628.000000	20.115200
1627.000000	20.030200
1626.000000	19.938900
1625.000000	19.842100
1624.000000	19.761900
1623.000000	19.679700
1622.000000	19.582400
1621.000000	19.505000
1620.000000	19.420200
1619.000000	19.325100
1618.000000	19.240700
1617.000000	19.171800
1616.000000	19.086500
1615.000000	19.017800
1614.000000	18.948200
1613.000000	18.854800
1612.000000	18.784500
1611.000000	18.716600
1610.000000	18.658800
1609.000000	18.592800
1608.000000	18.534600
1607.000000	18.465700
1606.000000	18.408900
1605.000000	18.352500
