PE UV       SUBTECH     SPECTRUM    ASCII       PEDS        4.00        
   -1
CICIMAUCR0101-1.Sample.ASC
24/04/19
09:59:09.00
24/04/19
09:59:09.00
Vinicio Soto Monge
C. resplendens
250,000000
1
Lambda 1050
1050L1511233
PerkinElmer UV WinLab 6.3.2.0749 / 2.02.05 Lambda 900 UV/VIS/NIR, Aug  7 2015 09:38:08

0
0
3350/servo 860,8/2
0
0
UV/VIS
1
1
1
DoubleDePol,CommonBeamDepol,RBeamAtt,SBeamAtt,60mm sphere, WB InGaAs Detector
0
0
0
0
Program
Program
3350/servo 860,8/2
3350/0,2 860,8/0,2
3350/0,2 860,8/0,2
0
15.00
 
 
 
0
 
860,8
319,2
860,8
Front
100
on
S:100 R:100
0
0
0
0
 
0
 
 
 
0
 
 
0
0
0
0
0
 
 
 
 
0
0


0
0
#HDR
-1
-1
#GR
nm
%R
1.0
0.0
2500,000000
-1,000000
2251
8
92,662600
5,537600
#DATA
2500.000000	6.748300
2499.000000	6.734000
2498.000000	6.720800
2497.000000	6.649800
2496.000000	6.704400
2495.000000	6.699400
2494.000000	6.604800
2493.000000	6.614400
2492.000000	6.584500
2491.000000	6.616000
2490.000000	6.530200
2489.000000	6.541800
2488.000000	6.525400
2487.000000	6.450100
2486.000000	6.497700
2485.000000	6.481900
2484.000000	6.470200
2483.000000	6.531000
2482.000000	6.513100
2481.000000	6.497500
2480.000000	6.433000
2479.000000	6.415900
2478.000000	6.441500
2477.000000	6.397100
2476.000000	6.441900
2475.000000	6.424700
2474.000000	6.444300
2473.000000	6.435500
2472.000000	6.406900
2471.000000	6.453700
2470.000000	6.422200
2469.000000	6.411000
2468.000000	6.411100
2467.000000	6.420100
2466.000000	6.407700
2465.000000	6.416300
2464.000000	6.411200
2463.000000	6.431800
2462.000000	6.457100
2461.000000	6.489600
2460.000000	6.522400
2459.000000	6.535400
2458.000000	6.553200
2457.000000	6.596700
2456.000000	6.640400
2455.000000	6.673700
2454.000000	6.701200
2453.000000	6.748000
2452.000000	6.783500
2451.000000	6.821700
2450.000000	6.874600
2449.000000	6.926700
2448.000000	6.974300
2447.000000	6.991600
2446.000000	7.026800
2445.000000	7.083200
2444.000000	7.140200
2443.000000	7.178900
2442.000000	7.228000
2441.000000	7.282100
2440.000000	7.336800
2439.000000	7.352600
2438.000000	7.390800
2437.000000	7.442100
2436.000000	7.479000
2435.000000	7.497500
2434.000000	7.531100
2433.000000	7.565900
2432.000000	7.599600
2431.000000	7.621600
2430.000000	7.651600
2429.000000	7.676500
2428.000000	7.709300
2427.000000	7.733400
2426.000000	7.764000
2425.000000	7.778000
2424.000000	7.798600
2423.000000	7.806600
2422.000000	7.802200
2421.000000	7.812400
2420.000000	7.821900
2419.000000	7.829200
2418.000000	7.847600
2417.000000	7.858100
2416.000000	7.841600
2415.000000	7.853900
2414.000000	7.865100
2413.000000	7.869000
2412.000000	7.885100
2411.000000	7.905200
2410.000000	7.894500
2409.000000	7.875900
2408.000000	7.901800
2407.000000	7.919200
2406.000000	7.937400
2405.000000	7.932700
2404.000000	7.941400
2403.000000	7.958700
2402.000000	7.966400
2401.000000	7.978000
2400.000000	7.979600
2399.000000	7.987800
2398.000000	8.012100
2397.000000	8.033500
2396.000000	8.042500
2395.000000	8.051900
2394.000000	8.065900
2393.000000	8.075100
2392.000000	8.090300
2391.000000	8.087600
2390.000000	8.105500
2389.000000	8.123700
2388.000000	8.118000
2387.000000	8.119700
2386.000000	8.119900
2385.000000	8.105400
2384.000000	8.103800
2383.000000	8.096600
2382.000000	8.083600
2381.000000	8.072600
2380.000000	8.064100
2379.000000	8.049300
2378.000000	8.026000
2377.000000	8.006300
2376.000000	7.986000
2375.000000	7.978700
2374.000000	7.965600
2373.000000	7.933200
2372.000000	7.913400
2371.000000	7.885200
2370.000000	7.843200
2369.000000	7.812400
2368.000000	7.783300
2367.000000	7.739900
2366.000000	7.697600
2365.000000	7.657700
2364.000000	7.601800
2363.000000	7.551100
2362.000000	7.516700
2361.000000	7.460100
2360.000000	7.399800
2359.000000	7.354400
2358.000000	7.319000
2357.000000	7.287200
2356.000000	7.253400
2355.000000	7.233600
2354.000000	7.232700
2353.000000	7.231800
2352.000000	7.214200
2351.000000	7.220200
2350.000000	7.241000
2349.000000	7.255500
2348.000000	7.286600
2347.000000	7.332600
2346.000000	7.339600
2345.000000	7.353600
2344.000000	7.402100
2343.000000	7.425700
2342.000000	7.445700
2341.000000	7.460600
2340.000000	7.477800
2339.000000	7.499000
2338.000000	7.499600
2337.000000	7.487100
2336.000000	7.470000
2335.000000	7.432800
2334.000000	7.421200
2333.000000	7.404000
2332.000000	7.383100
2331.000000	7.343300
2330.000000	7.290900
2329.000000	7.252400
2328.000000	7.215700
2327.000000	7.157600
2326.000000	7.107300
2325.000000	7.055200
2324.000000	7.004400
2323.000000	6.934000
2322.000000	6.864700
2321.000000	6.800000
2320.000000	6.735100
2319.000000	6.670000
2318.000000	6.606200
2317.000000	6.533700
2316.000000	6.465100
2315.000000	6.407400
2314.000000	6.342400
2313.000000	6.278300
2312.000000	6.249400
2311.000000	6.195900
2310.000000	6.146100
2309.000000	6.116900
2308.000000	6.111500
2307.000000	6.108300
2306.000000	6.110200
2305.000000	6.100700
2304.000000	6.125700
2303.000000	6.158900
2302.000000	6.196500
2301.000000	6.245400
2300.000000	6.294800
2299.000000	6.334000
2298.000000	6.383200
2297.000000	6.432300
2296.000000	6.487900
2295.000000	6.525300
2294.000000	6.547900
2293.000000	6.584700
2292.000000	6.599100
2291.000000	6.619300
2290.000000	6.639300
2289.000000	6.633200
2288.000000	6.621600
2287.000000	6.601000
2286.000000	6.574900
2285.000000	6.575000
2284.000000	6.552600
2283.000000	6.514800
2282.000000	6.491900
2281.000000	6.467200
2280.000000	6.421700
2279.000000	6.407200
2278.000000	6.390000
2277.000000	6.345800
2276.000000	6.342000
2275.000000	6.335300
2274.000000	6.319600
2273.000000	6.316000
2272.000000	6.310800
2271.000000	6.313000
2270.000000	6.324100
2269.000000	6.360900
2268.000000	6.396300
2267.000000	6.446500
2266.000000	6.517000
2265.000000	6.600600
2264.000000	6.690200
2263.000000	6.788100
2262.000000	6.893400
2261.000000	7.039900
2260.000000	7.179700
2259.000000	7.313200
2258.000000	7.471700
2257.000000	7.625000
2256.000000	7.800800
2255.000000	7.989300
2254.000000	8.133900
2253.000000	8.285700
2252.000000	8.434800
2251.000000	8.575900
2250.000000	8.756900
2249.000000	8.868700
2248.000000	9.012400
2247.000000	9.121900
2246.000000	9.257600
2245.000000	9.370400
2244.000000	9.479200
2243.000000	9.555300
2242.000000	9.643200
2241.000000	9.737200
2240.000000	9.812000
2239.000000	9.880400
2238.000000	9.960100
2237.000000	10.034900
2236.000000	10.090600
2235.000000	10.141700
2234.000000	10.208800
2233.000000	10.238800
2232.000000	10.289600
2231.000000	10.319900
2230.000000	10.351200
2229.000000	10.373600
2228.000000	10.373800
2227.000000	10.399400
2226.000000	10.395400
2225.000000	10.414000
2224.000000	10.426400
2223.000000	10.420200
2222.000000	10.428300
2221.000000	10.412100
2220.000000	10.389200
2219.000000	10.389500
2218.000000	10.376700
2217.000000	10.375300
2216.000000	10.355700
2215.000000	10.313300
2214.000000	10.325300
2213.000000	10.301000
2212.000000	10.297600
2211.000000	10.293800
2210.000000	10.280300
2209.000000	10.273900
2208.000000	10.250400
2207.000000	10.245600
2206.000000	10.223400
2205.000000	10.220100
2204.000000	10.213100
2203.000000	10.210000
2202.000000	10.214500
2201.000000	10.201900
2200.000000	10.201300
2199.000000	10.202100
2198.000000	10.169300
2197.000000	10.179500
2196.000000	10.160600
2195.000000	10.166100
2194.000000	10.181000
2193.000000	10.170800
2192.000000	10.155200
2191.000000	10.161400
2190.000000	10.165900
2189.000000	10.165000
2188.000000	10.144200
2187.000000	10.142000
2186.000000	10.139900
2185.000000	10.117600
2184.000000	10.132800
2183.000000	10.110000
2182.000000	10.116500
2181.000000	10.089700
2180.000000	10.090800
2179.000000	10.102600
2178.000000	10.091100
2177.000000	10.104400
2176.000000	10.109600
2175.000000	10.112700
2174.000000	10.110100
2173.000000	10.126300
2172.000000	10.162700
2171.000000	10.158300
2170.000000	10.160400
2169.000000	10.179400
2168.000000	10.198600
2167.000000	10.219100
2166.000000	10.231300
2165.000000	10.269200
2164.000000	10.290400
2163.000000	10.300800
2162.000000	10.314600
2161.000000	10.354400
2160.000000	10.386500
2159.000000	10.396900
2158.000000	10.430600
2157.000000	10.467700
2156.000000	10.490000
2155.000000	10.518500
2154.000000	10.559500
2153.000000	10.584300
2152.000000	10.615400
2151.000000	10.647500
2150.000000	10.694200
2149.000000	10.704300
2148.000000	10.732200
2147.000000	10.774900
2146.000000	10.805400
2145.000000	10.819600
2144.000000	10.852800
2143.000000	10.870600
2142.000000	10.909900
2141.000000	10.936700
2140.000000	10.945100
2139.000000	10.970100
2138.000000	10.971800
2137.000000	10.989400
2136.000000	11.016100
2135.000000	11.013500
2134.000000	11.027700
2133.000000	11.041400
2132.000000	11.033800
2131.000000	11.039100
2130.000000	11.047900
2129.000000	11.052300
2128.000000	11.035300
2127.000000	11.019300
2126.000000	11.023400
2125.000000	11.010500
2124.000000	10.990000
2123.000000	10.978200
2122.000000	10.968200
2121.000000	10.945500
2120.000000	10.932400
2119.000000	10.915400
2118.000000	10.890000
2117.000000	10.864700
2116.000000	10.826100
2115.000000	10.806200
2114.000000	10.783700
2113.000000	10.758900
2112.000000	10.726900
2111.000000	10.700300
2110.000000	10.687700
2109.000000	10.655900
2108.000000	10.631600
2107.000000	10.609200
2106.000000	10.588400
2105.000000	10.558800
2104.000000	10.524400
2103.000000	10.509700
2102.000000	10.488000
2101.000000	10.464800
2100.000000	10.425900
2099.000000	10.395100
2098.000000	10.382600
2097.000000	10.371100
2096.000000	10.353400
2095.000000	10.338200
2094.000000	10.332500
2093.000000	10.310100
2092.000000	10.294000
2091.000000	10.284800
2090.000000	10.263700
2089.000000	10.245400
2088.000000	10.237700
2087.000000	10.229700
2086.000000	10.210800
2085.000000	10.207000
2084.000000	10.205700
2083.000000	10.205700
2082.000000	10.188300
2081.000000	10.160900
2080.000000	10.130500
2079.000000	10.112600
2078.000000	10.109800
2077.000000	10.095300
2076.000000	10.063100
2075.000000	10.046200
2074.000000	10.038000
2073.000000	10.019400
2072.000000	10.007800
2071.000000	9.991000
2070.000000	9.963500
2069.000000	9.950300
2068.000000	9.943000
2067.000000	9.936200
2066.000000	9.913800
2065.000000	9.895600
2064.000000	9.879600
2063.000000	9.885700
2062.000000	9.889200
2061.000000	9.882000
2060.000000	9.874200
2059.000000	9.880100
2058.000000	9.883500
2057.000000	9.899500
2056.000000	9.945200
2055.000000	9.979800
2054.000000	10.014500
2053.000000	10.055700
2052.000000	10.094800
2051.000000	10.150900
2050.000000	10.238900
2049.000000	10.320700
2048.000000	10.413900
2047.000000	10.509400
2046.000000	10.605300
2045.000000	10.702600
2044.000000	10.816300
2043.000000	10.933700
2042.000000	11.047800
2041.000000	11.168500
2040.000000	11.275900
2039.000000	11.386800
2038.000000	11.517900
2037.000000	11.620600
2036.000000	11.713400
2035.000000	11.817600
2034.000000	11.925900
2033.000000	12.013900
2032.000000	12.111100
2031.000000	12.215000
2030.000000	12.289500
2029.000000	12.373000
2028.000000	12.470200
2027.000000	12.546200
2026.000000	12.619200
2025.000000	12.690900
2024.000000	12.775600
2023.000000	12.859300
2022.000000	12.925000
2021.000000	13.003100
2020.000000	13.065400
2019.000000	13.146700
2018.000000	13.209200
2017.000000	13.258500
2016.000000	13.337100
2015.000000	13.387600
2014.000000	13.432800
2013.000000	13.463800
2012.000000	13.504700
2011.000000	13.558600
2010.000000	13.579100
2009.000000	13.644500
2008.000000	13.663800
2007.000000	13.679600
2006.000000	13.705200
2005.000000	13.729300
2004.000000	13.735500
2003.000000	13.732900
2002.000000	13.737800
2001.000000	13.754100
2000.000000	13.747100
1999.000000	13.736300
1998.000000	13.724900
1997.000000	13.710900
1996.000000	13.695800
1995.000000	13.672700
1994.000000	13.652500
1993.000000	13.615500
1992.000000	13.608000
1991.000000	13.570200
1990.000000	13.555500
1989.000000	13.498300
1988.000000	13.465500
1987.000000	13.426300
1986.000000	13.381100
1985.000000	13.324700
1984.000000	13.287000
1983.000000	13.249900
1982.000000	13.186600
1981.000000	13.152600
1980.000000	13.096400
1979.000000	13.049500
1978.000000	13.001600
1977.000000	12.942600
1976.000000	12.909700
1975.000000	12.838700
1974.000000	12.800300
1973.000000	12.763300
1972.000000	12.707600
1971.000000	12.653500
1970.000000	12.628900
1969.000000	12.560700
1968.000000	12.544800
1967.000000	12.474200
1966.000000	12.426600
1965.000000	12.396300
1964.000000	12.357300
1963.000000	12.310100
1962.000000	12.236300
1961.000000	12.216500
1960.000000	12.158900
1959.000000	12.127900
1958.000000	12.079300
1957.000000	12.040500
1956.000000	11.986600
1955.000000	11.950700
1954.000000	11.886700
1953.000000	11.840900
1952.000000	11.816900
1951.000000	11.771400
1950.000000	11.730500
1949.000000	11.714200
1948.000000	11.687700
1947.000000	11.658700
1946.000000	11.622100
1945.000000	11.590700
1944.000000	11.579300
1943.000000	11.573900
1942.000000	11.575100
1941.000000	11.565200
1940.000000	11.580600
1939.000000	11.583600
1938.000000	11.579300
1937.000000	11.608700
1936.000000	11.629700
1935.000000	11.651600
1934.000000	11.700400
1933.000000	11.728300
1932.000000	11.798300
1931.000000	11.869800
1930.000000	11.919500
1929.000000	11.996600
1928.000000	12.065600
1927.000000	12.156700
1926.000000	12.225800
1925.000000	12.341900
1924.000000	12.436000
1923.000000	12.542400
1922.000000	12.668300
1921.000000	12.807200
1920.000000	12.935100
1919.000000	13.078100
1918.000000	13.195200
1917.000000	13.313400
1916.000000	13.462200
1915.000000	13.641300
1914.000000	13.835400
1913.000000	14.016800
1912.000000	14.183800
1911.000000	14.353100
1910.000000	14.493000
1909.000000	14.668300
1908.000000	14.850000
1907.000000	15.067200
1906.000000	15.297800
1905.000000	15.521900
1904.000000	15.702800
1903.000000	15.903400
1902.000000	16.107200
1901.000000	16.313200
1900.000000	16.562100
1899.000000	16.788400
1898.000000	17.001400
1897.000000	17.176200
1896.000000	17.344600
1895.000000	17.550000
1894.000000	17.751300
1893.000000	17.963200
1892.000000	18.200400
1891.000000	18.411600
1890.000000	18.590300
1889.000000	18.800800
1888.000000	19.031600
1887.000000	19.276300
1886.000000	19.560800
1885.000000	19.883300
1884.000000	20.240000
1883.000000	20.610100
1882.000000	20.995700
1881.000000	21.358200
1880.000000	21.704100
1879.000000	22.062900
1878.000000	22.409900
1877.000000	22.729900
1876.000000	23.007500
1875.000000	23.284500
1874.000000	23.558400
1873.000000	23.786000
1872.000000	23.986300
1871.000000	24.166600
1870.000000	24.325800
1869.000000	24.439300
1868.000000	24.498400
1867.000000	24.528800
1866.000000	24.548800
1865.000000	24.570300
1864.000000	24.579100
1863.000000	24.597200
1862.000000	24.614000
1861.000000	24.624300
1860.000000	24.633400
1859.000000	24.616300
1858.000000	24.577000
1857.000000	24.511700
1856.000000	24.441200
1855.000000	24.394300
1854.000000	24.324000
1853.000000	24.230100
1852.000000	24.149500
1851.000000	24.074400
1850.000000	24.013600
1849.000000	23.958700
1848.000000	23.888100
1847.000000	23.785100
1846.000000	23.682900
1845.000000	23.614200
1844.000000	23.552500
1843.000000	23.562800
1842.000000	23.545500
1841.000000	23.482100
1840.000000	23.440100
1839.000000	23.389700
1838.000000	23.335200
1837.000000	23.252800
1836.000000	23.175900
1835.000000	23.095800
1834.000000	22.989400
1833.000000	22.901800
1832.000000	22.828500
1831.000000	22.739800
1830.000000	22.660300
1829.000000	22.578300
1828.000000	22.492400
1827.000000	22.424200
1826.000000	22.351200
1825.000000	22.284100
1824.000000	22.241200
1823.000000	22.245900
1822.000000	22.251400
1821.000000	22.227300
1820.000000	22.190900
1819.000000	22.152800
1818.000000	22.135200
1817.000000	22.135300
1816.000000	22.129000
1815.000000	22.120100
1814.000000	22.118900
1813.000000	22.101800
1812.000000	22.084600
1811.000000	22.053600
1810.000000	22.006800
1809.000000	21.960000
1808.000000	21.915000
1807.000000	21.875100
1806.000000	21.814100
1805.000000	21.743400
1804.000000	21.692400
1803.000000	21.653000
1802.000000	21.613900
1801.000000	21.556100
1800.000000	21.488300
1799.000000	21.443500
1798.000000	21.395600
1797.000000	21.344100
1796.000000	21.294900
1795.000000	21.234700
1794.000000	21.188000
1793.000000	21.127400
1792.000000	21.067800
1791.000000	20.994400
1790.000000	20.926600
1789.000000	20.859800
1788.000000	20.796400
1787.000000	20.722200
1786.000000	20.622100
1785.000000	20.526300
1784.000000	20.459300
1783.000000	20.371700
1782.000000	20.268500
1781.000000	20.177000
1780.000000	20.078400
1779.000000	19.973700
1778.000000	19.884400
1777.000000	19.763200
1776.000000	19.632400
1775.000000	19.484800
1774.000000	19.350900
1773.000000	19.211500
1772.000000	19.048100
1771.000000	18.921400
1770.000000	18.774200
1769.000000	18.652000
1768.000000	18.548900
1767.000000	18.443600
1766.000000	18.337700
1765.000000	18.283100
1764.000000	18.270800
1763.000000	18.261900
1762.000000	18.281400
1761.000000	18.327000
1760.000000	18.397300
1759.000000	18.464200
1758.000000	18.522100
1757.000000	18.585100
1756.000000	18.607900
1755.000000	18.639000
1754.000000	18.623600
1753.000000	18.627000
1752.000000	18.575800
1751.000000	18.521000
1750.000000	18.449500
1749.000000	18.377900
1748.000000	18.270500
1747.000000	18.152400
1746.000000	18.027300
1745.000000	17.858500
1744.000000	17.667300
1743.000000	17.451600
1742.000000	17.233800
1741.000000	16.990900
1740.000000	16.755800
1739.000000	16.539300
1738.000000	16.350700
1737.000000	16.177600
1736.000000	16.097500
1735.000000	16.038900
1734.000000	16.039800
1733.000000	16.051100
1732.000000	16.115000
1731.000000	16.220600
1730.000000	16.325700
1729.000000	16.434400
1728.000000	16.544300
1727.000000	16.634700
1726.000000	16.707900
1725.000000	16.743700
1724.000000	16.795100
1723.000000	16.814100
1722.000000	16.847300
1721.000000	16.842600
1720.000000	16.863300
1719.000000	16.892800
1718.000000	16.961600
1717.000000	17.005800
1716.000000	17.057000
1715.000000	17.111400
1714.000000	17.195400
1713.000000	17.237300
1712.000000	17.266500
1711.000000	17.310100
1710.000000	17.314000
1709.000000	17.314200
1708.000000	17.311500
1707.000000	17.285300
1706.000000	17.252800
1705.000000	17.201200
1704.000000	17.165300
1703.000000	17.059700
1702.000000	16.949300
1701.000000	16.839900
1700.000000	16.683900
1699.000000	16.556400
1698.000000	16.442300
1697.000000	16.359000
1696.000000	16.344400
1695.000000	16.348800
1694.000000	16.422100
1693.000000	16.580600
1692.000000	16.722100
1691.000000	16.859100
1690.000000	16.988900
1689.000000	17.066000
1688.000000	17.073900
1687.000000	17.058600
1686.000000	17.067800
1685.000000	17.123100
1684.000000	17.264400
1683.000000	17.531000
1682.000000	17.897200
1681.000000	18.379700
1680.000000	18.960000
1679.000000	19.451800
1678.000000	19.980200
1677.000000	20.454500
1676.000000	20.860400
1675.000000	21.305000
1674.000000	21.630900
1673.000000	21.899200
1672.000000	22.140800
1671.000000	22.332000
1670.000000	22.501700
1669.000000	22.652500
1668.000000	22.783300
1667.000000	22.921400
1666.000000	23.004400
1665.000000	23.078100
1664.000000	23.153900
1663.000000	23.206900
1662.000000	23.260100
1661.000000	23.295300
1660.000000	23.325800
1659.000000	23.356800
1658.000000	23.371700
1657.000000	23.367700
1656.000000	23.377700
1655.000000	23.369500
1654.000000	23.341600
1653.000000	23.337500
1652.000000	23.310000
1651.000000	23.262300
1650.000000	23.248800
1649.000000	23.195100
1648.000000	23.154900
1647.000000	23.101000
1646.000000	23.037400
1645.000000	22.981300
1644.000000	22.931900
1643.000000	22.886000
1642.000000	22.806300
1641.000000	22.739200
1640.000000	22.676700
1639.000000	22.605400
1638.000000	22.530700
1637.000000	22.459300
1636.000000	22.395000
1635.000000	22.324200
1634.000000	22.239500
1633.000000	22.170900
1632.000000	22.091600
1631.000000	22.010200
1630.000000	21.931600
1629.000000	21.851200
1628.000000	21.781900
1627.000000	21.697700
1626.000000	21.618000
1625.000000	21.522000
1624.000000	21.454700
1623.000000	21.374200
1622.000000	21.291900
1621.000000	21.217200
1620.000000	21.134700
1619.000000	21.061900
1618.000000	20.993600
1617.000000	20.939100
1616.000000	20.865700
1615.000000	20.777400
1614.000000	20.725600
1613.000000	20.665800
1612.000000	20.608200
