PE UV       SUBTECH     SPECTRUM    ASCII       PEDS        4.00        
   -1
CICIMAUCR0009-3.Sample.ASC
24/04/17
14:06:27.00
24/04/17
14:06:27.00
Vinicio Soto Monge
C. kalinini
250,000000
1
Lambda 1050
1050L1511233
PerkinElmer UV WinLab 6.3.2.0749 / 2.02.05 Lambda 900 UV/VIS/NIR, Aug  7 2015 09:38:08

0
0
3350/servo 860,8/2
0
0
UV/VIS
1
1
1
DoubleDePol,CommonBeamDepol,RBeamAtt,SBeamAtt,60mm sphere, WB InGaAs Detector
0
0
0
0
Program
Program
3350/servo 860,8/2
3350/0,2 860,8/0,2
3350/0,2 860,8/0,2
0
15.00
 
 
 
0
 
860,8
319,2
860,8
Front
100
on
S:100 R:100
0
0
0
0
 
0
 
 
 
0
 
 
0
0
0
0
0
 
 
 
 
0
0


0
0
#HDR
-1
-1
#GR
nm
%R
1.0
0.0
2500,000000
-1,000000
2251
8
78,444600
4,431300
#DATA
2500.000000	10.577661
2499.000000	10.544091
2498.000000	10.502512
2497.000000	10.449744
2496.000000	10.441625
2495.000000	10.469930
2494.000000	10.328079
2493.000000	10.259184
2492.000000	10.275750
2491.000000	10.210365
2490.000000	10.175149
2489.000000	10.217934
2488.000000	10.167579
2487.000000	10.187765
2486.000000	10.160229
2485.000000	10.151672
2484.000000	10.123697
2483.000000	10.150246
2482.000000	10.178659
2481.000000	10.116456
2480.000000	10.097038
2479.000000	10.165934
2478.000000	10.134558
2477.000000	10.132802
2476.000000	10.120296
2475.000000	10.113933
2474.000000	10.159351
2473.000000	10.142566
2472.000000	10.148710
2471.000000	10.144760
2470.000000	10.184474
2469.000000	10.132802
2468.000000	10.165056
2467.000000	10.163959
2466.000000	10.214533
2465.000000	10.252821
2464.000000	10.288805
2463.000000	10.341464
2462.000000	10.364283
2461.000000	10.411017
2460.000000	10.455668
2459.000000	10.546505
2458.000000	10.608269
2457.000000	10.694389
2456.000000	10.774803
2455.000000	10.858729
2454.000000	10.968545
2453.000000	11.073095
2452.000000	11.139796
2451.000000	11.241055
2450.000000	11.322786
2449.000000	11.448620
2448.000000	11.536933
2447.000000	11.661340
2446.000000	11.763367
2445.000000	11.838845
2444.000000	11.944821
2443.000000	12.030173
2442.000000	12.131980
2441.000000	12.217002
2440.000000	12.338996
2439.000000	12.408769
2438.000000	12.495766
2437.000000	12.587481
2436.000000	12.671186
2435.000000	12.755002
2434.000000	12.830151
2433.000000	12.910346
2432.000000	12.972879
2431.000000	13.017090
2430.000000	13.101564
2429.000000	13.156527
2428.000000	13.206224
2427.000000	13.270293
2426.000000	13.308580
2425.000000	13.375830
2424.000000	13.399088
2423.000000	13.449662
2422.000000	13.495849
2421.000000	13.531393
2420.000000	13.573960
2419.000000	13.606871
2418.000000	13.653497
2417.000000	13.714054
2416.000000	13.740603
2415.000000	13.787667
2414.000000	13.813339
2413.000000	13.867972
2412.000000	13.917011
2411.000000	13.956725
2410.000000	13.976362
2409.000000	14.000607
2408.000000	14.040979
2407.000000	14.085081
2406.000000	14.129293
2405.000000	14.157487
2404.000000	14.187876
2403.000000	14.223201
2402.000000	14.267632
2401.000000	14.295278
2400.000000	14.321169
2399.000000	14.356165
2398.000000	14.403778
2397.000000	14.451829
2396.000000	14.510522
2395.000000	14.530598
2394.000000	14.556818
2393.000000	14.602675
2392.000000	14.641182
2391.000000	14.650069
2390.000000	14.669925
2389.000000	14.694609
2388.000000	14.722804
2387.000000	14.727411
2386.000000	14.736737
2385.000000	14.740905
2384.000000	14.736407
2383.000000	14.742112
2382.000000	14.741015
2381.000000	14.710188
2380.000000	14.697023
2379.000000	14.685065
2378.000000	14.656761
2377.000000	14.642718
2376.000000	14.629883
2375.000000	14.609368
2374.000000	14.567350
2373.000000	14.513155
2372.000000	14.478378
2371.000000	14.458960
2370.000000	14.414858
2369.000000	14.368891
2368.000000	14.314258
2367.000000	14.241632
2366.000000	14.166483
2365.000000	14.103951
2364.000000	14.037030
2363.000000	13.948497
2362.000000	13.873238
2361.000000	13.797870
2360.000000	13.710873
2359.000000	13.637260
2358.000000	13.559807
2357.000000	13.490034
2356.000000	13.440666
2355.000000	13.394590
2354.000000	13.381644
2353.000000	13.371661
2352.000000	13.360142
2351.000000	13.364421
2350.000000	13.394261
2349.000000	13.445932
2348.000000	13.496397
2347.000000	13.552128
2346.000000	13.613893
2345.000000	13.662602
2344.000000	13.718443
2343.000000	13.790520
2342.000000	13.838023
2341.000000	13.882344
2340.000000	13.920302
2339.000000	13.939830
2338.000000	13.980750
2337.000000	13.980970
2336.000000	13.956067
2335.000000	13.953543
2334.000000	13.949594
2333.000000	13.923374
2332.000000	13.853162
2331.000000	13.796224
2330.000000	13.744114
2329.000000	13.690029
2328.000000	13.620585
2327.000000	13.529199
2326.000000	13.433097
2325.000000	13.336226
2324.000000	13.228056
2323.000000	13.106501
2322.000000	12.969039
2321.000000	12.845071
2320.000000	12.705195
2319.000000	12.551607
2318.000000	12.391216
2317.000000	12.227534
2316.000000	12.074165
2315.000000	11.900280
2314.000000	11.735940
2313.000000	11.605938
2312.000000	11.472426
2311.000000	11.349884
2310.000000	11.244127
2309.000000	11.135408
2308.000000	11.090648
2307.000000	11.065306
2306.000000	11.057736
2305.000000	11.073753
2304.000000	11.120159
2303.000000	11.174683
2302.000000	11.254001
2301.000000	11.371496
2300.000000	11.503363
2299.000000	11.608571
2298.000000	11.723214
2297.000000	11.868246
2296.000000	12.001868
2295.000000	12.109271
2294.000000	12.215137
2293.000000	12.296101
2292.000000	12.368287
2291.000000	12.443107
2290.000000	12.463512
2289.000000	12.489513
2288.000000	12.485893
2287.000000	12.479200
2286.000000	12.437622
2285.000000	12.417436
2284.000000	12.381562
2283.000000	12.324076
2282.000000	12.249256
2281.000000	12.196487
2280.000000	12.146461
2279.000000	12.072629
2278.000000	12.030611
2277.000000	11.968956
2276.000000	11.912787
2275.000000	11.872525
2274.000000	11.847402
2273.000000	11.821292
2272.000000	11.817452
2271.000000	11.820853
2270.000000	11.874828
2269.000000	11.932205
2268.000000	12.039717
2267.000000	12.132748
2266.000000	12.282716
2265.000000	12.442888
2264.000000	12.649245
2263.000000	12.868219
2262.000000	13.122079
2261.000000	13.411704
2260.000000	13.697818
2259.000000	14.015966
2258.000000	14.344317
2257.000000	14.708761
2256.000000	15.010783
2255.000000	15.365792
2254.000000	15.689536
2253.000000	16.021397
2252.000000	16.347444
2251.000000	16.618858
2250.000000	16.884895
2249.000000	17.136781
2248.000000	17.392397
2247.000000	17.628594
2246.000000	17.862817
2245.000000	18.034617
2244.000000	18.203675
2243.000000	18.384690
2242.000000	18.552321
2241.000000	18.697463
2240.000000	18.820444
2239.000000	18.927736
2238.000000	19.090760
2237.000000	19.145613
2236.000000	19.247640
2235.000000	19.323337
2234.000000	19.362283
2233.000000	19.462884
2232.000000	19.475939
2231.000000	19.545712
2230.000000	19.559425
2229.000000	19.589704
2228.000000	19.582793
2227.000000	19.623164
2226.000000	19.611206
2225.000000	19.568750
2224.000000	19.554817
2223.000000	19.553940
2222.000000	19.526733
2221.000000	19.480766
2220.000000	19.453120
2219.000000	19.411870
2218.000000	19.347692
2217.000000	19.304468
2216.000000	19.257623
2215.000000	19.246982
2214.000000	19.184778
2213.000000	19.155377
2212.000000	19.124878
2211.000000	19.062236
2210.000000	19.011771
2209.000000	19.003543
2208.000000	18.942766
2207.000000	18.922141
2206.000000	18.886926
2205.000000	18.875955
2204.000000	18.844250
2203.000000	18.835254
2202.000000	18.810241
2201.000000	18.795650
2200.000000	18.787532
2199.000000	18.751877
2198.000000	18.736738
2197.000000	18.719514
2196.000000	18.707117
2195.000000	18.693075
2194.000000	18.667952
2193.000000	18.662357
2192.000000	18.663564
2191.000000	18.649631
2190.000000	18.629884
2189.000000	18.624289
2188.000000	18.587318
2187.000000	18.576566
2186.000000	18.552541
2185.000000	18.537072
2184.000000	18.527747
2183.000000	18.498894
2182.000000	18.483426
2181.000000	18.457206
2180.000000	18.434168
2179.000000	18.408716
2178.000000	18.406083
2177.000000	18.376462
2176.000000	18.364285
2175.000000	18.371196
2174.000000	18.359677
2173.000000	18.364175
2172.000000	18.369222
2171.000000	18.392479
2170.000000	18.391931
2169.000000	18.407728
2168.000000	18.414311
2167.000000	18.445467
2166.000000	18.461704
2165.000000	18.465544
2164.000000	18.481122
2163.000000	18.516557
2162.000000	18.554625
2161.000000	18.594558
2160.000000	18.621217
2159.000000	18.652483
2158.000000	18.710079
2157.000000	18.766249
2156.000000	18.817043
2155.000000	18.869043
2154.000000	18.915998
2153.000000	18.995425
2152.000000	19.048962
2151.000000	19.099865
2150.000000	19.189934
2149.000000	19.248737
2148.000000	19.303151
2147.000000	19.379287
2146.000000	19.437651
2145.000000	19.490968
2144.000000	19.554927
2143.000000	19.601881
2142.000000	19.646751
2141.000000	19.704347
2140.000000	19.763918
2139.000000	19.809885
2138.000000	19.855522
2137.000000	19.908511
2136.000000	19.949321
2135.000000	20.000554
2134.000000	20.051677
2133.000000	20.070327
2132.000000	20.107957
2131.000000	20.138674
2130.000000	20.162042
2129.000000	20.179704
2128.000000	20.211190
2127.000000	20.230499
2126.000000	20.248271
2125.000000	20.251672
2124.000000	20.259900
2123.000000	20.270870
2122.000000	20.272297
2121.000000	20.262862
2120.000000	20.247174
2119.000000	20.250794
2118.000000	20.244321
2117.000000	20.218979
2116.000000	20.216785
2115.000000	20.199890
2114.000000	20.169502
2113.000000	20.150523
2112.000000	20.131543
2111.000000	20.116404
2110.000000	20.091281
2109.000000	20.066488
2108.000000	20.056065
2107.000000	20.029626
2106.000000	19.997592
2105.000000	19.969068
2104.000000	19.936376
2103.000000	19.920139
2102.000000	19.883497
2101.000000	19.856181
2100.000000	19.838847
2099.000000	19.823269
2098.000000	19.804838
2097.000000	19.778070
2096.000000	19.766441
2095.000000	19.734955
2094.000000	19.720474
2093.000000	19.710162
2092.000000	19.687672
2091.000000	19.685587
2090.000000	19.681967
2089.000000	19.671106
2088.000000	19.643241
2087.000000	19.627224
2086.000000	19.607586
2085.000000	19.594312
2084.000000	19.586084
2083.000000	19.565240
2082.000000	19.536496
2081.000000	19.503365
2080.000000	19.483179
2079.000000	19.447964
2078.000000	19.425583
2077.000000	19.405397
2076.000000	19.353726
2075.000000	19.313025
2074.000000	19.271227
2073.000000	19.211656
2072.000000	19.160204
2071.000000	19.124111
2070.000000	19.067831
2069.000000	19.025814
2068.000000	18.974471
2067.000000	18.944521
2066.000000	18.903381
2065.000000	18.829769
2064.000000	18.794114
2063.000000	18.764822
2062.000000	18.712931
2061.000000	18.682982
2060.000000	18.677057
2059.000000	18.667074
2058.000000	18.663783
2057.000000	18.679910
2056.000000	18.682433
2055.000000	18.731033
2054.000000	18.801355
2053.000000	18.839752
2052.000000	18.928395
2051.000000	19.021316
2050.000000	19.124111
2049.000000	19.244458
2048.000000	19.366232
2047.000000	19.528488
2046.000000	19.696777
2045.000000	19.839505
2044.000000	20.048496
2043.000000	20.220735
2042.000000	20.384526
2041.000000	20.565651
2040.000000	20.748532
2039.000000	20.926804
2038.000000	21.073701
2037.000000	21.223231
2036.000000	21.377807
2035.000000	21.533041
2034.000000	21.697710
2033.000000	21.840219
2032.000000	21.970440
2031.000000	22.086071
2030.000000	22.200165
2029.000000	22.312834
2028.000000	22.430110
2027.000000	22.548263
2026.000000	22.657421
2025.000000	22.744857
2024.000000	22.835913
2023.000000	22.904151
2022.000000	23.010785
2021.000000	23.075073
2020.000000	23.164374
2019.000000	23.226358
2018.000000	23.311819
2017.000000	23.386529
2016.000000	23.459594
2015.000000	23.512691
2014.000000	23.563156
2013.000000	23.604406
2012.000000	23.649605
2011.000000	23.670449
2010.000000	23.699521
2009.000000	23.728922
2008.000000	23.735724
2007.000000	23.744940
2006.000000	23.763590
2005.000000	23.758763
2004.000000	23.756239
2003.000000	23.760518
2002.000000	23.718062
2001.000000	23.682846
2000.000000	23.663647
1999.000000	23.655858
1998.000000	23.616912
1997.000000	23.579173
1996.000000	23.514008
1995.000000	23.476488
1994.000000	23.422513
1993.000000	23.378191
1992.000000	23.314123
1991.000000	23.219776
1990.000000	23.165910
1989.000000	23.100635
1988.000000	23.010566
1987.000000	22.926969
1986.000000	22.848091
1985.000000	22.770089
1984.000000	22.672890
1983.000000	22.615952
1982.000000	22.515461
1981.000000	22.407181
1980.000000	22.342893
1979.000000	22.255896
1978.000000	22.156283
1977.000000	22.062155
1976.000000	21.971976
1975.000000	21.885747
1974.000000	21.789206
1973.000000	21.709010
1972.000000	21.639786
1971.000000	21.534577
1970.000000	21.457454
1969.000000	21.366836
1968.000000	21.300025
1967.000000	21.210615
1966.000000	21.119119
1965.000000	21.044848
1964.000000	20.977708
1963.000000	20.874584
1962.000000	20.799435
1961.000000	20.714742
1960.000000	20.651990
1959.000000	20.570259
1958.000000	20.457042
1957.000000	20.384416
1956.000000	20.321006
1955.000000	20.225671
1954.000000	20.140101
1953.000000	20.072521
1952.000000	19.989913
1951.000000	19.895017
1950.000000	19.841590
1949.000000	19.771049
1948.000000	19.729470
1947.000000	19.648068
1946.000000	19.589814
1945.000000	19.547028
1944.000000	19.484167
1943.000000	19.455424
1942.000000	19.452352
1941.000000	19.420537
1940.000000	19.394756
1939.000000	19.412858
1938.000000	19.425474
1937.000000	19.432276
1936.000000	19.445769
1935.000000	19.479998
1934.000000	19.525745
1933.000000	19.612304
1932.000000	19.654102
1931.000000	19.750972
1930.000000	19.831058
1929.000000	19.927929
1928.000000	20.052006
1927.000000	20.176084
1926.000000	20.310365
1925.000000	20.465380
1924.000000	20.599550
1923.000000	20.745350
1922.000000	20.916821
1921.000000	21.143474
1920.000000	21.363545
1919.000000	21.572645
1918.000000	21.774615
1917.000000	22.004998
1916.000000	22.206748
1915.000000	22.426051
1914.000000	22.722367
1913.000000	23.026144
1912.000000	23.332992
1911.000000	23.599359
1910.000000	23.873077
1909.000000	24.095012
1908.000000	24.351067
1907.000000	24.632025
1906.000000	24.991313
1905.000000	25.387791
1904.000000	25.747299
1903.000000	26.064789
1902.000000	26.373941
1901.000000	26.705254
1900.000000	27.063445
1899.000000	27.445991
1898.000000	27.780595
1897.000000	28.143613
1896.000000	28.437187
1895.000000	28.692693
1894.000000	28.990546
1893.000000	29.295968
1892.000000	29.666995
1891.000000	30.061499
1890.000000	30.394128
1889.000000	30.692200
1888.000000	31.019235
1887.000000	31.327729
1886.000000	31.678569
1885.000000	32.082069
1884.000000	32.524295
1883.000000	32.974749
1882.000000	33.420486
1881.000000	33.825960
1880.000000	34.268735
1879.000000	34.651281
1878.000000	35.045456
1877.000000	35.433487
1876.000000	35.783011
1875.000000	36.125733
1874.000000	36.436202
1873.000000	36.731202
1872.000000	36.989451
1871.000000	37.228172
1870.000000	37.427947
1869.000000	37.593384
1868.000000	37.744340
1867.000000	37.828704
1866.000000	37.851413
1865.000000	37.869186
1864.000000	37.896942
1863.000000	37.905828
1862.000000	37.949271
1861.000000	37.997542
1860.000000	38.038353
1859.000000	38.076970
1858.000000	38.104616
1857.000000	38.074008
1856.000000	38.017948
1855.000000	37.988656
1854.000000	37.981196
1853.000000	37.913836
1852.000000	37.850426
1851.000000	37.801387
1850.000000	37.732492
1849.000000	37.691571
1848.000000	37.691242
1847.000000	37.675335
1846.000000	37.577257
1845.000000	37.475889
1844.000000	37.384503
1843.000000	37.319557
1842.000000	37.318460
1841.000000	37.333929
1840.000000	37.324823
1839.000000	37.270189
1838.000000	37.209193
1837.000000	37.149732
1836.000000	37.106617
1835.000000	37.042000
1834.000000	36.942387
1833.000000	36.828183
1832.000000	36.725717
1831.000000	36.652653
1830.000000	36.601639
1829.000000	36.541081
1828.000000	36.443333
1827.000000	36.362370
1826.000000	36.297753
1825.000000	36.228089
1824.000000	36.177405
1823.000000	36.112349
1822.000000	36.105218
1821.000000	36.135278
1820.000000	36.133303
1819.000000	36.113995
1818.000000	36.066163
1817.000000	36.013175
1816.000000	36.008019
1815.000000	35.996938
1814.000000	35.986736
1813.000000	35.987284
1812.000000	35.962820
1811.000000	35.938245
1810.000000	35.893046
1809.000000	35.843569
1808.000000	35.800125
1807.000000	35.772589
1806.000000	35.739567
1805.000000	35.668368
1804.000000	35.621085
1803.000000	35.598595
1802.000000	35.554822
1801.000000	35.515108
1800.000000	35.453453
1799.000000	35.387300
1798.000000	35.351975
1797.000000	35.311713
1796.000000	35.255433
1795.000000	35.210125
1794.000000	35.167339
1793.000000	35.118410
1792.000000	35.067397
1791.000000	35.014518
1790.000000	34.956923
1789.000000	34.910956
1788.000000	34.847984
1787.000000	34.790937
1786.000000	34.734767
1785.000000	34.684961
1784.000000	34.604985
1783.000000	34.522266
1782.000000	34.451067
1781.000000	34.391387
1780.000000	34.307352
1779.000000	34.219806
1778.000000	34.142353
1777.000000	34.053930
1776.000000	33.927000
1775.000000	33.811150
1774.000000	33.680600
1773.000000	33.554986
1772.000000	33.415110
1771.000000	33.269969
1770.000000	33.147756
1769.000000	33.033332
1768.000000	32.915727
1767.000000	32.822367
1766.000000	32.705420
1765.000000	32.638390
1764.000000	32.590668
1763.000000	32.570591
1762.000000	32.574431
1761.000000	32.625554
1760.000000	32.668669
1759.000000	32.727362
1758.000000	32.792417
1757.000000	32.868225
1756.000000	32.925930
1755.000000	32.955331
1754.000000	32.975737
1753.000000	32.969483
1752.000000	32.964437
1751.000000	32.928563
1750.000000	32.875246
1749.000000	32.813810
1748.000000	32.723522
1747.000000	32.636196
1746.000000	32.529781
1745.000000	32.371913
1744.000000	32.211742
1743.000000	32.018878
1742.000000	31.817458
1741.000000	31.569631
1740.000000	31.309847
1739.000000	31.071016
1738.000000	30.846996
1737.000000	30.660824
1736.000000	30.503176
1735.000000	30.380634
1734.000000	30.338836
1733.000000	30.322051
1732.000000	30.361875
1731.000000	30.416508
1730.000000	30.539489
1729.000000	30.623743
1728.000000	30.757695
1727.000000	30.857418
1726.000000	30.952314
1725.000000	31.023623
1724.000000	31.075624
1723.000000	31.123565
1722.000000	31.151540
1721.000000	31.183794
1720.000000	31.212647
1719.000000	31.278361
1718.000000	31.336176
1717.000000	31.394650
1716.000000	31.485925
1715.000000	31.581041
1714.000000	31.689101
1713.000000	31.766773
1712.000000	31.804622
1711.000000	31.846640
1710.000000	31.898860
1709.000000	31.917510
1708.000000	31.936160
1707.000000	31.921130
1706.000000	31.906759
1705.000000	31.870556
1704.000000	31.791896
1703.000000	31.733094
1702.000000	31.631944
1701.000000	31.481537
1700.000000	31.334311
1699.000000	31.171617
1698.000000	31.010897
1697.000000	30.874313
1696.000000	30.805307
1695.000000	30.783366
1694.000000	30.822422
1693.000000	30.890659
1692.000000	31.040847
1691.000000	31.205077
1690.000000	31.328716
1689.000000	31.446321
1688.000000	31.541327
1687.000000	31.555479
1686.000000	31.582686
1685.000000	31.610661
1684.000000	31.724098
1683.000000	31.918168
1682.000000	32.243557
1681.000000	32.677006
1680.000000	33.204803
1679.000000	33.803142
1678.000000	34.320407
1677.000000	34.855225
1676.000000	35.305240
1675.000000	35.712580
1674.000000	36.059361
1673.000000	36.371476
1672.000000	36.642889
1671.000000	36.886985
1670.000000	37.093233
1669.000000	37.288401
1668.000000	37.443635
1667.000000	37.627942
1666.000000	37.752239
1665.000000	37.851084
1664.000000	37.953111
1663.000000	38.036488
1662.000000	38.121730
1661.000000	38.227706
1660.000000	38.279378
1659.000000	38.311302
1658.000000	38.336754
1657.000000	38.377345
1656.000000	38.400932
1655.000000	38.418814
1654.000000	38.440756
1653.000000	38.423312
1652.000000	38.414536
1651.000000	38.404882
1650.000000	38.394350
1649.000000	38.375261
1648.000000	38.337851
1647.000000	38.284095
1646.000000	38.263141
1645.000000	38.226499
1644.000000	38.158810
1643.000000	38.133359
1642.000000	38.074117
1641.000000	38.022007
1640.000000	37.987340
1639.000000	37.925904
1638.000000	37.878950
1637.000000	37.817295
1636.000000	37.756847
1635.000000	37.713842
1634.000000	37.631233
1633.000000	37.576380
1632.000000	37.506607
1631.000000	37.436614
1630.000000	37.351811
1629.000000	37.293228
1628.000000	37.236290
1627.000000	37.173867
1626.000000	37.081385
1625.000000	37.012599
1624.000000	36.936134
