PE UV       SUBTECH     SPECTRUM    ASCII       PEDS        4.00        
   -1
CICIMAUCR0019-1.Sample.ASC
24/04/17
11:27:54.00
24/04/17
11:27:54.00
Vinicio Soto Monge
C. cupreomarginata
250,000000
1
Lambda 1050
1050L1511233
PerkinElmer UV WinLab 6.3.2.0749 / 2.02.05 Lambda 900 UV/VIS/NIR, Aug  7 2015 09:38:08

0
0
3350/servo 860,8/2
0
0
UV/VIS
1
1
1
DoubleDePol,CommonBeamDepol,RBeamAtt,SBeamAtt,60mm sphere, WB InGaAs Detector
0
0
0
0
Program
Program
3350/servo 860,8/2
3350/0,2 860,8/0,2
3350/0,2 860,8/0,2
0
15.00
 
 
 
0
 
860,8
319,2
860,8
Front
100
on
S:100 R:100
0
0
0
0
 
0
 
 
 
0
 
 
0
0
0
0
0
 
 
 
 
0
0


0
0
#HDR
-1
-1
#GR
nm
%R
1.0
0.0
2500,000000
-1,000000
2251
8
46,208200
3,615000
#DATA
2500.000000	5.206100
2499.000000	5.335200
2498.000000	5.310100
2497.000000	5.241100
2496.000000	5.310100
2495.000000	5.244900
2494.000000	5.220200
2493.000000	5.178100
2492.000000	5.139700
2491.000000	5.128700
2490.000000	5.174800
2489.000000	5.110500
2488.000000	5.095000
2487.000000	5.073000
2486.000000	5.226900
2485.000000	5.165500
2484.000000	5.115700
2483.000000	5.049000
2482.000000	5.140900
2481.000000	5.077400
2480.000000	5.102400
2479.000000	5.095200
2478.000000	5.061200
2477.000000	5.049200
2476.000000	5.040400
2475.000000	5.078100
2474.000000	4.999000
2473.000000	5.052100
2472.000000	5.005100
2471.000000	5.016300
2470.000000	5.022700
2469.000000	5.033600
2468.000000	5.049900
2467.000000	5.045700
2466.000000	5.026100
2465.000000	5.048000
2464.000000	5.046700
2463.000000	5.053100
2462.000000	5.048500
2461.000000	5.074500
2460.000000	5.109400
2459.000000	5.107900
2458.000000	5.126600
2457.000000	5.124100
2456.000000	5.149000
2455.000000	5.169500
2454.000000	5.178200
2453.000000	5.216400
2452.000000	5.237500
2451.000000	5.274600
2450.000000	5.328700
2449.000000	5.327400
2448.000000	5.347300
2447.000000	5.367800
2446.000000	5.384300
2445.000000	5.413200
2444.000000	5.438700
2443.000000	5.461600
2442.000000	5.480000
2441.000000	5.505600
2440.000000	5.527000
2439.000000	5.560200
2438.000000	5.571400
2437.000000	5.595900
2436.000000	5.602000
2435.000000	5.641900
2434.000000	5.645800
2433.000000	5.655400
2432.000000	5.684300
2431.000000	5.733700
2430.000000	5.742400
2429.000000	5.738500
2428.000000	5.735000
2427.000000	5.746800
2426.000000	5.760800
2425.000000	5.778600
2424.000000	5.788100
2423.000000	5.784000
2422.000000	5.792400
2421.000000	5.813700
2420.000000	5.857900
2419.000000	5.899900
2418.000000	5.922000
2417.000000	5.945000
2416.000000	5.968000
2415.000000	5.977900
2414.000000	5.986300
2413.000000	6.006200
2412.000000	6.018900
2411.000000	6.054800
2410.000000	6.069800
2409.000000	6.078700
2408.000000	6.080600
2407.000000	6.111800
2406.000000	6.142500
2405.000000	6.155900
2404.000000	6.152600
2403.000000	6.168600
2402.000000	6.189700
2401.000000	6.223700
2400.000000	6.239700
2399.000000	6.247500
2398.000000	6.259000
2397.000000	6.272900
2396.000000	6.299000
2395.000000	6.317200
2394.000000	6.328000
2393.000000	6.344100
2392.000000	6.357200
2391.000000	6.371700
2390.000000	6.389300
2389.000000	6.383300
2388.000000	6.386100
2387.000000	6.403100
2386.000000	6.406100
2385.000000	6.410100
2384.000000	6.412400
2383.000000	6.396400
2382.000000	6.397000
2381.000000	6.401800
2380.000000	6.407100
2379.000000	6.406600
2378.000000	6.383100
2377.000000	6.379500
2376.000000	6.393000
2375.000000	6.395900
2374.000000	6.378800
2373.000000	6.365800
2372.000000	6.360900
2371.000000	6.341600
2370.000000	6.325100
2369.000000	6.307900
2368.000000	6.296600
2367.000000	6.277600
2366.000000	6.242200
2365.000000	6.192700
2364.000000	6.163800
2363.000000	6.154100
2362.000000	6.126500
2361.000000	6.103700
2360.000000	6.079400
2359.000000	6.064300
2358.000000	6.045100
2357.000000	6.027700
2356.000000	6.014000
2355.000000	6.001200
2354.000000	6.019200
2353.000000	6.027200
2352.000000	6.028200
2351.000000	6.039000
2350.000000	6.066700
2349.000000	6.094300
2348.000000	6.118100
2347.000000	6.138600
2346.000000	6.165200
2345.000000	6.182800
2344.000000	6.207100
2343.000000	6.233400
2342.000000	6.258200
2341.000000	6.293400
2340.000000	6.288900
2339.000000	6.278000
2338.000000	6.294200
2337.000000	6.296400
2336.000000	6.291800
2335.000000	6.284100
2334.000000	6.266900
2333.000000	6.251500
2332.000000	6.225100
2331.000000	6.207400
2330.000000	6.189800
2329.000000	6.151700
2328.000000	6.125700
2327.000000	6.095400
2326.000000	6.066900
2325.000000	6.035500
2324.000000	5.984300
2323.000000	5.943200
2322.000000	5.901600
2321.000000	5.853800
2320.000000	5.815100
2319.000000	5.763400
2318.000000	5.702600
2317.000000	5.654500
2316.000000	5.595300
2315.000000	5.540700
2314.000000	5.494200
2313.000000	5.465000
2312.000000	5.438200
2311.000000	5.384600
2310.000000	5.384400
2309.000000	5.388500
2308.000000	5.363100
2307.000000	5.373200
2306.000000	5.376000
2305.000000	5.378000
2304.000000	5.413100
2303.000000	5.455100
2302.000000	5.503400
2301.000000	5.540900
2300.000000	5.577500
2299.000000	5.627000
2298.000000	5.661900
2297.000000	5.683500
2296.000000	5.745700
2295.000000	5.775000
2294.000000	5.796600
2293.000000	5.814400
2292.000000	5.826600
2291.000000	5.853300
2290.000000	5.849100
2289.000000	5.856600
2288.000000	5.833400
2287.000000	5.829600
2286.000000	5.815500
2285.000000	5.811800
2284.000000	5.788900
2283.000000	5.767900
2282.000000	5.758500
2281.000000	5.743700
2280.000000	5.729400
2279.000000	5.687500
2278.000000	5.686900
2277.000000	5.667400
2276.000000	5.643800
2275.000000	5.637000
2274.000000	5.616000
2273.000000	5.634800
2272.000000	5.636600
2271.000000	5.634300
2270.000000	5.679200
2269.000000	5.691700
2268.000000	5.734400
2267.000000	5.778600
2266.000000	5.840200
2265.000000	5.898200
2264.000000	5.989800
2263.000000	6.056500
2262.000000	6.157500
2261.000000	6.243100
2260.000000	6.371000
2259.000000	6.482200
2258.000000	6.611400
2257.000000	6.711500
2256.000000	6.852800
2255.000000	6.949800
2254.000000	7.086100
2253.000000	7.197200
2252.000000	7.306100
2251.000000	7.420700
2250.000000	7.509200
2249.000000	7.594600
2248.000000	7.691600
2247.000000	7.783500
2246.000000	7.862200
2245.000000	7.930100
2244.000000	8.002600
2243.000000	8.095000
2242.000000	8.154800
2241.000000	8.188300
2240.000000	8.257200
2239.000000	8.311700
2238.000000	8.347100
2237.000000	8.390100
2236.000000	8.452800
2235.000000	8.494500
2234.000000	8.511600
2233.000000	8.546600
2232.000000	8.572100
2231.000000	8.571800
2230.000000	8.613500
2229.000000	8.613400
2228.000000	8.639500
2227.000000	8.687700
2226.000000	8.674400
2225.000000	8.665400
2224.000000	8.679900
2223.000000	8.678200
2222.000000	8.653000
2221.000000	8.672300
2220.000000	8.677600
2219.000000	8.672400
2218.000000	8.653700
2217.000000	8.648600
2216.000000	8.637600
2215.000000	8.642200
2214.000000	8.613400
2213.000000	8.613200
2212.000000	8.583700
2211.000000	8.606800
2210.000000	8.574500
2209.000000	8.573300
2208.000000	8.590600
2207.000000	8.591000
2206.000000	8.572400
2205.000000	8.572200
2204.000000	8.570300
2203.000000	8.545500
2202.000000	8.563300
2201.000000	8.560500
2200.000000	8.556000
2199.000000	8.558000
2198.000000	8.535400
2197.000000	8.535800
2196.000000	8.525300
2195.000000	8.527500
2194.000000	8.541800
2193.000000	8.515100
2192.000000	8.516300
2191.000000	8.521100
2190.000000	8.495700
2189.000000	8.484100
2188.000000	8.481800
2187.000000	8.464400
2186.000000	8.459400
2185.000000	8.447600
2184.000000	8.441800
2183.000000	8.431000
2182.000000	8.422500
2181.000000	8.427200
2180.000000	8.422600
2179.000000	8.420400
2178.000000	8.419300
2177.000000	8.404900
2176.000000	8.404700
2175.000000	8.388000
2174.000000	8.403000
2173.000000	8.402100
2172.000000	8.404100
2171.000000	8.399300
2170.000000	8.420400
2169.000000	8.440500
2168.000000	8.437700
2167.000000	8.436500
2166.000000	8.433900
2165.000000	8.452800
2164.000000	8.452500
2163.000000	8.471500
2162.000000	8.503200
2161.000000	8.509400
2160.000000	8.517700
2159.000000	8.535000
2158.000000	8.563100
2157.000000	8.595900
2156.000000	8.611000
2155.000000	8.611700
2154.000000	8.644300
2153.000000	8.680900
2152.000000	8.706100
2151.000000	8.724500
2150.000000	8.733300
2149.000000	8.765800
2148.000000	8.780400
2147.000000	8.789800
2146.000000	8.806200
2145.000000	8.820100
2144.000000	8.842300
2143.000000	8.861700
2142.000000	8.862600
2141.000000	8.885200
2140.000000	8.913200
2139.000000	8.926300
2138.000000	8.937900
2137.000000	8.965600
2136.000000	8.977100
2135.000000	8.979300
2134.000000	9.001000
2133.000000	9.005200
2132.000000	9.018700
2131.000000	9.022700
2130.000000	9.031900
2129.000000	9.036800
2128.000000	9.035400
2127.000000	9.038800
2126.000000	9.051600
2125.000000	9.051900
2124.000000	9.040100
2123.000000	9.038400
2122.000000	9.031100
2121.000000	9.027200
2120.000000	9.044700
2119.000000	9.033400
2118.000000	9.009900
2117.000000	8.999800
2116.000000	8.995400
2115.000000	8.992100
2114.000000	8.990900
2113.000000	8.987200
2112.000000	8.960200
2111.000000	8.952500
2110.000000	8.950000
2109.000000	8.939600
2108.000000	8.918200
2107.000000	8.909300
2106.000000	8.919200
2105.000000	8.899500
2104.000000	8.876200
2103.000000	8.870900
2102.000000	8.866100
2101.000000	8.867300
2100.000000	8.861200
2099.000000	8.859300
2098.000000	8.860100
2097.000000	8.861000
2096.000000	8.860500
2095.000000	8.835100
2094.000000	8.821200
2093.000000	8.834400
2092.000000	8.822200
2091.000000	8.817000
2090.000000	8.820200
2089.000000	8.810000
2088.000000	8.815000
2087.000000	8.828200
2086.000000	8.834500
2085.000000	8.840400
2084.000000	8.841400
2083.000000	8.838400
2082.000000	8.824000
2081.000000	8.824500
2080.000000	8.839900
2079.000000	8.839800
2078.000000	8.836200
2077.000000	8.825700
2076.000000	8.812100
2075.000000	8.806800
2074.000000	8.805100
2073.000000	8.796700
2072.000000	8.796200
2071.000000	8.785100
2070.000000	8.791700
2069.000000	8.807000
2068.000000	8.796400
2067.000000	8.769500
2066.000000	8.765200
2065.000000	8.773300
2064.000000	8.774400
2063.000000	8.767500
2062.000000	8.771400
2061.000000	8.770200
2060.000000	8.770700
2059.000000	8.754100
2058.000000	8.773600
2057.000000	8.810500
2056.000000	8.820100
2055.000000	8.837600
2054.000000	8.858500
2053.000000	8.898900
2052.000000	8.957000
2051.000000	9.006900
2050.000000	9.037800
2049.000000	9.081300
2048.000000	9.144300
2047.000000	9.193500
2046.000000	9.271000
2045.000000	9.337200
2044.000000	9.423400
2043.000000	9.482000
2042.000000	9.550100
2041.000000	9.637200
2040.000000	9.701800
2039.000000	9.765000
2038.000000	9.835000
2037.000000	9.898500
2036.000000	9.964000
2035.000000	10.018700
2034.000000	10.081100
2033.000000	10.132800
2032.000000	10.205000
2031.000000	10.254400
2030.000000	10.302700
2029.000000	10.351800
2028.000000	10.404100
2027.000000	10.444100
2026.000000	10.486000
2025.000000	10.533900
2024.000000	10.584300
2023.000000	10.608400
2022.000000	10.641700
2021.000000	10.685800
2020.000000	10.699600
2019.000000	10.722700
2018.000000	10.771800
2017.000000	10.805300
2016.000000	10.839000
2015.000000	10.840200
2014.000000	10.892000
2013.000000	10.906500
2012.000000	10.917700
2011.000000	10.924300
2010.000000	10.939100
2009.000000	10.933900
2008.000000	10.954600
2007.000000	10.972500
2006.000000	10.956200
2005.000000	10.965400
2004.000000	10.965500
2003.000000	10.952700
2002.000000	10.961600
2001.000000	10.959400
2000.000000	10.948100
1999.000000	10.954000
1998.000000	10.907300
1997.000000	10.907400
1996.000000	10.907300
1995.000000	10.902600
1994.000000	10.874700
1993.000000	10.855900
1992.000000	10.817100
1991.000000	10.783800
1990.000000	10.747500
1989.000000	10.718800
1988.000000	10.699100
1987.000000	10.655000
1986.000000	10.626800
1985.000000	10.591600
1984.000000	10.581000
1983.000000	10.531000
1982.000000	10.487400
1981.000000	10.438900
1980.000000	10.406200
1979.000000	10.347100
1978.000000	10.327000
1977.000000	10.296600
1976.000000	10.274500
1975.000000	10.219400
1974.000000	10.201000
1973.000000	10.145000
1972.000000	10.109000
1971.000000	10.053300
1970.000000	10.063800
1969.000000	9.997700
1968.000000	9.957700
1967.000000	9.903200
1966.000000	9.861200
1965.000000	9.851800
1964.000000	9.810000
1963.000000	9.769500
1962.000000	9.741200
1961.000000	9.697100
1960.000000	9.659600
1959.000000	9.615800
1958.000000	9.590900
1957.000000	9.549400
1956.000000	9.503900
1955.000000	9.473000
1954.000000	9.437600
1953.000000	9.392400
1952.000000	9.367500
1951.000000	9.332300
1950.000000	9.306700
1949.000000	9.268600
1948.000000	9.232200
1947.000000	9.195300
1946.000000	9.184200
1945.000000	9.136800
1944.000000	9.138700
1943.000000	9.120300
1942.000000	9.089500
1941.000000	9.057300
1940.000000	9.019300
1939.000000	9.029800
1938.000000	9.026000
1937.000000	9.067100
1936.000000	9.098900
1935.000000	9.086200
1934.000000	9.098800
1933.000000	9.117600
1932.000000	9.116800
1931.000000	9.133700
1930.000000	9.149000
1929.000000	9.196900
1928.000000	9.259600
1927.000000	9.331500
1926.000000	9.377700
1925.000000	9.467300
1924.000000	9.479800
1923.000000	9.490400
1922.000000	9.558700
1921.000000	9.701800
1920.000000	9.850800
1919.000000	9.991900
1918.000000	10.082300
1917.000000	10.143900
1916.000000	10.156600
1915.000000	10.198200
1914.000000	10.341300
1913.000000	10.553300
1912.000000	10.768500
1911.000000	10.942100
1910.000000	11.029900
1909.000000	11.024900
1908.000000	11.062400
1907.000000	11.173100
1906.000000	11.331800
1905.000000	11.603200
1904.000000	11.821200
1903.000000	11.957300
1902.000000	12.048100
1901.000000	12.138100
1900.000000	12.335900
1899.000000	12.628300
1898.000000	12.894000
1897.000000	13.101500
1896.000000	13.181000
1895.000000	13.191400
1894.000000	13.292300
1893.000000	13.419200
1892.000000	13.638200
1891.000000	13.906700
1890.000000	14.141300
1889.000000	14.319300
1888.000000	14.493000
1887.000000	14.621000
1886.000000	14.790200
1885.000000	15.051300
1884.000000	15.406000
1883.000000	15.742800
1882.000000	16.051400
1881.000000	16.357100
1880.000000	16.580300
1879.000000	16.777200
1878.000000	17.022100
1877.000000	17.256500
1876.000000	17.450100
1875.000000	17.693800
1874.000000	17.874300
1873.000000	18.128200
1872.000000	18.387900
1871.000000	18.637700
1870.000000	18.968100
1869.000000	19.234400
1868.000000	19.432400
1867.000000	19.556500
1866.000000	19.569100
1865.000000	19.573800
1864.000000	19.534200
1863.000000	19.431600
1862.000000	19.388000
1861.000000	19.409700
1860.000000	19.454300
1859.000000	19.513800
1858.000000	19.602400
1857.000000	19.594400
1856.000000	19.483400
1855.000000	19.443400
1854.000000	19.497200
1853.000000	19.494500
1852.000000	19.443400
1851.000000	19.327000
1850.000000	19.075700
1849.000000	18.948000
1848.000000	19.102600
1847.000000	19.339500
1846.000000	19.423600
1845.000000	19.262200
1844.000000	18.949600
1843.000000	18.725400
1842.000000	18.768500
1841.000000	18.935100
1840.000000	18.977400
1839.000000	18.914200
1838.000000	18.828900
1837.000000	18.843100
1836.000000	18.936300
1835.000000	19.000300
1834.000000	18.920000
1833.000000	18.727500
1832.000000	18.575200
1831.000000	18.511700
1830.000000	18.539800
1829.000000	18.516000
1828.000000	18.428400
1827.000000	18.394600
1826.000000	18.425400
1825.000000	18.403600
1824.000000	18.292800
1823.000000	18.090500
1822.000000	17.995900
1821.000000	18.098200
1820.000000	18.256400
1819.000000	18.316300
1818.000000	18.236700
1817.000000	18.139800
1816.000000	18.167400
1815.000000	18.218000
1814.000000	18.225300
1813.000000	18.201200
1812.000000	18.165400
1811.000000	18.180000
1810.000000	18.181700
1809.000000	18.125200
1808.000000	18.054400
1807.000000	18.035300
1806.000000	18.049400
1805.000000	18.035500
1804.000000	17.990400
1803.000000	17.918900
1802.000000	17.872400
1801.000000	17.901400
1800.000000	17.911500
1799.000000	17.857300
1798.000000	17.787800
1797.000000	17.753800
1796.000000	17.745000
1795.000000	17.714500
1794.000000	17.688300
1793.000000	17.673900
1792.000000	17.644700
1791.000000	17.611700
1790.000000	17.562700
1789.000000	17.493400
1788.000000	17.448100
1787.000000	17.407300
1786.000000	17.352700
1785.000000	17.305000
1784.000000	17.253500
1783.000000	17.189500
1782.000000	17.127800
1781.000000	17.078500
1780.000000	17.011600
1779.000000	16.959400
1778.000000	16.894100
1777.000000	16.811200
1776.000000	16.743000
1775.000000	16.663800
1774.000000	16.580800
1773.000000	16.502100
1772.000000	16.395700
1771.000000	16.295400
1770.000000	16.218600
1769.000000	16.118700
1768.000000	16.033900
1767.000000	15.975900
1766.000000	15.909000
1765.000000	15.865200
1764.000000	15.844400
1763.000000	15.809500
1762.000000	15.843800
1761.000000	15.893400
1760.000000	15.935300
1759.000000	15.977400
1758.000000	16.013400
1757.000000	16.056200
1756.000000	16.116200
1755.000000	16.143600
1754.000000	16.163500
1753.000000	16.152600
1752.000000	16.140200
1751.000000	16.140600
1750.000000	16.093000
1749.000000	16.037800
1748.000000	15.988900
1747.000000	15.920700
1746.000000	15.837700
1745.000000	15.743900
1744.000000	15.626400
1743.000000	15.466300
1742.000000	15.304400
1741.000000	15.142200
1740.000000	14.957400
1739.000000	14.821500
1738.000000	14.657000
1737.000000	14.546900
1736.000000	14.442200
1735.000000	14.354500
1734.000000	14.344200
1733.000000	14.344800
1732.000000	14.379900
1731.000000	14.429900
1730.000000	14.492900
1729.000000	14.573200
1728.000000	14.638300
1727.000000	14.703600
1726.000000	14.756400
1725.000000	14.828500
1724.000000	14.856100
1723.000000	14.879400
1722.000000	14.894300
1721.000000	14.869700
1720.000000	14.872900
1719.000000	14.858900
1718.000000	14.882300
1717.000000	14.903200
1716.000000	14.938000
1715.000000	14.961000
1714.000000	15.011300
1713.000000	15.043500
1712.000000	15.055300
1711.000000	15.080300
1710.000000	15.068500
1709.000000	15.054400
1708.000000	15.037600
1707.000000	15.018900
1706.000000	15.018700
1705.000000	14.993500
1704.000000	14.928800
1703.000000	14.846500
1702.000000	14.795700
1701.000000	14.680300
1700.000000	14.582700
1699.000000	14.460300
1698.000000	14.345400
1697.000000	14.267700
1696.000000	14.206900
1695.000000	14.218700
1694.000000	14.226000
1693.000000	14.321100
1692.000000	14.380200
1691.000000	14.521300
1690.000000	14.646100
1689.000000	14.720400
1688.000000	14.748200
1687.000000	14.754700
1686.000000	14.765800
1685.000000	14.768000
1684.000000	14.813500
1683.000000	14.948900
1682.000000	15.157600
1681.000000	15.460400
1680.000000	15.826100
1679.000000	16.252500
1678.000000	16.668300
1677.000000	17.068000
1676.000000	17.375400
1675.000000	17.683600
1674.000000	17.963000
1673.000000	18.178000
1672.000000	18.361600
1671.000000	18.522800
1670.000000	18.694100
1669.000000	18.801200
1668.000000	18.915600
1667.000000	19.033100
1666.000000	19.088500
1665.000000	19.156400
1664.000000	19.215200
1663.000000	19.247700
1662.000000	19.304400
1661.000000	19.334000
1660.000000	19.381000
1659.000000	19.399300
1658.000000	19.418600
1657.000000	19.420100
1656.000000	19.398500
1655.000000	19.394700
1654.000000	19.420700
1653.000000	19.404400
1652.000000	19.384400
1651.000000	19.365200
1650.000000	19.369400
1649.000000	19.335300
1648.000000	19.321200
1647.000000	19.291800
1646.000000	19.243400
1645.000000	19.194900
1644.000000	19.170700
1643.000000	19.123900
1642.000000	19.082800
1641.000000	19.059300
1640.000000	19.000100
1639.000000	18.969900
1638.000000	18.924800
1637.000000	18.886700
1636.000000	18.844100
1635.000000	18.805900
1634.000000	18.760800
1633.000000	18.703500
1632.000000	18.643900
1631.000000	18.578400
1630.000000	18.535100
1629.000000	18.485100
1628.000000	18.422900
1627.000000	18.363100
1626.000000	18.312500
1625.000000	18.254300
1624.000000	18.207100
1623.000000	18.144400
1622.000000	18.097000
1621.000000	18.044900
1620.000000	17.984400
1619.000000	17.923600
1618.000000	17.903800
1617.000000	17.850700
1616.000000	17.801500
1615.000000	17.734600
1614.000000	17.699000
1613.000000	17.656100
1612.000000	17.607500
1611.000000	17.571300
1610.000000	17.530500
1609.000000	17.516100
1608.000000	17.480300
1607.000000	17.430200
1606.000000	17.397200
1605.000000	17.362000
1604.000000	17.316000
1603.000000	17.281700
1602.000000	17.245300
1601.000000	17.184300
