PE UV       SUBTECH     SPECTRUM    ASCII       PEDS        4.00        
   -1
CICIMAUCR0004-1.Sample.ASC
24/05/03
14:00:46.00
24/05/03
14:00:46.00
Vinicio Soto Monge
C. kalinini
250,000000
1
Lambda 1050
1050L1511233
PerkinElmer UV WinLab 6.3.2.0749 / 2.02.05 Lambda 900 UV/VIS/NIR, Aug  7 2015 09:38:08

0
0
3350/servo 860,8/2
0
0
UV/VIS
1
1
1
DoubleDePol,CommonBeamDepol,RBeamAtt,SBeamAtt,60mm sphere, WB InGaAs Detector
0
0
0
0
Program
Program
3350/servo 860,8/2
3350/0,2 860,8/0,2
3350/0,2 860,8/0,2
0
15.00
 
 
 
0
 
860,8
319,2
860,8
Front
100
on
S:100 R:100
0
0
0
0
 
0
 
 
 
0
 
 
0
0
0
0
0
 
 
 
 
0
0


0
0
#HDR
-1
-1
#GR
nm
%R
1.0
0.0
2500,000000
-1,000000
2251
8
95,169100
5,381700
#DATA
2500.000000	8.641088
2499.000000	8.383965
2498.000000	8.517426
2497.000000	8.526692
2496.000000	8.563120
2495.000000	8.496549
2494.000000	8.496656
2493.000000	8.421990
2492.000000	8.413682
2491.000000	8.316649
2490.000000	8.323572
2489.000000	8.325702
2488.000000	8.250717
2487.000000	8.298861
2486.000000	8.329750
2485.000000	8.318033
2484.000000	8.215568
2483.000000	8.271700
2482.000000	8.275535
2481.000000	8.216420
2480.000000	8.254019
2479.000000	8.201721
2478.000000	8.191176
2477.000000	8.183720
2476.000000	8.210668
2475.000000	8.186916
2474.000000	8.247415
2473.000000	8.216420
2472.000000	8.270635
2471.000000	8.218657
2470.000000	8.211094
2469.000000	8.227071
2468.000000	8.255936
2467.000000	8.285334
2466.000000	8.328046
2465.000000	8.359999
2464.000000	8.396960
2463.000000	8.359467
2462.000000	8.457033
2461.000000	8.485259
2460.000000	8.524030
2459.000000	8.582292
2458.000000	8.623832
2457.000000	8.675065
2456.000000	8.727257
2455.000000	8.810230
2454.000000	8.884683
2453.000000	8.938579
2452.000000	9.001847
2451.000000	9.088869
2450.000000	9.162789
2449.000000	9.232022
2448.000000	9.340985
2447.000000	9.420124
2446.000000	9.481582
2445.000000	9.549112
2444.000000	9.653388
2443.000000	9.709627
2442.000000	9.797287
2441.000000	9.891338
2440.000000	9.942464
2439.000000	10.012018
2438.000000	10.096908
2437.000000	10.184995
2436.000000	10.250820
2435.000000	10.320160
2434.000000	10.380233
2433.000000	10.447976
2432.000000	10.506238
2431.000000	10.548524
2430.000000	10.610941
2429.000000	10.662067
2428.000000	10.708187
2427.000000	10.749195
2426.000000	10.794037
2425.000000	10.835683
2424.000000	10.870087
2423.000000	10.900763
2422.000000	10.945711
2421.000000	10.988423
2420.000000	11.008980
2419.000000	11.028259
2418.000000	11.056591
2417.000000	11.102072
2416.000000	11.124547
2415.000000	11.167045
2414.000000	11.169815
2413.000000	11.188029
2412.000000	11.230634
2411.000000	11.253534
2410.000000	11.269831
2409.000000	11.291133
2408.000000	11.299228
2407.000000	11.324685
2406.000000	11.348970
2405.000000	11.375492
2404.000000	11.400735
2403.000000	11.428642
2402.000000	11.462193
2401.000000	11.495958
2400.000000	11.513107
2399.000000	11.554114
2398.000000	11.599169
2397.000000	11.618981
2396.000000	11.651680
2395.000000	11.663929
2394.000000	11.682995
2393.000000	11.704084
2392.000000	11.708345
2391.000000	11.725813
2390.000000	11.750205
2389.000000	11.754465
2388.000000	11.762241
2387.000000	11.760962
2386.000000	11.757235
2385.000000	11.753826
2384.000000	11.741151
2383.000000	11.733908
2382.000000	11.737104
2381.000000	11.720487
2380.000000	11.705150
2379.000000	11.673196
2378.000000	11.645289
2377.000000	11.634425
2376.000000	11.612377
2375.000000	11.569665
2374.000000	11.524929
2373.000000	11.503094
2372.000000	11.462832
2371.000000	11.414582
2370.000000	11.367397
2369.000000	11.318507
2368.000000	11.250658
2367.000000	11.181638
2366.000000	11.124760
2365.000000	11.051585
2364.000000	10.983630
2363.000000	10.910881
2362.000000	10.837814
2361.000000	10.771136
2360.000000	10.688269
2359.000000	10.625746
2358.000000	10.579413
2357.000000	10.530310
2356.000000	10.485255
2355.000000	10.449786
2354.000000	10.421560
2353.000000	10.405903
2352.000000	10.402068
2351.000000	10.406968
2350.000000	10.413359
2349.000000	10.432851
2348.000000	10.467361
2347.000000	10.502297
2346.000000	10.540003
2345.000000	10.560027
2344.000000	10.601994
2343.000000	10.653120
2342.000000	10.671973
2341.000000	10.673783
2340.000000	10.694873
2339.000000	10.709678
2338.000000	10.713300
2337.000000	10.695086
2336.000000	10.684861
2335.000000	10.659298
2334.000000	10.630219
2333.000000	10.600502
2332.000000	10.542346
2331.000000	10.491326
2330.000000	10.418898
2329.000000	10.340610
2328.000000	10.265199
2327.000000	10.192770
2326.000000	10.118744
2325.000000	10.031616
2324.000000	9.929257
2323.000000	9.838721
2322.000000	9.735616
2321.000000	9.647104
2320.000000	9.515667
2319.000000	9.369850
2318.000000	9.265148
2317.000000	9.141912
2316.000000	9.043387
2315.000000	8.937194
2314.000000	8.820243
2313.000000	8.715966
2312.000000	8.622128
2311.000000	8.557794
2310.000000	8.500916
2309.000000	8.450216
2308.000000	8.407611
2307.000000	8.401966
2306.000000	8.411552
2305.000000	8.424333
2304.000000	8.454264
2303.000000	8.518278
2302.000000	8.571641
2301.000000	8.635442
2300.000000	8.708830
2299.000000	8.790632
2298.000000	8.890328
2297.000000	8.960946
2296.000000	9.048820
2295.000000	9.140314
2294.000000	9.185689
2293.000000	9.247254
2292.000000	9.275479
2291.000000	9.311268
2290.000000	9.336085
2289.000000	9.356429
2288.000000	9.342370
2287.000000	9.346630
2286.000000	9.324369
2285.000000	9.305516
2284.000000	9.280912
2283.000000	9.258224
2282.000000	9.194210
2281.000000	9.155226
2280.000000	9.114645
2279.000000	9.083543
2278.000000	9.030073
2277.000000	8.997587
2276.000000	8.997906
2275.000000	8.978628
2274.000000	8.979586
2273.000000	8.957218
2272.000000	9.001741
2271.000000	8.992261
2270.000000	9.052335
2269.000000	9.092383
2268.000000	9.170138
2267.000000	9.276332
2266.000000	9.397437
2265.000000	9.512897
2264.000000	9.668193
2263.000000	9.855976
2262.000000	10.038113
2261.000000	10.272016
2260.000000	10.520511
2259.000000	10.758142
2258.000000	11.005572
2257.000000	11.267274
2256.000000	11.558481
2255.000000	11.808148
2254.000000	12.070703
2253.000000	12.332725
2252.000000	12.607848
2251.000000	12.845692
2250.000000	13.069902
2249.000000	13.273981
2248.000000	13.506712
2247.000000	13.703868
2246.000000	13.877591
2245.000000	14.063669
2244.000000	14.211935
2243.000000	14.360201
2242.000000	14.468206
2241.000000	14.644698
2240.000000	14.765590
2239.000000	14.851546
2238.000000	14.970308
2237.000000	15.074691
2236.000000	15.173109
2235.000000	15.223277
2234.000000	15.282285
2233.000000	15.370585
2232.000000	15.402326
2231.000000	15.427782
2230.000000	15.485832
2229.000000	15.492755
2228.000000	15.537917
2227.000000	15.530993
2226.000000	15.532165
2225.000000	15.536852
2224.000000	15.514058
2223.000000	15.504365
2222.000000	15.482849
2221.000000	15.454091
2220.000000	15.413083
2219.000000	15.409994
2218.000000	15.347258
2217.000000	15.319991
2216.000000	15.308168
2215.000000	15.280155
2214.000000	15.250651
2213.000000	15.182909
2212.000000	15.174601
2211.000000	15.138386
2210.000000	15.103450
2209.000000	15.104408
2208.000000	15.078526
2207.000000	15.048489
2206.000000	15.039435
2205.000000	15.003434
2204.000000	15.002901
2203.000000	14.979256
2202.000000	14.956994
2201.000000	14.963918
2200.000000	14.943680
2199.000000	14.934200
2198.000000	14.934200
2197.000000	14.924614
2196.000000	14.915028
2195.000000	14.906188
2194.000000	14.908744
2193.000000	14.907253
2192.000000	14.900010
2191.000000	14.874873
2190.000000	14.894897
2189.000000	14.871784
2188.000000	14.864115
2187.000000	14.846327
2186.000000	14.853357
2185.000000	14.833226
2184.000000	14.816077
2183.000000	14.793497
2182.000000	14.786786
2181.000000	14.786680
2180.000000	14.784656
2179.000000	14.770703
2178.000000	14.764845
2177.000000	14.773472
2176.000000	14.766549
2175.000000	14.765271
2174.000000	14.774111
2173.000000	14.772194
2172.000000	14.783378
2171.000000	14.813628
2170.000000	14.835889
2169.000000	14.852185
2168.000000	14.858044
2167.000000	14.875405
2166.000000	14.927064
2165.000000	14.964557
2164.000000	14.974782
2163.000000	15.017707
2162.000000	15.049661
2161.000000	15.103024
2160.000000	15.115486
2159.000000	15.146588
2158.000000	15.209004
2157.000000	15.260344
2156.000000	15.309766
2155.000000	15.355034
2154.000000	15.405627
2153.000000	15.467512
2152.000000	15.521620
2151.000000	15.566675
2150.000000	15.618547
2149.000000	15.684053
2148.000000	15.758505
2147.000000	15.801217
2146.000000	15.841692
2145.000000	15.888132
2144.000000	15.956407
2143.000000	16.015521
2142.000000	16.040019
2141.000000	16.089654
2140.000000	16.152817
2139.000000	16.200961
2138.000000	16.226630
2137.000000	16.260288
2136.000000	16.304917
2135.000000	16.333463
2134.000000	16.350186
2133.000000	16.371488
2132.000000	16.408448
2131.000000	16.440189
2130.000000	16.442639
2129.000000	16.458829
2128.000000	16.457764
2127.000000	16.469906
2126.000000	16.469800
2125.000000	16.463409
2124.000000	16.465646
2123.000000	16.460853
2122.000000	16.452545
2121.000000	16.441787
2120.000000	16.422721
2119.000000	16.385867
2118.000000	16.367441
2117.000000	16.349440
2116.000000	16.324516
2115.000000	16.304172
2114.000000	16.264655
2113.000000	16.232276
2112.000000	16.204795
2111.000000	16.185410
2110.000000	16.165705
2109.000000	16.133644
2108.000000	16.099347
2107.000000	16.065263
2106.000000	16.029581
2105.000000	15.994645
2104.000000	15.964715
2103.000000	15.933080
2102.000000	15.894096
2101.000000	15.877267
2100.000000	15.862143
2099.000000	15.823904
2098.000000	15.805052
2097.000000	15.800578
2096.000000	15.775760
2095.000000	15.744020
2094.000000	15.720587
2093.000000	15.726232
2092.000000	15.724102
2091.000000	15.706314
2090.000000	15.704184
2089.000000	15.686183
2088.000000	15.665413
2087.000000	15.670845
2086.000000	15.660939
2085.000000	15.634844
2084.000000	15.614180
2083.000000	15.586913
2082.000000	15.577540
2081.000000	15.569658
2080.000000	15.545160
2079.000000	15.526626
2078.000000	15.488282
2077.000000	15.451002
2076.000000	15.419687
2075.000000	15.391355
2074.000000	15.353649
2073.000000	15.321056
2072.000000	15.289528
2071.000000	15.245964
2070.000000	15.215608
2069.000000	15.167358
2068.000000	15.120918
2067.000000	15.075543
2066.000000	15.033471
2065.000000	15.016322
2064.000000	14.992250
2063.000000	14.947941
2062.000000	14.932816
2061.000000	14.906720
2060.000000	14.897453
2059.000000	14.898519
2058.000000	14.897880
2057.000000	14.920993
2056.000000	14.945917
2055.000000	14.986711
2054.000000	15.061377
2053.000000	15.149357
2052.000000	15.251077
2051.000000	15.346832
2050.000000	15.469216
2049.000000	15.605979
2048.000000	15.786731
2047.000000	15.947566
2046.000000	16.102117
2045.000000	16.289793
2044.000000	16.501647
2043.000000	16.701892
2042.000000	16.895533
2041.000000	17.099292
2040.000000	17.302200
2039.000000	17.491580
2038.000000	17.686818
2037.000000	17.868104
2036.000000	18.056206
2035.000000	18.218212
2034.000000	18.389166
2033.000000	18.561504
2032.000000	18.718611
2031.000000	18.859634
2030.000000	18.994799
2029.000000	19.134331
2028.000000	19.292503
2027.000000	19.406366
2026.000000	19.547282
2025.000000	19.671477
2024.000000	19.790665
2023.000000	19.909427
2022.000000	20.014875
2021.000000	20.139495
2020.000000	20.245689
2019.000000	20.331751
2018.000000	20.433258
2017.000000	20.520280
2016.000000	20.634036
2015.000000	20.698476
2014.000000	20.791675
2013.000000	20.873157
2012.000000	20.941432
2011.000000	20.996287
2010.000000	21.040702
2009.000000	21.095450
2008.000000	21.176187
2007.000000	21.184921
2006.000000	21.198661
2005.000000	21.236047
2004.000000	21.262250
2003.000000	21.283233
2002.000000	21.288345
2001.000000	21.278120
2000.000000	21.270451
1999.000000	21.280996
1998.000000	21.266084
1997.000000	21.245208
1996.000000	21.223053
1995.000000	21.192377
1994.000000	21.170861
1993.000000	21.104930
1992.000000	21.046987
1991.000000	20.988937
1990.000000	20.941113
1989.000000	20.878377
1988.000000	20.818836
1987.000000	20.752904
1986.000000	20.697517
1985.000000	20.608579
1984.000000	20.545310
1983.000000	20.492267
1982.000000	20.411956
1981.000000	20.309597
1980.000000	20.252719
1979.000000	20.157176
1978.000000	20.060036
1977.000000	20.008058
1976.000000	19.911664
1975.000000	19.850525
1974.000000	19.756581
1973.000000	19.698957
1972.000000	19.612468
1971.000000	19.538868
1970.000000	19.445136
1969.000000	19.396886
1968.000000	19.317853
1967.000000	19.254904
1966.000000	19.183966
1965.000000	19.110046
1964.000000	19.040919
1963.000000	18.986171
1962.000000	18.907458
1961.000000	18.821289
1960.000000	18.757701
1959.000000	18.669189
1958.000000	18.597505
1957.000000	18.521242
1956.000000	18.438268
1955.000000	18.372230
1954.000000	18.312583
1953.000000	18.242817
1952.000000	18.169003
1951.000000	18.104563
1950.000000	18.040655
1949.000000	17.986653
1948.000000	17.928283
1947.000000	17.878968
1946.000000	17.820918
1945.000000	17.785662
1944.000000	17.744761
1943.000000	17.735282
1942.000000	17.725163
1941.000000	17.735388
1940.000000	17.744974
1939.000000	17.743164
1938.000000	17.759993
1937.000000	17.788112
1936.000000	17.803983
1935.000000	17.840197
1934.000000	17.926686
1933.000000	17.983031
1932.000000	18.068455
1931.000000	18.140671
1930.000000	18.278072
1929.000000	18.383946
1928.000000	18.510271
1927.000000	18.647460
1926.000000	18.764837
1925.000000	18.929187
1924.000000	19.103123
1923.000000	19.254904
1922.000000	19.444923
1921.000000	19.670092
1920.000000	19.872786
1919.000000	20.059184
1918.000000	20.276684
1917.000000	20.494823
1916.000000	20.730430
1915.000000	20.974451
1914.000000	21.266404
1913.000000	21.540568
1912.000000	21.817183
1911.000000	22.106685
1910.000000	22.373181
1909.000000	22.641381
1908.000000	22.929286
1907.000000	23.257133
1906.000000	23.597336
1905.000000	23.944143
1904.000000	24.275292
1903.000000	24.589186
1902.000000	24.913838
1901.000000	25.250845
1900.000000	25.612244
1899.000000	25.936257
1898.000000	26.292437
1897.000000	26.635622
1896.000000	26.931835
1895.000000	27.225385
1894.000000	27.564629
1893.000000	27.889175
1892.000000	28.210312
1891.000000	28.541461
1890.000000	28.847260
1889.000000	29.174894
1888.000000	29.507961
1887.000000	29.856471
1886.000000	30.223090
1885.000000	30.624963
1884.000000	31.074449
1883.000000	31.521271
1882.000000	31.933796
1881.000000	32.389459
1880.000000	32.806991
1879.000000	33.214403
1878.000000	33.602324
1877.000000	33.934006
1876.000000	34.254184
1875.000000	34.537828
1874.000000	34.795164
1873.000000	35.040570
1872.000000	35.261585
1871.000000	35.424230
1870.000000	35.534791
1869.000000	35.662074
1868.000000	35.776682
1867.000000	35.838460
1866.000000	35.885006
1865.000000	35.918771
1864.000000	35.957541
1863.000000	35.990134
1862.000000	36.001425
1861.000000	36.001531
1860.000000	35.992797
1859.000000	35.964571
1858.000000	35.937943
1857.000000	35.883195
1856.000000	35.807571
1855.000000	35.751652
1854.000000	35.672832
1853.000000	35.578568
1852.000000	35.497831
1851.000000	35.444361
1850.000000	35.369483
1849.000000	35.279905
1848.000000	35.170729
1847.000000	35.040251
1846.000000	34.941513
1845.000000	34.887298
1844.000000	34.842882
1843.000000	34.833615
1842.000000	34.801555
1841.000000	34.708995
1840.000000	34.632199
1839.000000	34.563178
1838.000000	34.488300
1837.000000	34.411823
1836.000000	34.321926
1835.000000	34.219354
1834.000000	34.122747
1833.000000	34.033808
1832.000000	33.961699
1831.000000	33.875849
1830.000000	33.768165
1829.000000	33.661545
1828.000000	33.543635
1827.000000	33.457147
1826.000000	33.393132
1825.000000	33.332313
1824.000000	33.299720
1823.000000	33.300253
1822.000000	33.286832
1821.000000	33.247848
1820.000000	33.201409
1819.000000	33.170307
1818.000000	33.157951
1817.000000	33.159762
1816.000000	33.167537
1815.000000	33.145489
1814.000000	33.116624
1813.000000	33.105653
1812.000000	33.087440
1811.000000	33.031094
1810.000000	32.966760
1809.000000	32.923622
1808.000000	32.876118
1807.000000	32.828826
1806.000000	32.767368
1805.000000	32.691850
1804.000000	32.637422
1803.000000	32.590769
1802.000000	32.539004
1801.000000	32.465616
1800.000000	32.390950
1799.000000	32.329173
1798.000000	32.274425
1797.000000	32.228625
1796.000000	32.168977
1795.000000	32.088879
1794.000000	32.021670
1793.000000	31.963833
1792.000000	31.882777
1791.000000	31.816206
1790.000000	31.750381
1789.000000	31.675928
1788.000000	31.594020
1787.000000	31.504016
1786.000000	31.426155
1785.000000	31.339986
1784.000000	31.225804
1783.000000	31.119184
1782.000000	31.028542
1781.000000	30.918087
1780.000000	30.815196
1779.000000	30.678540
1778.000000	30.536771
1777.000000	30.409487
1776.000000	30.251742
1775.000000	30.074291
1774.000000	29.907811
1773.000000	29.738775
1772.000000	29.560898
1771.000000	29.386642
1770.000000	29.213558
1769.000000	29.053682
1768.000000	28.914363
1767.000000	28.796666
1766.000000	28.685893
1765.000000	28.594611
1764.000000	28.562231
1763.000000	28.528360
1762.000000	28.567983
1761.000000	28.649146
1760.000000	28.708154
1759.000000	28.802311
1758.000000	28.859509
1757.000000	28.920115
1756.000000	28.958673
1755.000000	28.993289
1754.000000	29.017787
1753.000000	28.986046
1752.000000	28.953880
1751.000000	28.897108
1750.000000	28.801459
1749.000000	28.704106
1748.000000	28.572563
1747.000000	28.423444
1746.000000	28.247698
1745.000000	28.042554
1744.000000	27.816213
1743.000000	27.532995
1742.000000	27.260215
1741.000000	26.949623
1740.000000	26.636368
1739.000000	26.340155
1738.000000	26.076428
1737.000000	25.877462
1736.000000	25.710769
1735.000000	25.595735
1734.000000	25.560799
1733.000000	25.588705
1732.000000	25.652080
1731.000000	25.740699
1730.000000	25.854029
1729.000000	25.975667
1728.000000	26.124146
1727.000000	26.195297
1726.000000	26.279229
1725.000000	26.352297
1724.000000	26.391814
1723.000000	26.428987
1722.000000	26.465947
1721.000000	26.508445
1720.000000	26.555311
1719.000000	26.628912
1718.000000	26.706347
1717.000000	26.782823
1716.000000	26.896899
1715.000000	27.011081
1714.000000	27.120363
1713.000000	27.211751
1712.000000	27.276085
1711.000000	27.350858
1710.000000	27.363426
1709.000000	27.372799
1708.000000	27.379403
1707.000000	27.348301
1706.000000	27.303033
1705.000000	27.242960
1704.000000	27.190555
1703.000000	27.080634
1702.000000	26.948025
1701.000000	26.770787
1700.000000	26.577786
1699.000000	26.384464
1698.000000	26.230020
1697.000000	26.120418
1696.000000	26.066097
1695.000000	26.111578
1694.000000	26.164941
1693.000000	26.288389
1692.000000	26.456467
1691.000000	26.616876
1690.000000	26.763651
1689.000000	26.837890
1688.000000	26.872188
1687.000000	26.894981
1686.000000	26.918095
1685.000000	27.007992
1684.000000	27.217929
1683.000000	27.520533
1682.000000	28.012943
1681.000000	28.614529
1680.000000	29.292165
1679.000000	29.939232
1678.000000	30.562334
1677.000000	31.143682
1676.000000	31.658460
1675.000000	32.102300
1674.000000	32.488197
1673.000000	32.832980
1672.000000	33.113216
1671.000000	33.370551
1670.000000	33.638538
1669.000000	33.847091
1668.000000	34.017831
1667.000000	34.181223
1666.000000	34.306056
1665.000000	34.431741
1664.000000	34.542941
1663.000000	34.637525
1662.000000	34.737647
1661.000000	34.804537
1660.000000	34.894328
1659.000000	34.935655
1658.000000	34.990935
1657.000000	35.013196
1656.000000	35.048772
1655.000000	35.049198
1654.000000	35.038972
1653.000000	35.033008
1652.000000	35.023422
1651.000000	34.998391
1650.000000	34.987101
1649.000000	34.953868
1648.000000	34.910305
1647.000000	34.845119
1646.000000	34.780572
1645.000000	34.740842
1644.000000	34.676402
1643.000000	34.615796
1642.000000	34.555083
1641.000000	34.495330
1640.000000	34.444629
1639.000000	34.362188
1638.000000	34.291038
1637.000000	34.212537
1636.000000	34.147351
1635.000000	34.073538
1634.000000	33.977889
1633.000000	33.898537
1632.000000	33.816628
1631.000000	33.723003
1630.000000	33.639497
1629.000000	33.550239
1628.000000	33.443726
1627.000000	33.345414
1626.000000	33.263825
1625.000000	33.163916
1624.000000	33.071356
1623.000000	32.974110
1622.000000	32.884852
1621.000000	32.793570
1620.000000	32.703566
1619.000000	32.630179
