PE UV       SUBTECH     SPECTRUM    ASCII       PEDS        4.00        
   -1
CICIMAUCR0009-2.Sample.ASC
24/04/17
11:40:36.00
24/04/17
11:40:36.00
Vinicio Soto Monge
C. kalinini
250,000000
1
Lambda 1050
1050L1511233
PerkinElmer UV WinLab 6.3.2.0749 / 2.02.05 Lambda 900 UV/VIS/NIR, Aug  7 2015 09:38:08

0
0
3350/servo 860,8/2
0
0
UV/VIS
1
1
1
DoubleDePol,CommonBeamDepol,RBeamAtt,SBeamAtt,60mm sphere, WB InGaAs Detector
0
0
0
0
Program
Program
3350/servo 860,8/2
3350/0,2 860,8/0,2
3350/0,2 860,8/0,2
0
15.00
 
 
 
0
 
860,8
319,2
860,8
Front
100
on
S:100 R:100
0
0
0
0
 
0
 
 
 
0
 
 
0
0
0
0
0
 
 
 
 
0
0


0
0
#HDR
-1
-1
#GR
nm
%R
1.0
0.0
2500,000000
-1,000000
2251
8
97,179300
5,310100
#DATA
2500.000000	9.968500
2499.000000	10.074000
2498.000000	9.985900
2497.000000	9.870000
2496.000000	9.915600
2495.000000	9.964500
2494.000000	9.734400
2493.000000	9.823300
2492.000000	9.838700
2491.000000	9.785500
2490.000000	9.725200
2489.000000	9.661800
2488.000000	9.704900
2487.000000	9.657300
2486.000000	9.668100
2485.000000	9.618700
2484.000000	9.565700
2483.000000	9.630300
2482.000000	9.558400
2481.000000	9.594100
2480.000000	9.631100
2479.000000	9.575600
2478.000000	9.607400
2477.000000	9.625600
2476.000000	9.599300
2475.000000	9.648500
2474.000000	9.663200
2473.000000	9.653300
2472.000000	9.615700
2471.000000	9.666600
2470.000000	9.695200
2469.000000	9.689600
2468.000000	9.674100
2467.000000	9.710900
2466.000000	9.710200
2465.000000	9.771800
2464.000000	9.810000
2463.000000	9.828700
2462.000000	9.863500
2461.000000	9.903600
2460.000000	9.960800
2459.000000	10.054000
2458.000000	10.113400
2457.000000	10.158300
2456.000000	10.242400
2455.000000	10.337600
2454.000000	10.408300
2453.000000	10.508100
2452.000000	10.596600
2451.000000	10.707000
2450.000000	10.800200
2449.000000	10.899300
2448.000000	10.994900
2447.000000	11.082400
2446.000000	11.194300
2445.000000	11.277200
2444.000000	11.370400
2443.000000	11.480500
2442.000000	11.582600
2441.000000	11.673600
2440.000000	11.783400
2439.000000	11.874400
2438.000000	11.957000
2437.000000	12.031100
2436.000000	12.117700
2435.000000	12.224900
2434.000000	12.309400
2433.000000	12.383500
2432.000000	12.450300
2431.000000	12.525200
2430.000000	12.594000
2429.000000	12.647400
2428.000000	12.719500
2427.000000	12.788800
2426.000000	12.848800
2425.000000	12.897800
2424.000000	12.955900
2423.000000	13.012500
2422.000000	13.056000
2421.000000	13.099400
2420.000000	13.133600
2419.000000	13.177500
2418.000000	13.214000
2417.000000	13.232600
2416.000000	13.254300
2415.000000	13.279700
2414.000000	13.315000
2413.000000	13.353700
2412.000000	13.374900
2411.000000	13.397200
2410.000000	13.425000
2409.000000	13.436400
2408.000000	13.462700
2407.000000	13.498600
2406.000000	13.518400
2405.000000	13.530800
2404.000000	13.559300
2403.000000	13.589900
2402.000000	13.596300
2401.000000	13.619900
2400.000000	13.647500
2399.000000	13.671400
2398.000000	13.701300
2397.000000	13.729000
2396.000000	13.740600
2395.000000	13.746300
2394.000000	13.781800
2393.000000	13.815000
2392.000000	13.825100
2391.000000	13.841600
2390.000000	13.849500
2389.000000	13.847200
2388.000000	13.852400
2387.000000	13.862600
2386.000000	13.858200
2385.000000	13.854700
2384.000000	13.858900
2383.000000	13.839400
2382.000000	13.815700
2381.000000	13.786900
2380.000000	13.773400
2379.000000	13.750800
2378.000000	13.721600
2377.000000	13.694000
2376.000000	13.668800
2375.000000	13.628500
2374.000000	13.578400
2373.000000	13.537400
2372.000000	13.489400
2371.000000	13.443900
2370.000000	13.400200
2369.000000	13.335700
2368.000000	13.263700
2367.000000	13.201500
2366.000000	13.132700
2365.000000	13.053300
2364.000000	12.977600
2363.000000	12.881600
2362.000000	12.790500
2361.000000	12.701900
2360.000000	12.616000
2359.000000	12.536300
2358.000000	12.454400
2357.000000	12.370400
2356.000000	12.292900
2355.000000	12.232800
2354.000000	12.195600
2353.000000	12.171000
2352.000000	12.143300
2351.000000	12.146200
2350.000000	12.166800
2349.000000	12.168600
2348.000000	12.201800
2347.000000	12.259800
2346.000000	12.289600
2345.000000	12.340700
2344.000000	12.395800
2343.000000	12.426400
2342.000000	12.472100
2341.000000	12.504000
2340.000000	12.524200
2339.000000	12.549200
2338.000000	12.555600
2337.000000	12.555900
2336.000000	12.549700
2335.000000	12.513800
2334.000000	12.497800
2333.000000	12.467100
2332.000000	12.409600
2331.000000	12.340300
2330.000000	12.261300
2329.000000	12.207800
2328.000000	12.123500
2327.000000	12.026500
2326.000000	11.936700
2325.000000	11.818700
2324.000000	11.707100
2323.000000	11.595900
2322.000000	11.467700
2321.000000	11.345600
2320.000000	11.221700
2319.000000	11.072200
2318.000000	10.919600
2317.000000	10.762300
2316.000000	10.603300
2315.000000	10.465800
2314.000000	10.326500
2313.000000	10.203800
2312.000000	10.059800
2311.000000	9.953300
2310.000000	9.868200
2309.000000	9.781000
2308.000000	9.736400
2307.000000	9.703900
2306.000000	9.687300
2305.000000	9.676300
2304.000000	9.715600
2303.000000	9.761000
2302.000000	9.827000
2301.000000	9.910100
2300.000000	10.010900
2299.000000	10.103100
2298.000000	10.224900
2297.000000	10.324400
2296.000000	10.427100
2295.000000	10.526200
2294.000000	10.602800
2293.000000	10.669600
2292.000000	10.727000
2291.000000	10.756000
2290.000000	10.820400
2289.000000	10.841700
2288.000000	10.828100
2287.000000	10.835200
2286.000000	10.829600
2285.000000	10.804600
2284.000000	10.768400
2283.000000	10.705100
2282.000000	10.661800
2281.000000	10.620200
2280.000000	10.566200
2279.000000	10.520100
2278.000000	10.464900
2277.000000	10.424800
2276.000000	10.359700
2275.000000	10.338800
2274.000000	10.317800
2273.000000	10.318800
2272.000000	10.331200
2271.000000	10.329300
2270.000000	10.373400
2269.000000	10.410300
2268.000000	10.497800
2267.000000	10.567800
2266.000000	10.677400
2265.000000	10.832200
2264.000000	10.988200
2263.000000	11.176600
2262.000000	11.379900
2261.000000	11.617400
2260.000000	11.880700
2259.000000	12.143200
2258.000000	12.419300
2257.000000	12.695400
2256.000000	12.991300
2255.000000	13.274600
2254.000000	13.556000
2253.000000	13.862100
2252.000000	14.122600
2251.000000	14.386000
2250.000000	14.630900
2249.000000	14.841400
2248.000000	15.077700
2247.000000	15.290100
2246.000000	15.467700
2245.000000	15.640600
2244.000000	15.806800
2243.000000	15.976600
2242.000000	16.114500
2241.000000	16.220500
2240.000000	16.351900
2239.000000	16.472800
2238.000000	16.562100
2237.000000	16.647600
2236.000000	16.751800
2235.000000	16.824800
2234.000000	16.871800
2233.000000	16.913100
2232.000000	16.969000
2231.000000	17.002900
2230.000000	17.036100
2229.000000	17.072500
2228.000000	17.078700
2227.000000	17.065200
2226.000000	17.051300
2225.000000	17.053100
2224.000000	17.029500
2223.000000	17.025900
2222.000000	16.973500
2221.000000	16.937900
2220.000000	16.923000
2219.000000	16.868500
2218.000000	16.820300
2217.000000	16.785100
2216.000000	16.728300
2215.000000	16.691500
2214.000000	16.655800
2213.000000	16.599500
2212.000000	16.565700
2211.000000	16.524000
2210.000000	16.496400
2209.000000	16.467200
2208.000000	16.443000
2207.000000	16.403700
2206.000000	16.389900
2205.000000	16.360200
2204.000000	16.321000
2203.000000	16.305300
2202.000000	16.285000
2201.000000	16.257800
2200.000000	16.254000
2199.000000	16.223600
2198.000000	16.211300
2197.000000	16.197500
2196.000000	16.193800
2195.000000	16.182300
2194.000000	16.176600
2193.000000	16.161400
2192.000000	16.131500
2191.000000	16.108400
2190.000000	16.099000
2189.000000	16.077000
2188.000000	16.067500
2187.000000	16.064800
2186.000000	16.061700
2185.000000	16.052100
2184.000000	16.037800
2183.000000	16.025700
2182.000000	16.001500
2181.000000	15.993400
2180.000000	15.997100
2179.000000	16.005700
2178.000000	15.989500
2177.000000	15.979900
2176.000000	15.964500
2175.000000	15.981900
2174.000000	16.005300
2173.000000	16.033400
2172.000000	16.042400
2171.000000	16.048900
2170.000000	16.066400
2169.000000	16.111700
2168.000000	16.146600
2167.000000	16.162700
2166.000000	16.189800
2165.000000	16.228300
2164.000000	16.291600
2163.000000	16.327200
2162.000000	16.358700
2161.000000	16.403600
2160.000000	16.467000
2159.000000	16.512400
2158.000000	16.574200
2157.000000	16.640000
2156.000000	16.677500
2155.000000	16.749000
2154.000000	16.826800
2153.000000	16.888600
2152.000000	16.946800
2151.000000	17.016200
2150.000000	17.087400
2149.000000	17.151400
2148.000000	17.233000
2147.000000	17.305100
2146.000000	17.363400
2145.000000	17.434900
2144.000000	17.493800
2143.000000	17.554500
2142.000000	17.618800
2141.000000	17.688600
2140.000000	17.740900
2139.000000	17.797900
2138.000000	17.848300
2137.000000	17.897800
2136.000000	17.938200
2135.000000	17.993900
2134.000000	18.028200
2133.000000	18.055500
2132.000000	18.087600
2131.000000	18.122900
2130.000000	18.140300
2129.000000	18.149200
2128.000000	18.170800
2127.000000	18.194500
2126.000000	18.196600
2125.000000	18.202200
2124.000000	18.210300
2123.000000	18.208500
2122.000000	18.198800
2121.000000	18.182900
2120.000000	18.161900
2119.000000	18.134300
2118.000000	18.122500
2117.000000	18.111300
2116.000000	18.086200
2115.000000	18.052800
2114.000000	18.025900
2113.000000	18.004200
2112.000000	17.976000
2111.000000	17.932800
2110.000000	17.892100
2109.000000	17.877000
2108.000000	17.843800
2107.000000	17.794100
2106.000000	17.757300
2105.000000	17.721100
2104.000000	17.700800
2103.000000	17.659200
2102.000000	17.616900
2101.000000	17.601400
2100.000000	17.565400
2099.000000	17.530100
2098.000000	17.499100
2097.000000	17.463600
2096.000000	17.446700
2095.000000	17.421400
2094.000000	17.392000
2093.000000	17.379000
2092.000000	17.358300
2091.000000	17.345800
2090.000000	17.333900
2089.000000	17.299100
2088.000000	17.277300
2087.000000	17.285300
2086.000000	17.262300
2085.000000	17.225800
2084.000000	17.213000
2083.000000	17.197500
2082.000000	17.152100
2081.000000	17.109500
2080.000000	17.086700
2079.000000	17.046400
2078.000000	17.008200
2077.000000	16.973100
2076.000000	16.908900
2075.000000	16.858100
2074.000000	16.799400
2073.000000	16.747300
2072.000000	16.703600
2071.000000	16.655800
2070.000000	16.597600
2069.000000	16.543500
2068.000000	16.482200
2067.000000	16.417300
2066.000000	16.368200
2065.000000	16.310900
2064.000000	16.247900
2063.000000	16.185100
2062.000000	16.155800
2061.000000	16.117300
2060.000000	16.073100
2059.000000	16.039000
2058.000000	16.017100
2057.000000	16.008300
2056.000000	15.999400
2055.000000	16.028500
2054.000000	16.049300
2053.000000	16.085900
2052.000000	16.149200
2051.000000	16.229000
2050.000000	16.322400
2049.000000	16.434200
2048.000000	16.542600
2047.000000	16.695500
2046.000000	16.841000
2045.000000	17.009600
2044.000000	17.190100
2043.000000	17.368100
2042.000000	17.547700
2041.000000	17.735800
2040.000000	17.927600
2039.000000	18.096700
2038.000000	18.282100
2037.000000	18.448400
2036.000000	18.613000
2035.000000	18.780400
2034.000000	18.947800
2033.000000	19.090100
2032.000000	19.220400
2031.000000	19.360400
2030.000000	19.498400
2029.000000	19.635900
2028.000000	19.750500
2027.000000	19.866800
2026.000000	19.964900
2025.000000	20.079200
2024.000000	20.199100
2023.000000	20.316700
2022.000000	20.404400
2021.000000	20.497700
2020.000000	20.593000
2019.000000	20.693300
2018.000000	20.767700
2017.000000	20.859300
2016.000000	20.922800
2015.000000	20.982500
2014.000000	21.052100
2013.000000	21.119100
2012.000000	21.176600
2011.000000	21.216000
2010.000000	21.262900
2009.000000	21.304800
2008.000000	21.336800
2007.000000	21.352300
2006.000000	21.376900
2005.000000	21.417200
2004.000000	21.416200
2003.000000	21.410700
2002.000000	21.414900
2001.000000	21.406000
2000.000000	21.393700
1999.000000	21.379800
1998.000000	21.347400
1997.000000	21.320900
1996.000000	21.301500
1995.000000	21.262100
1994.000000	21.234700
1993.000000	21.173200
1992.000000	21.120500
1991.000000	21.066800
1990.000000	21.024900
1989.000000	20.944500
1988.000000	20.881700
1987.000000	20.816000
1986.000000	20.725700
1985.000000	20.664800
1984.000000	20.585700
1983.000000	20.497000
1982.000000	20.441200
1981.000000	20.360500
1980.000000	20.263400
1979.000000	20.194500
1978.000000	20.105100
1977.000000	20.033300
1976.000000	19.961500
1975.000000	19.856700
1974.000000	19.763900
1973.000000	19.710700
1972.000000	19.640300
1971.000000	19.537500
1970.000000	19.477700
1969.000000	19.396600
1968.000000	19.351200
1967.000000	19.254800
1966.000000	19.181900
1965.000000	19.119800
1964.000000	19.056700
1963.000000	18.978000
1962.000000	18.899500
1961.000000	18.839000
1960.000000	18.776400
1959.000000	18.710300
1958.000000	18.617400
1957.000000	18.542600
1956.000000	18.481800
1955.000000	18.397400
1954.000000	18.343700
1953.000000	18.258700
1952.000000	18.177600
1951.000000	18.115700
1950.000000	18.060500
1949.000000	17.988100
1948.000000	17.958300
1947.000000	17.897200
1946.000000	17.824600
1945.000000	17.804900
1944.000000	17.779500
1943.000000	17.741800
1942.000000	17.720500
1941.000000	17.720800
1940.000000	17.705700
1939.000000	17.722400
1938.000000	17.742300
1937.000000	17.754200
1936.000000	17.782000
1935.000000	17.813300
1934.000000	17.868200
1933.000000	17.911100
1932.000000	18.005700
1931.000000	18.076900
1930.000000	18.172800
1929.000000	18.289200
1928.000000	18.400900
1927.000000	18.520900
1926.000000	18.660100
1925.000000	18.794600
1924.000000	18.933900
1923.000000	19.086300
1922.000000	19.270500
1921.000000	19.476500
1920.000000	19.702400
1919.000000	19.893700
1918.000000	20.096000
1917.000000	20.301300
1916.000000	20.488100
1915.000000	20.690800
1914.000000	20.974100
1913.000000	21.281000
1912.000000	21.575800
1911.000000	21.819800
1910.000000	22.105500
1909.000000	22.321900
1908.000000	22.577700
1907.000000	22.883400
1906.000000	23.254300
1905.000000	23.618100
1904.000000	23.965800
1903.000000	24.290500
1902.000000	24.592800
1901.000000	24.915700
1900.000000	25.268100
1899.000000	25.627600
1898.000000	25.981300
1897.000000	26.346500
1896.000000	26.630200
1895.000000	26.920100
1894.000000	27.230300
1893.000000	27.563300
1892.000000	27.929900
1891.000000	28.312000
1890.000000	28.652100
1889.000000	28.965300
1888.000000	29.319700
1887.000000	29.657000
1886.000000	30.019000
1885.000000	30.448200
1884.000000	30.908800
1883.000000	31.393600
1882.000000	31.871400
1881.000000	32.358000
1880.000000	32.826500
1879.000000	33.266600
1878.000000	33.703800
1877.000000	34.126800
1876.000000	34.516000
1875.000000	34.881100
1874.000000	35.225100
1873.000000	35.539000
1872.000000	35.817100
1871.000000	36.065000
1870.000000	36.257800
1869.000000	36.420400
1868.000000	36.564900
1867.000000	36.659700
1866.000000	36.702000
1865.000000	36.748200
1864.000000	36.783100
1863.000000	36.818300
1862.000000	36.873800
1861.000000	36.918800
1860.000000	36.955700
1859.000000	36.960000
1858.000000	36.936900
1857.000000	36.921700
1856.000000	36.881800
1855.000000	36.837900
1854.000000	36.785600
1853.000000	36.704600
1852.000000	36.609600
1851.000000	36.550100
1850.000000	36.486100
1849.000000	36.435600
1848.000000	36.387200
1847.000000	36.303900
1846.000000	36.194500
1845.000000	36.074700
1844.000000	35.980500
1843.000000	35.952700
1842.000000	35.955000
1841.000000	35.921400
1840.000000	35.871900
1839.000000	35.802700
1838.000000	35.729000
1837.000000	35.666800
1836.000000	35.586000
1835.000000	35.501300
1834.000000	35.399700
1833.000000	35.287600
1832.000000	35.205600
1831.000000	35.138200
1830.000000	35.049900
1829.000000	34.955000
1828.000000	34.857300
1827.000000	34.765600
1826.000000	34.683400
1825.000000	34.610000
1824.000000	34.549900
1823.000000	34.533100
1822.000000	34.571500
1821.000000	34.575600
1820.000000	34.539300
1819.000000	34.486400
1818.000000	34.446700
1817.000000	34.444800
1816.000000	34.448900
1815.000000	34.436500
1814.000000	34.420200
1813.000000	34.418700
1812.000000	34.400500
1811.000000	34.374900
1810.000000	34.323400
1809.000000	34.268800
1808.000000	34.237500
1807.000000	34.197100
1806.000000	34.159700
1805.000000	34.106100
1804.000000	34.031000
1803.000000	33.982700
1802.000000	33.957700
1801.000000	33.915500
1800.000000	33.846800
1799.000000	33.761600
1798.000000	33.715200
1797.000000	33.677500
1796.000000	33.624100
1795.000000	33.560300
1794.000000	33.502900
1793.000000	33.452200
1792.000000	33.393000
1791.000000	33.323400
1790.000000	33.267000
1789.000000	33.201500
1788.000000	33.124000
1787.000000	33.063600
1786.000000	32.990700
1785.000000	32.887600
1784.000000	32.796200
1783.000000	32.716500
1782.000000	32.625200
1781.000000	32.530900
1780.000000	32.421900
1779.000000	32.311600
1778.000000	32.212800
1777.000000	32.090500
1776.000000	31.964000
1775.000000	31.809800
1774.000000	31.644000
1773.000000	31.482400
1772.000000	31.318800
1771.000000	31.140600
1770.000000	30.991100
1769.000000	30.823300
1768.000000	30.659800
1767.000000	30.523800
1766.000000	30.388000
1765.000000	30.285100
1764.000000	30.220700
1763.000000	30.195900
1762.000000	30.200400
1761.000000	30.221300
1760.000000	30.271300
1759.000000	30.355600
1758.000000	30.427900
1757.000000	30.492700
1756.000000	30.539900
1755.000000	30.588200
1754.000000	30.596200
1753.000000	30.593800
1752.000000	30.564800
1751.000000	30.520600
1750.000000	30.460600
1749.000000	30.381900
1748.000000	30.282600
1747.000000	30.147900
1746.000000	29.983600
1745.000000	29.804800
1744.000000	29.593200
1743.000000	29.365700
1742.000000	29.110400
1741.000000	28.805200
1740.000000	28.498900
1739.000000	28.223300
1738.000000	27.920600
1737.000000	27.661400
1736.000000	27.447300
1735.000000	27.311000
1734.000000	27.220100
1733.000000	27.178100
1732.000000	27.194200
1731.000000	27.262200
1730.000000	27.337700
1729.000000	27.455200
1728.000000	27.555100
1727.000000	27.667600
1726.000000	27.763100
1725.000000	27.817000
1724.000000	27.871400
1723.000000	27.926400
1722.000000	27.953900
1721.000000	27.994400
1720.000000	28.029300
1719.000000	28.099300
1718.000000	28.180500
1717.000000	28.287000
1716.000000	28.414100
1715.000000	28.528000
1714.000000	28.612700
1713.000000	28.744000
1712.000000	28.835600
1711.000000	28.893800
1710.000000	28.954300
1709.000000	28.976700
1708.000000	28.981800
1707.000000	28.987100
1706.000000	28.957800
1705.000000	28.947900
1704.000000	28.892200
1703.000000	28.816500
1702.000000	28.743100
1701.000000	28.597700
1700.000000	28.423600
1699.000000	28.255800
1698.000000	28.110200
1697.000000	27.980600
1696.000000	27.907400
1695.000000	27.868000
1694.000000	27.902700
1693.000000	28.013900
1692.000000	28.153400
1691.000000	28.330100
1690.000000	28.481800
1689.000000	28.593500
1688.000000	28.658800
1687.000000	28.693500
1686.000000	28.713200
1685.000000	28.760300
1684.000000	28.874600
1683.000000	29.133600
1682.000000	29.479000
1681.000000	30.029100
1680.000000	30.620200
1679.000000	31.260600
1678.000000	31.936100
1677.000000	32.490300
1676.000000	33.022300
1675.000000	33.487000
1674.000000	33.904000
1673.000000	34.252600
1672.000000	34.577100
1671.000000	34.869400
1670.000000	35.148200
1669.000000	35.351200
1668.000000	35.563000
1667.000000	35.745200
1666.000000	35.876400
1665.000000	36.044300
1664.000000	36.167200
1663.000000	36.269400
1662.000000	36.395500
1661.000000	36.479600
1660.000000	36.575300
1659.000000	36.636800
1658.000000	36.706100
1657.000000	36.739900
1656.000000	36.777100
1655.000000	36.802800
1654.000000	36.808400
1653.000000	36.808000
1652.000000	36.795900
1651.000000	36.795700
1650.000000	36.766100
1649.000000	36.735700
1648.000000	36.702100
1647.000000	36.664200
1646.000000	36.618600
1645.000000	36.560400
1644.000000	36.480100
1643.000000	36.423600
1642.000000	36.364800
1641.000000	36.289300
1640.000000	36.233000
1639.000000	36.171500
1638.000000	36.089600
1637.000000	36.024700
1636.000000	35.958800
1635.000000	35.877200
1634.000000	35.799000
1633.000000	35.704500
1632.000000	35.613600
1631.000000	35.503200
1630.000000	35.419400
1629.000000	35.329600
1628.000000	35.224400
1627.000000	35.122800
1626.000000	35.025600
1625.000000	34.926400
1624.000000	34.825300
1623.000000	34.725100
1622.000000	34.620800
