PE UV       SUBTECH     SPECTRUM    ASCII       PEDS        4.00        
   -1
CICIMAUCR0018-7.Sample.ASC
24/04/25
15:44:01.00
24/04/25
15:44:01.00
Vinicio Soto Monge
C. cupreomarginata
250,000000
1
Lambda 1050
1050L1511233
PerkinElmer UV WinLab 6.3.2.0749 / 2.02.05 Lambda 900 UV/VIS/NIR, Aug  7 2015 09:38:08

0
0
3350/servo 860,8/2
0
0
UV/VIS
1
1
1
DoubleDePol,CommonBeamDepol,RBeamAtt,SBeamAtt,60mm sphere, WB InGaAs Detector
0
0
0
0
Program
Program
3350/servo 860,8/2
3350/0,2 860,8/0,2
3350/0,2 860,8/0,2
0
15.00
 
 
 
0
 
860,8
319,2
860,8
Front
100
on
S:100 R:100
0
0
0
0
 
0
 
 
 
0
 
 
0
0
0
0
0
 
 
 
 
0
0


0
0
#HDR
-1
-1
#GR
nm
%R
1.0
0.0
2500,000000
-1,000000
2251
8
71,516000
5,467700
#DATA
2500.000000	7.168900
2499.000000	7.205200
2498.000000	7.247500
2497.000000	7.313200
2496.000000	7.216400
2495.000000	7.169200
2494.000000	7.075200
2493.000000	7.089100
2492.000000	7.086700
2491.000000	7.093200
2490.000000	7.113100
2489.000000	7.063600
2488.000000	7.046100
2487.000000	7.097900
2486.000000	7.034700
2485.000000	6.967000
2484.000000	7.020400
2483.000000	7.000200
2482.000000	6.970400
2481.000000	7.029100
2480.000000	6.954400
2479.000000	6.918100
2478.000000	6.973700
2477.000000	6.964400
2476.000000	7.021500
2475.000000	6.919100
2474.000000	6.998200
2473.000000	6.996800
2472.000000	6.987600
2471.000000	7.014700
2470.000000	6.996500
2469.000000	6.993900
2468.000000	7.006100
2467.000000	6.982800
2466.000000	7.011900
2465.000000	6.980700
2464.000000	7.025700
2463.000000	7.069300
2462.000000	7.069200
2461.000000	7.091400
2460.000000	7.121700
2459.000000	7.157400
2458.000000	7.204900
2457.000000	7.212600
2456.000000	7.260800
2455.000000	7.297400
2454.000000	7.331200
2453.000000	7.408600
2452.000000	7.466100
2451.000000	7.515800
2450.000000	7.569400
2449.000000	7.598900
2448.000000	7.653000
2447.000000	7.745400
2446.000000	7.798500
2445.000000	7.839500
2444.000000	7.904800
2443.000000	7.933700
2442.000000	8.028800
2441.000000	8.071700
2440.000000	8.115600
2439.000000	8.179100
2438.000000	8.230400
2437.000000	8.266200
2436.000000	8.319200
2435.000000	8.361700
2434.000000	8.424900
2433.000000	8.462000
2432.000000	8.494000
2431.000000	8.529200
2430.000000	8.586300
2429.000000	8.613100
2428.000000	8.640600
2427.000000	8.686300
2426.000000	8.717300
2425.000000	8.742200
2424.000000	8.796200
2423.000000	8.816900
2422.000000	8.841000
2421.000000	8.854100
2420.000000	8.865900
2419.000000	8.910100
2418.000000	8.934200
2417.000000	8.939900
2416.000000	8.967400
2415.000000	8.995300
2414.000000	9.021900
2413.000000	9.037300
2412.000000	9.057100
2411.000000	9.098800
2410.000000	9.158500
2409.000000	9.231200
2408.000000	9.296300
2407.000000	9.359700
2406.000000	9.384600
2405.000000	9.411600
2404.000000	9.427700
2403.000000	9.432800
2402.000000	9.467900
2401.000000	9.528400
2400.000000	9.551800
2399.000000	9.581500
2398.000000	9.613900
2397.000000	9.632000
2396.000000	9.686000
2395.000000	9.734500
2394.000000	9.751600
2393.000000	9.769100
2392.000000	9.801000
2391.000000	9.831900
2390.000000	9.838700
2389.000000	9.861500
2388.000000	9.899500
2387.000000	9.904400
2386.000000	9.929000
2385.000000	9.948500
2384.000000	9.939000
2383.000000	9.952000
2382.000000	9.974500
2381.000000	9.960300
2380.000000	9.945800
2379.000000	9.945700
2378.000000	9.948900
2377.000000	9.938100
2376.000000	9.929700
2375.000000	9.926200
2374.000000	9.910700
2373.000000	9.892100
2372.000000	9.878400
2371.000000	9.857300
2370.000000	9.835600
2369.000000	9.813900
2368.000000	9.778300
2367.000000	9.740200
2366.000000	9.707500
2365.000000	9.655600
2364.000000	9.619700
2363.000000	9.575400
2362.000000	9.518200
2361.000000	9.488600
2360.000000	9.442500
2359.000000	9.384800
2358.000000	9.349400
2357.000000	9.322300
2356.000000	9.286200
2355.000000	9.263900
2354.000000	9.247800
2353.000000	9.235700
2352.000000	9.242100
2351.000000	9.247800
2350.000000	9.278800
2349.000000	9.304600
2348.000000	9.334200
2347.000000	9.360300
2346.000000	9.385900
2345.000000	9.437300
2344.000000	9.478700
2343.000000	9.505300
2342.000000	9.550300
2341.000000	9.573200
2340.000000	9.609400
2339.000000	9.640800
2338.000000	9.642600
2337.000000	9.652500
2336.000000	9.649700
2335.000000	9.665300
2334.000000	9.662100
2333.000000	9.632800
2332.000000	9.607600
2331.000000	9.585700
2330.000000	9.553300
2329.000000	9.512200
2328.000000	9.470600
2327.000000	9.421400
2326.000000	9.375900
2325.000000	9.318400
2324.000000	9.259500
2323.000000	9.185500
2322.000000	9.134600
2321.000000	9.063300
2320.000000	8.971000
2319.000000	8.896500
2318.000000	8.820200
2317.000000	8.746600
2316.000000	8.662700
2315.000000	8.581700
2314.000000	8.486800
2313.000000	8.411400
2312.000000	8.347600
2311.000000	8.303100
2310.000000	8.233000
2309.000000	8.197200
2308.000000	8.183000
2307.000000	8.145500
2306.000000	8.150000
2305.000000	8.158700
2304.000000	8.170900
2303.000000	8.211100
2302.000000	8.258500
2301.000000	8.321900
2300.000000	8.395900
2299.000000	8.446100
2298.000000	8.531300
2297.000000	8.611200
2296.000000	8.680500
2295.000000	8.735100
2294.000000	8.812700
2293.000000	8.863700
2292.000000	8.916600
2291.000000	8.965400
2290.000000	8.970500
2289.000000	8.997800
2288.000000	9.003800
2287.000000	9.001200
2286.000000	9.002000
2285.000000	8.987500
2284.000000	8.954200
2283.000000	8.937500
2282.000000	8.909800
2281.000000	8.862000
2280.000000	8.835200
2279.000000	8.804600
2278.000000	8.771400
2277.000000	8.737300
2276.000000	8.697300
2275.000000	8.694500
2274.000000	8.685000
2273.000000	8.678500
2272.000000	8.682400
2271.000000	8.688300
2270.000000	8.723900
2269.000000	8.749400
2268.000000	8.802900
2267.000000	8.894500
2266.000000	8.962400
2265.000000	9.058400
2264.000000	9.177100
2263.000000	9.308200
2262.000000	9.472700
2261.000000	9.655200
2260.000000	9.848900
2259.000000	10.036900
2258.000000	10.245400
2257.000000	10.495700
2256.000000	10.691000
2255.000000	10.906000
2254.000000	11.138200
2253.000000	11.367100
2252.000000	11.560600
2251.000000	11.751800
2250.000000	11.959000
2249.000000	12.144900
2248.000000	12.333300
2247.000000	12.474800
2246.000000	12.613200
2245.000000	12.769500
2244.000000	12.932200
2243.000000	13.043000
2242.000000	13.166500
2241.000000	13.272400
2240.000000	13.397400
2239.000000	13.477100
2238.000000	13.559900
2237.000000	13.658300
2236.000000	13.732500
2235.000000	13.827700
2234.000000	13.870100
2233.000000	13.921300
2232.000000	13.980100
2231.000000	14.028600
2230.000000	14.051400
2229.000000	14.092000
2228.000000	14.104800
2227.000000	14.111400
2226.000000	14.137300
2225.000000	14.117300
2224.000000	14.117100
2223.000000	14.117400
2222.000000	14.091100
2221.000000	14.083300
2220.000000	14.080600
2219.000000	14.077100
2218.000000	14.055500
2217.000000	14.020500
2216.000000	13.991600
2215.000000	13.969800
2214.000000	13.935300
2213.000000	13.914100
2212.000000	13.890100
2211.000000	13.882000
2210.000000	13.860700
2209.000000	13.811500
2208.000000	13.797000
2207.000000	13.788000
2206.000000	13.781300
2205.000000	13.752700
2204.000000	13.756800
2203.000000	13.740000
2202.000000	13.728000
2201.000000	13.716100
2200.000000	13.697700
2199.000000	13.667700
2198.000000	13.683200
2197.000000	13.659400
2196.000000	13.657600
2195.000000	13.667300
2194.000000	13.668600
2193.000000	13.651700
2192.000000	13.638100
2191.000000	13.617700
2190.000000	13.599800
2189.000000	13.599000
2188.000000	13.601300
2187.000000	13.586900
2186.000000	13.548800
2185.000000	13.551100
2184.000000	13.526900
2183.000000	13.499900
2182.000000	13.480200
2181.000000	13.477300
2180.000000	13.464500
2179.000000	13.468900
2178.000000	13.446500
2177.000000	13.440700
2176.000000	13.421900
2175.000000	13.425700
2174.000000	13.437600
2173.000000	13.428100
2172.000000	13.431900
2171.000000	13.447700
2170.000000	13.451900
2169.000000	13.454100
2168.000000	13.467600
2167.000000	13.482900
2166.000000	13.491000
2165.000000	13.505400
2164.000000	13.520300
2163.000000	13.540700
2162.000000	13.561200
2161.000000	13.614700
2160.000000	13.640200
2159.000000	13.635100
2158.000000	13.671600
2157.000000	13.684600
2156.000000	13.719000
2155.000000	13.763700
2154.000000	13.803400
2153.000000	13.834200
2152.000000	13.867900
2151.000000	13.898500
2150.000000	13.930100
2149.000000	13.979300
2148.000000	14.012000
2147.000000	14.047200
2146.000000	14.084100
2145.000000	14.121400
2144.000000	14.153000
2143.000000	14.176300
2142.000000	14.203800
2141.000000	14.237800
2140.000000	14.257500
2139.000000	14.295800
2138.000000	14.314500
2137.000000	14.339600
2136.000000	14.365200
2135.000000	14.379100
2134.000000	14.389700
2133.000000	14.399600
2132.000000	14.407200
2131.000000	14.418100
2130.000000	14.423500
2129.000000	14.429100
2128.000000	14.427900
2127.000000	14.436700
2126.000000	14.432400
2125.000000	14.428800
2124.000000	14.420500
2123.000000	14.409500
2122.000000	14.391100
2121.000000	14.384700
2120.000000	14.373300
2119.000000	14.340600
2118.000000	14.324300
2117.000000	14.299600
2116.000000	14.262000
2115.000000	14.249100
2114.000000	14.231000
2113.000000	14.195700
2112.000000	14.167000
2111.000000	14.144800
2110.000000	14.121300
2109.000000	14.092400
2108.000000	14.070500
2107.000000	14.054200
2106.000000	14.011900
2105.000000	13.980700
2104.000000	13.957800
2103.000000	13.922200
2102.000000	13.902600
2101.000000	13.882600
2100.000000	13.851400
2099.000000	13.816200
2098.000000	13.792700
2097.000000	13.781100
2096.000000	13.752800
2095.000000	13.722100
2094.000000	13.712600
2093.000000	13.689600
2092.000000	13.663200
2091.000000	13.663300
2090.000000	13.663000
2089.000000	13.637900
2088.000000	13.621000
2087.000000	13.606300
2086.000000	13.587400
2085.000000	13.572600
2084.000000	13.559600
2083.000000	13.535900
2082.000000	13.496700
2081.000000	13.473100
2080.000000	13.458200
2079.000000	13.444800
2078.000000	13.420900
2077.000000	13.387600
2076.000000	13.360200
2075.000000	13.332600
2074.000000	13.298900
2073.000000	13.259000
2072.000000	13.236400
2071.000000	13.205100
2070.000000	13.163500
2069.000000	13.128200
2068.000000	13.112200
2067.000000	13.085400
2066.000000	13.056400
2065.000000	13.030100
2064.000000	12.999700
2063.000000	12.969700
2062.000000	12.946100
2061.000000	12.937000
2060.000000	12.929400
2059.000000	12.921200
2058.000000	12.930900
2057.000000	12.931000
2056.000000	12.950000
2055.000000	12.964000
2054.000000	13.001700
2053.000000	13.054300
2052.000000	13.116200
2051.000000	13.185900
2050.000000	13.243400
2049.000000	13.317000
2048.000000	13.393700
2047.000000	13.524000
2046.000000	13.625700
2045.000000	13.731800
2044.000000	13.838200
2043.000000	13.951500
2042.000000	14.046000
2041.000000	14.167300
2040.000000	14.283900
2039.000000	14.391500
2038.000000	14.494500
2037.000000	14.596800
2036.000000	14.700300
2035.000000	14.782300
2034.000000	14.897900
2033.000000	14.968400
2032.000000	15.057100
2031.000000	15.131900
2030.000000	15.201400
2029.000000	15.262900
2028.000000	15.332600
2027.000000	15.396000
2026.000000	15.461000
2025.000000	15.520200
2024.000000	15.557600
2023.000000	15.599800
2022.000000	15.650300
2021.000000	15.721100
2020.000000	15.746600
2019.000000	15.793100
2018.000000	15.844500
2017.000000	15.869400
2016.000000	15.926700
2015.000000	15.938600
2014.000000	15.940100
2013.000000	15.967300
2012.000000	15.972600
2011.000000	15.988300
2010.000000	15.999400
2009.000000	16.010000
2008.000000	16.006100
2007.000000	15.999000
2006.000000	15.968300
2005.000000	15.967600
2004.000000	15.953800
2003.000000	15.953400
2002.000000	15.919700
2001.000000	15.881400
2000.000000	15.865000
1999.000000	15.846800
1998.000000	15.799300
1997.000000	15.744800
1996.000000	15.695300
1995.000000	15.677100
1994.000000	15.629700
1993.000000	15.569700
1992.000000	15.531300
1991.000000	15.477500
1990.000000	15.421900
1989.000000	15.371700
1988.000000	15.290600
1987.000000	15.235000
1986.000000	15.180800
1985.000000	15.118400
1984.000000	15.040900
1983.000000	14.984700
1982.000000	14.911900
1981.000000	14.854200
1980.000000	14.789400
1979.000000	14.713300
1978.000000	14.651400
1977.000000	14.594600
1976.000000	14.533100
1975.000000	14.470700
1974.000000	14.402800
1973.000000	14.318100
1972.000000	14.289700
1971.000000	14.214200
1970.000000	14.166900
1969.000000	14.107200
1968.000000	14.071900
1967.000000	14.020200
1966.000000	13.965900
1965.000000	13.894800
1964.000000	13.834300
1963.000000	13.796500
1962.000000	13.738200
1961.000000	13.669900
1960.000000	13.629500
1959.000000	13.589900
1958.000000	13.526400
1957.000000	13.481400
1956.000000	13.419100
1955.000000	13.374800
1954.000000	13.325900
1953.000000	13.257500
1952.000000	13.216600
1951.000000	13.169700
1950.000000	13.144100
1949.000000	13.093100
1948.000000	13.079400
1947.000000	13.029900
1946.000000	12.982700
1945.000000	12.958400
1944.000000	12.938700
1943.000000	12.907000
1942.000000	12.921900
1941.000000	12.916400
1940.000000	12.907900
1939.000000	12.898900
1938.000000	12.887900
1937.000000	12.907500
1936.000000	12.945700
1935.000000	12.955100
1934.000000	13.002900
1933.000000	13.022600
1932.000000	13.082000
1931.000000	13.138700
1930.000000	13.197800
1929.000000	13.266900
1928.000000	13.355100
1927.000000	13.434900
1926.000000	13.527400
1925.000000	13.648900
1924.000000	13.729900
1923.000000	13.853800
1922.000000	13.968100
1921.000000	14.121600
1920.000000	14.276800
1919.000000	14.388400
1918.000000	14.560800
1917.000000	14.737300
1916.000000	14.882800
1915.000000	15.059300
1914.000000	15.270600
1913.000000	15.440800
1912.000000	15.634200
1911.000000	15.820500
1910.000000	16.021900
1909.000000	16.235600
1908.000000	16.455100
1907.000000	16.691700
1906.000000	16.921800
1905.000000	17.164300
1904.000000	17.411200
1903.000000	17.654800
1902.000000	17.900900
1901.000000	18.175700
1900.000000	18.465100
1899.000000	18.736700
1898.000000	19.004000
1897.000000	19.297900
1896.000000	19.576400
1895.000000	19.869300
1894.000000	20.157600
1893.000000	20.456400
1892.000000	20.787700
1891.000000	21.111700
1890.000000	21.446800
1889.000000	21.769700
1888.000000	22.135600
1887.000000	22.527000
1886.000000	22.954800
1885.000000	23.408500
1884.000000	23.894600
1883.000000	24.410100
1882.000000	24.919200
1881.000000	25.448300
1880.000000	25.924400
1879.000000	26.411900
1878.000000	26.906800
1877.000000	27.353300
1876.000000	27.755300
1875.000000	28.149200
1874.000000	28.515700
1873.000000	28.851900
1872.000000	29.151700
1871.000000	29.425700
1870.000000	29.653200
1869.000000	29.872900
1868.000000	30.034500
1867.000000	30.162400
1866.000000	30.268800
1865.000000	30.371000
1864.000000	30.464400
1863.000000	30.551200
1862.000000	30.636200
1861.000000	30.711200
1860.000000	30.757800
1859.000000	30.780700
1858.000000	30.797800
1857.000000	30.786300
1856.000000	30.771900
1855.000000	30.763200
1854.000000	30.734200
1853.000000	30.660800
1852.000000	30.614500
1851.000000	30.595200
1850.000000	30.574600
1849.000000	30.536700
1848.000000	30.452600
1847.000000	30.357400
1846.000000	30.252800
1845.000000	30.175200
1844.000000	30.157300
1843.000000	30.166400
1842.000000	30.141500
1841.000000	30.092300
1840.000000	30.033800
1839.000000	29.967000
1838.000000	29.917400
1837.000000	29.854200
1836.000000	29.766900
1835.000000	29.670500
1834.000000	29.575800
1833.000000	29.498900
1832.000000	29.445700
1831.000000	29.371400
1830.000000	29.271100
1829.000000	29.166100
1828.000000	29.058500
1827.000000	28.977000
1826.000000	28.902400
1825.000000	28.830100
1824.000000	28.774300
1823.000000	28.766600
1822.000000	28.762800
1821.000000	28.723500
1820.000000	28.672300
1819.000000	28.622300
1818.000000	28.591900
1817.000000	28.592400
1816.000000	28.598300
1815.000000	28.575100
1814.000000	28.572600
1813.000000	28.570600
1812.000000	28.541200
1811.000000	28.490400
1810.000000	28.439100
1809.000000	28.402700
1808.000000	28.374100
1807.000000	28.335300
1806.000000	28.255000
1805.000000	28.188500
1804.000000	28.136000
1803.000000	28.111600
1802.000000	28.078900
1801.000000	27.999600
1800.000000	27.926800
1799.000000	27.867400
1798.000000	27.819300
1797.000000	27.765400
1796.000000	27.740100
1795.000000	27.677900
1794.000000	27.615700
1793.000000	27.558700
1792.000000	27.501400
1791.000000	27.441100
1790.000000	27.398200
1789.000000	27.332500
1788.000000	27.251100
1787.000000	27.184300
1786.000000	27.106300
1785.000000	27.029000
1784.000000	26.939100
1783.000000	26.852900
1782.000000	26.772800
1781.000000	26.693200
1780.000000	26.593900
1779.000000	26.501100
1778.000000	26.406200
1777.000000	26.293200
1776.000000	26.186400
1775.000000	26.044400
1774.000000	25.906600
1773.000000	25.780300
1772.000000	25.632100
1771.000000	25.487700
1770.000000	25.359100
1769.000000	25.214000
1768.000000	25.076200
1767.000000	24.964300
1766.000000	24.873100
1765.000000	24.805300
1764.000000	24.777400
1763.000000	24.772600
1762.000000	24.786600
1761.000000	24.813800
1760.000000	24.882400
1759.000000	24.954900
1758.000000	25.028200
1757.000000	25.091200
1756.000000	25.125000
1755.000000	25.175000
1754.000000	25.196800
1753.000000	25.183100
1752.000000	25.184900
1751.000000	25.135600
1750.000000	25.083200
1749.000000	25.011000
1748.000000	24.928900
1747.000000	24.818400
1746.000000	24.695800
1745.000000	24.537000
1744.000000	24.378800
1743.000000	24.180400
1742.000000	23.964100
1741.000000	23.726100
1740.000000	23.494600
1739.000000	23.246200
1738.000000	23.012200
1737.000000	22.842400
1736.000000	22.708300
1735.000000	22.610300
1734.000000	22.592700
1733.000000	22.624300
1732.000000	22.678000
1731.000000	22.783200
1730.000000	22.890500
1729.000000	23.006200
1728.000000	23.135400
1727.000000	23.263800
1726.000000	23.358600
1725.000000	23.430100
1724.000000	23.482700
1723.000000	23.551400
1722.000000	23.576200
1721.000000	23.593500
1720.000000	23.639000
1719.000000	23.652700
1718.000000	23.729600
1717.000000	23.799200
1716.000000	23.856600
1715.000000	23.939900
1714.000000	24.029800
1713.000000	24.098700
1712.000000	24.141900
1711.000000	24.184000
1710.000000	24.209200
1709.000000	24.187200
1708.000000	24.183700
1707.000000	24.154500
1706.000000	24.117700
1705.000000	24.054800
1704.000000	23.974100
1703.000000	23.899100
1702.000000	23.774300
1701.000000	23.616600
1700.000000	23.439000
1699.000000	23.276500
1698.000000	23.126600
1697.000000	23.018400
1696.000000	22.951200
1695.000000	22.953300
1694.000000	23.025800
1693.000000	23.148500
1692.000000	23.309200
1691.000000	23.474000
1690.000000	23.632600
1689.000000	23.765300
1688.000000	23.842600
1687.000000	23.864400
1686.000000	23.869000
1685.000000	23.917700
1684.000000	24.063300
1683.000000	24.335100
1682.000000	24.717300
1681.000000	25.209400
1680.000000	25.786500
1679.000000	26.378700
1678.000000	26.960800
1677.000000	27.520400
1676.000000	28.008500
1675.000000	28.438000
1674.000000	28.825500
1673.000000	29.125200
1672.000000	29.403400
1671.000000	29.639200
1670.000000	29.866600
1669.000000	30.051200
1668.000000	30.216800
1667.000000	30.359000
1666.000000	30.484700
1665.000000	30.581000
1664.000000	30.667900
1663.000000	30.718100
1662.000000	30.813700
1661.000000	30.872900
1660.000000	30.884300
1659.000000	30.929100
1658.000000	30.963700
1657.000000	30.978400
1656.000000	30.995300
1655.000000	30.993000
1654.000000	30.975300
1653.000000	30.951300
1652.000000	30.921200
1651.000000	30.902200
1650.000000	30.869800
1649.000000	30.812100
1648.000000	30.762000
1647.000000	30.706500
1646.000000	30.633600
1645.000000	30.583100
1644.000000	30.498300
1643.000000	30.439100
1642.000000	30.361000
1641.000000	30.300700
1640.000000	30.249900
1639.000000	30.160700
1638.000000	30.083100
1637.000000	30.000000
1636.000000	29.913900
1635.000000	29.840000
1634.000000	29.752700
1633.000000	29.669600
1632.000000	29.578500
1631.000000	29.484300
1630.000000	29.397700
1629.000000	29.305900
1628.000000	29.200700
1627.000000	29.116400
1626.000000	29.009300
1625.000000	28.913500
1624.000000	28.824400
1623.000000	28.729800
1622.000000	28.632200
1621.000000	28.550300
1620.000000	28.457800
1619.000000	28.368800
1618.000000	28.274400
1617.000000	28.204000
1616.000000	28.117500
1615.000000	28.026900
1614.000000	27.943200
