PE UV       SUBTECH     SPECTRUM    ASCII       PEDS        4.00        
   -1
CICIMAUCR0021-2.Sample.ASC
24/04/17
13:39:35.00
24/04/17
13:39:35.00
Vinicio Soto Monge
C. resplendens. 
250,000000
1
Lambda 1050
1050L1511233
PerkinElmer UV WinLab 6.3.2.0749 / 2.02.05 Lambda 900 UV/VIS/NIR, Aug  7 2015 09:38:08

0
0
3350/servo 860,8/2
0
0
UV/VIS
1
1
1
DoubleDePol,CommonBeamDepol,RBeamAtt,SBeamAtt,60mm sphere, WB InGaAs Detector
0
0
0
0
Program
Program
3350/servo 860,8/2
3350/0,2 860,8/0,2
3350/0,2 860,8/0,2
0
15.00
 
 
 
0
 
860,8
319,2
860,8
Front
100
on
S:100 R:100
0
0
0
0
 
0
 
 
 
0
 
 
0
0
0
0
0
 
 
 
 
0
0


0
0
#HDR
-1
-1
#GR
nm
%R
1.0
0.0
2500,000000
-1,000000
2251
8
60,763900
4,261100
#DATA
2500.000000	7.058000
2499.000000	7.027600
2498.000000	6.993800
2497.000000	6.982900
2496.000000	6.956000
2495.000000	6.952500
2494.000000	6.904400
2493.000000	6.908100
2492.000000	6.827800
2491.000000	6.776000
2490.000000	6.814700
2489.000000	6.749500
2488.000000	6.802100
2487.000000	6.855300
2486.000000	6.811300
2485.000000	6.869300
2484.000000	6.814700
2483.000000	6.832600
2482.000000	6.740800
2481.000000	6.722700
2480.000000	6.785400
2479.000000	6.762500
2478.000000	6.734600
2477.000000	6.735500
2476.000000	6.734600
2475.000000	6.659300
2474.000000	6.737900
2473.000000	6.705400
2472.000000	6.723800
2471.000000	6.701000
2470.000000	6.661500
2469.000000	6.672100
2468.000000	6.687900
2467.000000	6.704000
2466.000000	6.724900
2465.000000	6.740600
2464.000000	6.751400
2463.000000	6.756900
2462.000000	6.803900
2461.000000	6.820100
2460.000000	6.846800
2459.000000	6.840000
2458.000000	6.894700
2457.000000	6.928600
2456.000000	6.961500
2455.000000	7.012800
2454.000000	7.093500
2453.000000	7.122800
2452.000000	7.177400
2451.000000	7.200300
2450.000000	7.268900
2449.000000	7.338400
2448.000000	7.360100
2447.000000	7.387100
2446.000000	7.418900
2445.000000	7.488700
2444.000000	7.530500
2443.000000	7.602800
2442.000000	7.650700
2441.000000	7.682900
2440.000000	7.723400
2439.000000	7.764000
2438.000000	7.804700
2437.000000	7.829200
2436.000000	7.876800
2435.000000	7.911800
2434.000000	7.954700
2433.000000	7.986500
2432.000000	8.031700
2431.000000	8.056100
2430.000000	8.080000
2429.000000	8.119000
2428.000000	8.126700
2427.000000	8.149600
2426.000000	8.161500
2425.000000	8.189500
2424.000000	8.215000
2423.000000	8.233800
2422.000000	8.250500
2421.000000	8.274900
2420.000000	8.264500
2419.000000	8.251000
2418.000000	8.246800
2417.000000	8.253400
2416.000000	8.280500
2415.000000	8.298100
2414.000000	8.322300
2413.000000	8.327200
2412.000000	8.332400
2411.000000	8.335800
2410.000000	8.353800
2409.000000	8.362700
2408.000000	8.397300
2407.000000	8.401600
2406.000000	8.405000
2405.000000	8.437700
2404.000000	8.456000
2403.000000	8.451300
2402.000000	8.470000
2401.000000	8.480800
2400.000000	8.497700
2399.000000	8.524300
2398.000000	8.547800
2397.000000	8.558400
2396.000000	8.574700
2395.000000	8.593700
2394.000000	8.616800
2393.000000	8.628500
2392.000000	8.628700
2391.000000	8.633800
2390.000000	8.650600
2389.000000	8.665300
2388.000000	8.670600
2387.000000	8.665100
2386.000000	8.659700
2385.000000	8.655500
2384.000000	8.657300
2383.000000	8.649000
2382.000000	8.637700
2381.000000	8.636000
2380.000000	8.624700
2379.000000	8.602700
2378.000000	8.601700
2377.000000	8.591100
2376.000000	8.564700
2375.000000	8.564500
2374.000000	8.551800
2373.000000	8.512700
2372.000000	8.479800
2371.000000	8.469000
2370.000000	8.436700
2369.000000	8.390300
2368.000000	8.366400
2367.000000	8.325800
2366.000000	8.270600
2365.000000	8.238400
2364.000000	8.193300
2363.000000	8.131400
2362.000000	8.099800
2361.000000	8.061000
2360.000000	8.000700
2359.000000	7.959500
2358.000000	7.922800
2357.000000	7.892400
2356.000000	7.876100
2355.000000	7.862800
2354.000000	7.859300
2353.000000	7.853800
2352.000000	7.860000
2351.000000	7.876000
2350.000000	7.914100
2349.000000	7.961200
2348.000000	7.990200
2347.000000	8.009300
2346.000000	8.063500
2345.000000	8.099900
2344.000000	8.124200
2343.000000	8.152900
2342.000000	8.162400
2341.000000	8.185100
2340.000000	8.209100
2339.000000	8.221000
2338.000000	8.226100
2337.000000	8.215100
2336.000000	8.208100
2335.000000	8.197300
2334.000000	8.181500
2333.000000	8.155600
2332.000000	8.104600
2331.000000	8.064300
2330.000000	8.025500
2329.000000	7.988200
2328.000000	7.939500
2327.000000	7.884300
2326.000000	7.827800
2325.000000	7.774900
2324.000000	7.707700
2323.000000	7.615400
2322.000000	7.560800
2321.000000	7.490600
2320.000000	7.412200
2319.000000	7.317600
2318.000000	7.222100
2317.000000	7.152200
2316.000000	7.075000
2315.000000	6.990900
2314.000000	6.899300
2313.000000	6.817300
2312.000000	6.753700
2311.000000	6.715900
2310.000000	6.675200
2309.000000	6.639100
2308.000000	6.638800
2307.000000	6.630000
2306.000000	6.638700
2305.000000	6.667300
2304.000000	6.713700
2303.000000	6.757200
2302.000000	6.819800
2301.000000	6.861000
2300.000000	6.916700
2299.000000	6.988400
2298.000000	7.063300
2297.000000	7.125000
2296.000000	7.182200
2295.000000	7.238600
2294.000000	7.278000
2293.000000	7.324700
2292.000000	7.344200
2291.000000	7.363400
2290.000000	7.368900
2289.000000	7.356800
2288.000000	7.358500
2287.000000	7.326000
2286.000000	7.313000
2285.000000	7.292000
2284.000000	7.259700
2283.000000	7.235800
2282.000000	7.219700
2281.000000	7.166700
2280.000000	7.123200
2279.000000	7.099500
2278.000000	7.072200
2277.000000	7.036600
2276.000000	7.004000
2275.000000	6.992400
2274.000000	6.983100
2273.000000	7.003900
2272.000000	6.984000
2271.000000	6.988500
2270.000000	7.028800
2269.000000	7.073400
2268.000000	7.128000
2267.000000	7.204700
2266.000000	7.282900
2265.000000	7.377800
2264.000000	7.501000
2263.000000	7.615800
2262.000000	7.774100
2261.000000	7.941600
2260.000000	8.101600
2259.000000	8.270800
2258.000000	8.443700
2257.000000	8.644100
2256.000000	8.814400
2255.000000	8.993400
2254.000000	9.175400
2253.000000	9.346900
2252.000000	9.536000
2251.000000	9.723200
2250.000000	9.848900
2249.000000	10.010600
2248.000000	10.154000
2247.000000	10.282000
2246.000000	10.415000
2245.000000	10.515900
2244.000000	10.598100
2243.000000	10.728000
2242.000000	10.831800
2241.000000	10.901700
2240.000000	11.000300
2239.000000	11.089000
2238.000000	11.149900
2237.000000	11.211900
2236.000000	11.283000
2235.000000	11.346300
2234.000000	11.386200
2233.000000	11.462400
2232.000000	11.494300
2231.000000	11.522000
2230.000000	11.552900
2229.000000	11.581500
2228.000000	11.623300
2227.000000	11.653200
2226.000000	11.629300
2225.000000	11.629700
2224.000000	11.647800
2223.000000	11.643900
2222.000000	11.644800
2221.000000	11.630200
2220.000000	11.612200
2219.000000	11.610200
2218.000000	11.588200
2217.000000	11.566600
2216.000000	11.587700
2215.000000	11.558700
2214.000000	11.537000
2213.000000	11.519500
2212.000000	11.495000
2211.000000	11.464600
2210.000000	11.475200
2209.000000	11.473300
2208.000000	11.431900
2207.000000	11.435900
2206.000000	11.438500
2205.000000	11.429000
2204.000000	11.422000
2203.000000	11.416700
2202.000000	11.387200
2201.000000	11.387000
2200.000000	11.362700
2199.000000	11.365400
2198.000000	11.364900
2197.000000	11.336700
2196.000000	11.307700
2195.000000	11.297300
2194.000000	11.274200
2193.000000	11.273400
2192.000000	11.264000
2191.000000	11.216600
2190.000000	11.217400
2189.000000	11.202200
2188.000000	11.188500
2187.000000	11.169200
2186.000000	11.147200
2185.000000	11.109800
2184.000000	11.116400
2183.000000	11.089400
2182.000000	11.057200
2181.000000	11.043300
2180.000000	11.046500
2179.000000	11.034000
2178.000000	10.996600
2177.000000	10.996800
2176.000000	10.990500
2175.000000	10.973300
2174.000000	10.973300
2173.000000	10.974200
2172.000000	10.969900
2171.000000	10.963900
2170.000000	10.957300
2169.000000	10.967900
2168.000000	10.966500
2167.000000	10.967700
2166.000000	10.973400
2165.000000	10.994400
2164.000000	10.998900
2163.000000	11.002600
2162.000000	11.004800
2161.000000	11.037200
2160.000000	11.052100
2159.000000	11.063600
2158.000000	11.081900
2157.000000	11.118800
2156.000000	11.132800
2155.000000	11.160200
2154.000000	11.187700
2153.000000	11.214300
2152.000000	11.237400
2151.000000	11.264800
2150.000000	11.294400
2149.000000	11.305200
2148.000000	11.338400
2147.000000	11.372100
2146.000000	11.394500
2145.000000	11.415800
2144.000000	11.430500
2143.000000	11.444300
2142.000000	11.460200
2141.000000	11.485500
2140.000000	11.495000
2139.000000	11.513900
2138.000000	11.533500
2137.000000	11.558100
2136.000000	11.576700
2135.000000	11.579600
2134.000000	11.592100
2133.000000	11.608200
2132.000000	11.615500
2131.000000	11.617100
2130.000000	11.623500
2129.000000	11.621000
2128.000000	11.624600
2127.000000	11.618100
2126.000000	11.608300
2125.000000	11.606400
2124.000000	11.597700
2123.000000	11.584700
2122.000000	11.569800
2121.000000	11.552600
2120.000000	11.546000
2119.000000	11.534200
2118.000000	11.518100
2117.000000	11.504800
2116.000000	11.485900
2115.000000	11.473300
2114.000000	11.443900
2113.000000	11.428000
2112.000000	11.410100
2111.000000	11.401600
2110.000000	11.386600
2109.000000	11.365000
2108.000000	11.341700
2107.000000	11.306400
2106.000000	11.297700
2105.000000	11.295600
2104.000000	11.274200
2103.000000	11.258100
2102.000000	11.250100
2101.000000	11.245600
2100.000000	11.217800
2099.000000	11.186000
2098.000000	11.186300
2097.000000	11.168000
2096.000000	11.148700
2095.000000	11.145900
2094.000000	11.131400
2093.000000	11.133800
2092.000000	11.138400
2091.000000	11.128200
2090.000000	11.131700
2089.000000	11.130000
2088.000000	11.121400
2087.000000	11.130100
2086.000000	11.138000
2085.000000	11.125200
2084.000000	11.110200
2083.000000	11.111000
2082.000000	11.100600
2081.000000	11.091500
2080.000000	11.094900
2079.000000	11.079200
2078.000000	11.069300
2077.000000	11.074400
2076.000000	11.067400
2075.000000	11.037400
2074.000000	11.026000
2073.000000	11.031800
2072.000000	11.011700
2071.000000	10.989600
2070.000000	10.987100
2069.000000	10.977700
2068.000000	10.957700
2067.000000	10.951100
2066.000000	10.936500
2065.000000	10.924800
2064.000000	10.928600
2063.000000	10.927300
2062.000000	10.928200
2061.000000	10.930900
2060.000000	10.935100
2059.000000	10.932900
2058.000000	10.944400
2057.000000	10.957400
2056.000000	10.988700
2055.000000	11.032600
2054.000000	11.076500
2053.000000	11.129300
2052.000000	11.194100
2051.000000	11.259900
2050.000000	11.326800
2049.000000	11.405200
2048.000000	11.484300
2047.000000	11.571900
2046.000000	11.661200
2045.000000	11.763200
2044.000000	11.872200
2043.000000	11.979900
2042.000000	12.090400
2041.000000	12.195800
2040.000000	12.303200
2039.000000	12.411200
2038.000000	12.505100
2037.000000	12.591600
2036.000000	12.689500
2035.000000	12.796800
2034.000000	12.877000
2033.000000	12.963100
2032.000000	13.053400
2031.000000	13.141800
2030.000000	13.210300
2029.000000	13.273500
2028.000000	13.336600
2027.000000	13.419200
2026.000000	13.488700
2025.000000	13.532800
2024.000000	13.586300
2023.000000	13.655100
2022.000000	13.715900
2021.000000	13.775400
2020.000000	13.836400
2019.000000	13.885500
2018.000000	13.918000
2017.000000	13.956400
2016.000000	13.994900
2015.000000	14.040400
2014.000000	14.066500
2013.000000	14.099700
2012.000000	14.124500
2011.000000	14.144400
2010.000000	14.144600
2009.000000	14.157000
2008.000000	14.178600
2007.000000	14.176400
2006.000000	14.173500
2005.000000	14.172000
2004.000000	14.168300
2003.000000	14.146600
2002.000000	14.146800
2001.000000	14.114800
2000.000000	14.089100
1999.000000	14.060700
1998.000000	14.063900
1997.000000	14.015500
1996.000000	13.967800
1995.000000	13.947500
1994.000000	13.893400
1993.000000	13.828900
1992.000000	13.825800
1991.000000	13.771600
1990.000000	13.686700
1989.000000	13.645100
1988.000000	13.580800
1987.000000	13.517700
1986.000000	13.458400
1985.000000	13.406500
1984.000000	13.339300
1983.000000	13.280600
1982.000000	13.222400
1981.000000	13.156800
1980.000000	13.083400
1979.000000	13.035900
1978.000000	12.965000
1977.000000	12.922500
1976.000000	12.860600
1975.000000	12.773100
1974.000000	12.702100
1973.000000	12.647800
1972.000000	12.579200
1971.000000	12.518800
1970.000000	12.454700
1969.000000	12.397900
1968.000000	12.358000
1967.000000	12.297800
1966.000000	12.230500
1965.000000	12.183300
1964.000000	12.112300
1963.000000	12.076900
1962.000000	12.020400
1961.000000	11.949800
1960.000000	11.913000
1959.000000	11.830400
1958.000000	11.800200
1957.000000	11.749900
1956.000000	11.680500
1955.000000	11.618700
1954.000000	11.556900
1953.000000	11.501800
1952.000000	11.470400
1951.000000	11.406500
1950.000000	11.338800
1949.000000	11.316000
1948.000000	11.259800
1947.000000	11.219000
1946.000000	11.197900
1945.000000	11.160500
1944.000000	11.122100
1943.000000	11.092800
1942.000000	11.062300
1941.000000	11.039200
1940.000000	11.046300
1939.000000	11.028500
1938.000000	11.054200
1937.000000	11.067600
1936.000000	11.071200
1935.000000	11.095100
1934.000000	11.096500
1933.000000	11.121200
1932.000000	11.150200
1931.000000	11.202500
1930.000000	11.255300
1929.000000	11.299900
1928.000000	11.399700
1927.000000	11.493300
1926.000000	11.612100
1925.000000	11.718900
1924.000000	11.783400
1923.000000	11.842600
1922.000000	11.946700
1921.000000	12.127000
1920.000000	12.334600
1919.000000	12.475000
1918.000000	12.630300
1917.000000	12.736100
1916.000000	12.823000
1915.000000	12.950700
1914.000000	13.126900
1913.000000	13.428800
1912.000000	13.690900
1911.000000	13.909000
1910.000000	14.074000
1909.000000	14.167600
1908.000000	14.258100
1907.000000	14.454900
1906.000000	14.729700
1905.000000	15.077000
1904.000000	15.414300
1903.000000	15.636300
1902.000000	15.832700
1901.000000	16.005400
1900.000000	16.333000
1899.000000	16.754900
1898.000000	17.092800
1897.000000	17.409600
1896.000000	17.625900
1895.000000	17.752300
1894.000000	17.923200
1893.000000	18.164600
1892.000000	18.482200
1891.000000	18.875500
1890.000000	19.225800
1889.000000	19.521900
1888.000000	19.789700
1887.000000	20.017400
1886.000000	20.328600
1885.000000	20.689400
1884.000000	21.124000
1883.000000	21.608700
1882.000000	22.044000
1881.000000	22.449500
1880.000000	22.770700
1879.000000	23.073900
1878.000000	23.392500
1877.000000	23.691500
1876.000000	23.973000
1875.000000	24.254400
1874.000000	24.502400
1873.000000	24.816600
1872.000000	25.129800
1871.000000	25.419300
1870.000000	25.781900
1869.000000	26.067000
1868.000000	26.286200
1867.000000	26.412500
1866.000000	26.425800
1865.000000	26.422800
1864.000000	26.379400
1863.000000	26.288700
1862.000000	26.240700
1861.000000	26.251400
1860.000000	26.309600
1859.000000	26.396400
1858.000000	26.484100
1857.000000	26.501000
1856.000000	26.402000
1855.000000	26.332100
1854.000000	26.362700
1853.000000	26.363000
1852.000000	26.310200
1851.000000	26.179100
1850.000000	25.949100
1849.000000	25.805800
1848.000000	25.915900
1847.000000	26.171700
1846.000000	26.249500
1845.000000	26.088800
1844.000000	25.794200
1843.000000	25.552200
1842.000000	25.551900
1841.000000	25.679300
1840.000000	25.715000
1839.000000	25.666900
1838.000000	25.563700
1837.000000	25.547200
1836.000000	25.616400
1835.000000	25.654500
1834.000000	25.575500
1833.000000	25.369100
1832.000000	25.188500
1831.000000	25.110500
1830.000000	25.124000
1829.000000	25.083000
1828.000000	25.001300
1827.000000	24.947500
1826.000000	24.942400
1825.000000	24.904600
1824.000000	24.789700
1823.000000	24.607500
1822.000000	24.498700
1821.000000	24.582300
1820.000000	24.719200
1819.000000	24.735700
1818.000000	24.654600
1817.000000	24.550100
1816.000000	24.529600
1815.000000	24.563400
1814.000000	24.573900
1813.000000	24.538000
1812.000000	24.496100
1811.000000	24.513400
1810.000000	24.505300
1809.000000	24.443300
1808.000000	24.368900
1807.000000	24.323400
1806.000000	24.315100
1805.000000	24.285600
1804.000000	24.215900
1803.000000	24.142600
1802.000000	24.115100
1801.000000	24.105200
1800.000000	24.060600
1799.000000	24.006900
1798.000000	23.959000
1797.000000	23.912200
1796.000000	23.861100
1795.000000	23.812400
1794.000000	23.791100
1793.000000	23.741200
1792.000000	23.698400
1791.000000	23.657900
1790.000000	23.610900
1789.000000	23.548300
1788.000000	23.461200
1787.000000	23.398400
1786.000000	23.338900
1785.000000	23.296900
1784.000000	23.225000
1783.000000	23.142500
1782.000000	23.056400
1781.000000	22.970300
1780.000000	22.893300
1779.000000	22.841900
1778.000000	22.761400
1777.000000	22.677900
1776.000000	22.567500
1775.000000	22.448400
1774.000000	22.352100
1773.000000	22.243400
1772.000000	22.131400
1771.000000	21.983900
1770.000000	21.836400
1769.000000	21.720500
1768.000000	21.620200
1767.000000	21.541200
1766.000000	21.460400
1765.000000	21.354200
1764.000000	21.316800
1763.000000	21.300000
1762.000000	21.291300
1761.000000	21.326500
1760.000000	21.376800
1759.000000	21.428400
1758.000000	21.495700
1757.000000	21.555500
1756.000000	21.593500
1755.000000	21.628000
1754.000000	21.659300
1753.000000	21.651200
1752.000000	21.625400
1751.000000	21.584600
1750.000000	21.545400
1749.000000	21.490500
1748.000000	21.415500
1747.000000	21.326600
1746.000000	21.239300
1745.000000	21.117800
1744.000000	20.968000
1743.000000	20.785400
1742.000000	20.595000
1741.000000	20.367300
1740.000000	20.133800
1739.000000	19.912400
1738.000000	19.706700
1737.000000	19.522500
1736.000000	19.379200
1735.000000	19.286000
1734.000000	19.215500
1733.000000	19.229900
1732.000000	19.264200
1731.000000	19.339000
1730.000000	19.434400
1729.000000	19.552700
1728.000000	19.665900
1727.000000	19.748500
1726.000000	19.841400
1725.000000	19.922200
1724.000000	19.962700
1723.000000	19.995900
1722.000000	20.022500
1721.000000	20.034100
1720.000000	20.018500
1719.000000	20.026000
1718.000000	20.070700
1717.000000	20.120900
1716.000000	20.155100
1715.000000	20.206300
1714.000000	20.286900
1713.000000	20.347800
1712.000000	20.389700
1711.000000	20.420900
1710.000000	20.439700
1709.000000	20.466400
1708.000000	20.491900
1707.000000	20.434900
1706.000000	20.415900
1705.000000	20.387600
1704.000000	20.334500
1703.000000	20.262500
1702.000000	20.189900
1701.000000	20.073400
1700.000000	19.921400
1699.000000	19.817400
1698.000000	19.662900
1697.000000	19.549700
1696.000000	19.472300
1695.000000	19.441100
1694.000000	19.505500
1693.000000	19.611300
1692.000000	19.749900
1691.000000	19.934700
1690.000000	20.082500
1689.000000	20.205800
1688.000000	20.272600
1687.000000	20.281100
1686.000000	20.262400
1685.000000	20.265300
1684.000000	20.342000
1683.000000	20.505600
1682.000000	20.784100
1681.000000	21.203300
1680.000000	21.703600
1679.000000	22.282900
1678.000000	22.774400
1677.000000	23.278800
1676.000000	23.743400
1675.000000	24.116300
1674.000000	24.444400
1673.000000	24.748600
1672.000000	24.972300
1671.000000	25.195200
1670.000000	25.350800
1669.000000	25.512800
1668.000000	25.665700
1667.000000	25.835100
1666.000000	25.948700
1665.000000	26.064800
1664.000000	26.172800
1663.000000	26.259200
1662.000000	26.359000
1661.000000	26.390300
1660.000000	26.446500
1659.000000	26.469000
1658.000000	26.511600
1657.000000	26.554300
1656.000000	26.566600
1655.000000	26.577600
1654.000000	26.596000
1653.000000	26.581900
1652.000000	26.545000
1651.000000	26.534500
1650.000000	26.507200
1649.000000	26.507500
1648.000000	26.468900
1647.000000	26.410500
1646.000000	26.371800
1645.000000	26.324100
1644.000000	26.296100
1643.000000	26.248400
1642.000000	26.199700
1641.000000	26.140700
1640.000000	26.086900
1639.000000	26.031200
1638.000000	25.962500
1637.000000	25.908200
1636.000000	25.845900
1635.000000	25.763900
1634.000000	25.694900
1633.000000	25.623400
1632.000000	25.561000
1631.000000	25.495600
1630.000000	25.414300
1629.000000	25.348700
1628.000000	25.275700
1627.000000	25.206900
1626.000000	25.133700
1625.000000	25.057600
1624.000000	24.980900
1623.000000	24.921800
1622.000000	24.846000
1621.000000	24.773200
1620.000000	24.702600
1619.000000	24.608900
1618.000000	24.537900
1617.000000	24.468600
1616.000000	24.395300
1615.000000	24.340500
1614.000000	24.278500
1613.000000	24.195800
