PE UV       SUBTECH     SPECTRUM    ASCII       PEDS        4.00        
   -1
CICIMAUCR0014-4.Sample.ASC
24/04/23
10:33:05.00
24/04/23
10:33:05.00
Vinicio Soto Monge
C. cupreomarginata
250,000000
1
Lambda 1050
1050L1511233
PerkinElmer UV WinLab 6.3.2.0749 / 2.02.05 Lambda 900 UV/VIS/NIR, Aug  7 2015 09:38:08

0
0
3350/servo 860,8/2
0
0
UV/VIS
1
1
1
DoubleDePol,CommonBeamDepol,RBeamAtt,SBeamAtt,60mm sphere, WB InGaAs Detector
0
0
0
0
Program
Program
3350/servo 860,8/2
3350/0,2 860,8/0,2
3350/0,2 860,8/0,2
0
15.00
 
 
 
0
 
860,8
319,2
860,8
Front
100
on
S:100 R:100
0
0
0
0
 
0
 
 
 
0
 
 
0
0
0
0
0
 
 
 
 
0
0


0
0
#HDR
-1
-1
#GR
nm
%R
1.0
0.0
2500,000000
-1,000000
2251
8
76,501800
5,863200
#DATA
2500.000000	6.895800
2499.000000	6.855700
2498.000000	6.761400
2497.000000	6.724700
2496.000000	6.792300
2495.000000	6.731400
2494.000000	6.651400
2493.000000	6.703700
2492.000000	6.723400
2491.000000	6.756500
2490.000000	6.638700
2489.000000	6.614000
2488.000000	6.565500
2487.000000	6.666800
2486.000000	6.624800
2485.000000	6.611500
2484.000000	6.650100
2483.000000	6.587600
2482.000000	6.612800
2481.000000	6.595100
2480.000000	6.573500
2479.000000	6.623900
2478.000000	6.629900
2477.000000	6.599100
2476.000000	6.579800
2475.000000	6.606000
2474.000000	6.579500
2473.000000	6.615200
2472.000000	6.571400
2471.000000	6.598000
2470.000000	6.637300
2469.000000	6.615900
2468.000000	6.605100
2467.000000	6.653600
2466.000000	6.658300
2465.000000	6.650500
2464.000000	6.663400
2463.000000	6.712800
2462.000000	6.710600
2461.000000	6.732900
2460.000000	6.746200
2459.000000	6.778400
2458.000000	6.782800
2457.000000	6.840200
2456.000000	6.873900
2455.000000	6.917000
2454.000000	6.981900
2453.000000	6.986700
2452.000000	7.018000
2451.000000	7.074600
2450.000000	7.116000
2449.000000	7.143400
2448.000000	7.189900
2447.000000	7.215300
2446.000000	7.280100
2445.000000	7.314800
2444.000000	7.366000
2443.000000	7.422900
2442.000000	7.448400
2441.000000	7.511800
2440.000000	7.534700
2439.000000	7.564900
2438.000000	7.614800
2437.000000	7.650200
2436.000000	7.680100
2435.000000	7.725400
2434.000000	7.768300
2433.000000	7.793100
2432.000000	7.825200
2431.000000	7.853800
2430.000000	7.895200
2429.000000	7.919600
2428.000000	7.929900
2427.000000	7.989900
2426.000000	8.011400
2425.000000	8.026100
2424.000000	8.034500
2423.000000	8.035400
2422.000000	8.047700
2421.000000	8.057400
2420.000000	8.070000
2419.000000	8.079500
2418.000000	8.098900
2417.000000	8.115800
2416.000000	8.136800
2415.000000	8.143700
2414.000000	8.146000
2413.000000	8.162700
2412.000000	8.179300
2411.000000	8.201600
2410.000000	8.214300
2409.000000	8.226000
2408.000000	8.255700
2407.000000	8.268300
2406.000000	8.287800
2405.000000	8.293100
2404.000000	8.300500
2403.000000	8.326000
2402.000000	8.352500
2401.000000	8.377500
2400.000000	8.385600
2399.000000	8.404700
2398.000000	8.425300
2397.000000	8.448100
2396.000000	8.474100
2395.000000	8.499900
2394.000000	8.516500
2393.000000	8.544700
2392.000000	8.571900
2391.000000	8.577600
2390.000000	8.595600
2389.000000	8.605600
2388.000000	8.625400
2387.000000	8.640900
2386.000000	8.639200
2385.000000	8.642900
2384.000000	8.661600
2383.000000	8.664300
2382.000000	8.666100
2381.000000	8.662800
2380.000000	8.659100
2379.000000	8.667500
2378.000000	8.666300
2377.000000	8.660800
2376.000000	8.663600
2375.000000	8.653500
2374.000000	8.626900
2373.000000	8.616500
2372.000000	8.609800
2371.000000	8.598700
2370.000000	8.591800
2369.000000	8.571600
2368.000000	8.543700
2367.000000	8.504700
2366.000000	8.466300
2365.000000	8.456700
2364.000000	8.445800
2363.000000	8.398500
2362.000000	8.345700
2361.000000	8.325100
2360.000000	8.298400
2359.000000	8.251700
2358.000000	8.209700
2357.000000	8.175500
2356.000000	8.143100
2355.000000	8.123500
2354.000000	8.122300
2353.000000	8.128400
2352.000000	8.129500
2351.000000	8.130300
2350.000000	8.146900
2349.000000	8.165400
2348.000000	8.213300
2347.000000	8.248000
2346.000000	8.264700
2345.000000	8.300100
2344.000000	8.347800
2343.000000	8.387600
2342.000000	8.425000
2341.000000	8.485100
2340.000000	8.505600
2339.000000	8.512200
2338.000000	8.535800
2337.000000	8.557000
2336.000000	8.572400
2335.000000	8.571100
2334.000000	8.559800
2333.000000	8.530600
2332.000000	8.510600
2331.000000	8.503600
2330.000000	8.482500
2329.000000	8.447400
2328.000000	8.407900
2327.000000	8.376300
2326.000000	8.357700
2325.000000	8.315200
2324.000000	8.256200
2323.000000	8.201500
2322.000000	8.149500
2321.000000	8.096800
2320.000000	8.031000
2319.000000	7.971700
2318.000000	7.905300
2317.000000	7.829400
2316.000000	7.758400
2315.000000	7.702600
2314.000000	7.636000
2313.000000	7.574300
2312.000000	7.534100
2311.000000	7.473200
2310.000000	7.438400
2309.000000	7.411300
2308.000000	7.386900
2307.000000	7.362400
2306.000000	7.367100
2305.000000	7.377400
2304.000000	7.381600
2303.000000	7.437600
2302.000000	7.478000
2301.000000	7.506400
2300.000000	7.571600
2299.000000	7.640100
2298.000000	7.704300
2297.000000	7.765800
2296.000000	7.826600
2295.000000	7.892800
2294.000000	7.929800
2293.000000	7.995200
2292.000000	8.035900
2291.000000	8.059600
2290.000000	8.082700
2289.000000	8.097900
2288.000000	8.106000
2287.000000	8.098900
2286.000000	8.084700
2285.000000	8.091300
2284.000000	8.057500
2283.000000	8.048700
2282.000000	8.007400
2281.000000	7.989600
2280.000000	7.925800
2279.000000	7.908800
2278.000000	7.877600
2277.000000	7.851300
2276.000000	7.814600
2275.000000	7.774100
2274.000000	7.767700
2273.000000	7.761400
2272.000000	7.761800
2271.000000	7.786200
2270.000000	7.792400
2269.000000	7.805300
2268.000000	7.857400
2267.000000	7.883700
2266.000000	7.942500
2265.000000	8.013900
2264.000000	8.140400
2263.000000	8.224100
2262.000000	8.344900
2261.000000	8.474000
2260.000000	8.630200
2259.000000	8.808600
2258.000000	8.951500
2257.000000	9.146400
2256.000000	9.317600
2255.000000	9.499600
2254.000000	9.680400
2253.000000	9.858200
2252.000000	10.015900
2251.000000	10.211700
2250.000000	10.360000
2249.000000	10.496600
2248.000000	10.635600
2247.000000	10.787900
2246.000000	10.908400
2245.000000	11.019100
2244.000000	11.119600
2243.000000	11.249500
2242.000000	11.359500
2241.000000	11.439900
2240.000000	11.524500
2239.000000	11.618800
2238.000000	11.688500
2237.000000	11.772200
2236.000000	11.839800
2235.000000	11.900400
2234.000000	11.958400
2233.000000	11.996400
2232.000000	12.079000
2231.000000	12.102200
2230.000000	12.125100
2229.000000	12.169800
2228.000000	12.185400
2227.000000	12.215700
2226.000000	12.232600
2225.000000	12.256500
2224.000000	12.270700
2223.000000	12.264300
2222.000000	12.271800
2221.000000	12.275500
2220.000000	12.260200
2219.000000	12.244900
2218.000000	12.246400
2217.000000	12.247600
2216.000000	12.234800
2215.000000	12.233400
2214.000000	12.214400
2213.000000	12.198400
2212.000000	12.198600
2211.000000	12.181500
2210.000000	12.166700
2209.000000	12.146800
2208.000000	12.161600
2207.000000	12.143900
2206.000000	12.142500
2205.000000	12.128000
2204.000000	12.138000
2203.000000	12.128100
2202.000000	12.121500
2201.000000	12.114700
2200.000000	12.091800
2199.000000	12.102100
2198.000000	12.100200
2197.000000	12.116900
2196.000000	12.112800
2195.000000	12.100800
2194.000000	12.100700
2193.000000	12.092500
2192.000000	12.085500
2191.000000	12.089800
2190.000000	12.091100
2189.000000	12.080000
2188.000000	12.062800
2187.000000	12.065500
2186.000000	12.061700
2185.000000	12.040800
2184.000000	12.041500
2183.000000	12.026000
2182.000000	12.009300
2181.000000	11.993800
2180.000000	11.996200
2179.000000	11.992200
2178.000000	11.996900
2177.000000	11.982300
2176.000000	11.958500
2175.000000	11.963500
2174.000000	11.970000
2173.000000	11.986900
2172.000000	12.004100
2171.000000	12.003900
2170.000000	11.988100
2169.000000	11.999500
2168.000000	12.014400
2167.000000	12.029600
2166.000000	12.030500
2165.000000	12.047000
2164.000000	12.056100
2163.000000	12.064700
2162.000000	12.075400
2161.000000	12.087700
2160.000000	12.104800
2159.000000	12.121000
2158.000000	12.137800
2157.000000	12.146800
2156.000000	12.168500
2155.000000	12.200900
2154.000000	12.219500
2153.000000	12.215900
2152.000000	12.239400
2151.000000	12.264400
2150.000000	12.291100
2149.000000	12.301100
2148.000000	12.323700
2147.000000	12.341400
2146.000000	12.344700
2145.000000	12.362200
2144.000000	12.383100
2143.000000	12.400000
2142.000000	12.415900
2141.000000	12.425000
2140.000000	12.422000
2139.000000	12.445200
2138.000000	12.450900
2137.000000	12.452400
2136.000000	12.449000
2135.000000	12.458300
2134.000000	12.454100
2133.000000	12.457700
2132.000000	12.463100
2131.000000	12.461700
2130.000000	12.462300
2129.000000	12.453000
2128.000000	12.446600
2127.000000	12.442300
2126.000000	12.431400
2125.000000	12.423800
2124.000000	12.405900
2123.000000	12.390700
2122.000000	12.381700
2121.000000	12.363000
2120.000000	12.326800
2119.000000	12.311900
2118.000000	12.297000
2117.000000	12.273100
2116.000000	12.250100
2115.000000	12.221600
2114.000000	12.201500
2113.000000	12.199300
2112.000000	12.158400
2111.000000	12.121100
2110.000000	12.112100
2109.000000	12.097100
2108.000000	12.072400
2107.000000	12.050200
2106.000000	12.032000
2105.000000	12.008800
2104.000000	11.984700
2103.000000	11.975600
2102.000000	11.956000
2101.000000	11.934200
2100.000000	11.911300
2099.000000	11.873900
2098.000000	11.856600
2097.000000	11.853500
2096.000000	11.842800
2095.000000	11.806800
2094.000000	11.775200
2093.000000	11.772300
2092.000000	11.758000
2091.000000	11.745600
2090.000000	11.731700
2089.000000	11.716100
2088.000000	11.701600
2087.000000	11.674200
2086.000000	11.659700
2085.000000	11.643900
2084.000000	11.629400
2083.000000	11.612700
2082.000000	11.594900
2081.000000	11.578200
2080.000000	11.566800
2079.000000	11.545100
2078.000000	11.525200
2077.000000	11.513700
2076.000000	11.491800
2075.000000	11.468900
2074.000000	11.456200
2073.000000	11.451900
2072.000000	11.418800
2071.000000	11.403300
2070.000000	11.401500
2069.000000	11.380600
2068.000000	11.350900
2067.000000	11.333100
2066.000000	11.316700
2065.000000	11.307800
2064.000000	11.296900
2063.000000	11.285500
2062.000000	11.256800
2061.000000	11.252700
2060.000000	11.250600
2059.000000	11.252000
2058.000000	11.259700
2057.000000	11.281400
2056.000000	11.300800
2055.000000	11.300800
2054.000000	11.327300
2053.000000	11.349700
2052.000000	11.392100
2051.000000	11.421100
2050.000000	11.452000
2049.000000	11.512400
2048.000000	11.553000
2047.000000	11.616700
2046.000000	11.676500
2045.000000	11.749500
2044.000000	11.799600
2043.000000	11.867400
2042.000000	11.923900
2041.000000	11.997500
2040.000000	12.051900
2039.000000	12.109700
2038.000000	12.180500
2037.000000	12.259300
2036.000000	12.293700
2035.000000	12.339400
2034.000000	12.390500
2033.000000	12.432500
2032.000000	12.466000
2031.000000	12.528100
2030.000000	12.578600
2029.000000	12.597200
2028.000000	12.622900
2027.000000	12.665000
2026.000000	12.689400
2025.000000	12.738700
2024.000000	12.745300
2023.000000	12.765300
2022.000000	12.790100
2021.000000	12.811000
2020.000000	12.838700
2019.000000	12.854800
2018.000000	12.875900
2017.000000	12.898100
2016.000000	12.920700
2015.000000	12.924400
2014.000000	12.922600
2013.000000	12.907000
2012.000000	12.907600
2011.000000	12.899900
2010.000000	12.885500
2009.000000	12.879400
2008.000000	12.860400
2007.000000	12.847100
2006.000000	12.841000
2005.000000	12.811100
2004.000000	12.763700
2003.000000	12.741200
2002.000000	12.728200
2001.000000	12.701900
2000.000000	12.666700
1999.000000	12.631700
1998.000000	12.584800
1997.000000	12.535600
1996.000000	12.510600
1995.000000	12.452200
1994.000000	12.416400
1993.000000	12.370400
1992.000000	12.307600
1991.000000	12.268600
1990.000000	12.220000
1989.000000	12.148900
1988.000000	12.096600
1987.000000	12.033900
1986.000000	11.985300
1985.000000	11.922600
1984.000000	11.876100
1983.000000	11.816000
1982.000000	11.760700
1981.000000	11.690600
1980.000000	11.655600
1979.000000	11.596300
1978.000000	11.532100
1977.000000	11.480000
1976.000000	11.410100
1975.000000	11.338100
1974.000000	11.297600
1973.000000	11.256000
1972.000000	11.203300
1971.000000	11.138200
1970.000000	11.081600
1969.000000	11.028600
1968.000000	10.990600
1967.000000	10.950400
1966.000000	10.871200
1965.000000	10.840000
1964.000000	10.786800
1963.000000	10.754800
1962.000000	10.685300
1961.000000	10.628700
1960.000000	10.614000
1959.000000	10.577700
1958.000000	10.506100
1957.000000	10.447800
1956.000000	10.411600
1955.000000	10.377000
1954.000000	10.324300
1953.000000	10.284600
1952.000000	10.234700
1951.000000	10.221600
1950.000000	10.196500
1949.000000	10.161500
1948.000000	10.120100
1947.000000	10.097100
1946.000000	10.052600
1945.000000	10.031700
1944.000000	10.000000
1943.000000	10.005500
1942.000000	9.972800
1941.000000	9.997800
1940.000000	9.995000
1939.000000	9.981200
1938.000000	9.967100
1937.000000	9.976500
1936.000000	9.992400
1935.000000	10.013400
1934.000000	10.024100
1933.000000	10.068000
1932.000000	10.101300
1931.000000	10.143400
1930.000000	10.176500
1929.000000	10.226000
1928.000000	10.291700
1927.000000	10.334100
1926.000000	10.396900
1925.000000	10.475400
1924.000000	10.550000
1923.000000	10.644900
1922.000000	10.738200
1921.000000	10.815200
1920.000000	10.887500
1919.000000	10.959300
1918.000000	11.099800
1917.000000	11.230900
1916.000000	11.374900
1915.000000	11.502900
1914.000000	11.656700
1913.000000	11.743600
1912.000000	11.878700
1911.000000	12.044400
1910.000000	12.185400
1909.000000	12.336800
1908.000000	12.524100
1907.000000	12.721500
1906.000000	12.888100
1905.000000	13.045200
1904.000000	13.216700
1903.000000	13.418700
1902.000000	13.610700
1901.000000	13.809900
1900.000000	14.032400
1899.000000	14.225600
1898.000000	14.450800
1897.000000	14.686100
1896.000000	14.930300
1895.000000	15.188900
1894.000000	15.464400
1893.000000	15.722700
1892.000000	16.020600
1891.000000	16.312900
1890.000000	16.630500
1889.000000	16.937500
1888.000000	17.271300
1887.000000	17.658600
1886.000000	18.089600
1885.000000	18.533400
1884.000000	19.025400
1883.000000	19.535100
1882.000000	20.052700
1881.000000	20.614200
1880.000000	21.142000
1879.000000	21.672700
1878.000000	22.178300
1877.000000	22.659400
1876.000000	23.133300
1875.000000	23.586900
1874.000000	24.016900
1873.000000	24.401200
1872.000000	24.750700
1871.000000	25.054200
1870.000000	25.317300
1869.000000	25.594800
1868.000000	25.804600
1867.000000	25.969400
1866.000000	26.133500
1865.000000	26.286600
1864.000000	26.418700
1863.000000	26.558200
1862.000000	26.690600
1861.000000	26.786700
1860.000000	26.866600
1859.000000	26.909500
1858.000000	26.934200
1857.000000	26.969800
1856.000000	26.993500
1855.000000	26.981100
1854.000000	26.933700
1853.000000	26.875100
1852.000000	26.858500
1851.000000	26.858600
1850.000000	26.872200
1849.000000	26.847700
1848.000000	26.735900
1847.000000	26.609500
1846.000000	26.518700
1845.000000	26.495200
1844.000000	26.507900
1843.000000	26.518500
1842.000000	26.492100
1841.000000	26.438300
1840.000000	26.374400
1839.000000	26.334900
1838.000000	26.302600
1837.000000	26.235200
1836.000000	26.139100
1835.000000	26.049800
1834.000000	25.971000
1833.000000	25.912300
1832.000000	25.861800
1831.000000	25.781000
1830.000000	25.677400
1829.000000	25.586700
1828.000000	25.481100
1827.000000	25.389400
1826.000000	25.308000
1825.000000	25.238100
1824.000000	25.214300
1823.000000	25.215200
1822.000000	25.191600
1821.000000	25.122800
1820.000000	25.046800
1819.000000	25.003200
1818.000000	24.997100
1817.000000	25.002600
1816.000000	24.992900
1815.000000	24.969500
1814.000000	24.961700
1813.000000	24.950200
1812.000000	24.932400
1811.000000	24.879900
1810.000000	24.827900
1809.000000	24.802000
1808.000000	24.767400
1807.000000	24.703800
1806.000000	24.633500
1805.000000	24.561300
1804.000000	24.508600
1803.000000	24.459100
1802.000000	24.416300
1801.000000	24.353300
1800.000000	24.283500
1799.000000	24.211400
1798.000000	24.153000
1797.000000	24.114800
1796.000000	24.054100
1795.000000	23.988600
1794.000000	23.939000
1793.000000	23.885100
1792.000000	23.832500
1791.000000	23.773500
1790.000000	23.692100
1789.000000	23.625500
1788.000000	23.559900
1787.000000	23.483900
1786.000000	23.409100
1785.000000	23.304800
1784.000000	23.203300
1783.000000	23.119000
1782.000000	23.032600
1781.000000	22.948200
1780.000000	22.858400
1779.000000	22.753900
1778.000000	22.651200
1777.000000	22.547800
1776.000000	22.446100
1775.000000	22.318200
1774.000000	22.188300
1773.000000	22.049800
1772.000000	21.914100
1771.000000	21.785900
1770.000000	21.637700
1769.000000	21.512200
1768.000000	21.398800
1767.000000	21.287600
1766.000000	21.200100
1765.000000	21.117700
1764.000000	21.057000
1763.000000	21.055500
1762.000000	21.072500
1761.000000	21.121200
1760.000000	21.186500
1759.000000	21.256000
1758.000000	21.334200
1757.000000	21.402700
1756.000000	21.447600
1755.000000	21.491000
1754.000000	21.487800
1753.000000	21.511100
1752.000000	21.503700
1751.000000	21.472900
1750.000000	21.433700
1749.000000	21.366800
1748.000000	21.293700
1747.000000	21.214000
1746.000000	21.091300
1745.000000	20.942200
1744.000000	20.793500
1743.000000	20.612300
1742.000000	20.398500
1741.000000	20.178200
1740.000000	19.930000
1739.000000	19.710400
1738.000000	19.502400
1737.000000	19.315800
1736.000000	19.205700
1735.000000	19.104100
1734.000000	19.070400
1733.000000	19.068600
1732.000000	19.105500
1731.000000	19.199200
1730.000000	19.326300
1729.000000	19.423400
1728.000000	19.549800
1727.000000	19.673400
1726.000000	19.773100
1725.000000	19.870600
1724.000000	19.939500
1723.000000	19.985400
1722.000000	20.001100
1721.000000	20.010600
1720.000000	20.008900
1719.000000	19.990900
1718.000000	20.047500
1717.000000	20.062200
1716.000000	20.112900
1715.000000	20.152200
1714.000000	20.196600
1713.000000	20.253100
1712.000000	20.300600
1711.000000	20.313600
1710.000000	20.304600
1709.000000	20.299200
1708.000000	20.268600
1707.000000	20.218100
1706.000000	20.183700
1705.000000	20.117700
1704.000000	20.035100
1703.000000	19.957100
1702.000000	19.825100
1701.000000	19.681700
1700.000000	19.505100
1699.000000	19.362000
1698.000000	19.208200
1697.000000	19.090500
1696.000000	19.023100
1695.000000	19.032500
1694.000000	19.091400
1693.000000	19.204100
1692.000000	19.371800
1691.000000	19.542700
1690.000000	19.737300
1689.000000	19.845600
1688.000000	19.925400
1687.000000	19.948900
1686.000000	19.979500
1685.000000	20.002400
1684.000000	20.113500
1683.000000	20.323500
1682.000000	20.641800
1681.000000	21.097200
1680.000000	21.636600
1679.000000	22.229700
1678.000000	22.795400
1677.000000	23.345700
1676.000000	23.821500
1675.000000	24.260800
1674.000000	24.655500
1673.000000	24.984400
1672.000000	25.254500
1671.000000	25.495000
1670.000000	25.696900
1669.000000	25.893700
1668.000000	26.056500
1667.000000	26.228400
1666.000000	26.316900
1665.000000	26.417400
1664.000000	26.493100
1663.000000	26.571400
1662.000000	26.635400
1661.000000	26.666700
1660.000000	26.690300
1659.000000	26.745900
1658.000000	26.767300
1657.000000	26.755900
1656.000000	26.753500
1655.000000	26.741300
1654.000000	26.725400
1653.000000	26.708900
1652.000000	26.672000
1651.000000	26.647100
1650.000000	26.609000
1649.000000	26.570200
1648.000000	26.529600
1647.000000	26.466700
1646.000000	26.405500
1645.000000	26.335300
1644.000000	26.271200
1643.000000	26.214500
1642.000000	26.143700
1641.000000	26.074600
1640.000000	25.996400
1639.000000	25.914400
1638.000000	25.846800
1637.000000	25.771100
1636.000000	25.691600
1635.000000	25.608600
1634.000000	25.520300
1633.000000	25.441900
1632.000000	25.366900
1631.000000	25.283200
1630.000000	25.183800
1629.000000	25.084200
1628.000000	24.992300
1627.000000	24.896100
1626.000000	24.812000
1625.000000	24.720600
1624.000000	24.632700
1623.000000	24.553800
1622.000000	24.458200
1621.000000	24.371300
1620.000000	24.282000
1619.000000	24.205800
1618.000000	24.128600
1617.000000	24.033300
1616.000000	23.941100
1615.000000	23.869400
1614.000000	23.796000
1613.000000	23.704700
