PE UV       SUBTECH     SPECTRUM    ASCII       PEDS        4.00        
   -1
CICIMAUCR0013-4.Sample.ASC
24/04/23
10:18:00.00
24/04/23
10:18:00.00
Vinicio Soto Monge
C. resplendens
250,000000
1
Lambda 1050
1050L1511233
PerkinElmer UV WinLab 6.3.2.0749 / 2.02.05 Lambda 900 UV/VIS/NIR, Aug  7 2015 09:38:08

0
0
3350/servo 860,8/2
0
0
UV/VIS
1
1
1
DoubleDePol,CommonBeamDepol,RBeamAtt,SBeamAtt,60mm sphere, WB InGaAs Detector
0
0
0
0
Program
Program
3350/servo 860,8/2
3350/0,2 860,8/0,2
3350/0,2 860,8/0,2
0
15.00
 
 
 
0
 
860,8
319,2
860,8
Front
100
on
S:100 R:100
0
0
0
0
 
0
 
 
 
0
 
 
0
0
0
0
0
 
 
 
 
0
0


0
0
#HDR
-1
-1
#GR
nm
%R
1.0
0.0
2500,000000
-1,000000
2251
8
89,980400
5,750600
#DATA
2500.000000	8.400397
2499.000000	8.455316
2498.000000	8.517714
2497.000000	8.445159
2496.000000	8.362445
2495.000000	8.423057
2494.000000	8.265444
2493.000000	8.322930
2492.000000	8.290447
2491.000000	8.342911
2490.000000	8.372714
2489.000000	8.266113
2488.000000	8.228607
2487.000000	8.227156
2486.000000	8.245686
2485.000000	8.174470
2484.000000	8.186637
2483.000000	8.168330
2482.000000	8.219454
2481.000000	8.161856
2480.000000	8.250263
2479.000000	8.197464
2478.000000	8.208069
2477.000000	8.170228
2476.000000	8.151587
2475.000000	8.170786
2474.000000	8.155382
2473.000000	8.205501
2472.000000	8.160182
2471.000000	8.134955
2470.000000	8.142992
2469.000000	8.192888
2468.000000	8.195009
2467.000000	8.205836
2466.000000	8.209185
2465.000000	8.210413
2464.000000	8.208292
2463.000000	8.237761
2462.000000	8.265109
2461.000000	8.301163
2460.000000	8.355748
2459.000000	8.386109
2458.000000	8.394258
2457.000000	8.450740
2456.000000	8.487129
2455.000000	8.523854
2454.000000	8.588038
2453.000000	8.639496
2452.000000	8.705132
2451.000000	8.737391
2450.000000	8.803138
2449.000000	8.860624
2448.000000	8.919339
2447.000000	8.976379
2446.000000	9.054962
2445.000000	9.110774
2444.000000	9.166363
2443.000000	9.231328
2442.000000	9.279550
2441.000000	9.354004
2440.000000	9.388272
2439.000000	9.459600
2438.000000	9.495878
2437.000000	9.573903
2436.000000	9.593549
2435.000000	9.644003
2434.000000	9.678160
2433.000000	9.718680
2432.000000	9.759200
2431.000000	9.806752
2430.000000	9.828630
2429.000000	9.855643
2428.000000	9.891809
2427.000000	9.924627
2426.000000	9.968495
2425.000000	9.978988
2424.000000	10.029107
2423.000000	10.134257
2422.000000	10.220096
2421.000000	10.281825
2420.000000	10.326809
2419.000000	10.367887
2418.000000	10.372910
2417.000000	10.401932
2416.000000	10.422806
2415.000000	10.459307
2414.000000	10.488218
2413.000000	10.541128
2412.000000	10.549723
2411.000000	10.593703
2410.000000	10.633776
2409.000000	10.667933
2408.000000	10.687691
2407.000000	10.709011
2406.000000	10.751763
2405.000000	10.779222
2404.000000	10.812710
2403.000000	10.825100
2402.000000	10.855015
2401.000000	10.897767
2400.000000	10.920539
2399.000000	10.956370
2398.000000	10.987513
2397.000000	10.997448
2396.000000	11.026470
2395.000000	11.063083
2394.000000	11.094896
2393.000000	11.150373
2392.000000	11.160196
2391.000000	11.160196
2390.000000	11.201051
2389.000000	11.228399
2388.000000	11.225608
2387.000000	11.253514
2386.000000	11.274053
2385.000000	11.278741
2384.000000	11.284546
2383.000000	11.290127
2382.000000	11.290685
2381.000000	11.264565
2380.000000	11.263449
2379.000000	11.263449
2378.000000	11.239561
2377.000000	11.225943
2376.000000	11.211432
2375.000000	11.191674
2374.000000	11.166894
2373.000000	11.138764
2372.000000	11.127267
2371.000000	11.105165
2370.000000	11.068329
2369.000000	11.023233
2368.000000	10.985281
2367.000000	10.950342
2366.000000	10.885489
2365.000000	10.837602
2364.000000	10.799650
2363.000000	10.724973
2362.000000	10.648287
2361.000000	10.599731
2360.000000	10.548272
2359.000000	10.484869
2358.000000	10.411309
2357.000000	10.374138
2356.000000	10.346232
2355.000000	10.310624
2354.000000	10.284838
2353.000000	10.270885
2352.000000	10.290420
2351.000000	10.294661
2350.000000	10.318661
2349.000000	10.349022
2348.000000	10.382510
2347.000000	10.435978
2346.000000	10.477837
2345.000000	10.541463
2344.000000	10.579303
2343.000000	10.622837
2342.000000	10.669496
2341.000000	10.698518
2340.000000	10.729550
2339.000000	10.748749
2338.000000	10.773083
2337.000000	10.790385
2336.000000	10.761809
2335.000000	10.762702
2334.000000	10.748972
2333.000000	10.715150
2332.000000	10.690816
2331.000000	10.621721
2330.000000	10.573945
2329.000000	10.528961
2328.000000	10.459754
2327.000000	10.387421
2326.000000	10.315647
2325.000000	10.253919
2324.000000	10.179242
2323.000000	10.089608
2322.000000	10.002541
2321.000000	9.907883
2320.000000	9.807087
2319.000000	9.710643
2318.000000	9.604488
2317.000000	9.502687
2316.000000	9.401890
2315.000000	9.304889
2314.000000	9.202641
2313.000000	9.144485
2312.000000	9.053734
2311.000000	8.978946
2310.000000	8.921794
2309.000000	8.876252
2308.000000	8.848346
2307.000000	8.837518
2306.000000	8.837071
2305.000000	8.843211
2304.000000	8.889088
2303.000000	8.929720
2302.000000	9.007633
2301.000000	9.076952
2300.000000	9.146271
2299.000000	9.216371
2298.000000	9.303996
2297.000000	9.376217
2296.000000	9.478241
2295.000000	9.541979
2294.000000	9.618107
2293.000000	9.645343
2292.000000	9.715443
2291.000000	9.734084
2290.000000	9.750381
2289.000000	9.766679
2288.000000	9.756521
2287.000000	9.747702
2286.000000	9.727052
2285.000000	9.714773
2284.000000	9.682849
2283.000000	9.643669
2282.000000	9.580712
2281.000000	9.541867
2280.000000	9.499227
2279.000000	9.448661
2278.000000	9.402002
2277.000000	9.368961
2276.000000	9.348757
2275.000000	9.328888
2274.000000	9.312033
2273.000000	9.293503
2272.000000	9.267830
2271.000000	9.303884
2270.000000	9.329893
2269.000000	9.362040
2268.000000	9.426113
2267.000000	9.500678
2266.000000	9.585959
2265.000000	9.697471
2264.000000	9.833876
2263.000000	9.973183
2262.000000	10.121532
2261.000000	10.316763
2260.000000	10.528179
2259.000000	10.725085
2258.000000	10.935162
2257.000000	11.159415
2256.000000	11.410346
2255.000000	11.661166
2254.000000	11.828826
2253.000000	12.052521
2252.000000	12.272197
2251.000000	12.491651
2250.000000	12.700835
2249.000000	12.873964
2248.000000	13.038386
2247.000000	13.211404
2246.000000	13.380403
2245.000000	13.542928
2244.000000	13.661361
2243.000000	13.780688
2242.000000	13.897558
2241.000000	14.032624
2240.000000	14.126835
2239.000000	14.237901
2238.000000	14.329879
2237.000000	14.423309
2236.000000	14.494079
2235.000000	14.576569
2234.000000	14.651357
2233.000000	14.719448
2232.000000	14.774925
2231.000000	14.832189
2230.000000	14.882308
2229.000000	14.907200
2228.000000	14.940353
2227.000000	14.981319
2226.000000	14.992369
2225.000000	15.014918
2224.000000	15.027643
2223.000000	15.043159
2222.000000	15.058451
2221.000000	15.019829
2220.000000	15.031661
2219.000000	15.035010
2218.000000	15.031773
2217.000000	15.000965
2216.000000	14.988574
2215.000000	15.012015
2214.000000	14.979198
2213.000000	14.969040
2212.000000	14.975403
2211.000000	14.969263
2210.000000	14.942139
2209.000000	14.911219
2208.000000	14.939571
2207.000000	14.903740
2206.000000	14.928855
2205.000000	14.903405
2204.000000	14.887331
2203.000000	14.896149
2202.000000	14.891908
2201.000000	14.874271
2200.000000	14.876503
2199.000000	14.888671
2198.000000	14.889005
2197.000000	14.880857
2196.000000	14.879182
2195.000000	14.888001
2194.000000	14.867350
2193.000000	14.868690
2192.000000	14.865899
2191.000000	14.876280
2190.000000	14.854960
2189.000000	14.846142
2188.000000	14.843686
2187.000000	14.838774
2186.000000	14.821138
2185.000000	14.818905
2184.000000	14.810980
2183.000000	14.794236
2182.000000	14.788209
2181.000000	14.785865
2180.000000	14.783409
2179.000000	14.773251
2178.000000	14.780953
2177.000000	14.775707
2176.000000	14.760079
2175.000000	14.760526
2174.000000	14.770349
2173.000000	14.765995
2172.000000	14.779502
2171.000000	14.789548
2170.000000	14.801157
2169.000000	14.818347
2168.000000	14.844467
2167.000000	14.859871
2166.000000	14.869583
2165.000000	14.879182
2164.000000	14.888671
2163.000000	14.903405
2162.000000	14.923944
2161.000000	14.957096
2160.000000	14.979309
2159.000000	14.987570
2158.000000	14.993597
2157.000000	15.046172
2156.000000	15.089148
2155.000000	15.103212
2154.000000	15.123640
2153.000000	15.160587
2152.000000	15.193851
2151.000000	15.208697
2150.000000	15.234148
2149.000000	15.254352
2148.000000	15.279132
2147.000000	15.304694
2146.000000	15.344209
2145.000000	15.351576
2144.000000	15.380934
2143.000000	15.390757
2142.000000	15.408951
2141.000000	15.423239
2140.000000	15.442550
2139.000000	15.456838
2138.000000	15.480837
2137.000000	15.469675
2136.000000	15.483628
2135.000000	15.498809
2134.000000	15.506734
2133.000000	15.511981
2132.000000	15.517004
2131.000000	15.510306
2130.000000	15.504837
2129.000000	15.496911
2128.000000	15.493451
2127.000000	15.469563
2126.000000	15.469228
2125.000000	15.458512
2124.000000	15.429713
2123.000000	15.422011
2122.000000	15.399575
2121.000000	15.371557
2120.000000	15.357604
2119.000000	15.348228
2118.000000	15.320433
2117.000000	15.278239
2116.000000	15.238166
2115.000000	15.207693
2114.000000	15.192847
2113.000000	15.162262
2112.000000	15.142058
2111.000000	15.136588
2110.000000	15.093836
2109.000000	15.036908
2108.000000	15.004202
2107.000000	14.984444
2106.000000	14.958324
2105.000000	14.926734
2104.000000	14.908540
2103.000000	14.868578
2102.000000	14.823928
2101.000000	14.802162
2100.000000	14.781958
2099.000000	14.755279
2098.000000	14.732173
2097.000000	14.703151
2096.000000	14.666092
2095.000000	14.647227
2094.000000	14.633386
2093.000000	14.613628
2092.000000	14.579583
2091.000000	14.557705
2090.000000	14.544979
2089.000000	14.513613
2088.000000	14.495530
2087.000000	14.491735
2086.000000	14.487158
2085.000000	14.460145
2084.000000	14.432462
2083.000000	14.426769
2082.000000	14.408016
2081.000000	14.380110
2080.000000	14.354660
2079.000000	14.352874
2078.000000	14.341265
2077.000000	14.320168
2076.000000	14.294718
2075.000000	14.268263
2074.000000	14.245826
2073.000000	14.252747
2072.000000	14.239017
2071.000000	14.218255
2070.000000	14.197158
2069.000000	14.184656
2068.000000	14.163336
2067.000000	14.158201
2066.000000	14.168694
2065.000000	14.158424
2064.000000	14.131076
2063.000000	14.128956
2062.000000	14.120807
2061.000000	14.134760
2060.000000	14.154852
2059.000000	14.156192
2058.000000	14.166908
2057.000000	14.209772
2056.000000	14.241026
2055.000000	14.276076
2054.000000	14.317266
2053.000000	14.379887
2052.000000	14.436257
2051.000000	14.520422
2050.000000	14.592308
2049.000000	14.689421
2048.000000	14.787762
2047.000000	14.890568
2046.000000	14.992369
2045.000000	15.110691
2044.000000	15.208139
2043.000000	15.331484
2042.000000	15.430606
2041.000000	15.547812
2040.000000	15.669259
2039.000000	15.777758
2038.000000	15.886703
2037.000000	16.008709
2036.000000	16.099906
2035.000000	16.182619
2034.000000	16.288662
2033.000000	16.374278
2032.000000	16.466257
2031.000000	16.544952
2030.000000	16.615945
2029.000000	16.712388
2028.000000	16.774674
2027.000000	16.834282
2026.000000	16.917554
2025.000000	17.002500
2024.000000	17.039782
2023.000000	17.095371
2022.000000	17.151853
2021.000000	17.196279
2020.000000	17.260687
2019.000000	17.320629
2018.000000	17.347530
2017.000000	17.389389
2016.000000	17.438504
2015.000000	17.477796
2014.000000	17.500567
2013.000000	17.554035
2012.000000	17.551579
2011.000000	17.580267
2010.000000	17.600583
2009.000000	17.615317
2008.000000	17.621456
2007.000000	17.624470
2006.000000	17.619001
2005.000000	17.630051
2004.000000	17.604266
2003.000000	17.582053
2002.000000	17.572676
2001.000000	17.554928
2000.000000	17.543877
1999.000000	17.500902
1998.000000	17.472773
1997.000000	17.454913
1996.000000	17.426449
1995.000000	17.369409
1994.000000	17.341056
1993.000000	17.295402
1992.000000	17.248073
1991.000000	17.175182
1990.000000	17.126514
1989.000000	17.073939
1988.000000	17.004732
1987.000000	16.956957
1986.000000	16.900140
1985.000000	16.837854
1984.000000	16.770433
1983.000000	16.716518
1982.000000	16.644744
1981.000000	16.589267
1980.000000	16.511130
1979.000000	16.465587
1978.000000	16.402184
1977.000000	16.321480
1976.000000	16.244347
1975.000000	16.197689
1974.000000	16.137523
1973.000000	16.069432
1972.000000	16.015741
1971.000000	15.956915
1970.000000	15.900321
1969.000000	15.855114
1968.000000	15.792269
1967.000000	15.703751
1966.000000	15.677631
1965.000000	15.620368
1964.000000	15.578955
1963.000000	15.497246
1962.000000	15.458736
1961.000000	15.424802
1960.000000	15.359837
1959.000000	15.308378
1958.000000	15.247989
1957.000000	15.209479
1956.000000	15.159471
1955.000000	15.096403
1954.000000	15.042600
1953.000000	14.994714
1952.000000	14.960557
1951.000000	14.889340
1950.000000	14.875499
1949.000000	14.832412
1948.000000	14.799036
1947.000000	14.752489
1946.000000	14.709960
1945.000000	14.687747
1944.000000	14.673571
1943.000000	14.671338
1942.000000	14.688975
1941.000000	14.696900
1940.000000	14.689756
1939.000000	14.683059
1938.000000	14.685626
1937.000000	14.693551
1936.000000	14.706835
1935.000000	14.755949
1934.000000	14.815557
1933.000000	14.869918
1932.000000	14.940353
1931.000000	14.994267
1930.000000	15.062023
1929.000000	15.141834
1928.000000	15.240734
1927.000000	15.322331
1926.000000	15.407835
1925.000000	15.526045
1924.000000	15.666245
1923.000000	15.796511
1922.000000	15.925214
1921.000000	16.073562
1920.000000	16.222246
1919.000000	16.349609
1918.000000	16.504097
1917.000000	16.680798
1916.000000	16.859844
1915.000000	17.078627
1914.000000	17.274640
1913.000000	17.440178
1912.000000	17.636749
1911.000000	17.807869
1910.000000	18.005221
1909.000000	18.244655
1908.000000	18.445913
1907.000000	18.719281
1906.000000	18.961841
1905.000000	19.190447
1904.000000	19.421621
1903.000000	19.653242
1902.000000	19.890332
1901.000000	20.153430
1900.000000	20.409384
1899.000000	20.640447
1898.000000	20.888588
1897.000000	21.144989
1896.000000	21.400831
1895.000000	21.683576
1894.000000	21.955492
1893.000000	22.237009
1892.000000	22.525223
1891.000000	22.818237
1890.000000	23.083344
1889.000000	23.383614
1888.000000	23.721054
1887.000000	24.087070
1886.000000	24.465588
1885.000000	24.894672
1884.000000	25.387939
1883.000000	25.876630
1882.000000	26.383739
1881.000000	26.902123
1880.000000	27.426087
1879.000000	27.932638
1878.000000	28.418427
1877.000000	28.879435
1876.000000	29.296798
1875.000000	29.694404
1874.000000	30.052383
1873.000000	30.366048
1872.000000	30.663080
1871.000000	30.896709
1870.000000	31.075755
1869.000000	31.237052
1868.000000	31.361513
1867.000000	31.465993
1866.000000	31.563553
1865.000000	31.639234
1864.000000	31.714022
1863.000000	31.816717
1862.000000	31.899988
1861.000000	31.953233
1860.000000	31.966405
1859.000000	31.949103
1858.000000	31.927895
1857.000000	31.912267
1856.000000	31.882129
1855.000000	31.836139
1854.000000	31.772067
1853.000000	31.663791
1852.000000	31.594808
1851.000000	31.574046
1850.000000	31.575273
1849.000000	31.517340
1848.000000	31.375019
1847.000000	31.210150
1846.000000	31.101652
1845.000000	31.060797
1844.000000	31.068164
1843.000000	31.082341
1842.000000	31.042937
1841.000000	30.963349
1840.000000	30.896709
1839.000000	30.855408
1838.000000	30.821698
1837.000000	30.732622
1836.000000	30.603472
1835.000000	30.485709
1834.000000	30.405228
1833.000000	30.347853
1832.000000	30.274292
1831.000000	30.191802
1830.000000	30.088215
1829.000000	29.983288
1828.000000	29.871775
1827.000000	29.755463
1826.000000	29.659577
1825.000000	29.601310
1824.000000	29.578761
1823.000000	29.604770
1822.000000	29.598519
1821.000000	29.529423
1820.000000	29.438338
1819.000000	29.384200
1818.000000	29.389670
1817.000000	29.409874
1816.000000	29.417353
1815.000000	29.407641
1814.000000	29.402283
1813.000000	29.387549
1812.000000	29.357299
1811.000000	29.305952
1810.000000	29.261079
1809.000000	29.238977
1808.000000	29.207946
1807.000000	29.163184
1806.000000	29.091521
1805.000000	29.034705
1804.000000	28.997199
1803.000000	28.950205
1802.000000	28.901983
1801.000000	28.823958
1800.000000	28.750956
1799.000000	28.688446
1798.000000	28.644131
1797.000000	28.597919
1796.000000	28.548246
1795.000000	28.506833
1794.000000	28.426241
1793.000000	28.342857
1792.000000	28.294301
1791.000000	28.222973
1790.000000	28.141152
1789.000000	28.072057
1788.000000	27.998496
1787.000000	27.905848
1786.000000	27.810409
1785.000000	27.706711
1784.000000	27.611607
1783.000000	27.506791
1782.000000	27.418273
1781.000000	27.324955
1780.000000	27.198039
1779.000000	27.069224
1778.000000	26.963516
1777.000000	26.833027
1776.000000	26.700864
1775.000000	26.550171
1774.000000	26.397358
1773.000000	26.219763
1772.000000	26.061034
1771.000000	25.886342
1770.000000	25.732077
1769.000000	25.580603
1768.000000	25.434487
1767.000000	25.282789
1766.000000	25.180541
1765.000000	25.103074
1764.000000	25.045811
1763.000000	25.044360
1762.000000	25.049941
1761.000000	25.105418
1760.000000	25.181323
1759.000000	25.262808
1758.000000	25.361931
1757.000000	25.407139
1756.000000	25.446654
1755.000000	25.496438
1754.000000	25.495545
1753.000000	25.468867
1752.000000	25.450560
1751.000000	25.398544
1750.000000	25.311253
1749.000000	25.237805
1748.000000	25.125176
1747.000000	24.999375
1746.000000	24.843213
1745.000000	24.684371
1744.000000	24.468267
1743.000000	24.213875
1742.000000	23.937493
1741.000000	23.660330
1740.000000	23.367875
1739.000000	23.117836
1738.000000	22.855184
1737.000000	22.657832
1736.000000	22.492740
1735.000000	22.413152
1734.000000	22.384576
1733.000000	22.407794
1732.000000	22.474322
1731.000000	22.588179
1730.000000	22.742220
1729.000000	22.904410
1728.000000	23.012240
1727.000000	23.163379
1726.000000	23.296323
1725.000000	23.365977
1724.000000	23.426589
1723.000000	23.446123
1722.000000	23.458290
1721.000000	23.471908
1720.000000	23.455053
1719.000000	23.465211
1718.000000	23.496577
1717.000000	23.499480
1716.000000	23.559868
1715.000000	23.621931
1714.000000	23.656535
1713.000000	23.716366
1712.000000	23.768606
1711.000000	23.781889
1710.000000	23.784233
1709.000000	23.790372
1708.000000	23.739583
1707.000000	23.724068
1706.000000	23.656423
1705.000000	23.602844
1704.000000	23.501377
1703.000000	23.416543
1702.000000	23.293979
1701.000000	23.108683
1700.000000	22.935219
1699.000000	22.745346
1698.000000	22.595100
1697.000000	22.465504
1696.000000	22.409134
1695.000000	22.442398
1694.000000	22.539846
1693.000000	22.717551
1692.000000	22.901173
1691.000000	23.146970
1690.000000	23.315858
1689.000000	23.465211
1688.000000	23.517228
1687.000000	23.542678
1686.000000	23.542567
1685.000000	23.580296
1684.000000	23.706989
1683.000000	23.978125
1682.000000	24.400846
1681.000000	24.973925
1680.000000	25.634852
1679.000000	26.312858
1678.000000	27.030602
1677.000000	27.624220
1676.000000	28.190937
1675.000000	28.651722
1674.000000	29.070313
1673.000000	29.426952
1672.000000	29.722645
1671.000000	29.976814
1670.000000	30.215578
1669.000000	30.400874
1668.000000	30.577241
1667.000000	30.681386
1666.000000	30.803280
1665.000000	30.903742
1664.000000	30.996948
1663.000000	31.076424
1662.000000	31.139046
1661.000000	31.186151
1660.000000	31.238615
1659.000000	31.252568
1658.000000	31.288064
1657.000000	31.291748
1656.000000	31.279023
1655.000000	31.284157
1654.000000	31.270316
1653.000000	31.251116
1652.000000	31.217071
1651.000000	31.188942
1650.000000	31.166729
1649.000000	31.099531
1648.000000	31.058230
1647.000000	30.987460
1646.000000	30.929527
1645.000000	30.846032
1644.000000	30.781736
1643.000000	30.721794
1642.000000	30.613742
1641.000000	30.542860
1640.000000	30.452668
1639.000000	30.373973
1638.000000	30.297399
1637.000000	30.217699
1636.000000	30.118911
1635.000000	30.025593
1634.000000	29.925466
1633.000000	29.816298
1632.000000	29.729901
1631.000000	29.628099
1630.000000	29.521610
1629.000000	29.430301
1628.000000	29.315440
1627.000000	29.209508
1626.000000	29.097214
1625.000000	28.995190
1624.000000	28.880552
1623.000000	28.776071
1622.000000	28.678177
1621.000000	28.575594
1620.000000	28.467318
1619.000000	28.398335
1618.000000	28.288161
