PE UV       SUBTECH     SPECTRUM    ASCII       PEDS        4.00        
   -1
CICIMAUCR0097-2.Sample.ASC
24/04/18
12:01:15.00
24/04/18
12:01:15.00
Vinicio Soto Monge
C. kalinini
250,000000
1
Lambda 1050
1050L1511233
PerkinElmer UV WinLab 6.3.2.0749 / 2.02.05 Lambda 900 UV/VIS/NIR, Aug  7 2015 09:38:08

0
0
3350/servo 860,8/2
0
0
UV/VIS
1
1
1
DoubleDePol,CommonBeamDepol,RBeamAtt,SBeamAtt,60mm sphere, WB InGaAs Detector
0
0
0
0
Program
Program
3350/servo 860,8/2
3350/0,2 860,8/0,2
3350/0,2 860,8/0,2
0
15.00
 
 
 
0
 
860,8
319,2
860,8
Front
100
on
S:100 R:100
0
0
0
0
 
0
 
 
 
0
 
 
0
0
0
0
0
 
 
 
 
0
0


0
0
#HDR
-1
-1
#GR
nm
%R
1.0
0.0
2500,000000
-1,000000
2251
8
91,681900
5,245000
#DATA
2500.000000	16.973600
2499.000000	16.971700
2498.000000	16.889800
2497.000000	16.998800
2496.000000	16.993200
2495.000000	16.903000
2494.000000	16.847600
2493.000000	16.872900
2492.000000	16.807100
2491.000000	16.880000
2490.000000	16.801100
2489.000000	16.817200
2488.000000	16.832300
2487.000000	16.811700
2486.000000	16.861300
2485.000000	16.867400
2484.000000	16.853800
2483.000000	16.881800
2482.000000	16.850600
2481.000000	16.860300
2480.000000	16.869700
2479.000000	16.861300
2478.000000	16.910100
2477.000000	16.912300
2476.000000	16.916700
2475.000000	16.943000
2474.000000	16.973700
2473.000000	17.018100
2472.000000	17.048500
2471.000000	17.123600
2470.000000	17.091700
2469.000000	17.165100
2468.000000	17.183400
2467.000000	17.236800
2466.000000	17.259800
2465.000000	17.303200
2464.000000	17.352800
2463.000000	17.442800
2462.000000	17.472100
2461.000000	17.531600
2460.000000	17.576800
2459.000000	17.637500
2458.000000	17.691200
2457.000000	17.765900
2456.000000	17.853500
2455.000000	17.959300
2454.000000	18.019900
2453.000000	18.098200
2452.000000	18.179200
2451.000000	18.278400
2450.000000	18.384200
2449.000000	18.488200
2448.000000	18.573500
2447.000000	18.669600
2446.000000	18.763900
2445.000000	18.866700
2444.000000	18.979400
2443.000000	19.069500
2442.000000	19.173600
2441.000000	19.280800
2440.000000	19.352700
2439.000000	19.459400
2438.000000	19.567900
2437.000000	19.669500
2436.000000	19.771000
2435.000000	19.865200
2434.000000	19.942100
2433.000000	20.023600
2432.000000	20.117600
2431.000000	20.203600
2430.000000	20.280000
2429.000000	20.353300
2428.000000	20.454800
2427.000000	20.532600
2426.000000	20.601900
2425.000000	20.690300
2424.000000	20.801600
2423.000000	20.905100
2422.000000	21.016400
2421.000000	21.122400
2420.000000	21.170700
2419.000000	21.230700
2418.000000	21.297100
2417.000000	21.396000
2416.000000	21.472500
2415.000000	21.540800
2414.000000	21.600100
2413.000000	21.677500
2412.000000	21.728300
2411.000000	21.796300
2410.000000	21.839200
2409.000000	21.900100
2408.000000	21.933800
2407.000000	21.978300
2406.000000	22.032300
2405.000000	22.084100
2404.000000	22.133800
2403.000000	22.153600
2402.000000	22.179400
2401.000000	22.232100
2400.000000	22.265000
2399.000000	22.305900
2398.000000	22.324600
2397.000000	22.350600
2396.000000	22.396100
2395.000000	22.419100
2394.000000	22.435600
2393.000000	22.462800
2392.000000	22.474100
2391.000000	22.503200
2390.000000	22.528800
2389.000000	22.538700
2388.000000	22.560800
2387.000000	22.558700
2386.000000	22.567100
2385.000000	22.578100
2384.000000	22.586300
2383.000000	22.584300
2382.000000	22.586000
2381.000000	22.585000
2380.000000	22.555400
2379.000000	22.563800
2378.000000	22.568800
2377.000000	22.566800
2376.000000	22.562100
2375.000000	22.538000
2374.000000	22.515800
2373.000000	22.510100
2372.000000	22.509500
2371.000000	22.486000
2370.000000	22.466600
2369.000000	22.472700
2368.000000	22.489100
2367.000000	22.474500
2366.000000	22.468700
2365.000000	22.477400
2364.000000	22.466700
2363.000000	22.458100
2362.000000	22.468900
2361.000000	22.471100
2360.000000	22.456200
2359.000000	22.439600
2358.000000	22.419400
2357.000000	22.414600
2356.000000	22.402600
2355.000000	22.389300
2354.000000	22.390800
2353.000000	22.382000
2352.000000	22.375400
2351.000000	22.358400
2350.000000	22.361500
2349.000000	22.380200
2348.000000	22.374200
2347.000000	22.361300
2346.000000	22.345900
2345.000000	22.356200
2344.000000	22.395600
2343.000000	22.418500
2342.000000	22.404300
2341.000000	22.388600
2340.000000	22.371100
2339.000000	22.393100
2338.000000	22.421800
2337.000000	22.429000
2336.000000	22.423300
2335.000000	22.429300
2334.000000	22.442700
2333.000000	22.468000
2332.000000	22.505100
2331.000000	22.506100
2330.000000	22.512500
2329.000000	22.538800
2328.000000	22.580700
2327.000000	22.606100
2326.000000	22.607400
2325.000000	22.607500
2324.000000	22.617100
2323.000000	22.636700
2322.000000	22.647400
2321.000000	22.631400
2320.000000	22.606600
2319.000000	22.601000
2318.000000	22.580200
2317.000000	22.548400
2316.000000	22.518700
2315.000000	22.496500
2314.000000	22.475500
2313.000000	22.443900
2312.000000	22.400000
2311.000000	22.363500
2310.000000	22.333800
2309.000000	22.274600
2308.000000	22.254900
2307.000000	22.236200
2306.000000	22.200100
2305.000000	22.181200
2304.000000	22.176200
2303.000000	22.167900
2302.000000	22.147800
2301.000000	22.139000
2300.000000	22.134200
2299.000000	22.158400
2298.000000	22.169100
2297.000000	22.178700
2296.000000	22.209600
2295.000000	22.225000
2294.000000	22.225600
2293.000000	22.266900
2292.000000	22.287100
2291.000000	22.296200
2290.000000	22.318300
2289.000000	22.366900
2288.000000	22.379300
2287.000000	22.441900
2286.000000	22.451300
2285.000000	22.490100
2284.000000	22.526600
2283.000000	22.532100
2282.000000	22.554800
2281.000000	22.571300
2280.000000	22.601100
2279.000000	22.629200
2278.000000	22.634000
2277.000000	22.661200
2276.000000	22.697200
2275.000000	22.707800
2274.000000	22.729300
2273.000000	22.750800
2272.000000	22.791100
2271.000000	22.815900
2270.000000	22.846400
2269.000000	22.892300
2268.000000	22.961200
2267.000000	23.007600
2266.000000	23.080600
2265.000000	23.165700
2264.000000	23.266600
2263.000000	23.374600
2262.000000	23.480500
2261.000000	23.587900
2260.000000	23.734200
2259.000000	23.884900
2258.000000	24.027200
2257.000000	24.162100
2256.000000	24.326600
2255.000000	24.486800
2254.000000	24.676200
2253.000000	24.813500
2252.000000	24.963600
2251.000000	25.103600
2250.000000	25.261000
2249.000000	25.420200
2248.000000	25.545800
2247.000000	25.649100
2246.000000	25.771600
2245.000000	25.864800
2244.000000	25.961000
2243.000000	26.046000
2242.000000	26.122100
2241.000000	26.177800
2240.000000	26.258400
2239.000000	26.293700
2238.000000	26.328800
2237.000000	26.342200
2236.000000	26.337700
2235.000000	26.407500
2234.000000	26.385900
2233.000000	26.364700
2232.000000	26.362800
2231.000000	26.319000
2230.000000	26.298600
2229.000000	26.273500
2228.000000	26.239300
2227.000000	26.186800
2226.000000	26.140700
2225.000000	26.062400
2224.000000	25.994800
2223.000000	25.948600
2222.000000	25.890500
2221.000000	25.810100
2220.000000	25.725600
2219.000000	25.659800
2218.000000	25.567700
2217.000000	25.501000
2216.000000	25.438500
2215.000000	25.371900
2214.000000	25.277500
2213.000000	25.203800
2212.000000	25.118900
2211.000000	25.070800
2210.000000	25.016700
2209.000000	24.950900
2208.000000	24.901500
2207.000000	24.866200
2206.000000	24.816600
2205.000000	24.784100
2204.000000	24.748100
2203.000000	24.712400
2202.000000	24.665500
2201.000000	24.629000
2200.000000	24.610700
2199.000000	24.556700
2198.000000	24.542400
2197.000000	24.533100
2196.000000	24.497000
2195.000000	24.483200
2194.000000	24.471000
2193.000000	24.437100
2192.000000	24.409500
2191.000000	24.399600
2190.000000	24.381500
2189.000000	24.369900
2188.000000	24.344900
2187.000000	24.337200
2186.000000	24.331500
2185.000000	24.329700
2184.000000	24.310900
2183.000000	24.290900
2182.000000	24.286800
2181.000000	24.276900
2180.000000	24.263800
2179.000000	24.239500
2178.000000	24.230800
2177.000000	24.215300
2176.000000	24.226600
2175.000000	24.223500
2174.000000	24.239800
2173.000000	24.244100
2172.000000	24.241300
2171.000000	24.260500
2170.000000	24.284700
2169.000000	24.321700
2168.000000	24.361200
2167.000000	24.390500
2166.000000	24.439600
2165.000000	24.463300
2164.000000	24.493900
2163.000000	24.569000
2162.000000	24.638900
2161.000000	24.683800
2160.000000	24.759900
2159.000000	24.838100
2158.000000	24.917600
2157.000000	25.005200
2156.000000	25.086400
2155.000000	25.196400
2154.000000	25.293400
2153.000000	25.392500
2152.000000	25.494300
2151.000000	25.596000
2150.000000	25.695200
2149.000000	25.794700
2148.000000	25.888900
2147.000000	25.978800
2146.000000	26.094100
2145.000000	26.212700
2144.000000	26.306300
2143.000000	26.391800
2142.000000	26.486100
2141.000000	26.586700
2140.000000	26.681200
2139.000000	26.773700
2138.000000	26.878300
2137.000000	26.978100
2136.000000	27.064800
2135.000000	27.141200
2134.000000	27.201300
2133.000000	27.279500
2132.000000	27.359600
2131.000000	27.432400
2130.000000	27.490100
2129.000000	27.549600
2128.000000	27.618200
2127.000000	27.687400
2126.000000	27.719000
2125.000000	27.773900
2124.000000	27.826500
2123.000000	27.857900
2122.000000	27.899800
2121.000000	27.943100
2120.000000	27.976700
2119.000000	28.004500
2118.000000	28.037100
2117.000000	28.063900
2116.000000	28.078000
2115.000000	28.095800
2114.000000	28.113000
2113.000000	28.136900
2112.000000	28.154200
2111.000000	28.162000
2110.000000	28.163000
2109.000000	28.178800
2108.000000	28.189300
2107.000000	28.199700
2106.000000	28.203200
2105.000000	28.197000
2104.000000	28.198200
2103.000000	28.205300
2102.000000	28.227200
2101.000000	28.237700
2100.000000	28.235900
2099.000000	28.228100
2098.000000	28.236900
2097.000000	28.265500
2096.000000	28.272200
2095.000000	28.282900
2094.000000	28.297200
2093.000000	28.315900
2092.000000	28.332700
2091.000000	28.343700
2090.000000	28.344900
2089.000000	28.353800
2088.000000	28.374200
2087.000000	28.380100
2086.000000	28.370400
2085.000000	28.368300
2084.000000	28.361100
2083.000000	28.346200
2082.000000	28.335500
2081.000000	28.307300
2080.000000	28.249400
2079.000000	28.198400
2078.000000	28.147400
2077.000000	28.089900
2076.000000	28.032700
2075.000000	27.958900
2074.000000	27.881300
2073.000000	27.808100
2072.000000	27.730000
2071.000000	27.622900
2070.000000	27.513100
2069.000000	27.428500
2068.000000	27.328500
2067.000000	27.223800
2066.000000	27.115500
2065.000000	27.010600
2064.000000	26.900200
2063.000000	26.784000
2062.000000	26.688400
2061.000000	26.610600
2060.000000	26.527100
2059.000000	26.456700
2058.000000	26.405400
2057.000000	26.362200
2056.000000	26.318700
2055.000000	26.302900
2054.000000	26.300800
2053.000000	26.302100
2052.000000	26.320600
2051.000000	26.385200
2050.000000	26.487000
2049.000000	26.547200
2048.000000	26.639100
2047.000000	26.755900
2046.000000	26.867900
2045.000000	27.012400
2044.000000	27.161500
2043.000000	27.294400
2042.000000	27.406200
2041.000000	27.552200
2040.000000	27.703400
2039.000000	27.826500
2038.000000	27.954600
2037.000000	28.085000
2036.000000	28.194500
2035.000000	28.320400
2034.000000	28.421600
2033.000000	28.532700
2032.000000	28.646700
2031.000000	28.731600
2030.000000	28.830900
2029.000000	28.908800
2028.000000	28.971300
2027.000000	29.058800
2026.000000	29.132200
2025.000000	29.188900
2024.000000	29.233100
2023.000000	29.293700
2022.000000	29.349800
2021.000000	29.387300
2020.000000	29.449400
2019.000000	29.488000
2018.000000	29.531700
2017.000000	29.574000
2016.000000	29.586000
2015.000000	29.624500
2014.000000	29.649000
2013.000000	29.650900
2012.000000	29.656800
2011.000000	29.666900
2010.000000	29.684900
2009.000000	29.668000
2008.000000	29.658600
2007.000000	29.655900
2006.000000	29.640500
2005.000000	29.622500
2004.000000	29.580100
2003.000000	29.564000
2002.000000	29.516100
2001.000000	29.477800
2000.000000	29.439400
1999.000000	29.380400
1998.000000	29.324100
1997.000000	29.263200
1996.000000	29.207800
1995.000000	29.167400
1994.000000	29.101800
1993.000000	29.032000
1992.000000	28.980300
1991.000000	28.901900
1990.000000	28.842200
1989.000000	28.772100
1988.000000	28.697200
1987.000000	28.618700
1986.000000	28.533800
1985.000000	28.474700
1984.000000	28.398500
1983.000000	28.325100
1982.000000	28.245500
1981.000000	28.155800
1980.000000	28.081900
1979.000000	28.007600
1978.000000	27.929600
1977.000000	27.854400
1976.000000	27.773100
1975.000000	27.705900
1974.000000	27.612200
1973.000000	27.549800
1972.000000	27.476300
1971.000000	27.403600
1970.000000	27.330200
1969.000000	27.268300
1968.000000	27.180100
1967.000000	27.130400
1966.000000	27.047100
1965.000000	26.985300
1964.000000	26.909100
1963.000000	26.816600
1962.000000	26.766300
1961.000000	26.680300
1960.000000	26.598400
1959.000000	26.516500
1958.000000	26.452200
1957.000000	26.358100
1956.000000	26.283400
1955.000000	26.198200
1954.000000	26.135200
1953.000000	26.069400
1952.000000	25.973000
1951.000000	25.918700
1950.000000	25.821300
1949.000000	25.758700
1948.000000	25.703300
1947.000000	25.639300
1946.000000	25.592900
1945.000000	25.528200
1944.000000	25.482000
1943.000000	25.453400
1942.000000	25.412800
1941.000000	25.381500
1940.000000	25.369100
1939.000000	25.356200
1938.000000	25.364900
1937.000000	25.357400
1936.000000	25.363600
1935.000000	25.392500
1934.000000	25.411200
1933.000000	25.441500
1932.000000	25.511000
1931.000000	25.577100
1930.000000	25.624800
1929.000000	25.692100
1928.000000	25.830400
1927.000000	25.947700
1926.000000	26.061600
1925.000000	26.184300
1924.000000	26.291900
1923.000000	26.401400
1922.000000	26.579100
1921.000000	26.812700
1920.000000	27.051600
1919.000000	27.228300
1918.000000	27.442700
1917.000000	27.617800
1916.000000	27.789800
1915.000000	28.009700
1914.000000	28.318800
1913.000000	28.651500
1912.000000	28.993900
1911.000000	29.272100
1910.000000	29.543800
1909.000000	29.740400
1908.000000	30.017900
1907.000000	30.377900
1906.000000	30.799300
1905.000000	31.286100
1904.000000	31.692900
1903.000000	32.064100
1902.000000	32.439400
1901.000000	32.826200
1900.000000	33.304500
1899.000000	33.847200
1898.000000	34.346000
1897.000000	34.750500
1896.000000	35.080200
1895.000000	35.398600
1894.000000	35.794200
1893.000000	36.233100
1892.000000	36.729500
1891.000000	37.225800
1890.000000	37.680300
1889.000000	38.054800
1888.000000	38.437800
1887.000000	38.756200
1886.000000	39.100900
1885.000000	39.486500
1884.000000	39.858900
1883.000000	40.177500
1882.000000	40.486000
1881.000000	40.739500
1880.000000	40.934200
1879.000000	41.136300
1878.000000	41.364000
1877.000000	41.557900
1876.000000	41.753400
1875.000000	41.945800
1874.000000	42.123200
1873.000000	42.358900
1872.000000	42.563500
1871.000000	42.745400
1870.000000	42.922100
1869.000000	43.080600
1868.000000	43.167100
1867.000000	43.221800
1866.000000	43.210200
1865.000000	43.226000
1864.000000	43.229100
1863.000000	43.232200
1862.000000	43.277700
1861.000000	43.351600
1860.000000	43.435800
1859.000000	43.519800
1858.000000	43.573700
1857.000000	43.582200
1856.000000	43.568300
1855.000000	43.605000
1854.000000	43.661900
1853.000000	43.655700
1852.000000	43.652800
1851.000000	43.635400
1850.000000	43.606300
1849.000000	43.646000
1848.000000	43.745600
1847.000000	43.842800
1846.000000	43.814400
1845.000000	43.683300
1844.000000	43.557000
1843.000000	43.521400
1842.000000	43.590300
1841.000000	43.662400
1840.000000	43.661800
1839.000000	43.608600
1838.000000	43.559100
1837.000000	43.581700
1836.000000	43.608800
1835.000000	43.578200
1834.000000	43.481000
1833.000000	43.381400
1832.000000	43.318300
1831.000000	43.306100
1830.000000	43.334500
1829.000000	43.333600
1828.000000	43.280300
1827.000000	43.257900
1826.000000	43.273300
1825.000000	43.244000
1824.000000	43.191200
1823.000000	43.135200
1822.000000	43.168000
1821.000000	43.273700
1820.000000	43.344000
1819.000000	43.317500
1818.000000	43.244600
1817.000000	43.208100
1816.000000	43.232400
1815.000000	43.241800
1814.000000	43.229200
1813.000000	43.211500
1812.000000	43.210300
1811.000000	43.222700
1810.000000	43.184400
1809.000000	43.163200
1808.000000	43.166300
1807.000000	43.163700
1806.000000	43.159300
1805.000000	43.146200
1804.000000	43.123500
1803.000000	43.105300
1802.000000	43.120400
1801.000000	43.129100
1800.000000	43.101800
1799.000000	43.087000
1798.000000	43.081800
1797.000000	43.077500
1796.000000	43.075200
1795.000000	43.065900
1794.000000	43.075900
1793.000000	43.069200
1792.000000	43.050600
1791.000000	43.058100
1790.000000	43.061200
1789.000000	43.063200
1788.000000	43.080700
1787.000000	43.108700
1786.000000	43.117800
1785.000000	43.125200
1784.000000	43.134100
1783.000000	43.147900
1782.000000	43.141400
1781.000000	43.136300
1780.000000	43.129200
1779.000000	43.118400
1778.000000	43.101800
1777.000000	43.086000
1776.000000	43.049400
1775.000000	43.027600
1774.000000	43.016300
1773.000000	42.982900
1772.000000	42.960800
1771.000000	42.929600
1770.000000	42.892900
1769.000000	42.876600
1768.000000	42.861800
1767.000000	42.827800
1766.000000	42.804500
1765.000000	42.792900
1764.000000	42.791500
1763.000000	42.785400
1762.000000	42.763000
1761.000000	42.773000
1760.000000	42.784300
1759.000000	42.776000
1758.000000	42.770400
1757.000000	42.783900
1756.000000	42.770600
1755.000000	42.765500
1754.000000	42.771100
1753.000000	42.758900
1752.000000	42.742300
1751.000000	42.745900
1750.000000	42.704900
1749.000000	42.688900
1748.000000	42.667500
1747.000000	42.609700
1746.000000	42.577000
1745.000000	42.526400
1744.000000	42.473700
1743.000000	42.421300
1742.000000	42.350300
1741.000000	42.282700
1740.000000	42.212300
1739.000000	42.158200
1738.000000	42.104700
1737.000000	42.052100
1736.000000	42.011900
1735.000000	41.986700
1734.000000	41.951900
1733.000000	41.899000
1732.000000	41.878700
1731.000000	41.874000
1730.000000	41.833000
1729.000000	41.811900
1728.000000	41.792600
1727.000000	41.760600
1726.000000	41.756200
1725.000000	41.740800
1724.000000	41.745200
1723.000000	41.756900
1722.000000	41.818500
1721.000000	41.915500
1720.000000	42.032400
1719.000000	42.162500
1718.000000	42.299900
1717.000000	42.475700
1716.000000	42.621800
1715.000000	42.793200
1714.000000	42.913200
1713.000000	43.059700
1712.000000	43.187600
1711.000000	43.285400
1710.000000	43.373300
1709.000000	43.449300
1708.000000	43.524700
1707.000000	43.589100
1706.000000	43.633500
1705.000000	43.669400
1704.000000	43.674500
1703.000000	43.709600
1702.000000	43.736400
1701.000000	43.710800
1700.000000	43.735100
1699.000000	43.714200
1698.000000	43.732500
1697.000000	43.725300
1696.000000	43.699400
1695.000000	43.695300
1694.000000	43.669200
1693.000000	43.650700
1692.000000	43.586800
1691.000000	43.573300
1690.000000	43.575300
1689.000000	43.589500
1688.000000	43.605200
1687.000000	43.683800
1686.000000	43.805300
1685.000000	43.938500
1684.000000	44.143400
1683.000000	44.302700
1682.000000	44.505400
1681.000000	44.698900
1680.000000	44.902600
1679.000000	45.082400
1678.000000	45.259100
1677.000000	45.457600
1676.000000	45.608400
1675.000000	45.740100
1674.000000	45.904500
1673.000000	46.047000
1672.000000	46.189700
1671.000000	46.345200
1670.000000	46.477400
1669.000000	46.631800
1668.000000	46.747300
1667.000000	46.918900
1666.000000	47.020100
1665.000000	47.125800
1664.000000	47.234100
1663.000000	47.323800
1662.000000	47.393700
1661.000000	47.462100
1660.000000	47.554800
1659.000000	47.620800
1658.000000	47.674000
1657.000000	47.723300
1656.000000	47.772400
1655.000000	47.822300
1654.000000	47.838400
1653.000000	47.873700
1652.000000	47.891500
1651.000000	47.916200
1650.000000	47.933400
1649.000000	47.927500
1648.000000	47.953500
1647.000000	47.950000
1646.000000	47.933000
1645.000000	47.942000
1644.000000	47.932500
1643.000000	47.923900
1642.000000	47.926400
1641.000000	47.919500
1640.000000	47.919000
1639.000000	47.911800
1638.000000	47.928900
1637.000000	47.897700
1636.000000	47.901000
1635.000000	47.886900
1634.000000	47.862300
1633.000000	47.849600
1632.000000	47.827200
1631.000000	47.798800
1630.000000	47.770300
1629.000000	47.752100
1628.000000	47.737800
1627.000000	47.692200
1626.000000	47.654600
1625.000000	47.629100
1624.000000	47.599000
