PE UV       SUBTECH     SPECTRUM    ASCII       PEDS        4.00        
   -1
CICIMAUCR0001-1.Sample.ASC
24/04/11
15:31:38.00
24/04/11
15:31:38.00
Vinicio Soto Monge
C. kalinini
250,000000
1
Lambda 1050
1050L1511233
PerkinElmer UV WinLab 6.3.2.0749 / 2.02.05 Lambda 900 UV/VIS/NIR, Aug  7 2015 09:38:08

0
0
3350/2 860,8/2
0
0
UV/VIS
1
1
1
DoubleDePol,CommonBeamDepol,RBeamAtt,SBeamAtt,60mm sphere, WB InGaAs Detector
0
0
0
0
Program
Program
3350/2 860,8/2
3350/0,2 860,8/0,2
3350/0,2 860,8/0,2
0
15.00
 
 
 
0
 
860,8
319,2
860,8
Front
100
on
S:100 R:100
0
0
0
0
 
0
 
 
 
0
 
 
0
0
0
0
0
 
 
 
 
0
0


0
0
#HDR
-1
-1
#GR
nm
%R
1.0
0.0
2400,000000
-1,000000
2151
8
18,022800
1,427300
#DATA
2400.000000	7.360200
2399.000000	7.872100
2398.000000	6.778700
2397.000000	7.635800
2396.000000	8.190800
2395.000000	6.491800
2394.000000	6.842200
2393.000000	8.480300
2392.000000	6.870600
2391.000000	7.838200
2390.000000	7.035800
2389.000000	7.794800
2388.000000	7.490500
2387.000000	7.563700
2386.000000	7.240200
2385.000000	7.037100
2384.000000	7.135600
2383.000000	6.835400
2382.000000	8.247500
2381.000000	6.011000
2380.000000	6.251200
2379.000000	6.046800
2378.000000	6.805900
2377.000000	7.418700
2376.000000	6.634300
2375.000000	6.899000
2374.000000	7.464400
2373.000000	7.481700
2372.000000	7.093900
2371.000000	7.192200
2370.000000	7.367300
2369.000000	6.967800
2368.000000	7.304400
2367.000000	7.002200
2366.000000	7.341800
2365.000000	6.895300
2364.000000	7.330000
2363.000000	7.428600
2362.000000	6.988200
2361.000000	6.591900
2360.000000	7.421600
2359.000000	6.405700
2358.000000	7.245200
2357.000000	7.355900
2356.000000	7.052800
2355.000000	6.663900
2354.000000	7.169600
2353.000000	7.170300
2352.000000	6.604300
2351.000000	6.578700
2350.000000	6.591200
2349.000000	6.372500
2348.000000	6.680700
2347.000000	7.243400
2346.000000	6.426800
2345.000000	6.744400
2344.000000	7.123700
2343.000000	6.318100
2342.000000	6.584800
2341.000000	7.274800
2340.000000	6.883700
2339.000000	6.910000
2338.000000	6.070600
2337.000000	6.231600
2336.000000	6.408500
2335.000000	6.451200
2334.000000	6.616000
2333.000000	6.150600
2332.000000	6.142200
2331.000000	6.330100
2330.000000	6.341600
2329.000000	6.300300
2328.000000	6.588800
2327.000000	6.219700
2326.000000	6.043000
2325.000000	6.366600
2324.000000	6.493200
2323.000000	6.770600
2322.000000	6.431800
2321.000000	5.909500
2320.000000	6.192600
2319.000000	6.442000
2318.000000	6.342100
2317.000000	6.266000
2316.000000	6.274500
2315.000000	6.240800
2314.000000	5.708300
2313.000000	5.552000
2312.000000	6.138700
2311.000000	6.149700
2310.000000	6.225100
2309.000000	6.063900
2308.000000	6.292500
2307.000000	6.611900
2306.000000	6.430600
2305.000000	6.247400
2304.000000	6.182400
2303.000000	5.778800
2302.000000	5.547400
2301.000000	5.828000
2300.000000	6.205200
2299.000000	5.970500
2298.000000	5.700800
2297.000000	5.854200
2296.000000	6.107700
2295.000000	6.026200
2294.000000	6.010500
2293.000000	6.358600
2292.000000	6.400900
2291.000000	5.988000
2290.000000	5.876800
2289.000000	5.689600
2288.000000	5.644700
2287.000000	5.854000
2286.000000	6.078900
2285.000000	6.071100
2284.000000	5.958600
2283.000000	5.812400
2282.000000	5.712300
2281.000000	5.830300
2280.000000	5.725500
2279.000000	5.378200
2278.000000	5.473600
2277.000000	5.718700
2276.000000	5.611600
2275.000000	5.769900
2274.000000	5.865900
2273.000000	5.581700
2272.000000	5.898800
2271.000000	6.008700
2270.000000	5.593400
2269.000000	5.205900
2268.000000	5.271400
2267.000000	5.420600
2266.000000	5.598300
2265.000000	5.855000
2264.000000	5.723500
2263.000000	6.047300
2262.000000	5.821300
2261.000000	5.703100
2260.000000	5.769400
2259.000000	5.729500
2258.000000	5.912000
2257.000000	6.140200
2256.000000	6.194000
2255.000000	6.019800
2254.000000	5.937100
2253.000000	5.802200
2252.000000	5.797400
2251.000000	5.916700
2250.000000	6.110900
2249.000000	5.908900
2248.000000	6.114900
2247.000000	6.290400
2246.000000	6.176900
2245.000000	6.410000
2244.000000	6.330500
2243.000000	6.157400
2242.000000	6.188400
2241.000000	6.206700
2240.000000	6.450700
2239.000000	6.441500
2238.000000	6.512400
2237.000000	6.804600
2236.000000	6.601700
2235.000000	6.262100
2234.000000	6.287400
2233.000000	6.234000
2232.000000	6.292100
2231.000000	6.213900
2230.000000	6.068800
2229.000000	6.342900
2228.000000	6.639500
2227.000000	6.429700
2226.000000	6.341600
2225.000000	6.327800
2224.000000	6.156000
2223.000000	6.135900
2222.000000	6.049900
2221.000000	6.294700
2220.000000	6.286600
2219.000000	5.640900
2218.000000	6.043800
2217.000000	6.239100
2216.000000	6.083100
2215.000000	5.879800
2214.000000	6.021400
2213.000000	6.219000
2212.000000	5.932800
2211.000000	6.035100
2210.000000	5.732600
2209.000000	6.139600
2208.000000	6.075000
2207.000000	5.928800
2206.000000	5.906900
2205.000000	5.799100
2204.000000	5.927700
2203.000000	5.982600
2202.000000	5.961800
2201.000000	5.752600
2200.000000	5.709800
2199.000000	5.576800
2198.000000	5.695100
2197.000000	5.693800
2196.000000	5.567200
2195.000000	5.655000
2194.000000	5.795600
2193.000000	5.672100
2192.000000	5.790300
2191.000000	5.989900
2190.000000	6.060700
2189.000000	5.822300
2188.000000	5.880300
2187.000000	5.901300
2186.000000	5.893600
2185.000000	5.689500
2184.000000	5.766400
2183.000000	5.580100
2182.000000	5.550600
2181.000000	5.623800
2180.000000	5.525100
2179.000000	5.899700
2178.000000	5.794200
2177.000000	5.271400
2176.000000	5.734100
2175.000000	5.708100
2174.000000	5.579100
2173.000000	5.436200
2172.000000	5.883900
2171.000000	5.439500
2170.000000	5.412400
2169.000000	5.881200
2168.000000	5.895900
2167.000000	5.963200
2166.000000	5.651600
2165.000000	5.522800
2164.000000	6.081800
2163.000000	6.437300
2162.000000	5.643800
2161.000000	6.107800
2160.000000	6.078300
2159.000000	5.900300
2158.000000	5.649500
2157.000000	5.904000
2156.000000	6.406700
2155.000000	6.013300
2154.000000	6.305900
2153.000000	6.080200
2152.000000	6.165400
2151.000000	6.251600
2150.000000	6.615800
2149.000000	6.427400
2148.000000	5.988000
2147.000000	6.844100
2146.000000	6.393700
2145.000000	6.394000
2144.000000	6.308500
2143.000000	6.160600
2142.000000	6.176300
2141.000000	6.699500
2140.000000	6.612900
2139.000000	6.457900
2138.000000	6.289200
2137.000000	7.356700
2136.000000	6.585100
2135.000000	6.090000
2134.000000	6.534200
2133.000000	6.804200
2132.000000	6.171000
2131.000000	6.591000
2130.000000	6.287000
2129.000000	6.239300
2128.000000	6.178400
2127.000000	6.493200
2126.000000	6.218100
2125.000000	6.764600
2124.000000	6.232000
2123.000000	6.439300
2122.000000	6.028200
2121.000000	6.201200
2120.000000	6.317100
2119.000000	6.590500
2118.000000	6.700400
2117.000000	6.044500
2116.000000	6.335100
2115.000000	6.699600
2114.000000	6.513500
2113.000000	6.117200
2112.000000	6.272200
2111.000000	6.269600
2110.000000	6.421400
2109.000000	6.641400
2108.000000	6.293000
2107.000000	6.602100
2106.000000	6.515100
2105.000000	6.616200
2104.000000	6.287200
2103.000000	6.606700
2102.000000	6.601900
2101.000000	6.537900
2100.000000	6.626500
2099.000000	6.413400
2098.000000	6.419200
2097.000000	6.093300
2096.000000	6.178500
2095.000000	6.499100
2094.000000	6.560500
2093.000000	6.337100
2092.000000	6.137100
2091.000000	6.344600
2090.000000	6.328200
2089.000000	6.412700
2088.000000	6.325000
2087.000000	6.196200
2086.000000	6.296300
2085.000000	6.354800
2084.000000	6.601800
2083.000000	6.388600
2082.000000	6.178300
2081.000000	6.414200
2080.000000	6.315800
2079.000000	6.352100
2078.000000	6.262700
2077.000000	6.143700
2076.000000	5.972300
2075.000000	6.009600
2074.000000	6.106000
2073.000000	6.025400
2072.000000	6.043700
2071.000000	5.988300
2070.000000	5.867500
2069.000000	5.957800
2068.000000	6.132200
2067.000000	6.035100
2066.000000	5.794100
2065.000000	5.686900
2064.000000	5.532500
2063.000000	5.632800
2062.000000	5.849700
2061.000000	5.731300
2060.000000	5.590600
2059.000000	5.621500
2058.000000	5.801800
2057.000000	5.793800
2056.000000	5.686900
2055.000000	5.625000
2054.000000	5.561900
2053.000000	5.531300
2052.000000	5.603900
2051.000000	5.782700
2050.000000	5.676000
2049.000000	5.589700
2048.000000	5.570600
2047.000000	5.589100
2046.000000	5.726400
2045.000000	5.740000
2044.000000	5.603400
2043.000000	5.734000
2042.000000	5.855300
2041.000000	5.791300
2040.000000	5.833700
2039.000000	5.859800
2038.000000	5.883400
2037.000000	5.866800
2036.000000	5.946500
2035.000000	6.012800
2034.000000	5.939700
2033.000000	6.096300
2032.000000	6.062200
2031.000000	5.972000
2030.000000	6.154400
2029.000000	6.094400
2028.000000	6.023600
2027.000000	6.067000
2026.000000	6.185200
2025.000000	6.078200
2024.000000	5.956400
2023.000000	6.008400
2022.000000	6.089900
2021.000000	6.063000
2020.000000	6.181900
2019.000000	6.180300
2018.000000	6.151700
2017.000000	6.217100
2016.000000	6.206800
2015.000000	6.163000
2014.000000	6.153700
2013.000000	6.265600
2012.000000	6.209700
2011.000000	6.145100
2010.000000	6.196500
2009.000000	6.172300
2008.000000	6.178000
2007.000000	6.139400
2006.000000	6.084100
2005.000000	6.091500
2004.000000	6.074800
2003.000000	5.974600
2002.000000	6.035400
2001.000000	6.049300
2000.000000	5.877500
1999.000000	5.846500
1998.000000	5.871200
1997.000000	5.840800
1996.000000	5.812600
1995.000000	5.885400
1994.000000	5.866700
1993.000000	5.790700
1992.000000	5.834300
1991.000000	5.768600
1990.000000	5.693500
1989.000000	5.695000
1988.000000	5.713500
1987.000000	5.639300
1986.000000	5.524900
1985.000000	5.484200
1984.000000	5.537700
1983.000000	5.587200
1982.000000	5.493700
1981.000000	5.401300
1980.000000	5.397700
1979.000000	5.399300
1978.000000	5.351600
1977.000000	5.307700
1976.000000	5.234100
1975.000000	5.282600
1974.000000	5.327800
1973.000000	5.295000
1972.000000	5.276500
1971.000000	5.248400
1970.000000	5.170600
1969.000000	5.069400
1968.000000	5.119600
1967.000000	5.093100
1966.000000	5.042700
1965.000000	5.036000
1964.000000	4.976100
1963.000000	4.908400
1962.000000	4.923100
1961.000000	4.947900
1960.000000	4.921100
1959.000000	4.943600
1958.000000	4.929500
1957.000000	4.850100
1956.000000	4.817400
1955.000000	4.778800
1954.000000	4.805300
1953.000000	4.730400
1952.000000	4.751200
1951.000000	4.697900
1950.000000	4.706000
1949.000000	4.652800
1948.000000	4.635900
1947.000000	4.641900
1946.000000	4.673900
1945.000000	4.625200
1944.000000	4.613100
1943.000000	4.587300
1942.000000	4.638000
1941.000000	4.538800
1940.000000	4.635200
1939.000000	4.722100
1938.000000	4.676500
1937.000000	4.632600
1936.000000	4.611400
1935.000000	4.627400
1934.000000	4.572800
1933.000000	4.642200
1932.000000	4.587900
1931.000000	4.581700
1930.000000	4.689400
1929.000000	4.634800
1928.000000	4.681200
1927.000000	4.761400
1926.000000	4.835100
1925.000000	4.749800
1924.000000	4.825800
1923.000000	4.881100
1922.000000	4.777200
1921.000000	4.829300
1920.000000	5.073500
1919.000000	5.206700
1918.000000	5.055500
1917.000000	5.013600
1916.000000	5.095700
1915.000000	5.283000
1914.000000	5.314400
1913.000000	5.441800
1912.000000	5.534700
1911.000000	5.643300
1910.000000	5.657500
1909.000000	5.680700
1908.000000	5.630400
1907.000000	5.810900
1906.000000	6.098500
1905.000000	6.272100
1904.000000	6.395900
1903.000000	6.379300
1902.000000	6.547400
1901.000000	6.395900
1900.000000	6.552600
1899.000000	6.964000
1898.000000	7.083100
1897.000000	7.210200
1896.000000	7.313400
1895.000000	7.296900
1894.000000	7.531500
1893.000000	7.743300
1892.000000	7.920200
1891.000000	7.904000
1890.000000	8.059000
1889.000000	8.449400
1888.000000	8.512400
1887.000000	8.511700
1886.000000	8.766200
1885.000000	8.776700
1884.000000	8.929000
1883.000000	9.266600
1882.000000	9.168900
1881.000000	9.368700
1880.000000	9.459000
1879.000000	9.574900
1878.000000	9.361900
1877.000000	9.705900
1876.000000	9.969900
1875.000000	9.985000
1874.000000	9.770000
1873.000000	10.167800
1872.000000	10.296500
1871.000000	10.241400
1870.000000	10.691200
1869.000000	10.521200
1868.000000	10.292000
1867.000000	10.607900
1866.000000	10.719600
1865.000000	10.251900
1864.000000	10.369500
1863.000000	10.582200
1862.000000	10.419800
1861.000000	10.318500
1860.000000	10.335100
1859.000000	10.854300
1858.000000	10.657900
1857.000000	10.325000
1856.000000	10.753400
1855.000000	10.542000
1854.000000	10.315800
1853.000000	10.799000
1852.000000	10.916100
1851.000000	10.538100
1850.000000	10.518600
1849.000000	10.380800
1848.000000	10.428400
1847.000000	10.975600
1846.000000	11.064100
1845.000000	10.774900
1844.000000	10.553100
1843.000000	10.282000
1842.000000	10.467000
1841.000000	10.789000
1840.000000	10.747900
1839.000000	10.626400
1838.000000	10.474900
1837.000000	10.541900
1836.000000	10.717400
1835.000000	10.707700
1834.000000	10.665500
1833.000000	10.480600
1832.000000	10.441100
1831.000000	10.524100
1830.000000	10.582300
1829.000000	10.493000
1828.000000	10.567500
1827.000000	10.437900
1826.000000	10.483600
1825.000000	10.624200
1824.000000	10.477500
1823.000000	10.321000
1822.000000	10.342300
1821.000000	10.371400
1820.000000	10.666200
1819.000000	10.664500
1818.000000	10.512400
1817.000000	10.438600
1816.000000	10.380300
1815.000000	10.556800
1814.000000	10.530800
1813.000000	10.363700
1812.000000	10.459500
1811.000000	10.430100
1810.000000	10.480500
1809.000000	10.443800
1808.000000	10.385100
1807.000000	10.361700
1806.000000	10.423100
1805.000000	10.424300
1804.000000	10.361800
1803.000000	10.277900
1802.000000	10.292600
1801.000000	10.354800
1800.000000	10.386100
1799.000000	10.392300
1798.000000	10.340100
1797.000000	10.312500
1796.000000	10.304900
1795.000000	10.328700
1794.000000	10.338300
1793.000000	10.304100
1792.000000	10.279500
1791.000000	10.262300
1790.000000	10.274400
1789.000000	10.266600
1788.000000	10.272100
1787.000000	10.318600
1786.000000	10.298200
1785.000000	10.306000
1784.000000	10.338400
1783.000000	10.314700
1782.000000	10.281300
1781.000000	10.281600
1780.000000	10.267500
1779.000000	10.215600
1778.000000	10.225700
1777.000000	10.244400
1776.000000	10.258200
1775.000000	10.284600
1774.000000	10.229400
1773.000000	10.200500
1772.000000	10.188500
1771.000000	10.179200
1770.000000	10.169800
1769.000000	10.169200
1768.000000	10.158300
1767.000000	10.180600
1766.000000	10.165700
1765.000000	10.213500
1764.000000	10.193400
1763.000000	10.122500
1762.000000	10.122000
1761.000000	10.190000
1760.000000	10.174900
1759.000000	10.129200
1758.000000	10.102900
1757.000000	10.082900
1756.000000	10.087200
1755.000000	10.085400
1754.000000	10.132200
1753.000000	10.130100
1752.000000	10.116900
1751.000000	10.127900
1750.000000	10.121400
1749.000000	10.111900
1748.000000	10.099200
1747.000000	10.061800
1746.000000	10.047800
1745.000000	10.053200
1744.000000	10.020700
1743.000000	9.986800
1742.000000	9.957300
1741.000000	9.965400
1740.000000	9.951500
1739.000000	9.923900
1738.000000	9.924200
1737.000000	9.910000
1736.000000	9.889600
1735.000000	9.879600
1734.000000	9.872200
1733.000000	9.864200
1732.000000	9.843000
1731.000000	9.843600
1730.000000	9.852300
1729.000000	9.814600
1728.000000	9.776500
1727.000000	9.761300
1726.000000	9.771600
1725.000000	9.792900
1724.000000	9.794800
1723.000000	9.786200
1722.000000	9.771900
1721.000000	9.812000
1720.000000	9.900000
1719.000000	9.921900
1718.000000	10.000700
1717.000000	10.080100
1716.000000	10.145200
1715.000000	10.192200
1714.000000	10.202500
1713.000000	10.253100
1712.000000	10.295800
1711.000000	10.346900
1710.000000	10.381100
1709.000000	10.423900
1708.000000	10.499700
1707.000000	10.512800
1706.000000	10.505900
1705.000000	10.529500
1704.000000	10.556300
1703.000000	10.547900
1702.000000	10.526600
1701.000000	10.539900
1700.000000	10.540000
1699.000000	10.567400
1698.000000	10.597800
1697.000000	10.577700
1696.000000	10.576800
1695.000000	10.568600
1694.000000	10.560700
1693.000000	10.514100
1692.000000	10.484800
1691.000000	10.440600
1690.000000	10.488300
1689.000000	10.478000
1688.000000	10.467900
1687.000000	10.452900
1686.000000	10.440200
1685.000000	10.521200
1684.000000	10.545300
1683.000000	10.642100
1682.000000	10.684900
1681.000000	10.722300
1680.000000	10.754500
1679.000000	10.801300
1678.000000	10.869700
1677.000000	10.943800
1676.000000	10.967900
1675.000000	11.000500
1674.000000	11.017100
1673.000000	11.089300
1672.000000	11.138300
1671.000000	11.162700
1670.000000	11.224300
1669.000000	11.294100
1668.000000	11.341700
1667.000000	11.369300
1666.000000	11.444300
1665.000000	11.455800
1664.000000	11.484300
1663.000000	11.465500
1662.000000	11.504800
1661.000000	11.579200
1660.000000	11.606400
1659.000000	11.634100
1658.000000	11.644000
1657.000000	11.702700
1656.000000	11.693600
1655.000000	11.698200
1654.000000	11.701600
1653.000000	11.730700
1652.000000	11.730900
1651.000000	11.726600
1650.000000	11.733300
1649.000000	11.789100
1648.000000	11.766300
1647.000000	11.691000
1646.000000	11.677500
1645.000000	11.692100
1644.000000	11.730400
1643.000000	11.673600
1642.000000	11.701500
1641.000000	11.676000
1640.000000	11.680900
1639.000000	11.681000
1638.000000	11.656300
1637.000000	11.668500
1636.000000	11.648400
1635.000000	11.641800
1634.000000	11.646600
1633.000000	11.644000
1632.000000	11.669500
1631.000000	11.668400
1630.000000	11.649000
1629.000000	11.636900
1628.000000	11.614300
1627.000000	11.580600
1626.000000	11.612800
1625.000000	11.567400
1624.000000	11.544100
1623.000000	11.534900
1622.000000	11.549000
1621.000000	11.497300
1620.000000	11.508300
1619.000000	11.535500
1618.000000	11.519200
1617.000000	11.542700
1616.000000	11.505600
1615.000000	11.497900
1614.000000	11.510700
1613.000000	11.470800
1612.000000	11.453300
1611.000000	11.467000
1610.000000	11.430200
1609.000000	11.432300
1608.000000	11.401500
1607.000000	11.399700
1606.000000	11.366100
1605.000000	11.362400
1604.000000	11.360700
1603.000000	11.385600
1602.000000	11.297600
1601.000000	11.300200
1600.000000	11.312000
1599.000000	11.254200
1598.000000	11.230800
1597.000000	11.229000
1596.000000	11.213800
1595.000000	11.136400
1594.000000	11.134700
1593.000000	11.108100
1592.000000	11.117700
1591.000000	11.110100
1590.000000	11.100200
1589.000000	11.082200
1588.000000	11.079200
1587.000000	11.075500
1586.000000	11.063500
1585.000000	11.061300
1584.000000	11.039000
1583.000000	11.019300
1582.000000	10.976000
1581.000000	10.963600
1580.000000	10.958700
1579.000000	10.964300
1578.000000	10.986400
1577.000000	11.013700
1576.000000	10.984700
1575.000000	11.010100
1574.000000	10.991800
1573.000000	10.991100
1572.000000	10.994900
1571.000000	10.953700
1570.000000	10.966900
1569.000000	10.966800
1568.000000	10.967200
1567.000000	10.918700
1566.000000	10.939000
1565.000000	10.979200
1564.000000	11.015600
1563.000000	10.999800
1562.000000	11.003500
1561.000000	11.001200
1560.000000	11.005500
1559.000000	11.020800
1558.000000	10.959500
1557.000000	10.948200
1556.000000	10.950200
1555.000000	10.968900
1554.000000	10.933300
1553.000000	10.898800
1552.000000	10.879000
1551.000000	10.874500
1550.000000	10.870200
1549.000000	10.864100
1548.000000	10.820900
1547.000000	10.813100
1546.000000	10.778800
1545.000000	10.814700
1544.000000	10.757600
1543.000000	10.757800
1542.000000	10.748600
1541.000000	10.732500
1540.000000	10.710300
1539.000000	10.694200
1538.000000	10.714200
1537.000000	10.718400
1536.000000	10.672800
1535.000000	10.690500
1534.000000	10.691000
1533.000000	10.650200
1532.000000	10.633000
1531.000000	10.583100
1530.000000	10.548000
1529.000000	10.567600
1528.000000	10.575100
1527.000000	10.581900
1526.000000	10.553300
1525.000000	10.537500
1524.000000	10.518900
1523.000000	10.486400
1522.000000	10.460500
1521.000000	10.477200
1520.000000	10.464500
1519.000000	10.451800
1518.000000	10.405800
1517.000000	10.391800
1516.000000	10.374300
1515.000000	10.342900
1514.000000	10.302000
1513.000000	10.267600
1512.000000	10.260000
1511.000000	10.245900
1510.000000	10.218600
1509.000000	10.206800
1508.000000	10.200000
1507.000000	10.158000
1506.000000	10.120500
1505.000000	10.121000
1504.000000	10.124600
1503.000000	10.125100
1502.000000	10.101300
1501.000000	10.083100
1500.000000	10.062800
1499.000000	10.050400
