PE UV       SUBTECH     SPECTRUM    ASCII       PEDS        4.00        
   -1
CICIMAUCR0070-1.Sample.ASC
24/04/17
15:12:00.00
24/04/17
15:12:00.00
Vinicio Soto Monge
C. resplendens
250,000000
1
Lambda 1050
1050L1511233
PerkinElmer UV WinLab 6.3.2.0749 / 2.02.05 Lambda 900 UV/VIS/NIR, Aug  7 2015 09:38:08

0
0
3350/servo 860,8/2
0
0
UV/VIS
1
1
1
DoubleDePol,CommonBeamDepol,RBeamAtt,SBeamAtt,60mm sphere, WB InGaAs Detector
0
0
0
0
Program
Program
3350/servo 860,8/2
3350/0,2 860,8/0,2
3350/0,2 860,8/0,2
0
15.00
 
 
 
0
 
860,8
319,2
860,8
Front
100
on
S:100 R:100
0
0
0
0
 
0
 
 
 
0
 
 
0
0
0
0
0
 
 
 
 
0
0


0
0
#HDR
-1
-1
#GR
nm
%R
1.0
0.0
2500,000000
-1,000000
2251
8
86,954100
5,179600
#DATA
2500.000000	20.454000
2499.000000	20.337300
2498.000000	20.406700
2497.000000	20.444600
2496.000000	20.393800
2495.000000	20.238900
2494.000000	20.326700
2493.000000	20.323500
2492.000000	20.357200
2491.000000	20.386500
2490.000000	20.419000
2489.000000	20.328200
2488.000000	20.365800
2487.000000	20.282000
2486.000000	20.327000
2485.000000	20.391000
2484.000000	20.424500
2483.000000	20.407600
2482.000000	20.401600
2481.000000	20.508600
2480.000000	20.468300
2479.000000	20.486000
2478.000000	20.525500
2477.000000	20.532100
2476.000000	20.574700
2475.000000	20.636800
2474.000000	20.680000
2473.000000	20.736900
2472.000000	20.799900
2471.000000	20.822200
2470.000000	20.869300
2469.000000	20.908900
2468.000000	20.988600
2467.000000	21.083700
2466.000000	21.132700
2465.000000	21.182300
2464.000000	21.256800
2463.000000	21.315300
2462.000000	21.371900
2461.000000	21.480500
2460.000000	21.548100
2459.000000	21.622700
2458.000000	21.735200
2457.000000	21.787900
2456.000000	21.910000
2455.000000	22.010800
2454.000000	22.110600
2453.000000	22.214100
2452.000000	22.313500
2451.000000	22.459700
2450.000000	22.566200
2449.000000	22.690000
2448.000000	22.818800
2447.000000	22.954000
2446.000000	23.088200
2445.000000	23.205500
2444.000000	23.327500
2443.000000	23.451400
2442.000000	23.599600
2441.000000	23.723500
2440.000000	23.855000
2439.000000	23.990500
2438.000000	24.111200
2437.000000	24.235600
2436.000000	24.356200
2435.000000	24.464000
2434.000000	24.603800
2433.000000	24.742900
2432.000000	24.837600
2431.000000	24.970100
2430.000000	25.083200
2429.000000	25.172100
2428.000000	25.288500
2427.000000	25.416100
2426.000000	25.522000
2425.000000	25.606500
2424.000000	25.719300
2423.000000	25.821700
2422.000000	25.903900
2421.000000	26.011200
2420.000000	26.189800
2419.000000	26.373000
2418.000000	26.573700
2417.000000	26.735000
2416.000000	26.800300
2415.000000	26.894600
2414.000000	26.966100
2413.000000	27.055300
2412.000000	27.179900
2411.000000	27.272000
2410.000000	27.331200
2409.000000	27.412000
2408.000000	27.510000
2407.000000	27.577900
2406.000000	27.668000
2405.000000	27.724100
2404.000000	27.785300
2403.000000	27.866500
2402.000000	27.923300
2401.000000	28.000300
2400.000000	28.022100
2399.000000	28.086600
2398.000000	28.168400
2397.000000	28.192600
2396.000000	28.245500
2395.000000	28.324300
2394.000000	28.350600
2393.000000	28.397800
2392.000000	28.448000
2391.000000	28.473300
2390.000000	28.517000
2389.000000	28.566100
2388.000000	28.584700
2387.000000	28.599400
2386.000000	28.636200
2385.000000	28.684900
2384.000000	28.692100
2383.000000	28.714700
2382.000000	28.746100
2381.000000	28.760900
2380.000000	28.774600
2379.000000	28.791100
2378.000000	28.784300
2377.000000	28.768400
2376.000000	28.796800
2375.000000	28.821500
2374.000000	28.805400
2373.000000	28.790700
2372.000000	28.813700
2371.000000	28.838100
2370.000000	28.834700
2369.000000	28.856500
2368.000000	28.876600
2367.000000	28.879500
2366.000000	28.885700
2365.000000	28.892600
2364.000000	28.917700
2363.000000	28.946000
2362.000000	28.958100
2361.000000	28.988700
2360.000000	29.006000
2359.000000	29.001100
2358.000000	28.984600
2357.000000	29.003200
2356.000000	29.024300
2355.000000	28.997900
2354.000000	28.984100
2353.000000	29.003200
2352.000000	29.004200
2351.000000	28.996900
2350.000000	29.019400
2349.000000	29.017400
2348.000000	29.008500
2347.000000	28.995000
2346.000000	29.008800
2345.000000	29.013500
2344.000000	28.992300
2343.000000	29.011800
2342.000000	29.022700
2341.000000	29.011000
2340.000000	29.050400
2339.000000	29.054900
2338.000000	29.065600
2337.000000	29.083900
2336.000000	29.083900
2335.000000	29.116600
2334.000000	29.139400
2333.000000	29.158600
2332.000000	29.191800
2331.000000	29.221500
2330.000000	29.260000
2329.000000	29.285600
2328.000000	29.348000
2327.000000	29.375400
2326.000000	29.393800
2325.000000	29.452900
2324.000000	29.484200
2323.000000	29.486400
2322.000000	29.536500
2321.000000	29.546900
2320.000000	29.540800
2319.000000	29.573500
2318.000000	29.577600
2317.000000	29.561500
2316.000000	29.547700
2315.000000	29.535200
2314.000000	29.512900
2313.000000	29.494300
2312.000000	29.461200
2311.000000	29.418500
2310.000000	29.388400
2309.000000	29.367800
2308.000000	29.326600
2307.000000	29.282800
2306.000000	29.266600
2305.000000	29.251700
2304.000000	29.237400
2303.000000	29.214300
2302.000000	29.202700
2301.000000	29.200000
2300.000000	29.190900
2299.000000	29.182000
2298.000000	29.199200
2297.000000	29.223700
2296.000000	29.215700
2295.000000	29.251200
2294.000000	29.251800
2293.000000	29.287700
2292.000000	29.332900
2291.000000	29.350000
2290.000000	29.360700
2289.000000	29.395000
2288.000000	29.452200
2287.000000	29.495900
2286.000000	29.529700
2285.000000	29.573000
2284.000000	29.650400
2283.000000	29.701800
2282.000000	29.749700
2281.000000	29.799400
2280.000000	29.850100
2279.000000	29.895600
2278.000000	29.947200
2277.000000	30.013000
2276.000000	30.044300
2275.000000	30.092000
2274.000000	30.126100
2273.000000	30.158900
2272.000000	30.222300
2271.000000	30.278700
2270.000000	30.341600
2269.000000	30.399800
2268.000000	30.448300
2267.000000	30.494000
2266.000000	30.580900
2265.000000	30.645700
2264.000000	30.765300
2263.000000	30.853500
2262.000000	30.977100
2261.000000	31.090100
2260.000000	31.246300
2259.000000	31.380900
2258.000000	31.550600
2257.000000	31.694700
2256.000000	31.885600
2255.000000	32.069000
2254.000000	32.241400
2253.000000	32.424600
2252.000000	32.636100
2251.000000	32.806100
2250.000000	32.958800
2249.000000	33.134600
2248.000000	33.321900
2247.000000	33.496200
2246.000000	33.615400
2245.000000	33.759300
2244.000000	33.881400
2243.000000	34.007300
2242.000000	34.098600
2241.000000	34.192200
2240.000000	34.272900
2239.000000	34.360200
2238.000000	34.418200
2237.000000	34.460300
2236.000000	34.473400
2235.000000	34.519800
2234.000000	34.528900
2233.000000	34.536100
2232.000000	34.520700
2231.000000	34.504400
2230.000000	34.487300
2229.000000	34.436300
2228.000000	34.411000
2227.000000	34.363800
2226.000000	34.279700
2225.000000	34.229600
2224.000000	34.152100
2223.000000	34.087900
2222.000000	34.005200
2221.000000	33.921600
2220.000000	33.829500
2219.000000	33.727900
2218.000000	33.653800
2217.000000	33.535300
2216.000000	33.447300
2215.000000	33.358600
2214.000000	33.261200
2213.000000	33.160700
2212.000000	33.076300
2211.000000	32.996300
2210.000000	32.921100
2209.000000	32.846800
2208.000000	32.775300
2207.000000	32.705800
2206.000000	32.632800
2205.000000	32.577800
2204.000000	32.527000
2203.000000	32.472000
2202.000000	32.430700
2201.000000	32.379900
2200.000000	32.344100
2199.000000	32.294500
2198.000000	32.249900
2197.000000	32.216700
2196.000000	32.175200
2195.000000	32.147800
2194.000000	32.116400
2193.000000	32.088500
2192.000000	32.063500
2191.000000	32.047000
2190.000000	32.009700
2189.000000	31.989400
2188.000000	31.979900
2187.000000	31.957400
2186.000000	31.943100
2185.000000	31.888700
2184.000000	31.867100
2183.000000	31.848300
2182.000000	31.824100
2181.000000	31.818900
2180.000000	31.773500
2179.000000	31.760800
2178.000000	31.734800
2177.000000	31.731900
2176.000000	31.717900
2175.000000	31.720200
2174.000000	31.718400
2173.000000	31.731900
2172.000000	31.700000
2171.000000	31.724500
2170.000000	31.743800
2169.000000	31.777200
2168.000000	31.804300
2167.000000	31.835200
2166.000000	31.876700
2165.000000	31.927600
2164.000000	31.966300
2163.000000	31.999500
2162.000000	32.068900
2161.000000	32.148800
2160.000000	32.227400
2159.000000	32.306000
2158.000000	32.396400
2157.000000	32.482700
2156.000000	32.575700
2155.000000	32.691900
2154.000000	32.804600
2153.000000	32.911000
2152.000000	33.026300
2151.000000	33.150800
2150.000000	33.278800
2149.000000	33.398800
2148.000000	33.523700
2147.000000	33.643300
2146.000000	33.773000
2145.000000	33.896200
2144.000000	34.013000
2143.000000	34.118600
2142.000000	34.244200
2141.000000	34.360200
2140.000000	34.472300
2139.000000	34.586900
2138.000000	34.683200
2137.000000	34.791800
2136.000000	34.901600
2135.000000	35.012900
2134.000000	35.113100
2133.000000	35.197000
2132.000000	35.278200
2131.000000	35.361700
2130.000000	35.449600
2129.000000	35.508100
2128.000000	35.580300
2127.000000	35.656300
2126.000000	35.716600
2125.000000	35.765400
2124.000000	35.815700
2123.000000	35.877600
2122.000000	35.926000
2121.000000	35.955000
2120.000000	35.980800
2119.000000	36.007400
2118.000000	36.039600
2117.000000	36.055500
2116.000000	36.080200
2115.000000	36.114100
2114.000000	36.118800
2113.000000	36.117200
2112.000000	36.130000
2111.000000	36.136500
2110.000000	36.135300
2109.000000	36.144400
2108.000000	36.148800
2107.000000	36.131100
2106.000000	36.138900
2105.000000	36.149500
2104.000000	36.135900
2103.000000	36.124200
2102.000000	36.117800
2101.000000	36.108500
2100.000000	36.107000
2099.000000	36.113400
2098.000000	36.106000
2097.000000	36.096800
2096.000000	36.098300
2095.000000	36.112700
2094.000000	36.129800
2093.000000	36.133900
2092.000000	36.144000
2091.000000	36.155600
2090.000000	36.162300
2089.000000	36.183000
2088.000000	36.181600
2087.000000	36.171500
2086.000000	36.173300
2085.000000	36.161500
2084.000000	36.137100
2083.000000	36.104800
2082.000000	36.078300
2081.000000	36.046300
2080.000000	35.999200
2079.000000	35.948000
2078.000000	35.878800
2077.000000	35.810200
2076.000000	35.739800
2075.000000	35.650500
2074.000000	35.562000
2073.000000	35.455000
2072.000000	35.340700
2071.000000	35.231000
2070.000000	35.119700
2069.000000	35.001900
2068.000000	34.866900
2067.000000	34.740000
2066.000000	34.610000
2065.000000	34.473900
2064.000000	34.330200
2063.000000	34.202100
2062.000000	34.087000
2061.000000	33.954300
2060.000000	33.847400
2059.000000	33.734700
2058.000000	33.644200
2057.000000	33.577600
2056.000000	33.526500
2055.000000	33.483700
2054.000000	33.475700
2053.000000	33.469800
2052.000000	33.496400
2051.000000	33.533000
2050.000000	33.589000
2049.000000	33.670400
2048.000000	33.777200
2047.000000	33.892400
2046.000000	34.013800
2045.000000	34.173100
2044.000000	34.309600
2043.000000	34.470400
2042.000000	34.621100
2041.000000	34.758400
2040.000000	34.893900
2039.000000	35.037700
2038.000000	35.194500
2037.000000	35.340100
2036.000000	35.477000
2035.000000	35.572800
2034.000000	35.682800
2033.000000	35.784000
2032.000000	35.897400
2031.000000	35.987700
2030.000000	36.078200
2029.000000	36.167400
2028.000000	36.237600
2027.000000	36.292400
2026.000000	36.364700
2025.000000	36.411600
2024.000000	36.446700
2023.000000	36.522400
2022.000000	36.570400
2021.000000	36.602000
2020.000000	36.623400
2019.000000	36.648600
2018.000000	36.666300
2017.000000	36.680300
2016.000000	36.682900
2015.000000	36.705000
2014.000000	36.690300
2013.000000	36.690000
2012.000000	36.661800
2011.000000	36.646600
2010.000000	36.621800
2009.000000	36.589300
2008.000000	36.537300
2007.000000	36.501000
2006.000000	36.435900
2005.000000	36.390800
2004.000000	36.318300
2003.000000	36.265200
2002.000000	36.185800
2001.000000	36.114500
2000.000000	36.042200
1999.000000	35.941100
1998.000000	35.854200
1997.000000	35.767600
1996.000000	35.663900
1995.000000	35.545600
1994.000000	35.454300
1993.000000	35.337200
1992.000000	35.217700
1991.000000	35.128100
1990.000000	34.988200
1989.000000	34.865500
1988.000000	34.741700
1987.000000	34.624300
1986.000000	34.500400
1985.000000	34.383800
1984.000000	34.264400
1983.000000	34.144500
1982.000000	34.010300
1981.000000	33.894800
1980.000000	33.752500
1979.000000	33.633900
1978.000000	33.491900
1977.000000	33.373300
1976.000000	33.245800
1975.000000	33.128300
1974.000000	33.025000
1973.000000	32.910400
1972.000000	32.774900
1971.000000	32.645500
1970.000000	32.526500
1969.000000	32.429300
1968.000000	32.302900
1967.000000	32.187500
1966.000000	32.092800
1965.000000	31.978500
1964.000000	31.852500
1963.000000	31.761800
1962.000000	31.630200
1961.000000	31.498900
1960.000000	31.397400
1959.000000	31.278200
1958.000000	31.164900
1957.000000	31.047200
1956.000000	30.940700
1955.000000	30.815000
1954.000000	30.732500
1953.000000	30.620300
1952.000000	30.496200
1951.000000	30.377800
1950.000000	30.271000
1949.000000	30.191000
1948.000000	30.101800
1947.000000	30.020500
1946.000000	29.917600
1945.000000	29.855500
1944.000000	29.801400
1943.000000	29.715600
1942.000000	29.688100
1941.000000	29.632400
1940.000000	29.591600
1939.000000	29.568300
1938.000000	29.541500
1937.000000	29.518400
1936.000000	29.517500
1935.000000	29.518700
1934.000000	29.531500
1933.000000	29.576000
1932.000000	29.634500
1931.000000	29.688600
1930.000000	29.757700
1929.000000	29.852400
1928.000000	29.981300
1927.000000	30.095400
1926.000000	30.215300
1925.000000	30.359400
1924.000000	30.493200
1923.000000	30.664800
1922.000000	30.859000
1921.000000	31.089800
1920.000000	31.353000
1919.000000	31.567500
1918.000000	31.792200
1917.000000	32.061900
1916.000000	32.326900
1915.000000	32.601500
1914.000000	32.962600
1913.000000	33.341400
1912.000000	33.744200
1911.000000	34.109800
1910.000000	34.508700
1909.000000	34.849300
1908.000000	35.219200
1907.000000	35.692500
1906.000000	36.226900
1905.000000	36.839200
1904.000000	37.412900
1903.000000	37.940700
1902.000000	38.479100
1901.000000	39.066500
1900.000000	39.723100
1899.000000	40.430500
1898.000000	41.080900
1897.000000	41.764400
1896.000000	42.357600
1895.000000	42.926200
1894.000000	43.546800
1893.000000	44.214200
1892.000000	44.919200
1891.000000	45.660900
1890.000000	46.334400
1889.000000	46.927700
1888.000000	47.555800
1887.000000	48.114500
1886.000000	48.664800
1885.000000	49.223200
1884.000000	49.797300
1883.000000	50.342800
1882.000000	50.821500
1881.000000	51.258900
1880.000000	51.663200
1879.000000	52.042500
1878.000000	52.449500
1877.000000	52.812800
1876.000000	53.159100
1875.000000	53.508400
1874.000000	53.860600
1873.000000	54.196400
1872.000000	54.495200
1871.000000	54.764700
1870.000000	55.009400
1869.000000	55.203800
1868.000000	55.398700
1867.000000	55.538000
1866.000000	55.614200
1865.000000	55.705500
1864.000000	55.793600
1863.000000	55.879900
1862.000000	56.002500
1861.000000	56.145900
1860.000000	56.272500
1859.000000	56.393000
1858.000000	56.490400
1857.000000	56.555600
1856.000000	56.600000
1855.000000	56.657300
1854.000000	56.732700
1853.000000	56.752900
1852.000000	56.755800
1851.000000	56.798400
1850.000000	56.847400
1849.000000	56.905600
1848.000000	56.971600
1847.000000	57.013800
1846.000000	56.947500
1845.000000	56.862800
1844.000000	56.846300
1843.000000	56.854700
1842.000000	56.935300
1841.000000	56.971100
1840.000000	56.937000
1839.000000	56.906300
1838.000000	56.860300
1837.000000	56.838200
1836.000000	56.818800
1835.000000	56.764700
1834.000000	56.672600
1833.000000	56.605200
1832.000000	56.551100
1831.000000	56.531400
1830.000000	56.523200
1829.000000	56.493000
1828.000000	56.447600
1827.000000	56.402500
1826.000000	56.389800
1825.000000	56.355300
1824.000000	56.310100
1823.000000	56.288500
1822.000000	56.363600
1821.000000	56.430000
1820.000000	56.413800
1819.000000	56.365900
1818.000000	56.314600
1817.000000	56.292700
1816.000000	56.285500
1815.000000	56.281100
1814.000000	56.255200
1813.000000	56.243400
1812.000000	56.233300
1811.000000	56.201500
1810.000000	56.147700
1809.000000	56.109100
1808.000000	56.085500
1807.000000	56.075300
1806.000000	56.052200
1805.000000	56.012800
1804.000000	55.983900
1803.000000	55.972300
1802.000000	55.960200
1801.000000	55.938600
1800.000000	55.909200
1799.000000	55.885100
1798.000000	55.854200
1797.000000	55.814800
1796.000000	55.798500
1795.000000	55.790300
1794.000000	55.765000
1793.000000	55.744400
1792.000000	55.722900
1791.000000	55.722300
1790.000000	55.704600
1789.000000	55.703300
1788.000000	55.710700
1787.000000	55.714400
1786.000000	55.728000
1785.000000	55.738400
1784.000000	55.733800
1783.000000	55.734500
1782.000000	55.724900
1781.000000	55.726800
1780.000000	55.721600
1779.000000	55.713300
1778.000000	55.699400
1777.000000	55.678400
1776.000000	55.647500
1775.000000	55.622100
1774.000000	55.593700
1773.000000	55.564300
1772.000000	55.542300
1771.000000	55.518500
1770.000000	55.480900
1769.000000	55.470000
1768.000000	55.437400
1767.000000	55.411300
1766.000000	55.380900
1765.000000	55.368900
1764.000000	55.362600
1763.000000	55.351900
1762.000000	55.339800
1761.000000	55.341300
1760.000000	55.354000
1759.000000	55.373400
1758.000000	55.370800
1757.000000	55.389000
1756.000000	55.406200
1755.000000	55.402200
1754.000000	55.411700
1753.000000	55.410000
1752.000000	55.415200
1751.000000	55.417300
1750.000000	55.415200
1749.000000	55.380500
1748.000000	55.360600
1747.000000	55.339800
1746.000000	55.307200
1745.000000	55.261800
1744.000000	55.202200
1743.000000	55.150700
1742.000000	55.100800
1741.000000	55.020600
1740.000000	54.967000
1739.000000	54.915200
1738.000000	54.873200
1737.000000	54.830000
1736.000000	54.790400
1735.000000	54.726600
1734.000000	54.702600
1733.000000	54.669600
1732.000000	54.638500
1731.000000	54.611500
1730.000000	54.596300
1729.000000	54.564600
1728.000000	54.546300
1727.000000	54.522500
1726.000000	54.504300
1725.000000	54.500900
1724.000000	54.514500
1723.000000	54.558100
1722.000000	54.632200
1721.000000	54.758100
1720.000000	54.918800
1719.000000	55.120900
1718.000000	55.322800
1717.000000	55.523100
1716.000000	55.758000
1715.000000	55.977100
1714.000000	56.169300
1713.000000	56.350400
1712.000000	56.517500
1711.000000	56.666300
1710.000000	56.817800
1709.000000	56.942400
1708.000000	57.041000
1707.000000	57.153300
1706.000000	57.217400
1705.000000	57.281600
1704.000000	57.314200
1703.000000	57.374300
1702.000000	57.395300
1701.000000	57.403400
1700.000000	57.429900
1699.000000	57.432600
1698.000000	57.441900
1697.000000	57.448400
1696.000000	57.437200
1695.000000	57.405600
1694.000000	57.363500
1693.000000	57.354200
1692.000000	57.272600
1691.000000	57.223800
1690.000000	57.198100
1689.000000	57.155500
1688.000000	57.172000
1687.000000	57.234400
1686.000000	57.344700
1685.000000	57.475500
1684.000000	57.645200
1683.000000	57.839500
1682.000000	58.068400
1681.000000	58.243900
1680.000000	58.459300
1679.000000	58.661100
1678.000000	58.853600
1677.000000	59.042200
1676.000000	59.206100
1675.000000	59.379600
1674.000000	59.566600
1673.000000	59.707700
1672.000000	59.875300
1671.000000	60.033000
1670.000000	60.185600
1669.000000	60.355600
1668.000000	60.502100
1667.000000	60.678500
1666.000000	60.813900
1665.000000	60.931100
1664.000000	61.062900
1663.000000	61.180000
1662.000000	61.298600
1661.000000	61.415500
1660.000000	61.502900
1659.000000	61.602300
1658.000000	61.673300
1657.000000	61.742700
1656.000000	61.800700
1655.000000	61.854000
1654.000000	61.894000
1653.000000	61.924700
1652.000000	61.944900
1651.000000	61.968000
1650.000000	61.979600
1649.000000	61.968600
1648.000000	61.973100
1647.000000	61.966400
1646.000000	61.956800
1645.000000	61.940900
1644.000000	61.932200
1643.000000	61.920500
1642.000000	61.903800
1641.000000	61.910300
1640.000000	61.894300
1639.000000	61.884100
1638.000000	61.864800
1637.000000	61.846600
1636.000000	61.815100
1635.000000	61.798100
1634.000000	61.760700
1633.000000	61.742100
1632.000000	61.715900
1631.000000	61.679400
1630.000000	61.624500
1629.000000	61.593200
1628.000000	61.553900
1627.000000	61.505900
1626.000000	61.463700
1625.000000	61.420100
1624.000000	61.368400
