PE UV       SUBTECH     SPECTRUM    ASCII       PEDS        4.00        
   -1
CICIMAUCR0112-3.Sample.ASC
24/04/22
10:19:40.00
24/04/22
10:19:40.00
Vinicio Soto Monge
C. resplendens
250,000000
1
Lambda 1050
1050L1511233
PerkinElmer UV WinLab 6.3.2.0749 / 2.02.05 Lambda 900 UV/VIS/NIR, Aug  7 2015 09:38:08

0
0
3350/servo 860,8/2
0
0
UV/VIS
1
1
1
DoubleDePol,CommonBeamDepol,RBeamAtt,SBeamAtt,60mm sphere, WB InGaAs Detector
0
0
0
0
Program
Program
3350/servo 860,8/2
3350/0,2 860,8/0,2
3350/0,2 860,8/0,2
0
15.00
 
 
 
0
 
860,8
319,2
860,8
Front
100
on
S:100 R:100
0
0
0
0
 
0
 
 
 
0
 
 
0
0
0
0
0
 
 
 
 
0
0


0
0
#HDR
-1
-1
#GR
nm
%R
1.0
0.0
2500,000000
-1,000000
2251
8
88,787000
5,681000
#DATA
2500.000000	15.397900
2499.000000	15.398900
2498.000000	15.364100
2497.000000	15.268700
2496.000000	15.257100
2495.000000	15.222800
2494.000000	15.247100
2493.000000	15.188400
2492.000000	15.124300
2491.000000	15.190400
2490.000000	15.104100
2489.000000	15.111700
2488.000000	15.117500
2487.000000	15.124300
2486.000000	15.098200
2485.000000	15.020500
2484.000000	14.991700
2483.000000	15.056100
2482.000000	15.055000
2481.000000	15.068200
2480.000000	15.053500
2479.000000	15.099700
2478.000000	15.149600
2477.000000	15.135200
2476.000000	15.130400
2475.000000	15.140000
2474.000000	15.181300
2473.000000	15.233300
2472.000000	15.222900
2471.000000	15.287100
2470.000000	15.320100
2469.000000	15.352200
2468.000000	15.387700
2467.000000	15.430900
2466.000000	15.485100
2465.000000	15.542400
2464.000000	15.619000
2463.000000	15.681700
2462.000000	15.708400
2461.000000	15.849000
2460.000000	15.903700
2459.000000	15.989400
2458.000000	16.125200
2457.000000	16.230600
2456.000000	16.328500
2455.000000	16.455400
2454.000000	16.576200
2453.000000	16.702000
2452.000000	16.825800
2451.000000	16.972300
2450.000000	17.113200
2449.000000	17.251700
2448.000000	17.380200
2447.000000	17.531600
2446.000000	17.663500
2445.000000	17.838200
2444.000000	17.972200
2443.000000	18.115700
2442.000000	18.296100
2441.000000	18.408800
2440.000000	18.547000
2439.000000	18.704400
2438.000000	18.840800
2437.000000	18.960000
2436.000000	19.097400
2435.000000	19.245300
2434.000000	19.379900
2433.000000	19.497200
2432.000000	19.621900
2431.000000	19.735200
2430.000000	19.852000
2429.000000	19.970300
2428.000000	20.078700
2427.000000	20.185600
2426.000000	20.292700
2425.000000	20.390400
2424.000000	20.442400
2423.000000	20.491300
2422.000000	20.546600
2421.000000	20.602100
2420.000000	20.654800
2419.000000	20.739000
2418.000000	20.817600
2417.000000	20.887400
2416.000000	20.962000
2415.000000	21.017800
2414.000000	21.078700
2413.000000	21.101700
2412.000000	21.141100
2411.000000	21.195900
2410.000000	21.244600
2409.000000	21.289600
2408.000000	21.314400
2407.000000	21.334100
2406.000000	21.379400
2405.000000	21.431900
2404.000000	21.462600
2403.000000	21.480000
2402.000000	21.495800
2401.000000	21.529200
2400.000000	21.581400
2399.000000	21.603100
2398.000000	21.605700
2397.000000	21.634000
2396.000000	21.652500
2395.000000	21.667400
2394.000000	21.690400
2393.000000	21.690700
2392.000000	21.695900
2391.000000	21.717700
2390.000000	21.719300
2389.000000	21.709900
2388.000000	21.703100
2387.000000	21.703700
2386.000000	21.690100
2385.000000	21.670700
2384.000000	21.649500
2383.000000	21.620000
2382.000000	21.592100
2381.000000	21.566000
2380.000000	21.535700
2379.000000	21.488500
2378.000000	21.439400
2377.000000	21.405800
2376.000000	21.350900
2375.000000	21.293800
2374.000000	21.260000
2373.000000	21.227300
2372.000000	21.171300
2371.000000	21.101700
2370.000000	21.042000
2369.000000	20.998300
2368.000000	20.951900
2367.000000	20.895900
2366.000000	20.836900
2365.000000	20.776400
2364.000000	20.707100
2363.000000	20.638300
2362.000000	20.578000
2361.000000	20.519800
2360.000000	20.459700
2359.000000	20.390000
2358.000000	20.329300
2357.000000	20.268800
2356.000000	20.225500
2355.000000	20.189600
2354.000000	20.166000
2353.000000	20.146600
2352.000000	20.119600
2351.000000	20.102300
2350.000000	20.093700
2349.000000	20.090300
2348.000000	20.099300
2347.000000	20.102100
2346.000000	20.104500
2345.000000	20.111400
2344.000000	20.118400
2343.000000	20.140400
2342.000000	20.149900
2341.000000	20.128800
2340.000000	20.126900
2339.000000	20.120500
2338.000000	20.103900
2337.000000	20.092300
2336.000000	20.073900
2335.000000	20.049400
2334.000000	20.009800
2333.000000	19.984900
2332.000000	19.963100
2331.000000	19.924100
2330.000000	19.871400
2329.000000	19.843400
2328.000000	19.808300
2327.000000	19.753400
2326.000000	19.687400
2325.000000	19.619400
2324.000000	19.556800
2323.000000	19.469500
2322.000000	19.387600
2321.000000	19.295400
2320.000000	19.201800
2319.000000	19.090100
2318.000000	18.965500
2317.000000	18.823600
2316.000000	18.708900
2315.000000	18.585400
2314.000000	18.445500
2313.000000	18.345000
2312.000000	18.237600
2311.000000	18.127000
2310.000000	18.042200
2309.000000	17.966900
2308.000000	17.910400
2307.000000	17.887000
2306.000000	17.855300
2305.000000	17.862200
2304.000000	17.904200
2303.000000	17.928400
2302.000000	17.977200
2301.000000	18.018100
2300.000000	18.088600
2299.000000	18.160500
2298.000000	18.246700
2297.000000	18.318800
2296.000000	18.410000
2295.000000	18.486500
2294.000000	18.553600
2293.000000	18.621200
2292.000000	18.674300
2291.000000	18.707300
2290.000000	18.748200
2289.000000	18.777300
2288.000000	18.799800
2287.000000	18.795000
2286.000000	18.820800
2285.000000	18.802200
2284.000000	18.801900
2283.000000	18.792900
2282.000000	18.799600
2281.000000	18.785100
2280.000000	18.739600
2279.000000	18.720300
2278.000000	18.704600
2277.000000	18.689400
2276.000000	18.657600
2275.000000	18.658900
2274.000000	18.664700
2273.000000	18.667000
2272.000000	18.692700
2271.000000	18.738500
2270.000000	18.780600
2269.000000	18.867900
2268.000000	18.968700
2267.000000	19.113400
2266.000000	19.255500
2265.000000	19.442200
2264.000000	19.646100
2263.000000	19.868600
2262.000000	20.116200
2261.000000	20.395200
2260.000000	20.689800
2259.000000	20.990100
2258.000000	21.288100
2257.000000	21.603200
2256.000000	21.943300
2255.000000	22.281000
2254.000000	22.599800
2253.000000	22.903300
2252.000000	23.226600
2251.000000	23.533300
2250.000000	23.833000
2249.000000	24.070800
2248.000000	24.312200
2247.000000	24.552900
2246.000000	24.781300
2245.000000	24.993000
2244.000000	25.176500
2243.000000	25.341400
2242.000000	25.486600
2241.000000	25.646500
2240.000000	25.736500
2239.000000	25.846000
2238.000000	25.941300
2237.000000	26.016300
2236.000000	26.063200
2235.000000	26.132900
2234.000000	26.129800
2233.000000	26.176600
2232.000000	26.185800
2231.000000	26.163400
2230.000000	26.164700
2229.000000	26.143900
2228.000000	26.087900
2227.000000	26.033700
2226.000000	25.970300
2225.000000	25.911000
2224.000000	25.821700
2223.000000	25.757000
2222.000000	25.667300
2221.000000	25.553500
2220.000000	25.479600
2219.000000	25.353400
2218.000000	25.247600
2217.000000	25.158900
2216.000000	25.045600
2215.000000	24.967900
2214.000000	24.860700
2213.000000	24.766900
2212.000000	24.699600
2211.000000	24.608000
2210.000000	24.535900
2209.000000	24.460400
2208.000000	24.399600
2207.000000	24.347700
2206.000000	24.287300
2205.000000	24.219500
2204.000000	24.193900
2203.000000	24.124000
2202.000000	24.089100
2201.000000	24.056800
2200.000000	24.026600
2199.000000	23.993200
2198.000000	23.945500
2197.000000	23.912800
2196.000000	23.902900
2195.000000	23.875100
2194.000000	23.839500
2193.000000	23.834300
2192.000000	23.817400
2191.000000	23.804800
2190.000000	23.780100
2189.000000	23.750100
2188.000000	23.719600
2187.000000	23.711200
2186.000000	23.684100
2185.000000	23.667600
2184.000000	23.635900
2183.000000	23.623900
2182.000000	23.586800
2181.000000	23.570400
2180.000000	23.542400
2179.000000	23.533600
2178.000000	23.533800
2177.000000	23.528400
2176.000000	23.493300
2175.000000	23.491500
2174.000000	23.515800
2173.000000	23.517900
2172.000000	23.531400
2171.000000	23.554700
2170.000000	23.592900
2169.000000	23.608600
2168.000000	23.639500
2167.000000	23.687000
2166.000000	23.727800
2165.000000	23.772700
2164.000000	23.845500
2163.000000	23.893800
2162.000000	23.965100
2161.000000	24.063900
2160.000000	24.140100
2159.000000	24.234000
2158.000000	24.324000
2157.000000	24.461200
2156.000000	24.573100
2155.000000	24.674800
2154.000000	24.786600
2153.000000	24.913600
2152.000000	25.051200
2151.000000	25.171300
2150.000000	25.294500
2149.000000	25.400900
2148.000000	25.536100
2147.000000	25.662400
2146.000000	25.775300
2145.000000	25.896700
2144.000000	26.007600
2143.000000	26.139000
2142.000000	26.253900
2141.000000	26.352600
2140.000000	26.457000
2139.000000	26.570800
2138.000000	26.680600
2137.000000	26.775400
2136.000000	26.870600
2135.000000	26.938900
2134.000000	27.033900
2133.000000	27.115400
2132.000000	27.198300
2131.000000	27.271300
2130.000000	27.321700
2129.000000	27.373800
2128.000000	27.439900
2127.000000	27.480900
2126.000000	27.515200
2125.000000	27.544700
2124.000000	27.575900
2123.000000	27.604100
2122.000000	27.626600
2121.000000	27.640200
2120.000000	27.634900
2119.000000	27.637700
2118.000000	27.632300
2117.000000	27.628800
2116.000000	27.621300
2115.000000	27.623500
2114.000000	27.611900
2113.000000	27.578700
2112.000000	27.567800
2111.000000	27.549400
2110.000000	27.521100
2109.000000	27.507800
2108.000000	27.476700
2107.000000	27.446100
2106.000000	27.429000
2105.000000	27.393100
2104.000000	27.361100
2103.000000	27.337800
2102.000000	27.308400
2101.000000	27.280400
2100.000000	27.246800
2099.000000	27.225300
2098.000000	27.212600
2097.000000	27.198700
2096.000000	27.189900
2095.000000	27.190600
2094.000000	27.189900
2093.000000	27.185300
2092.000000	27.184400
2091.000000	27.182300
2090.000000	27.183200
2089.000000	27.184500
2088.000000	27.176800
2087.000000	27.171000
2086.000000	27.160800
2085.000000	27.144300
2084.000000	27.109800
2083.000000	27.065100
2082.000000	27.023700
2081.000000	26.979200
2080.000000	26.913100
2079.000000	26.840800
2078.000000	26.767600
2077.000000	26.687100
2076.000000	26.593800
2075.000000	26.508700
2074.000000	26.414700
2073.000000	26.298900
2072.000000	26.183100
2071.000000	26.054500
2070.000000	25.938700
2069.000000	25.807700
2068.000000	25.672900
2067.000000	25.558600
2066.000000	25.424800
2065.000000	25.304100
2064.000000	25.194000
2063.000000	25.074700
2062.000000	24.962100
2061.000000	24.859400
2060.000000	24.776500
2059.000000	24.705500
2058.000000	24.656400
2057.000000	24.632400
2056.000000	24.631600
2055.000000	24.643100
2054.000000	24.684400
2053.000000	24.752300
2052.000000	24.845700
2051.000000	24.969400
2050.000000	25.122400
2049.000000	25.292600
2048.000000	25.472700
2047.000000	25.680700
2046.000000	25.903200
2045.000000	26.133000
2044.000000	26.372500
2043.000000	26.616800
2042.000000	26.838400
2041.000000	27.116100
2040.000000	27.349000
2039.000000	27.580000
2038.000000	27.785000
2037.000000	27.999900
2036.000000	28.204500
2035.000000	28.411200
2034.000000	28.618400
2033.000000	28.769700
2032.000000	28.938200
2031.000000	29.110100
2030.000000	29.261700
2029.000000	29.412400
2028.000000	29.555600
2027.000000	29.672900
2026.000000	29.792600
2025.000000	29.903500
2024.000000	30.022800
2023.000000	30.140100
2022.000000	30.236100
2021.000000	30.319100
2020.000000	30.407800
2019.000000	30.491600
2018.000000	30.558500
2017.000000	30.628000
2016.000000	30.668500
2015.000000	30.728100
2014.000000	30.772600
2013.000000	30.830700
2012.000000	30.871900
2011.000000	30.887900
2010.000000	30.896600
2009.000000	30.915700
2008.000000	30.900200
2007.000000	30.905500
2006.000000	30.889900
2005.000000	30.862800
2004.000000	30.856000
2003.000000	30.809600
2002.000000	30.759200
2001.000000	30.729000
2000.000000	30.673300
1999.000000	30.637500
1998.000000	30.558200
1997.000000	30.476000
1996.000000	30.393400
1995.000000	30.306200
1994.000000	30.207500
1993.000000	30.097500
1992.000000	30.026300
1991.000000	29.928300
1990.000000	29.813900
1989.000000	29.698000
1988.000000	29.577400
1987.000000	29.463300
1986.000000	29.338600
1985.000000	29.228100
1984.000000	29.103600
1983.000000	28.967900
1982.000000	28.870800
1981.000000	28.743500
1980.000000	28.602400
1979.000000	28.479300
1978.000000	28.373300
1977.000000	28.231000
1976.000000	28.132200
1975.000000	28.003800
1974.000000	27.908700
1973.000000	27.785700
1972.000000	27.671000
1971.000000	27.566200
1970.000000	27.444200
1969.000000	27.323700
1968.000000	27.217200
1967.000000	27.140000
1966.000000	27.002200
1965.000000	26.911900
1964.000000	26.811600
1963.000000	26.691600
1962.000000	26.601300
1961.000000	26.469600
1960.000000	26.387700
1959.000000	26.255300
1958.000000	26.146100
1957.000000	26.047000
1956.000000	25.930000
1955.000000	25.820700
1954.000000	25.716100
1953.000000	25.607700
1952.000000	25.503500
1951.000000	25.415400
1950.000000	25.341500
1949.000000	25.238900
1948.000000	25.189600
1947.000000	25.089500
1946.000000	25.026200
1945.000000	24.981100
1944.000000	24.914900
1943.000000	24.867400
1942.000000	24.844100
1941.000000	24.834600
1940.000000	24.835000
1939.000000	24.844700
1938.000000	24.872200
1937.000000	24.903700
1936.000000	24.926300
1935.000000	24.953800
1934.000000	25.004900
1933.000000	25.088300
1932.000000	25.172100
1931.000000	25.287400
1930.000000	25.412100
1929.000000	25.570000
1928.000000	25.728100
1927.000000	25.879500
1926.000000	26.080700
1925.000000	26.258500
1924.000000	26.413300
1923.000000	26.650600
1922.000000	26.928200
1921.000000	27.258100
1920.000000	27.546200
1919.000000	27.817200
1918.000000	28.081900
1917.000000	28.328200
1916.000000	28.604300
1915.000000	28.972100
1914.000000	29.428800
1913.000000	29.903600
1912.000000	30.316900
1911.000000	30.683500
1910.000000	31.010400
1909.000000	31.325800
1908.000000	31.765400
1907.000000	32.273300
1906.000000	32.894900
1905.000000	33.528200
1904.000000	34.062200
1903.000000	34.555200
1902.000000	35.049600
1901.000000	35.634800
1900.000000	36.295600
1899.000000	36.926200
1898.000000	37.563600
1897.000000	38.072800
1896.000000	38.525400
1895.000000	39.039700
1894.000000	39.618000
1893.000000	40.264400
1892.000000	40.974600
1891.000000	41.639300
1890.000000	42.203400
1889.000000	42.764000
1888.000000	43.340700
1887.000000	43.881200
1886.000000	44.467500
1885.000000	45.091500
1884.000000	45.716400
1883.000000	46.265000
1882.000000	46.770100
1881.000000	47.248700
1880.000000	47.651400
1879.000000	48.101300
1878.000000	48.522000
1877.000000	48.945900
1876.000000	49.326000
1875.000000	49.696800
1874.000000	50.062900
1873.000000	50.419900
1872.000000	50.747200
1871.000000	51.018800
1870.000000	51.247600
1869.000000	51.443500
1868.000000	51.531000
1867.000000	51.582000
1866.000000	51.618900
1865.000000	51.653000
1864.000000	51.696500
1863.000000	51.783900
1862.000000	51.893700
1861.000000	52.000400
1860.000000	52.106600
1859.000000	52.184500
1858.000000	52.222800
1857.000000	52.220900
1856.000000	52.236600
1855.000000	52.271500
1854.000000	52.263900
1853.000000	52.229500
1852.000000	52.204000
1851.000000	52.144200
1850.000000	52.146500
1849.000000	52.238000
1848.000000	52.268300
1847.000000	52.224500
1846.000000	52.086000
1845.000000	51.934000
1844.000000	51.830800
1843.000000	51.875900
1842.000000	51.922900
1841.000000	51.877900
1840.000000	51.824000
1839.000000	51.742200
1838.000000	51.689400
1837.000000	51.629700
1836.000000	51.558700
1835.000000	51.428200
1834.000000	51.277200
1833.000000	51.168900
1832.000000	51.093700
1831.000000	51.046600
1830.000000	50.986400
1829.000000	50.918900
1828.000000	50.838000
1827.000000	50.782600
1826.000000	50.725800
1825.000000	50.637200
1824.000000	50.566200
1823.000000	50.592700
1822.000000	50.657800
1821.000000	50.703900
1820.000000	50.685800
1819.000000	50.614000
1818.000000	50.551000
1817.000000	50.530900
1816.000000	50.522500
1815.000000	50.499500
1814.000000	50.478600
1813.000000	50.438500
1812.000000	50.416800
1811.000000	50.368100
1810.000000	50.290200
1809.000000	50.216500
1808.000000	50.172700
1807.000000	50.146400
1806.000000	50.098500
1805.000000	50.023100
1804.000000	49.958600
1803.000000	49.932300
1802.000000	49.903200
1801.000000	49.845600
1800.000000	49.762800
1799.000000	49.710900
1798.000000	49.653900
1797.000000	49.613900
1796.000000	49.573200
1795.000000	49.522200
1794.000000	49.461800
1793.000000	49.413500
1792.000000	49.383600
1791.000000	49.329800
1790.000000	49.287300
1789.000000	49.240400
1788.000000	49.209900
1787.000000	49.185000
1786.000000	49.144600
1785.000000	49.089300
1784.000000	49.038000
1783.000000	48.974600
1782.000000	48.917900
1781.000000	48.847600
1780.000000	48.770900
1779.000000	48.686300
1778.000000	48.594000
1777.000000	48.494100
1776.000000	48.384900
1775.000000	48.263800
1774.000000	48.137200
1773.000000	48.000900
1772.000000	47.886400
1771.000000	47.759400
1770.000000	47.634600
1769.000000	47.509200
1768.000000	47.391900
1767.000000	47.300900
1766.000000	47.205600
1765.000000	47.135200
1764.000000	47.104000
1763.000000	47.071900
1762.000000	47.063300
1761.000000	47.070100
1760.000000	47.102500
1759.000000	47.135200
1758.000000	47.157800
1757.000000	47.172100
1756.000000	47.173100
1755.000000	47.177500
1754.000000	47.174700
1753.000000	47.137600
1752.000000	47.102400
1751.000000	47.052100
1750.000000	46.982600
1749.000000	46.898900
1748.000000	46.794600
1747.000000	46.657800
1746.000000	46.499500
1745.000000	46.301400
1744.000000	46.112300
1743.000000	45.913100
1742.000000	45.699000
1741.000000	45.473600
1740.000000	45.235200
1739.000000	45.014900
1738.000000	44.817100
1737.000000	44.673300
1736.000000	44.527000
1735.000000	44.424200
1734.000000	44.357000
1733.000000	44.312900
1732.000000	44.302300
1731.000000	44.290800
1730.000000	44.284500
1729.000000	44.303100
1728.000000	44.306300
1727.000000	44.304000
1726.000000	44.315000
1725.000000	44.319400
1724.000000	44.329100
1723.000000	44.391700
1722.000000	44.482700
1721.000000	44.619900
1720.000000	44.801200
1719.000000	45.005700
1718.000000	45.225600
1717.000000	45.460200
1716.000000	45.705800
1715.000000	45.933600
1714.000000	46.157200
1713.000000	46.351100
1712.000000	46.483700
1711.000000	46.613600
1710.000000	46.733600
1709.000000	46.792600
1708.000000	46.849500
1707.000000	46.874500
1706.000000	46.891700
1705.000000	46.880500
1704.000000	46.850600
1703.000000	46.770200
1702.000000	46.668900
1701.000000	46.555100
1700.000000	46.463900
1699.000000	46.347000
1698.000000	46.234300
1697.000000	46.178000
1696.000000	46.145700
1695.000000	46.130700
1694.000000	46.123800
1693.000000	46.136300
1692.000000	46.163200
1691.000000	46.201400
1690.000000	46.225600
1689.000000	46.275500
1688.000000	46.358700
1687.000000	46.452200
1686.000000	46.636800
1685.000000	46.881400
1684.000000	47.221000
1683.000000	47.622500
1682.000000	48.091800
1681.000000	48.579800
1680.000000	49.108500
1679.000000	49.639100
1678.000000	50.099300
1677.000000	50.543700
1676.000000	50.940600
1675.000000	51.304000
1674.000000	51.658800
1673.000000	51.975000
1672.000000	52.268900
1671.000000	52.564700
1670.000000	52.805100
1669.000000	53.081000
1668.000000	53.301800
1667.000000	53.519600
1666.000000	53.684500
1665.000000	53.844400
1664.000000	54.013300
1663.000000	54.151600
1662.000000	54.273700
1661.000000	54.402000
1660.000000	54.487600
1659.000000	54.560000
1658.000000	54.634300
1657.000000	54.697200
1656.000000	54.741500
1655.000000	54.759500
1654.000000	54.757400
1653.000000	54.758400
1652.000000	54.767500
1651.000000	54.748400
1650.000000	54.717200
1649.000000	54.695700
1648.000000	54.670600
1647.000000	54.621200
1646.000000	54.578800
1645.000000	54.541700
1644.000000	54.512200
1643.000000	54.464000
1642.000000	54.413300
1641.000000	54.371400
1640.000000	54.327800
1639.000000	54.286300
1638.000000	54.254200
1637.000000	54.202600
1636.000000	54.139100
1635.000000	54.061400
1634.000000	53.981400
1633.000000	53.907200
1632.000000	53.836900
1631.000000	53.755100
1630.000000	53.669000
1629.000000	53.576400
1628.000000	53.487900
1627.000000	53.400700
1626.000000	53.321200
1625.000000	53.233900
1624.000000	53.147200
