PE UV       SUBTECH     SPECTRUM    ASCII       PEDS        4.00        
   -1
CICIMAUCR0100-3.Sample.ASC
24/04/18
17:00:45.00
24/04/18
17:00:45.00
Vinicio Soto Monge
C. cupreomarginata
250,000000
1
Lambda 1050
1050L1511233
PerkinElmer UV WinLab 6.3.2.0749 / 2.02.05 Lambda 900 UV/VIS/NIR, Aug  7 2015 09:38:08

0
0
3350/servo 860,8/2
0
0
UV/VIS
1
1
1
DoubleDePol,CommonBeamDepol,RBeamAtt,SBeamAtt,60mm sphere, WB InGaAs Detector
0
0
0
0
Program
Program
3350/servo 860,8/2
3350/0,2 860,8/0,2
3350/0,2 860,8/0,2
0
15.00
 
 
 
0
 
860,8
319,2
860,8
Front
100
on
S:100 R:100
0
0
0
0
 
0
 
 
 
0
 
 
0
0
0
0
0
 
 
 
 
0
0


0
0
#HDR
-1
-1
#GR
nm
%R
1.0
0.0
2500,000000
-1,000000
2251
8
64,613100
4,484200
#DATA
2500.000000	11.258730
2499.000000	11.215717
2498.000000	11.178366
2497.000000	11.278658
2496.000000	11.133174
2495.000000	11.148638
2494.000000	11.155280
2493.000000	11.011430
2492.000000	11.140906
2491.000000	11.106060
2490.000000	11.013608
2489.000000	11.039089
2488.000000	11.033863
2487.000000	10.951647
2486.000000	11.055750
2485.000000	11.064898
2484.000000	11.020686
2483.000000	10.990196
2482.000000	10.956983
2481.000000	10.956112
2480.000000	10.958943
2479.000000	11.028527
2478.000000	10.962428
2477.000000	10.965694
2476.000000	10.980177
2475.000000	11.001085
2474.000000	10.976366
2473.000000	11.004461
2472.000000	11.063373
2471.000000	11.068273
2470.000000	11.083736
2469.000000	11.089399
2468.000000	11.060324
2467.000000	11.100179
2466.000000	11.132086
2465.000000	11.177604
2464.000000	11.218330
2463.000000	11.247732
2462.000000	11.302832
2461.000000	11.288567
2460.000000	11.376445
2459.000000	11.472490
2458.000000	11.535867
2457.000000	11.598264
2456.000000	11.676777
2455.000000	11.786434
2454.000000	11.878014
2453.000000	11.980266
2452.000000	12.065531
2451.000000	12.136857
2450.000000	12.235080
2449.000000	12.336787
2448.000000	12.439911
2447.000000	12.560239
2446.000000	12.657047
2445.000000	12.765070
2444.000000	12.851533
2443.000000	12.957378
2442.000000	13.044821
2441.000000	13.170050
2440.000000	13.242900
2439.000000	13.339599
2438.000000	13.430199
2437.000000	13.531689
2436.000000	13.627734
2435.000000	13.714958
2434.000000	13.769515
2433.000000	13.865778
2432.000000	13.930461
2431.000000	13.988720
2430.000000	14.080845
2429.000000	14.142261
2428.000000	14.194313
2427.000000	14.268797
2426.000000	14.328907
2425.000000	14.361357
2424.000000	14.408400
2423.000000	14.479399
2422.000000	14.545716
2421.000000	14.631525
2420.000000	14.721690
2419.000000	14.807826
2418.000000	14.865975
2417.000000	14.920858
2416.000000	14.971385
2415.000000	15.013092
2414.000000	15.063075
2413.000000	15.101732
2412.000000	15.165762
2411.000000	15.203658
2410.000000	15.226852
2409.000000	15.285438
2408.000000	15.343043
2407.000000	15.373969
2406.000000	15.406637
2405.000000	15.445404
2404.000000	15.478726
2403.000000	15.519997
2402.000000	15.570197
2401.000000	15.600034
2400.000000	15.632267
2399.000000	15.678656
2398.000000	15.725154
2397.000000	15.753031
2396.000000	15.779928
2395.000000	15.826317
2394.000000	15.856590
2393.000000	15.883923
2392.000000	15.922145
2391.000000	15.956556
2390.000000	15.969623
2389.000000	15.974196
2388.000000	15.998916
2387.000000	16.028426
2386.000000	16.035831
2385.000000	16.010894
2384.000000	16.028535
2383.000000	16.034851
2382.000000	16.019388
2381.000000	16.007954
2380.000000	16.000113
2379.000000	15.972563
2378.000000	15.942617
2377.000000	15.931074
2376.000000	15.925303
2375.000000	15.913869
2374.000000	15.880874
2373.000000	15.833940
2372.000000	15.809874
2371.000000	15.784502
2370.000000	15.741815
2369.000000	15.699673
2368.000000	15.659382
2367.000000	15.609617
2366.000000	15.555279
2365.000000	15.499198
2364.000000	15.430485
2363.000000	15.357308
2362.000000	15.298832
2361.000000	15.239920
2360.000000	15.167940
2359.000000	15.098683
2358.000000	15.034218
2357.000000	14.993164
2356.000000	14.946448
2355.000000	14.909751
2354.000000	14.896792
2353.000000	14.875994
2352.000000	14.860204
2351.000000	14.877954
2350.000000	14.907464
2349.000000	14.928808
2348.000000	14.959407
2347.000000	15.005796
2346.000000	15.041405
2345.000000	15.089209
2344.000000	15.144092
2343.000000	15.176216
2342.000000	15.217270
2341.000000	15.262025
2340.000000	15.294911
2339.000000	15.325075
2338.000000	15.343261
2337.000000	15.358397
2336.000000	15.350339
2335.000000	15.337054
2334.000000	15.319086
2333.000000	15.295347
2332.000000	15.272479
2331.000000	15.259194
2330.000000	15.223585
2329.000000	15.171316
2328.000000	15.116869
2327.000000	15.070806
2326.000000	15.017557
2325.000000	14.928372
2324.000000	14.855848
2323.000000	14.771237
2322.000000	14.678132
2321.000000	14.551705
2320.000000	14.459254
2319.000000	14.355804
2318.000000	14.227526
2317.000000	14.106326
2316.000000	13.949953
2315.000000	13.823744
2314.000000	13.711692
2313.000000	13.572633
2312.000000	13.439128
2311.000000	13.329254
2310.000000	13.247474
2309.000000	13.172227
2308.000000	13.124858
2307.000000	13.072698
2306.000000	13.054839
2305.000000	13.069649
2304.000000	13.093170
2303.000000	13.115820
2302.000000	13.199778
2301.000000	13.294516
2300.000000	13.366604
2299.000000	13.478657
2298.000000	13.573722
2297.000000	13.672925
2296.000000	13.789769
2295.000000	13.887012
2294.000000	13.986869
2293.000000	14.049156
2292.000000	14.114275
2291.000000	14.166436
2290.000000	14.215003
2289.000000	14.240049
2288.000000	14.265639
2287.000000	14.284804
2286.000000	14.264441
2285.000000	14.255838
2284.000000	14.221101
2283.000000	14.196926
2282.000000	14.177108
2281.000000	14.131045
2280.000000	14.088358
2279.000000	14.052968
2278.000000	14.005490
2277.000000	13.938846
2276.000000	13.920987
2275.000000	13.901822
2274.000000	13.893764
2273.000000	13.865778
2272.000000	13.862729
2271.000000	13.895724
2270.000000	13.932312
2269.000000	13.980879
2268.000000	14.062768
2267.000000	14.169703
2266.000000	14.283280
2265.000000	14.434752
2264.000000	14.580671
2263.000000	14.798461
2262.000000	15.044780
2261.000000	15.270955
2260.000000	15.535895
2259.000000	15.782542
2258.000000	16.106503
2257.000000	16.419358
2256.000000	16.692466
2255.000000	17.003905
2254.000000	17.295633
2253.000000	17.605330
2252.000000	17.885625
2251.000000	18.127044
2250.000000	18.398628
2249.000000	18.635474
2248.000000	18.881031
2247.000000	19.085971
2246.000000	19.313779
2245.000000	19.473636
2244.000000	19.655272
2243.000000	19.818832
2242.000000	19.941556
2241.000000	20.079417
2240.000000	20.219891
2239.000000	20.313105
2238.000000	20.443234
2237.000000	20.532746
2236.000000	20.618119
2235.000000	20.696305
2234.000000	20.783966
2233.000000	20.824474
2232.000000	20.855945
2231.000000	20.908650
2230.000000	20.928687
2229.000000	20.941972
2228.000000	20.970502
2227.000000	20.970067
2226.000000	20.960920
2225.000000	20.956455
2224.000000	20.940121
2223.000000	20.912461
2222.000000	20.897107
2221.000000	20.842551
2220.000000	20.803458
2219.000000	20.760771
2218.000000	20.701532
2217.000000	20.656777
2216.000000	20.597538
2215.000000	20.533072
2214.000000	20.524579
2213.000000	20.467953
2212.000000	20.407952
2211.000000	20.370166
2210.000000	20.315283
2209.000000	20.269003
2208.000000	20.250600
2207.000000	20.216189
2206.000000	20.173066
2205.000000	20.143447
2204.000000	20.121233
2203.000000	20.084644
2202.000000	20.065152
2201.000000	20.022247
2200.000000	20.015387
2199.000000	19.972047
2198.000000	19.945259
2197.000000	19.924896
2196.000000	19.912590
2195.000000	19.885149
2194.000000	19.872517
2193.000000	19.871646
2192.000000	19.849867
2191.000000	19.844096
2190.000000	19.805874
2189.000000	19.794004
2188.000000	19.781263
2187.000000	19.762207
2186.000000	19.748268
2185.000000	19.730519
2184.000000	19.709829
2183.000000	19.676071
2182.000000	19.647867
2181.000000	19.640136
2180.000000	19.618357
2179.000000	19.588847
2178.000000	19.581659
2177.000000	19.553129
2176.000000	19.565325
2175.000000	19.577848
2174.000000	19.573383
2173.000000	19.539299
2172.000000	19.540933
2171.000000	19.566088
2170.000000	19.563256
2169.000000	19.590589
2168.000000	19.615308
2167.000000	19.656252
2166.000000	19.668557
2165.000000	19.703839
2164.000000	19.740972
2163.000000	19.777125
2162.000000	19.801736
2161.000000	19.863370
2160.000000	19.913353
2159.000000	19.946674
2158.000000	20.006458
2157.000000	20.078328
2156.000000	20.144427
2155.000000	20.215971
2154.000000	20.282397
2153.000000	20.328459
2152.000000	20.423415
2151.000000	20.521203
2150.000000	20.586648
2149.000000	20.674744
2148.000000	20.759791
2147.000000	20.851263
2146.000000	20.919540
2145.000000	20.993152
2144.000000	21.063607
2143.000000	21.141358
2142.000000	21.213555
2141.000000	21.279654
2140.000000	21.347605
2139.000000	21.409239
2138.000000	21.458677
2137.000000	21.512580
2136.000000	21.575303
2135.000000	21.631929
2134.000000	21.680060
2133.000000	21.717411
2132.000000	21.758246
2131.000000	21.801695
2130.000000	21.839808
2129.000000	21.859954
2128.000000	21.882169
2127.000000	21.898612
2126.000000	21.927033
2125.000000	21.951099
2124.000000	21.955346
2123.000000	21.980827
2122.000000	21.990083
2121.000000	21.987361
2120.000000	21.977125
2119.000000	21.991608
2118.000000	21.995092
2117.000000	21.992261
2116.000000	22.004348
2115.000000	21.995637
2114.000000	21.980936
2113.000000	21.970700
2112.000000	21.964166
2111.000000	21.940209
2110.000000	21.927360
2109.000000	21.929320
2108.000000	21.908739
2107.000000	21.891860
2106.000000	21.892078
2105.000000	21.867686
2104.000000	21.834364
2103.000000	21.816941
2102.000000	21.799626
2101.000000	21.780134
2100.000000	21.761731
2099.000000	21.750733
2098.000000	21.739843
2097.000000	21.725905
2096.000000	21.721113
2095.000000	21.715342
2094.000000	21.709570
2093.000000	21.711748
2092.000000	21.707284
2091.000000	21.712837
2090.000000	21.723836
2089.000000	21.738863
2088.000000	21.753237
2087.000000	21.741368
2086.000000	21.735161
2085.000000	21.732438
2084.000000	21.732112
2083.000000	21.719589
2082.000000	21.695850
2081.000000	21.665686
2080.000000	21.631057
2079.000000	21.605249
2078.000000	21.579224
2077.000000	21.535992
2076.000000	21.467606
2075.000000	21.412832
2074.000000	21.375046
2073.000000	21.315916
2072.000000	21.253084
2071.000000	21.191341
2070.000000	21.117074
2069.000000	21.045857
2068.000000	20.973660
2067.000000	20.898523
2066.000000	20.828830
2065.000000	20.766760
2064.000000	20.701750
2063.000000	20.630315
2062.000000	20.552891
2061.000000	20.507046
2060.000000	20.460440
2059.000000	20.421891
2058.000000	20.392816
2057.000000	20.377244
2056.000000	20.376373
2055.000000	20.394232
2054.000000	20.417426
2053.000000	20.458479
2052.000000	20.532092
2051.000000	20.595905
2050.000000	20.692712
2049.000000	20.813803
2048.000000	20.940121
2047.000000	21.083535
2046.000000	21.250144
2045.000000	21.402814
2044.000000	21.572690
2043.000000	21.730152
2042.000000	21.916361
2041.000000	22.080248
2040.000000	22.245550
2039.000000	22.419782
2038.000000	22.601091
2037.000000	22.752564
2036.000000	22.903383
2035.000000	23.046144
2034.000000	23.179975
2033.000000	23.298997
2032.000000	23.454390
2031.000000	23.568294
2030.000000	23.681000
2029.000000	23.776283
2028.000000	23.880604
2027.000000	23.999517
2026.000000	24.082930
2025.000000	24.176797
2024.000000	24.264349
2023.000000	24.353969
2022.000000	24.442609
2021.000000	24.514153
2020.000000	24.600289
2019.000000	24.671179
2018.000000	24.714846
2017.000000	24.772778
2016.000000	24.849657
2015.000000	24.873397
2014.000000	24.916519
2013.000000	24.964324
2012.000000	25.002981
2011.000000	25.015722
2010.000000	25.007337
2009.000000	25.048281
2008.000000	25.047192
2007.000000	25.055577
2006.000000	25.046321
2005.000000	25.033145
2004.000000	25.032056
2003.000000	25.012891
2002.000000	24.982291
2001.000000	24.953543
2000.000000	24.912816
1999.000000	24.877317
1998.000000	24.845846
1997.000000	24.797933
1996.000000	24.725735
1995.000000	24.682177
1994.000000	24.598220
1993.000000	24.531467
1992.000000	24.451539
1991.000000	24.387944
1990.000000	24.299630
1989.000000	24.225255
1988.000000	24.144020
1987.000000	24.057775
1986.000000	23.985687
1985.000000	23.898354
1984.000000	23.792290
1983.000000	23.715519
1982.000000	23.606734
1981.000000	23.513846
1980.000000	23.435878
1979.000000	23.326112
1978.000000	23.243461
1977.000000	23.150247
1976.000000	23.051915
1975.000000	22.926795
1974.000000	22.844253
1973.000000	22.768898
1972.000000	22.698334
1971.000000	22.588242
1970.000000	22.508313
1969.000000	22.423593
1968.000000	22.336913
1967.000000	22.242065
1966.000000	22.181302
1965.000000	22.054004
1964.000000	21.978649
1963.000000	21.926053
1962.000000	21.819772
1961.000000	21.737447
1960.000000	21.653599
1959.000000	21.552000
1958.000000	21.455519
1957.000000	21.385609
1956.000000	21.278783
1955.000000	21.199726
1954.000000	21.111412
1953.000000	21.024950
1952.000000	20.920193
1951.000000	20.849738
1950.000000	20.759029
1949.000000	20.680951
1948.000000	20.644798
1947.000000	20.601023
1946.000000	20.529152
1945.000000	20.466320
1944.000000	20.402399
1943.000000	20.375393
1942.000000	20.338369
1941.000000	20.310274
1940.000000	20.302978
1939.000000	20.302433
1938.000000	20.274230
1937.000000	20.266607
1936.000000	20.304611
1935.000000	20.314194
1934.000000	20.355138
1933.000000	20.393360
1932.000000	20.459242
1931.000000	20.528608
1930.000000	20.612239
1929.000000	20.678882
1928.000000	20.783639
1927.000000	20.901899
1926.000000	21.039215
1925.000000	21.155514
1924.000000	21.296642
1923.000000	21.441363
1922.000000	21.613525
1921.000000	21.829355
1920.000000	22.015020
1919.000000	22.215168
1918.000000	22.409654
1917.000000	22.644105
1916.000000	22.835433
1915.000000	23.065636
1914.000000	23.340486
1913.000000	23.644411
1912.000000	23.937882
1911.000000	24.212515
1910.000000	24.506748
1909.000000	24.771580
1908.000000	25.041530
1907.000000	25.367887
1906.000000	25.745861
1905.000000	26.148227
1904.000000	26.538070
1903.000000	26.895244
1902.000000	27.273218
1901.000000	27.650973
1900.000000	28.093739
1899.000000	28.570371
1898.000000	28.991685
1897.000000	29.448607
1896.000000	29.840519
1895.000000	30.236242
1894.000000	30.632401
1893.000000	31.092807
1892.000000	31.575102
1891.000000	32.052714
1890.000000	32.517477
1889.000000	32.953600
1888.000000	33.397346
1887.000000	33.814194
1886.000000	34.259029
1885.000000	34.719109
1884.000000	35.241041
1883.000000	35.742501
1882.000000	36.214778
1881.000000	36.669086
1880.000000	37.120890
1879.000000	37.518465
1878.000000	37.915604
1877.000000	38.297388
1876.000000	38.652712
1875.000000	38.978198
1874.000000	39.298893
1873.000000	39.597264
1872.000000	39.884202
1871.000000	40.115385
1870.000000	40.317711
1869.000000	40.495536
1868.000000	40.656047
1867.000000	40.750677
1866.000000	40.800550
1865.000000	40.861423
1864.000000	40.916197
1863.000000	40.950607
1862.000000	41.010064
1861.000000	41.082806
1860.000000	41.158705
1859.000000	41.202807
1858.000000	41.234714
1857.000000	41.258017
1856.000000	41.240594
1855.000000	41.232100
1854.000000	41.236565
1853.000000	41.200194
1852.000000	41.157181
1851.000000	41.133442
1850.000000	41.104693
1849.000000	41.100664
1848.000000	41.096091
1847.000000	41.077796
1846.000000	41.012024
1845.000000	40.923601
1844.000000	40.837030
1843.000000	40.792601
1842.000000	40.807302
1841.000000	40.815142
1840.000000	40.777900
1839.000000	40.718553
1838.000000	40.665412
1837.000000	40.612489
1836.000000	40.549766
1835.000000	40.469293
1834.000000	40.370852
1833.000000	40.279489
1832.000000	40.201630
1831.000000	40.141847
1830.000000	40.088379
1829.000000	40.033605
1828.000000	39.941698
1827.000000	39.859483
1826.000000	39.811569
1825.000000	39.742748
1824.000000	39.674362
1823.000000	39.640604
1822.000000	39.652147
1821.000000	39.678064
1820.000000	39.670006
1819.000000	39.607936
1818.000000	39.570149
1817.000000	39.551855
1816.000000	39.548479
1815.000000	39.541619
1814.000000	39.513089
1813.000000	39.503397
1812.000000	39.489023
1811.000000	39.457988
1810.000000	39.410619
1809.000000	39.372179
1808.000000	39.343322
1807.000000	39.312831
1806.000000	39.279945
1805.000000	39.231705
1804.000000	39.191849
1803.000000	39.162666
1802.000000	39.131631
1801.000000	39.089924
1800.000000	39.039615
1799.000000	38.991374
1798.000000	38.948361
1797.000000	38.916564
1796.000000	38.889776
1795.000000	38.860918
1794.000000	38.830537
1793.000000	38.786326
1792.000000	38.728611
1791.000000	38.684618
1790.000000	38.631586
1789.000000	38.595324
1788.000000	38.561349
1787.000000	38.514851
1786.000000	38.463235
1785.000000	38.406174
1784.000000	38.336373
1783.000000	38.270491
1782.000000	38.205481
1781.000000	38.129146
1780.000000	38.059345
1779.000000	37.969942
1778.000000	37.886420
1777.000000	37.801155
1776.000000	37.685074
1775.000000	37.557885
1774.000000	37.445179
1773.000000	37.313852
1772.000000	37.192870
1771.000000	37.052831
1770.000000	36.923682
1769.000000	36.808254
1768.000000	36.668542
1767.000000	36.552242
1766.000000	36.438447
1765.000000	36.344689
1764.000000	36.266612
1763.000000	36.214451
1762.000000	36.203235
1761.000000	36.202037
1760.000000	36.218698
1759.000000	36.246357
1758.000000	36.266394
1757.000000	36.296666
1756.000000	36.313545
1755.000000	36.313001
1754.000000	36.281966
1753.000000	36.274343
1752.000000	36.239823
1751.000000	36.189950
1750.000000	36.122871
1749.000000	36.063305
1748.000000	35.975318
1747.000000	35.867077
1746.000000	35.736294
1745.000000	35.622608
1744.000000	35.459157
1743.000000	35.272839
1742.000000	35.085540
1741.000000	34.872760
1740.000000	34.632320
1739.000000	34.400810
1738.000000	34.185525
1737.000000	33.996375
1736.000000	33.815066
1735.000000	33.707478
1734.000000	33.630925
1733.000000	33.601632
1732.000000	33.572013
1731.000000	33.625589
1730.000000	33.637349
1729.000000	33.688530
1728.000000	33.741126
1727.000000	33.813541
1726.000000	33.864504
1725.000000	33.894776
1724.000000	33.913071
1723.000000	33.951946
1722.000000	33.999098
1721.000000	34.026975
1720.000000	34.108537
1719.000000	34.205344
1718.000000	34.319139
1717.000000	34.438923
1716.000000	34.583644
1715.000000	34.693737
1714.000000	34.824301
1713.000000	34.958786
1712.000000	35.068443
1711.000000	35.170913
1710.000000	35.237775
1709.000000	35.288302
1708.000000	35.315090
1707.000000	35.356796
1706.000000	35.362350
1705.000000	35.346016
1704.000000	35.335235
1703.000000	35.266632
1702.000000	35.208264
1701.000000	35.120604
1700.000000	35.019985
1699.000000	34.875918
1698.000000	34.754827
1697.000000	34.665533
1696.000000	34.600305
1695.000000	34.564479
1694.000000	34.600196
1693.000000	34.680016
1692.000000	34.740997
1691.000000	34.842378
1690.000000	34.916209
1689.000000	34.974358
1688.000000	35.002235
1687.000000	35.019223
1686.000000	35.036428
1685.000000	35.120277
1684.000000	35.253673
1683.000000	35.493786
1682.000000	35.825152
1681.000000	36.263998
1680.000000	36.798235
1679.000000	37.304378
1678.000000	37.825221
1677.000000	38.295319
1676.000000	38.732205
1675.000000	39.146549
1674.000000	39.478678
1673.000000	39.795997
1672.000000	40.062680
1671.000000	40.304753
1670.000000	40.544975
1669.000000	40.767664
1668.000000	40.988612
1667.000000	41.235258
1666.000000	41.430506
1665.000000	41.626734
1664.000000	41.783325
1663.000000	41.946340
1662.000000	42.111534
1661.000000	42.255710
1660.000000	42.384641
1659.000000	42.490705
1658.000000	42.582721
1657.000000	42.688349
1656.000000	42.755646
1655.000000	42.804975
1654.000000	42.847988
1653.000000	42.897318
1652.000000	42.911147
1651.000000	42.928135
1650.000000	42.924759
1649.000000	42.919314
1648.000000	42.893942
1647.000000	42.875648
1646.000000	42.865956
1645.000000	42.841237
1644.000000	42.803124
1643.000000	42.767624
1642.000000	42.727877
1641.000000	42.687586
1640.000000	42.661996
1639.000000	42.616260
1638.000000	42.579890
1637.000000	42.531540
1636.000000	42.491467
1635.000000	42.437455
1634.000000	42.387908
1633.000000	42.339777
1632.000000	42.278578
1631.000000	42.215637
1630.000000	42.149864
1629.000000	42.080390
1628.000000	42.011133
1627.000000	41.935778
1626.000000	41.855740
1625.000000	41.790185
