PE UV       SUBTECH     SPECTRUM    ASCII       PEDS        4.00        
   -1
CICIMAUCR0097-1.Sample.ASC
24/04/17
14:59:50.00
24/04/17
14:59:50.00
Vinicio Soto Monge
C. kalinini
250,000000
1
Lambda 1050
1050L1511233
PerkinElmer UV WinLab 6.3.2.0749 / 2.02.05 Lambda 900 UV/VIS/NIR, Aug  7 2015 09:38:08

0
0
3350/servo 860,8/2
0
0
UV/VIS
1
1
1
DoubleDePol,CommonBeamDepol,RBeamAtt,SBeamAtt,60mm sphere, WB InGaAs Detector
0
0
0
0
Program
Program
3350/servo 860,8/2
3350/0,2 860,8/0,2
3350/0,2 860,8/0,2
0
15.00
 
 
 
0
 
860,8
319,2
860,8
Front
100
on
S:100 R:100
0
0
0
0
 
0
 
 
 
0
 
 
0
0
0
0
0
 
 
 
 
0
0


0
0
#HDR
-1
-1
#GR
nm
%R
1.0
0.0
2500,000000
-1,000000
2251
8
80,515100
4,474700
#DATA
2500.000000	5.681420
2499.000000	5.510685
2498.000000	5.563578
2497.000000	5.412289
2496.000000	5.505726
2495.000000	5.342089
2494.000000	5.512338
2493.000000	5.412678
2492.000000	5.367563
2491.000000	5.408788
2490.000000	5.430471
2489.000000	5.341894
2488.000000	5.362702
2487.000000	5.331199
2486.000000	5.400621
2485.000000	5.340144
2484.000000	5.347242
2483.000000	5.329644
2482.000000	5.308059
2481.000000	5.317198
2480.000000	5.332755
2479.000000	5.286279
2478.000000	5.289682
2477.000000	5.302128
2476.000000	5.293182
2475.000000	5.309517
2474.000000	5.304947
2473.000000	5.295127
2472.000000	5.322546
2471.000000	5.303586
2470.000000	5.302808
2469.000000	5.331102
2468.000000	5.250207
2467.000000	5.323421
2466.000000	5.302030
2465.000000	5.303683
2464.000000	5.309031
2463.000000	5.325074
2462.000000	5.325754
2461.000000	5.327213
2460.000000	5.345978
2459.000000	5.339172
2458.000000	5.361340
2457.000000	5.386134
2456.000000	5.423373
2455.000000	5.441458
2454.000000	5.424831
2453.000000	5.470043
2452.000000	5.495517
2451.000000	5.496684
2450.000000	5.559592
2449.000000	5.593039
2448.000000	5.597997
2447.000000	5.635042
2446.000000	5.660030
2445.000000	5.682490
2444.000000	5.714770
2443.000000	5.743550
2442.000000	5.758524
2441.000000	5.781761
2440.000000	5.800332
2439.000000	5.805972
2438.000000	5.847489
2437.000000	5.878797
2436.000000	5.889686
2435.000000	5.907674
2434.000000	5.924495
2433.000000	5.938398
2432.000000	5.958428
2431.000000	5.978943
2430.000000	5.993625
2429.000000	5.993333
2428.000000	6.004223
2427.000000	6.023183
2426.000000	6.035239
2425.000000	6.045351
2424.000000	6.041851
2423.000000	6.054393
2422.000000	6.057796
2421.000000	6.046032
2420.000000	6.055657
2419.000000	6.050601
2418.000000	6.051282
2417.000000	6.040684
2416.000000	6.055852
2415.000000	6.069172
2414.000000	6.068200
2413.000000	6.067519
2412.000000	6.069075
2411.000000	6.074034
2410.000000	6.083368
2409.000000	6.089202
2408.000000	6.085507
2407.000000	6.108161
2406.000000	6.106508
2405.000000	6.098925
2404.000000	6.105342
2403.000000	6.110300
2402.000000	6.131691
2401.000000	6.136941
2400.000000	6.133538
2399.000000	6.143553
2398.000000	6.161443
2397.000000	6.168055
2396.000000	6.176903
2395.000000	6.184584
2394.000000	6.199168
2393.000000	6.205683
2392.000000	6.209961
2391.000000	6.220753
2390.000000	6.229796
2389.000000	6.240685
2388.000000	6.245741
2387.000000	6.239810
2386.000000	6.241658
2385.000000	6.255075
2384.000000	6.250797
2383.000000	6.227657
2382.000000	6.224837
2381.000000	6.242824
2380.000000	6.240880
2379.000000	6.214822
2378.000000	6.195765
2377.000000	6.195279
2376.000000	6.191390
2375.000000	6.184876
2374.000000	6.169513
2373.000000	6.142581
2372.000000	6.130233
2371.000000	6.134122
2370.000000	6.132760
2369.000000	6.115648
2368.000000	6.073937
2367.000000	6.041267
2366.000000	6.016863
2365.000000	5.993430
2364.000000	5.957844
2363.000000	5.919244
2362.000000	5.896006
2361.000000	5.863921
2360.000000	5.829210
2359.000000	5.806652
2358.000000	5.774080
2357.000000	5.758815
2356.000000	5.741119
2355.000000	5.723229
2354.000000	5.713603
2353.000000	5.706506
2352.000000	5.714770
2351.000000	5.715256
2350.000000	5.723618
2349.000000	5.746175
2348.000000	5.759982
2347.000000	5.772816
2346.000000	5.804805
2345.000000	5.825126
2344.000000	5.854100
2343.000000	5.881130
2342.000000	5.893478
2341.000000	5.903590
2340.000000	5.930912
2339.000000	5.947441
2338.000000	5.947635
2337.000000	5.945107
2336.000000	5.941996
2335.000000	5.932565
2334.000000	5.918077
2333.000000	5.901257
2332.000000	5.893576
2331.000000	5.873352
2330.000000	5.837085
2329.000000	5.802763
2328.000000	5.784289
2327.000000	5.759204
2326.000000	5.734022
2325.000000	5.696588
2324.000000	5.637764
2323.000000	5.613749
2322.000000	5.573009
2321.000000	5.519825
2320.000000	5.489003
2319.000000	5.437666
2318.000000	5.391287
2317.000000	5.348992
2316.000000	5.316323
2315.000000	5.257402
2314.000000	5.222496
2313.000000	5.187883
2312.000000	5.149185
2311.000000	5.122350
2310.000000	5.094834
2309.000000	5.065082
2308.000000	5.058470
2307.000000	5.063818
2306.000000	5.055650
2305.000000	5.057595
2304.000000	5.067415
2303.000000	5.077235
2302.000000	5.105238
2301.000000	5.129253
2300.000000	5.181563
2299.000000	5.211607
2298.000000	5.243790
2297.000000	5.287154
2296.000000	5.321476
2295.000000	5.333241
2294.000000	5.362313
2293.000000	5.391482
2292.000000	5.400718
2291.000000	5.433096
2290.000000	5.432318
2289.000000	5.434263
2288.000000	5.437957
2287.000000	5.422109
2286.000000	5.388662
2285.000000	5.393426
2284.000000	5.403052
2283.000000	5.374661
2282.000000	5.345978
2281.000000	5.343936
2280.000000	5.320893
2279.000000	5.288321
2278.000000	5.267708
2277.000000	5.264986
2276.000000	5.245443
2275.000000	5.224344
2274.000000	5.220649
2273.000000	5.215982
2272.000000	5.204315
2271.000000	5.222399
2270.000000	5.239414
2269.000000	5.258471
2268.000000	5.281126
2267.000000	5.312434
2266.000000	5.331588
2265.000000	5.382342
2264.000000	5.424734
2263.000000	5.496101
2262.000000	5.557939
2261.000000	5.631931
2260.000000	5.723910
2259.000000	5.830376
2258.000000	5.918564
2257.000000	6.027947
2256.000000	6.140733
2255.000000	6.243700
2254.000000	6.344624
2253.000000	6.463439
2252.000000	6.567572
2251.000000	6.659745
2250.000000	6.778560
2249.000000	6.850802
2248.000000	6.939669
2247.000000	7.029121
2246.000000	7.117016
2245.000000	7.220760
2244.000000	7.266944
2243.000000	7.337922
2242.000000	7.398399
2241.000000	7.470543
2240.000000	7.527228
2239.000000	7.599664
2238.000000	7.652071
2237.000000	7.709339
2236.000000	7.752412
2235.000000	7.780511
2234.000000	7.864032
2233.000000	7.895437
2232.000000	7.928106
2231.000000	7.967387
2230.000000	7.991597
2229.000000	8.029711
2228.000000	8.063158
2227.000000	8.081243
2226.000000	8.095341
2225.000000	8.119551
2224.000000	8.150081
2223.000000	8.158735
2222.000000	8.157374
2221.000000	8.165541
2220.000000	8.170208
2219.000000	8.171083
2218.000000	8.187126
2217.000000	8.199474
2216.000000	8.197335
2215.000000	8.180709
2214.000000	8.192960
2213.000000	8.181681
2212.000000	8.189946
2211.000000	8.198502
2210.000000	8.192474
2209.000000	8.196363
2208.000000	8.198599
2207.000000	8.181973
2206.000000	8.193446
2205.000000	8.190237
2204.000000	8.206669
2203.000000	8.205016
2202.000000	8.197432
2201.000000	8.178764
2200.000000	8.187709
2199.000000	8.182167
2198.000000	8.183334
2197.000000	8.196363
2196.000000	8.189557
2195.000000	8.188876
2194.000000	8.189751
2193.000000	8.182362
2192.000000	8.188682
2191.000000	8.188584
2190.000000	8.206864
2189.000000	8.190821
2188.000000	8.179736
2187.000000	8.167097
2186.000000	8.164763
2185.000000	8.151832
2184.000000	8.154651
2183.000000	8.150179
2182.000000	8.141039
2181.000000	8.134525
2180.000000	8.157860
2179.000000	8.134816
2178.000000	8.145609
2177.000000	8.148428
2176.000000	8.139483
2175.000000	8.142692
2174.000000	8.157665
2173.000000	8.156207
2172.000000	8.163499
2171.000000	8.186543
2170.000000	8.188973
2169.000000	8.199960
2168.000000	8.190334
2167.000000	8.202002
2166.000000	8.225143
2165.000000	8.237199
2164.000000	8.248186
2163.000000	8.240408
2162.000000	8.272591
2161.000000	8.279786
2160.000000	8.281244
2159.000000	8.303121
2158.000000	8.317705
2157.000000	8.334040
2156.000000	8.325289
2155.000000	8.339388
2154.000000	8.348624
2153.000000	8.355528
2152.000000	8.364473
2151.000000	8.376918
2150.000000	8.380224
2149.000000	8.376335
2148.000000	8.391503
2147.000000	8.399573
2146.000000	8.407059
2145.000000	8.405698
2144.000000	8.411629
2143.000000	8.424852
2142.000000	8.429714
2141.000000	8.424950
2140.000000	8.425825
2139.000000	8.423005
2138.000000	8.410949
2137.000000	8.404629
2136.000000	8.401809
2135.000000	8.397531
2134.000000	8.390919
2133.000000	8.380710
2132.000000	8.378377
2131.000000	8.379738
2130.000000	8.378571
2129.000000	8.345707
2128.000000	8.332970
2127.000000	8.315955
2126.000000	8.289217
2125.000000	8.284258
2124.000000	8.279980
2123.000000	8.261604
2122.000000	8.241380
2121.000000	8.210364
2120.000000	8.185667
2119.000000	8.162430
2118.000000	8.142886
2117.000000	8.130927
2116.000000	8.111870
2115.000000	8.082410
2114.000000	8.060436
2113.000000	8.040504
2112.000000	8.014252
2111.000000	7.998403
2110.000000	7.980707
2109.000000	7.960678
2108.000000	7.945413
2107.000000	7.923245
2106.000000	7.910896
2105.000000	7.883380
2104.000000	7.855378
2103.000000	7.844683
2102.000000	7.825723
2101.000000	7.814250
2100.000000	7.789165
2099.000000	7.774483
2098.000000	7.750467
2097.000000	7.728299
2096.000000	7.724702
2095.000000	7.712937
2094.000000	7.701172
2093.000000	7.680365
2092.000000	7.649543
2091.000000	7.639334
2090.000000	7.640598
2089.000000	7.628639
2088.000000	7.621249
2087.000000	7.616193
2086.000000	7.610943
2085.000000	7.602970
2084.000000	7.599373
2083.000000	7.585566
2082.000000	7.573898
2081.000000	7.557564
2080.000000	7.544632
2079.000000	7.543174
2078.000000	7.535298
2077.000000	7.519547
2076.000000	7.510407
2075.000000	7.506907
2074.000000	7.504671
2073.000000	7.510213
2072.000000	7.517894
2071.000000	7.508268
2070.000000	7.502337
2069.000000	7.497476
2068.000000	7.496990
2067.000000	7.499615
2066.000000	7.505060
2065.000000	7.496990
2064.000000	7.492712
2063.000000	7.506227
2062.000000	7.506518
2061.000000	7.501754
2060.000000	7.521783
2059.000000	7.539382
2058.000000	7.564467
2057.000000	7.575260
2056.000000	7.596456
2055.000000	7.609096
2054.000000	7.631653
2053.000000	7.681532
2052.000000	7.700880
2051.000000	7.737536
2050.000000	7.803749
2049.000000	7.849058
2048.000000	7.908174
2047.000000	7.960970
2046.000000	8.038559
2045.000000	8.092424
2044.000000	8.161360
2043.000000	8.231560
2042.000000	8.300398
2041.000000	8.367876
2040.000000	8.452466
2039.000000	8.512165
2038.000000	8.584601
2037.000000	8.642550
2036.000000	8.714597
2035.000000	8.785477
2034.000000	8.831078
2033.000000	8.911098
2032.000000	8.958157
2031.000000	9.018828
2030.000000	9.082514
2029.000000	9.123059
2028.000000	9.183244
2027.000000	9.237498
2026.000000	9.283099
2025.000000	9.345909
2024.000000	9.379842
2023.000000	9.437888
2022.000000	9.493406
2021.000000	9.518783
2020.000000	9.566231
2019.000000	9.585288
2018.000000	9.652960
2017.000000	9.703131
2016.000000	9.723841
2015.000000	9.753982
2014.000000	9.788984
2013.000000	9.832446
2012.000000	9.876102
2011.000000	9.883394
2010.000000	9.907605
2009.000000	9.932884
2008.000000	9.923356
2007.000000	9.956900
2006.000000	9.981694
2005.000000	9.980721
2004.000000	9.983055
2003.000000	9.973040
2002.000000	9.983833
2001.000000	9.979068
2000.000000	9.986847
1999.000000	9.975374
1998.000000	9.969443
1997.000000	9.962053
1996.000000	9.944649
1995.000000	9.922092
1994.000000	9.921314
1993.000000	9.874547
1992.000000	9.878727
1991.000000	9.847419
1990.000000	9.828849
1989.000000	9.811736
1988.000000	9.782373
1987.000000	9.737550
1986.000000	9.701867
1985.000000	9.682421
1984.000000	9.652182
1983.000000	9.602790
1982.000000	9.570509
1981.000000	9.536771
1980.000000	9.509255
1979.000000	9.452667
1978.000000	9.432541
1977.000000	9.381592
1976.000000	9.358452
1975.000000	9.324810
1974.000000	9.297197
1973.000000	9.256458
1972.000000	9.217469
1971.000000	9.167201
1970.000000	9.131712
1969.000000	9.116641
1968.000000	9.069777
1967.000000	9.062484
1966.000000	9.003952
1965.000000	8.965741
1964.000000	8.943573
1963.000000	8.901764
1962.000000	8.878137
1961.000000	8.846343
1960.000000	8.809882
1959.000000	8.769045
1958.000000	8.751252
1957.000000	8.706916
1956.000000	8.689220
1955.000000	8.655967
1954.000000	8.618145
1953.000000	8.597143
1952.000000	8.559127
1951.000000	8.536666
1950.000000	8.504386
1949.000000	8.492427
1948.000000	8.486690
1947.000000	8.451979
1946.000000	8.429422
1945.000000	8.415129
1944.000000	8.404823
1943.000000	8.381391
1942.000000	8.384891
1941.000000	8.387808
1940.000000	8.381682
1939.000000	8.384113
1938.000000	8.376724
1937.000000	8.372154
1936.000000	8.389266
1935.000000	8.402781
1934.000000	8.453730
1933.000000	8.469092
1932.000000	8.515179
1931.000000	8.556307
1930.000000	8.606186
1929.000000	8.651009
1928.000000	8.690484
1927.000000	8.744155
1926.000000	8.795006
1925.000000	8.868511
1924.000000	8.941628
1923.000000	9.017273
1922.000000	9.109349
1921.000000	9.175660
1920.000000	9.284849
1919.000000	9.335214
1918.000000	9.441194
1917.000000	9.562828
1916.000000	9.657530
1915.000000	9.759329
1914.000000	9.904979
1913.000000	10.018155
1912.000000	10.098272
1911.000000	10.222143
1910.000000	10.353597
1909.000000	10.475718
1908.000000	10.624771
1907.000000	10.760698
1906.000000	10.892444
1905.000000	11.020204
1904.000000	11.160312
1903.000000	11.310629
1902.000000	11.455501
1901.000000	11.605526
1900.000000	11.758468
1899.000000	11.908105
1898.000000	12.053949
1897.000000	12.217003
1896.000000	12.361001
1895.000000	12.516179
1894.000000	12.676316
1893.000000	12.846565
1892.000000	13.015259
1891.000000	13.170437
1890.000000	13.335631
1889.000000	13.491004
1888.000000	13.661739
1887.000000	13.863004
1886.000000	14.088285
1885.000000	14.322512
1884.000000	14.600491
1883.000000	14.923391
1882.000000	15.263403
1881.000000	15.614208
1880.000000	15.976582
1879.000000	16.309302
1878.000000	16.646884
1877.000000	16.964241
1876.000000	17.246888
1875.000000	17.494337
1874.000000	17.739551
1873.000000	17.960262
1872.000000	18.157346
1871.000000	18.341402
1870.000000	18.480149
1869.000000	18.583990
1868.000000	18.688318
1867.000000	18.767462
1866.000000	18.829203
1865.000000	18.894542
1864.000000	18.959102
1863.000000	18.993230
1862.000000	19.028427
1861.000000	19.067027
1860.000000	19.044664
1859.000000	19.012384
1858.000000	18.986521
1857.000000	18.960852
1856.000000	18.906890
1855.000000	18.858372
1854.000000	18.810535
1853.000000	18.741113
1852.000000	18.670525
1851.000000	18.615006
1850.000000	18.578740
1849.000000	18.535375
1848.000000	18.438340
1847.000000	18.316511
1846.000000	18.214420
1845.000000	18.146262
1844.000000	18.122344
1843.000000	18.115149
1842.000000	18.111648
1841.000000	18.068770
1840.000000	18.008293
1839.000000	17.962109
1838.000000	17.924384
1837.000000	17.869255
1836.000000	17.796333
1835.000000	17.727980
1834.000000	17.664392
1833.000000	17.598665
1832.000000	17.546841
1831.000000	17.502310
1830.000000	17.417720
1829.000000	17.322144
1828.000000	17.239304
1827.000000	17.156950
1826.000000	17.090154
1825.000000	17.029385
1824.000000	16.984951
1823.000000	16.979020
1822.000000	16.986604
1821.000000	16.953643
1820.000000	16.905126
1819.000000	16.862734
1818.000000	16.847080
1817.000000	16.849413
1816.000000	16.856900
1815.000000	16.868665
1814.000000	16.868276
1813.000000	16.859428
1812.000000	16.845427
1811.000000	16.824425
1810.000000	16.782811
1809.000000	16.762879
1808.000000	16.730307
1807.000000	16.697832
1806.000000	16.687817
1805.000000	16.636480
1804.000000	16.579892
1803.000000	16.544209
1802.000000	16.512221
1801.000000	16.464189
1800.000000	16.415477
1799.000000	16.361223
1798.000000	16.328359
1797.000000	16.308816
1796.000000	16.270508
1795.000000	16.236477
1794.000000	16.172986
1793.000000	16.137789
1792.000000	16.090827
1791.000000	16.034629
1790.000000	15.971332
1789.000000	15.920967
1788.000000	15.852420
1787.000000	15.795930
1786.000000	15.744398
1785.000000	15.659128
1784.000000	15.556648
1783.000000	15.490726
1782.000000	15.421109
1781.000000	15.324949
1780.000000	15.246291
1779.000000	15.173271
1778.000000	15.093543
1777.000000	14.993493
1776.000000	14.885860
1775.000000	14.776380
1774.000000	14.659412
1773.000000	14.540889
1772.000000	14.399517
1771.000000	14.262715
1770.000000	14.149443
1769.000000	14.027614
1768.000000	13.905202
1767.000000	13.786776
1766.000000	13.706853
1765.000000	13.630723
1764.000000	13.598345
1763.000000	13.582302
1762.000000	13.590275
1761.000000	13.635292
1760.000000	13.685755
1759.000000	13.749537
1758.000000	13.820515
1757.000000	13.888089
1756.000000	13.937482
1755.000000	13.984736
1754.000000	13.995042
1753.000000	13.999029
1752.000000	13.981430
1751.000000	13.950511
1750.000000	13.907827
1749.000000	13.850073
1748.000000	13.779776
1747.000000	13.693922
1746.000000	13.604568
1745.000000	13.487601
1744.000000	13.334464
1743.000000	13.152450
1742.000000	12.961296
1741.000000	12.741363
1740.000000	12.525319
1739.000000	12.297996
1738.000000	12.103439
1737.000000	11.943010
1736.000000	11.811361
1735.000000	11.713062
1734.000000	11.681171
1733.000000	11.678643
1732.000000	11.706645
1731.000000	11.810583
1730.000000	11.908980
1729.000000	12.020113
1728.000000	12.124246
1727.000000	12.219045
1726.000000	12.332609
1725.000000	12.395420
1724.000000	12.456869
1723.000000	12.484288
1722.000000	12.485260
1721.000000	12.498580
1720.000000	12.494983
1719.000000	12.494886
1718.000000	12.484579
1717.000000	12.495955
1716.000000	12.542723
1715.000000	12.566641
1714.000000	12.627896
1713.000000	12.692067
1712.000000	12.688567
1711.000000	12.726195
1710.000000	12.719583
1709.000000	12.730376
1708.000000	12.731446
1707.000000	12.706846
1706.000000	12.678455
1705.000000	12.639466
1704.000000	12.608450
1703.000000	12.545348
1702.000000	12.486524
1701.000000	12.382099
1700.000000	12.242478
1699.000000	12.111509
1698.000000	12.008251
1697.000000	11.925606
1696.000000	11.899937
1695.000000	11.901590
1694.000000	11.953414
1693.000000	12.073590
1692.000000	12.214378
1691.000000	12.395809
1690.000000	12.552446
1689.000000	12.672135
1688.000000	12.752447
1687.000000	12.770629
1686.000000	12.750405
1685.000000	12.750211
1684.000000	12.797367
1683.000000	12.910056
1682.000000	13.182786
1681.000000	13.575593
1680.000000	14.037240
1679.000000	14.580754
1678.000000	15.106960
1677.000000	15.618972
1676.000000	16.090730
1675.000000	16.487427
1674.000000	16.845816
1673.000000	17.130893
1672.000000	17.382718
1671.000000	17.603040
1670.000000	17.791666
1669.000000	17.937899
1668.000000	18.087341
1667.000000	18.238144
1666.000000	18.324192
1665.000000	18.413449
1664.000000	18.470426
1663.000000	18.549279
1662.000000	18.573684
1661.000000	18.619576
1660.000000	18.671983
1659.000000	18.701930
1658.000000	18.706694
1657.000000	18.724681
1656.000000	18.731585
1655.000000	18.727793
1654.000000	18.731488
1653.000000	18.735182
1652.000000	18.700957
1651.000000	18.662357
1650.000000	18.635619
1649.000000	18.618798
1648.000000	18.583407
1647.000000	18.529833
1646.000000	18.480246
1645.000000	18.430659
1644.000000	18.394392
1643.000000	18.333915
1642.000000	18.277717
1641.000000	18.206058
1640.000000	18.132456
1639.000000	18.078493
1638.000000	18.019183
1637.000000	17.950636
1636.000000	17.886367
1635.000000	17.827738
1634.000000	17.747815
1633.000000	17.681796
1632.000000	17.618597
1631.000000	17.571538
1630.000000	17.538091
1629.000000	17.474891
1628.000000	17.432694
1627.000000	17.346646
1626.000000	17.272265
1625.000000	17.189620
1624.000000	17.115239
1623.000000	17.045525
1622.000000	16.979604
1621.000000	16.919516
1620.000000	16.840760
1619.000000	16.764532
1618.000000	16.704346
1617.000000	16.628702
1616.000000	16.568906
1615.000000	16.492483
1614.000000	16.425686
1613.000000	16.375516
1612.000000	16.306580
1611.000000	16.254562
1610.000000	16.198266
1609.000000	16.133317
1608.000000	16.075659
1607.000000	16.012655
1606.000000	15.967054
1605.000000	15.924565
1604.000000	15.876533
1603.000000	15.821987
1602.000000	15.766177
1601.000000	15.714451
1600.000000	15.650377
1599.000000	15.606526
1598.000000	15.567343
