PE UV       SUBTECH     SPECTRUM    ASCII       PEDS        4.00        
   -1
CICIMAUCR0098-3.Sample.ASC
24/04/18
13:56:50.00
24/04/18
13:56:50.00
Vinicio Soto Monge
C. cupreomarginata
250,000000
1
Lambda 1050
1050L1511233
PerkinElmer UV WinLab 6.3.2.0749 / 2.02.05 Lambda 900 UV/VIS/NIR, Aug  7 2015 09:38:08

0
0
3350/servo 860,8/2
0
0
UV/VIS
1
1
1
DoubleDePol,CommonBeamDepol,RBeamAtt,SBeamAtt,60mm sphere, WB InGaAs Detector
0
0
0
0
Program
Program
3350/servo 860,8/2
3350/0,2 860,8/0,2
3350/0,2 860,8/0,2
0
15.00
 
 
 
0
 
860,8
319,2
860,8
Front
100
on
S:100 R:100
0
0
0
0
 
0
 
 
 
0
 
 
0
0
0
0
0
 
 
 
 
0
0


0
0
#HDR
-1
-1
#GR
nm
%R
1.0
0.0
2500,000000
-1,000000
2251
8
63,481300
4,596200
#DATA
2500.000000	15.061000
2499.000000	14.972300
2498.000000	15.019100
2497.000000	15.021500
2496.000000	14.859000
2495.000000	14.903700
2494.000000	15.033000
2493.000000	14.995500
2492.000000	14.828000
2491.000000	14.854500
2490.000000	14.884400
2489.000000	14.863500
2488.000000	14.885600
2487.000000	14.811300
2486.000000	14.874400
2485.000000	14.836100
2484.000000	14.897900
2483.000000	14.838400
2482.000000	14.853700
2481.000000	14.842200
2480.000000	14.850900
2479.000000	14.850600
2478.000000	14.850700
2477.000000	14.905100
2476.000000	14.894500
2475.000000	14.943500
2474.000000	14.971000
2473.000000	15.005400
2472.000000	14.970400
2471.000000	15.009400
2470.000000	15.022200
2469.000000	15.070200
2468.000000	15.119500
2467.000000	15.164000
2466.000000	15.225200
2465.000000	15.251200
2464.000000	15.284300
2463.000000	15.334300
2462.000000	15.394800
2461.000000	15.454600
2460.000000	15.488800
2459.000000	15.595900
2458.000000	15.649400
2457.000000	15.720300
2456.000000	15.797500
2455.000000	15.868000
2454.000000	15.932000
2453.000000	16.059200
2452.000000	16.150900
2451.000000	16.224600
2450.000000	16.332200
2449.000000	16.416700
2448.000000	16.506500
2447.000000	16.612000
2446.000000	16.710700
2445.000000	16.819500
2444.000000	16.930000
2443.000000	17.029800
2442.000000	17.127700
2441.000000	17.235500
2440.000000	17.318800
2439.000000	17.407400
2438.000000	17.514300
2437.000000	17.626800
2436.000000	17.713600
2435.000000	17.782000
2434.000000	17.878400
2433.000000	17.956800
2432.000000	18.053400
2431.000000	18.130700
2430.000000	18.213900
2429.000000	18.281100
2428.000000	18.360500
2427.000000	18.439300
2426.000000	18.519300
2425.000000	18.576800
2424.000000	18.648000
2423.000000	18.739700
2422.000000	18.824900
2421.000000	18.901700
2420.000000	18.966000
2419.000000	19.031900
2418.000000	19.081400
2417.000000	19.131200
2416.000000	19.187900
2415.000000	19.246300
2414.000000	19.311000
2413.000000	19.355500
2412.000000	19.385500
2411.000000	19.430800
2410.000000	19.473200
2409.000000	19.508200
2408.000000	19.543200
2407.000000	19.581200
2406.000000	19.607200
2405.000000	19.643100
2404.000000	19.687900
2403.000000	19.711100
2402.000000	19.729300
2401.000000	19.753800
2400.000000	19.763800
2399.000000	19.786400
2398.000000	19.809200
2397.000000	19.820800
2396.000000	19.841200
2395.000000	19.853100
2394.000000	19.874900
2393.000000	19.876500
2392.000000	19.888900
2391.000000	19.901200
2390.000000	19.902800
2389.000000	19.918200
2388.000000	19.912000
2387.000000	19.915700
2386.000000	19.910000
2385.000000	19.897400
2384.000000	19.904800
2383.000000	19.914400
2382.000000	19.897500
2381.000000	19.869400
2380.000000	19.855800
2379.000000	19.841900
2378.000000	19.824600
2377.000000	19.807400
2376.000000	19.772400
2375.000000	19.757900
2374.000000	19.751100
2373.000000	19.712700
2372.000000	19.675700
2371.000000	19.651600
2370.000000	19.645100
2369.000000	19.632000
2368.000000	19.606100
2367.000000	19.572600
2366.000000	19.537700
2365.000000	19.509200
2364.000000	19.486900
2363.000000	19.466700
2362.000000	19.443600
2361.000000	19.417900
2360.000000	19.394900
2359.000000	19.370000
2358.000000	19.330700
2357.000000	19.302600
2356.000000	19.280500
2355.000000	19.256500
2354.000000	19.236100
2353.000000	19.217700
2352.000000	19.206500
2351.000000	19.198200
2350.000000	19.202300
2349.000000	19.196000
2348.000000	19.190600
2347.000000	19.186400
2346.000000	19.187500
2345.000000	19.180500
2344.000000	19.193100
2343.000000	19.192600
2342.000000	19.196400
2341.000000	19.215200
2340.000000	19.214200
2339.000000	19.194500
2338.000000	19.195100
2337.000000	19.190500
2336.000000	19.183600
2335.000000	19.187700
2334.000000	19.172300
2333.000000	19.172100
2332.000000	19.178200
2331.000000	19.167800
2330.000000	19.143600
2329.000000	19.128300
2328.000000	19.116900
2327.000000	19.106200
2326.000000	19.105700
2325.000000	19.089400
2324.000000	19.056200
2323.000000	19.018200
2322.000000	18.995100
2321.000000	18.959000
2320.000000	18.910900
2319.000000	18.872400
2318.000000	18.830500
2317.000000	18.760800
2316.000000	18.688800
2315.000000	18.611700
2314.000000	18.556500
2313.000000	18.480500
2312.000000	18.417700
2311.000000	18.357200
2310.000000	18.272900
2309.000000	18.231500
2308.000000	18.179000
2307.000000	18.118600
2306.000000	18.099200
2305.000000	18.071500
2304.000000	18.048900
2303.000000	18.040400
2302.000000	18.031400
2301.000000	18.038000
2300.000000	18.060500
2299.000000	18.074500
2298.000000	18.102200
2297.000000	18.130400
2296.000000	18.164900
2295.000000	18.201400
2294.000000	18.212200
2293.000000	18.241100
2292.000000	18.285600
2291.000000	18.319900
2290.000000	18.333900
2289.000000	18.354500
2288.000000	18.374600
2287.000000	18.413800
2286.000000	18.438400
2285.000000	18.444000
2284.000000	18.453800
2283.000000	18.473800
2282.000000	18.485700
2281.000000	18.475800
2280.000000	18.498200
2279.000000	18.507400
2278.000000	18.508100
2277.000000	18.508500
2276.000000	18.511000
2275.000000	18.505900
2274.000000	18.525800
2273.000000	18.541000
2272.000000	18.548200
2271.000000	18.575300
2270.000000	18.615200
2269.000000	18.646300
2268.000000	18.697700
2267.000000	18.783400
2266.000000	18.864400
2265.000000	18.938100
2264.000000	19.053100
2263.000000	19.159600
2262.000000	19.296800
2261.000000	19.453700
2260.000000	19.607300
2259.000000	19.770600
2258.000000	19.956700
2257.000000	20.130700
2256.000000	20.340500
2255.000000	20.513400
2254.000000	20.685300
2253.000000	20.883700
2252.000000	21.075900
2251.000000	21.256700
2250.000000	21.416200
2249.000000	21.578100
2248.000000	21.754100
2247.000000	21.898700
2246.000000	22.032300
2245.000000	22.130700
2244.000000	22.248900
2243.000000	22.358000
2242.000000	22.463100
2241.000000	22.551000
2240.000000	22.592600
2239.000000	22.683600
2238.000000	22.716100
2237.000000	22.773500
2236.000000	22.822200
2235.000000	22.844400
2234.000000	22.835800
2233.000000	22.842800
2232.000000	22.848700
2231.000000	22.828900
2230.000000	22.807900
2229.000000	22.787800
2228.000000	22.749500
2227.000000	22.709000
2226.000000	22.662900
2225.000000	22.615300
2224.000000	22.563500
2223.000000	22.520500
2222.000000	22.443200
2221.000000	22.379400
2220.000000	22.290400
2219.000000	22.229900
2218.000000	22.153900
2217.000000	22.071100
2216.000000	22.005100
2215.000000	21.931300
2214.000000	21.868100
2213.000000	21.811600
2212.000000	21.720200
2211.000000	21.649400
2210.000000	21.602200
2209.000000	21.565800
2208.000000	21.507300
2207.000000	21.426400
2206.000000	21.379100
2205.000000	21.355200
2204.000000	21.320900
2203.000000	21.284800
2202.000000	21.254800
2201.000000	21.190900
2200.000000	21.184600
2199.000000	21.152500
2198.000000	21.116000
2197.000000	21.104900
2196.000000	21.090400
2195.000000	21.073100
2194.000000	21.042500
2193.000000	21.027200
2192.000000	21.024600
2191.000000	20.999100
2190.000000	20.996200
2189.000000	20.973400
2188.000000	20.960700
2187.000000	20.941200
2186.000000	20.935100
2185.000000	20.933100
2184.000000	20.914700
2183.000000	20.887900
2182.000000	20.872100
2181.000000	20.868100
2180.000000	20.862800
2179.000000	20.840100
2178.000000	20.816600
2177.000000	20.810400
2176.000000	20.827600
2175.000000	20.815200
2174.000000	20.827900
2173.000000	20.832800
2172.000000	20.847000
2171.000000	20.859700
2170.000000	20.884100
2169.000000	20.899400
2168.000000	20.927500
2167.000000	20.956800
2166.000000	20.986500
2165.000000	21.035300
2164.000000	21.081200
2163.000000	21.127700
2162.000000	21.168000
2161.000000	21.226900
2160.000000	21.280200
2159.000000	21.356500
2158.000000	21.425500
2157.000000	21.501000
2156.000000	21.568900
2155.000000	21.660500
2154.000000	21.735800
2153.000000	21.832000
2152.000000	21.936300
2151.000000	22.034100
2150.000000	22.122500
2149.000000	22.207300
2148.000000	22.323900
2147.000000	22.418700
2146.000000	22.520900
2145.000000	22.618900
2144.000000	22.714000
2143.000000	22.786300
2142.000000	22.888400
2141.000000	22.992400
2140.000000	23.075100
2139.000000	23.176500
2138.000000	23.273700
2137.000000	23.357400
2136.000000	23.443000
2135.000000	23.536500
2134.000000	23.612500
2133.000000	23.680800
2132.000000	23.759200
2131.000000	23.835500
2130.000000	23.888900
2129.000000	23.949700
2128.000000	24.010600
2127.000000	24.062900
2126.000000	24.115600
2125.000000	24.163500
2124.000000	24.199000
2123.000000	24.234300
2122.000000	24.280700
2121.000000	24.317100
2120.000000	24.345000
2119.000000	24.379900
2118.000000	24.398400
2117.000000	24.417600
2116.000000	24.438700
2115.000000	24.434900
2114.000000	24.448200
2113.000000	24.461400
2112.000000	24.474700
2111.000000	24.475500
2110.000000	24.482900
2109.000000	24.497000
2108.000000	24.486600
2107.000000	24.474000
2106.000000	24.480200
2105.000000	24.486800
2104.000000	24.486500
2103.000000	24.481700
2102.000000	24.470200
2101.000000	24.456600
2100.000000	24.451600
2099.000000	24.453200
2098.000000	24.462200
2097.000000	24.451300
2096.000000	24.436500
2095.000000	24.446700
2094.000000	24.439000
2093.000000	24.427500
2092.000000	24.428800
2091.000000	24.432100
2090.000000	24.438200
2089.000000	24.434800
2088.000000	24.421300
2087.000000	24.419900
2086.000000	24.409500
2085.000000	24.383600
2084.000000	24.364500
2083.000000	24.333800
2082.000000	24.294700
2081.000000	24.246800
2080.000000	24.187200
2079.000000	24.128200
2078.000000	24.068000
2077.000000	24.009300
2076.000000	23.927800
2075.000000	23.835400
2074.000000	23.744800
2073.000000	23.657300
2072.000000	23.553100
2071.000000	23.450900
2070.000000	23.354600
2069.000000	23.258900
2068.000000	23.135300
2067.000000	23.026400
2066.000000	22.932300
2065.000000	22.828200
2064.000000	22.719200
2063.000000	22.598100
2062.000000	22.516900
2061.000000	22.457200
2060.000000	22.381300
2059.000000	22.300600
2058.000000	22.255600
2057.000000	22.213300
2056.000000	22.177600
2055.000000	22.187200
2054.000000	22.196600
2053.000000	22.207200
2052.000000	22.263500
2051.000000	22.328500
2050.000000	22.426000
2049.000000	22.529000
2048.000000	22.633100
2047.000000	22.767700
2046.000000	22.913300
2045.000000	23.061700
2044.000000	23.209600
2043.000000	23.362400
2042.000000	23.516300
2041.000000	23.667900
2040.000000	23.836400
2039.000000	23.991700
2038.000000	24.132500
2037.000000	24.257400
2036.000000	24.404100
2035.000000	24.541800
2034.000000	24.656300
2033.000000	24.768300
2032.000000	24.893900
2031.000000	24.993200
2030.000000	25.077400
2029.000000	25.179000
2028.000000	25.262300
2027.000000	25.358900
2026.000000	25.418800
2025.000000	25.499600
2024.000000	25.565900
2023.000000	25.648100
2022.000000	25.703400
2021.000000	25.751500
2020.000000	25.804100
2019.000000	25.842700
2018.000000	25.908000
2017.000000	25.944300
2016.000000	25.957200
2015.000000	25.984800
2014.000000	26.020100
2013.000000	26.040300
2012.000000	26.055400
2011.000000	26.062700
2010.000000	26.081500
2009.000000	26.071600
2008.000000	26.067000
2007.000000	26.053000
2006.000000	26.048600
2005.000000	26.037200
2004.000000	26.012900
2003.000000	25.979100
2002.000000	25.934200
2001.000000	25.907500
2000.000000	25.861300
1999.000000	25.794100
1998.000000	25.750200
1997.000000	25.705100
1996.000000	25.654700
1995.000000	25.579400
1994.000000	25.516500
1993.000000	25.450200
1992.000000	25.388000
1991.000000	25.311900
1990.000000	25.239900
1989.000000	25.168000
1988.000000	25.087100
1987.000000	24.985300
1986.000000	24.907400
1985.000000	24.830500
1984.000000	24.739900
1983.000000	24.656900
1982.000000	24.595400
1981.000000	24.493800
1980.000000	24.426900
1979.000000	24.334000
1978.000000	24.245700
1977.000000	24.178400
1976.000000	24.095200
1975.000000	24.033700
1974.000000	23.945700
1973.000000	23.879300
1972.000000	23.814700
1971.000000	23.750300
1970.000000	23.652800
1969.000000	23.582500
1968.000000	23.499500
1967.000000	23.462100
1966.000000	23.406200
1965.000000	23.303900
1964.000000	23.270300
1963.000000	23.183300
1962.000000	23.112100
1961.000000	23.042500
1960.000000	22.968900
1959.000000	22.878000
1958.000000	22.808200
1957.000000	22.758200
1956.000000	22.668100
1955.000000	22.589500
1954.000000	22.506300
1953.000000	22.430100
1952.000000	22.325400
1951.000000	22.282500
1950.000000	22.216600
1949.000000	22.175900
1948.000000	22.111500
1947.000000	22.049700
1946.000000	21.987400
1945.000000	21.952400
1944.000000	21.910700
1943.000000	21.856800
1942.000000	21.855800
1941.000000	21.847100
1940.000000	21.826700
1939.000000	21.812800
1938.000000	21.797000
1937.000000	21.794600
1936.000000	21.817200
1935.000000	21.820900
1934.000000	21.864700
1933.000000	21.912100
1932.000000	21.987000
1931.000000	22.049000
1930.000000	22.115700
1929.000000	22.202600
1928.000000	22.308200
1927.000000	22.395200
1926.000000	22.487800
1925.000000	22.626200
1924.000000	22.785400
1923.000000	22.918300
1922.000000	23.064600
1921.000000	23.244500
1920.000000	23.432300
1919.000000	23.624800
1918.000000	23.821300
1917.000000	24.025700
1916.000000	24.245600
1915.000000	24.485400
1914.000000	24.757100
1913.000000	25.037600
1912.000000	25.319600
1911.000000	25.580800
1910.000000	25.882100
1909.000000	26.168400
1908.000000	26.476900
1907.000000	26.845700
1906.000000	27.264900
1905.000000	27.687900
1904.000000	28.067500
1903.000000	28.453200
1902.000000	28.897800
1901.000000	29.302600
1900.000000	29.750700
1899.000000	30.245500
1898.000000	30.700100
1897.000000	31.176700
1896.000000	31.600900
1895.000000	32.032600
1894.000000	32.499500
1893.000000	32.997200
1892.000000	33.505600
1891.000000	34.021600
1890.000000	34.497400
1889.000000	34.926700
1888.000000	35.380900
1887.000000	35.808000
1886.000000	36.238700
1885.000000	36.665600
1884.000000	37.096900
1883.000000	37.488800
1882.000000	37.850800
1881.000000	38.186300
1880.000000	38.492500
1879.000000	38.793700
1878.000000	39.083000
1877.000000	39.348700
1876.000000	39.610300
1875.000000	39.867300
1874.000000	40.121600
1873.000000	40.342100
1872.000000	40.551300
1871.000000	40.738800
1870.000000	40.859700
1869.000000	40.984100
1868.000000	41.119100
1867.000000	41.197600
1866.000000	41.245800
1865.000000	41.300700
1864.000000	41.369000
1863.000000	41.436000
1862.000000	41.517600
1861.000000	41.617400
1860.000000	41.700800
1859.000000	41.755800
1858.000000	41.799100
1857.000000	41.831700
1856.000000	41.851000
1855.000000	41.878800
1854.000000	41.918100
1853.000000	41.904700
1852.000000	41.889000
1851.000000	41.935900
1850.000000	41.985500
1849.000000	42.031400
1848.000000	42.043500
1847.000000	42.024500
1846.000000	41.968000
1845.000000	41.908500
1844.000000	41.866800
1843.000000	41.890700
1842.000000	41.936200
1841.000000	41.934500
1840.000000	41.908300
1839.000000	41.874700
1838.000000	41.840400
1837.000000	41.819600
1836.000000	41.766300
1835.000000	41.692200
1834.000000	41.629000
1833.000000	41.580600
1832.000000	41.545200
1831.000000	41.522900
1830.000000	41.499400
1829.000000	41.460100
1828.000000	41.411100
1827.000000	41.371100
1826.000000	41.349900
1825.000000	41.306300
1824.000000	41.283900
1823.000000	41.307700
1822.000000	41.336900
1821.000000	41.363600
1820.000000	41.354100
1819.000000	41.278800
1818.000000	41.240000
1817.000000	41.254400
1816.000000	41.272500
1815.000000	41.249900
1814.000000	41.215000
1813.000000	41.218400
1812.000000	41.221500
1811.000000	41.194700
1810.000000	41.142100
1809.000000	41.110800
1808.000000	41.099700
1807.000000	41.095400
1806.000000	41.078800
1805.000000	41.033300
1804.000000	40.992700
1803.000000	40.982700
1802.000000	40.978100
1801.000000	40.955500
1800.000000	40.906800
1799.000000	40.876200
1798.000000	40.858000
1797.000000	40.835000
1796.000000	40.816100
1795.000000	40.802400
1794.000000	40.785800
1793.000000	40.755300
1792.000000	40.735800
1791.000000	40.723100
1790.000000	40.701600
1789.000000	40.684000
1788.000000	40.672300
1787.000000	40.674400
1786.000000	40.655900
1785.000000	40.640900
1784.000000	40.618200
1783.000000	40.588400
1782.000000	40.571700
1781.000000	40.566700
1780.000000	40.528000
1779.000000	40.490800
1778.000000	40.458100
1777.000000	40.393700
1776.000000	40.338000
1775.000000	40.296800
1774.000000	40.241800
1773.000000	40.179500
1772.000000	40.119600
1771.000000	40.056200
1770.000000	39.986500
1769.000000	39.938900
1768.000000	39.872700
1767.000000	39.817700
1766.000000	39.783700
1765.000000	39.732100
1764.000000	39.687900
1763.000000	39.663800
1762.000000	39.646300
1761.000000	39.623600
1760.000000	39.614000
1759.000000	39.590400
1758.000000	39.573800
1757.000000	39.558600
1756.000000	39.547800
1755.000000	39.532800
1754.000000	39.514700
1753.000000	39.479900
1752.000000	39.459100
1751.000000	39.421500
1750.000000	39.383900
1749.000000	39.319600
1748.000000	39.261700
1747.000000	39.203600
1746.000000	39.115600
1745.000000	39.049400
1744.000000	38.975700
1743.000000	38.880600
1742.000000	38.801400
1741.000000	38.708300
1740.000000	38.609900
1739.000000	38.528600
1738.000000	38.444800
1737.000000	38.386400
1736.000000	38.337500
1735.000000	38.313800
1734.000000	38.290400
1733.000000	38.284700
1732.000000	38.264700
1731.000000	38.265400
1730.000000	38.265400
1729.000000	38.275200
1728.000000	38.271600
1727.000000	38.269700
1726.000000	38.280500
1725.000000	38.279400
1724.000000	38.298700
1723.000000	38.329500
1722.000000	38.397100
1721.000000	38.470200
1720.000000	38.584200
1719.000000	38.728000
1718.000000	38.873800
1717.000000	39.035300
1716.000000	39.183100
1715.000000	39.348600
1714.000000	39.485400
1713.000000	39.617600
1712.000000	39.712300
1711.000000	39.825700
1710.000000	39.893900
1709.000000	39.963100
1708.000000	40.033300
1707.000000	40.072900
1706.000000	40.107000
1705.000000	40.102900
1704.000000	40.109500
1703.000000	40.095600
1702.000000	40.072000
1701.000000	40.010500
1700.000000	39.981200
1699.000000	39.952300
1698.000000	39.924100
1697.000000	39.921600
1696.000000	39.874000
1695.000000	39.869400
1694.000000	39.868300
1693.000000	39.848100
1692.000000	39.859500
1691.000000	39.857000
1690.000000	39.843600
1689.000000	39.884500
1688.000000	39.912600
1687.000000	40.001300
1686.000000	40.119200
1685.000000	40.284000
1684.000000	40.473000
1683.000000	40.662300
1682.000000	40.905000
1681.000000	41.153900
1680.000000	41.398500
1679.000000	41.658100
1678.000000	41.887300
1677.000000	42.132400
1676.000000	42.347300
1675.000000	42.549000
1674.000000	42.732900
1673.000000	42.922100
1672.000000	43.119400
1671.000000	43.295500
1670.000000	43.488000
1669.000000	43.660500
1668.000000	43.823100
1667.000000	44.008300
1666.000000	44.159100
1665.000000	44.293400
1664.000000	44.419900
1663.000000	44.541100
1662.000000	44.659700
1661.000000	44.756000
1660.000000	44.880000
1659.000000	44.957800
1658.000000	45.025500
1657.000000	45.084200
1656.000000	45.151400
1655.000000	45.188900
1654.000000	45.244000
1653.000000	45.256000
1652.000000	45.261300
1651.000000	45.284800
1650.000000	45.289200
1649.000000	45.304000
1648.000000	45.276300
1647.000000	45.260800
1646.000000	45.269500
1645.000000	45.257700
1644.000000	45.234200
1643.000000	45.227700
1642.000000	45.216300
1641.000000	45.198000
1640.000000	45.181800
1639.000000	45.190300
1638.000000	45.167400
1637.000000	45.155600
1636.000000	45.135000
1635.000000	45.124500
1634.000000	45.103300
1633.000000	45.074800
1632.000000	45.037700
1631.000000	45.008800
1630.000000	44.978700
1629.000000	44.942300
1628.000000	44.872600
1627.000000	44.830800
1626.000000	44.809500
1625.000000	44.768800
