PE UV       SUBTECH     SPECTRUM    ASCII       PEDS        4.00        
   -1
CICIMAUCR0014-1.Sample.ASC
24/04/12
10:26:09.00
24/04/12
10:26:09.00
Vinicio Soto Monge
C. cupreomarginata
250,000000
1
Lambda 1050
1050L1511233
PerkinElmer UV WinLab 6.3.2.0749 / 2.02.05 Lambda 900 UV/VIS/NIR, Aug  7 2015 09:38:08

0
0
3350/servo 860,8/2
0
0
UV/VIS
1
1
1
DoubleDePol,CommonBeamDepol,RBeamAtt,SBeamAtt,60mm sphere, WB InGaAs Detector
0
0
0
0
Program
Program
3350/servo 860,8/2
3350/0,2 860,8/0,2
3350/0,2 860,8/0,2
0
15.00
 
 
 
0
 
860,8
319,2
860,8
Front
100
on
S:100 R:100
0
0
0
0
 
0
 
 
 
0
 
 
0
0
0
0
0
 
 
 
 
0
0


0
0
#HDR
-1
-1
#GR
nm
%R
1.0
0.0
2500,000000
-1,000000
2251
8
75,639400
5,339800
#DATA
2500.000000	12.566900
2499.000000	12.677500
2498.000000	12.563000
2497.000000	12.493100
2496.000000	12.567100
2495.000000	12.443000
2494.000000	12.393000
2493.000000	12.423500
2492.000000	12.423000
2491.000000	12.433200
2490.000000	12.353700
2489.000000	12.334100
2488.000000	12.263800
2487.000000	12.279700
2486.000000	12.360300
2485.000000	12.337000
2484.000000	12.320100
2483.000000	12.296000
2482.000000	12.356400
2481.000000	12.319900
2480.000000	12.317500
2479.000000	12.330500
2478.000000	12.347000
2477.000000	12.337200
2476.000000	12.341200
2475.000000	12.335300
2474.000000	12.338500
2473.000000	12.377900
2472.000000	12.357300
2471.000000	12.368400
2470.000000	12.386000
2469.000000	12.417600
2468.000000	12.410100
2467.000000	12.444600
2466.000000	12.469000
2465.000000	12.498100
2464.000000	12.559700
2463.000000	12.606000
2462.000000	12.621000
2461.000000	12.691400
2460.000000	12.714100
2459.000000	12.798900
2458.000000	12.869600
2457.000000	12.945700
2456.000000	13.036700
2455.000000	13.123100
2454.000000	13.225700
2453.000000	13.316600
2452.000000	13.410200
2451.000000	13.539700
2450.000000	13.655300
2449.000000	13.755500
2448.000000	13.863700
2447.000000	13.964900
2446.000000	14.066700
2445.000000	14.169700
2444.000000	14.274700
2443.000000	14.375300
2442.000000	14.488100
2441.000000	14.585500
2440.000000	14.666700
2439.000000	14.759400
2438.000000	14.848700
2437.000000	14.945200
2436.000000	15.037900
2435.000000	15.113900
2434.000000	15.202200
2433.000000	15.296100
2432.000000	15.362900
2431.000000	15.437700
2430.000000	15.519400
2429.000000	15.566700
2428.000000	15.588600
2427.000000	15.582200
2426.000000	15.618100
2425.000000	15.640100
2424.000000	15.666800
2423.000000	15.717400
2422.000000	15.768100
2421.000000	15.803600
2420.000000	15.828100
2419.000000	15.869400
2418.000000	15.923200
2417.000000	15.965800
2416.000000	16.001900
2415.000000	16.045700
2414.000000	16.083000
2413.000000	16.105800
2412.000000	16.152900
2411.000000	16.192000
2410.000000	16.225300
2409.000000	16.264700
2408.000000	16.307900
2407.000000	16.332000
2406.000000	16.376600
2405.000000	16.417400
2404.000000	16.438500
2403.000000	16.483400
2402.000000	16.522600
2401.000000	16.557800
2400.000000	16.597800
2399.000000	16.644700
2398.000000	16.682300
2397.000000	16.716000
2396.000000	16.754300
2395.000000	16.781300
2394.000000	16.816400
2393.000000	16.857900
2392.000000	16.879100
2391.000000	16.910100
2390.000000	16.943000
2389.000000	16.956500
2388.000000	16.978100
2387.000000	16.993900
2386.000000	17.001100
2385.000000	16.993700
2384.000000	16.983600
2383.000000	16.996900
2382.000000	16.987300
2381.000000	16.981500
2380.000000	16.967400
2379.000000	16.942800
2378.000000	16.922200
2377.000000	16.896800
2376.000000	16.875200
2375.000000	16.852000
2374.000000	16.821200
2373.000000	16.792500
2372.000000	16.770000
2371.000000	16.730900
2370.000000	16.675900
2369.000000	16.629400
2368.000000	16.578600
2367.000000	16.498900
2366.000000	16.425400
2365.000000	16.348100
2364.000000	16.270400
2363.000000	16.203400
2362.000000	16.118100
2361.000000	16.027900
2360.000000	15.948600
2359.000000	15.875100
2358.000000	15.804200
2357.000000	15.736400
2356.000000	15.676800
2355.000000	15.648100
2354.000000	15.612200
2353.000000	15.596700
2352.000000	15.601300
2351.000000	15.616700
2350.000000	15.647900
2349.000000	15.702200
2348.000000	15.750700
2347.000000	15.802300
2346.000000	15.874300
2345.000000	15.952500
2344.000000	16.018600
2343.000000	16.085100
2342.000000	16.150100
2341.000000	16.187500
2340.000000	16.218400
2339.000000	16.242700
2338.000000	16.266300
2337.000000	16.280600
2336.000000	16.268700
2335.000000	16.247900
2334.000000	16.229600
2333.000000	16.188100
2332.000000	16.127300
2331.000000	16.093600
2330.000000	16.059000
2329.000000	15.992700
2328.000000	15.927100
2327.000000	15.830800
2326.000000	15.728800
2325.000000	15.636900
2324.000000	15.532700
2323.000000	15.405200
2322.000000	15.285600
2321.000000	15.157500
2320.000000	15.011500
2319.000000	14.865200
2318.000000	14.703400
2317.000000	14.554200
2316.000000	14.414800
2315.000000	14.272200
2314.000000	14.113100
2313.000000	13.974000
2312.000000	13.847200
2311.000000	13.732000
2310.000000	13.625200
2309.000000	13.540200
2308.000000	13.507500
2307.000000	13.495200
2306.000000	13.480800
2305.000000	13.517500
2304.000000	13.569600
2303.000000	13.652100
2302.000000	13.741100
2301.000000	13.849700
2300.000000	13.981600
2299.000000	14.110500
2298.000000	14.233500
2297.000000	14.382800
2296.000000	14.498400
2295.000000	14.605000
2294.000000	14.698500
2293.000000	14.808500
2292.000000	14.893000
2291.000000	14.928400
2290.000000	14.986900
2289.000000	14.978600
2288.000000	14.980800
2287.000000	14.961400
2286.000000	14.965100
2285.000000	14.921900
2284.000000	14.870900
2283.000000	14.803500
2282.000000	14.766700
2281.000000	14.710100
2280.000000	14.638400
2279.000000	14.574500
2278.000000	14.526100
2277.000000	14.467900
2276.000000	14.433200
2275.000000	14.398600
2274.000000	14.376400
2273.000000	14.356800
2272.000000	14.376200
2271.000000	14.420200
2270.000000	14.458100
2269.000000	14.527700
2268.000000	14.608800
2267.000000	14.713200
2266.000000	14.895700
2265.000000	15.082500
2264.000000	15.273000
2263.000000	15.525400
2262.000000	15.761300
2261.000000	16.088000
2260.000000	16.371600
2259.000000	16.680700
2258.000000	17.040900
2257.000000	17.385000
2256.000000	17.717800
2255.000000	18.040700
2254.000000	18.348000
2253.000000	18.667600
2252.000000	19.008200
2251.000000	19.280600
2250.000000	19.520100
2249.000000	19.794600
2248.000000	20.054400
2247.000000	20.270100
2246.000000	20.476900
2245.000000	20.676400
2244.000000	20.849100
2243.000000	21.017100
2242.000000	21.156400
2241.000000	21.314700
2240.000000	21.407100
2239.000000	21.582000
2238.000000	21.670400
2237.000000	21.762100
2236.000000	21.845400
2235.000000	21.916300
2234.000000	22.024700
2233.000000	22.077100
2232.000000	22.118500
2231.000000	22.160400
2230.000000	22.191400
2229.000000	22.218600
2228.000000	22.216600
2227.000000	22.243200
2226.000000	22.248900
2225.000000	22.229300
2224.000000	22.214700
2223.000000	22.199700
2222.000000	22.150100
2221.000000	22.117700
2220.000000	22.088300
2219.000000	22.048100
2218.000000	21.997700
2217.000000	21.958600
2216.000000	21.915900
2215.000000	21.869000
2214.000000	21.840900
2213.000000	21.803000
2212.000000	21.775000
2211.000000	21.728200
2210.000000	21.707000
2209.000000	21.640500
2208.000000	21.629200
2207.000000	21.599900
2206.000000	21.568300
2205.000000	21.548400
2204.000000	21.515100
2203.000000	21.495100
2202.000000	21.464200
2201.000000	21.467100
2200.000000	21.465000
2199.000000	21.424300
2198.000000	21.409000
2197.000000	21.392100
2196.000000	21.379300
2195.000000	21.363600
2194.000000	21.345500
2193.000000	21.329800
2192.000000	21.299500
2191.000000	21.296900
2190.000000	21.281900
2189.000000	21.274100
2188.000000	21.245700
2187.000000	21.229900
2186.000000	21.210300
2185.000000	21.171800
2184.000000	21.160600
2183.000000	21.140900
2182.000000	21.127700
2181.000000	21.102900
2180.000000	21.093700
2179.000000	21.058700
2178.000000	21.063000
2177.000000	21.058100
2176.000000	21.048700
2175.000000	21.029500
2174.000000	21.032100
2173.000000	21.043000
2172.000000	21.063000
2171.000000	21.064700
2170.000000	21.078300
2169.000000	21.089200
2168.000000	21.105500
2167.000000	21.137300
2166.000000	21.159000
2165.000000	21.183100
2164.000000	21.211100
2163.000000	21.257400
2162.000000	21.303100
2161.000000	21.342500
2160.000000	21.390700
2159.000000	21.427700
2158.000000	21.480000
2157.000000	21.533800
2156.000000	21.587300
2155.000000	21.638300
2154.000000	21.702200
2153.000000	21.757400
2152.000000	21.832500
2151.000000	21.905000
2150.000000	21.977700
2149.000000	22.040700
2148.000000	22.111100
2147.000000	22.170400
2146.000000	22.213000
2145.000000	22.276800
2144.000000	22.332700
2143.000000	22.395600
2142.000000	22.444000
2141.000000	22.502500
2140.000000	22.537300
2139.000000	22.579100
2138.000000	22.633300
2137.000000	22.688600
2136.000000	22.728300
2135.000000	22.761500
2134.000000	22.810200
2133.000000	22.826900
2132.000000	22.855200
2131.000000	22.886900
2130.000000	22.916500
2129.000000	22.925200
2128.000000	22.934400
2127.000000	22.947100
2126.000000	22.962200
2125.000000	22.969800
2124.000000	22.976300
2123.000000	22.968200
2122.000000	22.954000
2121.000000	22.951900
2120.000000	22.945300
2119.000000	22.933600
2118.000000	22.922800
2117.000000	22.903300
2116.000000	22.889800
2115.000000	22.865400
2114.000000	22.836800
2113.000000	22.805100
2112.000000	22.755400
2111.000000	22.739700
2110.000000	22.739900
2109.000000	22.710500
2108.000000	22.684300
2107.000000	22.662900
2106.000000	22.633100
2105.000000	22.603100
2104.000000	22.567200
2103.000000	22.530700
2102.000000	22.495000
2101.000000	22.463800
2100.000000	22.442900
2099.000000	22.412600
2098.000000	22.381600
2097.000000	22.361500
2096.000000	22.344100
2095.000000	22.318800
2094.000000	22.305800
2093.000000	22.284900
2092.000000	22.266000
2091.000000	22.253900
2090.000000	22.229400
2089.000000	22.209100
2088.000000	22.207400
2087.000000	22.202900
2086.000000	22.165600
2085.000000	22.144800
2084.000000	22.122500
2083.000000	22.089500
2082.000000	22.069200
2081.000000	22.036600
2080.000000	22.002000
2079.000000	21.974700
2078.000000	21.935000
2077.000000	21.895900
2076.000000	21.852600
2075.000000	21.803200
2074.000000	21.753200
2073.000000	21.709000
2072.000000	21.662800
2071.000000	21.621300
2070.000000	21.565000
2069.000000	21.516300
2068.000000	21.458600
2067.000000	21.404800
2066.000000	21.362100
2065.000000	21.318700
2064.000000	21.278500
2063.000000	21.249500
2062.000000	21.211000
2061.000000	21.173400
2060.000000	21.160600
2059.000000	21.161400
2058.000000	21.160300
2057.000000	21.163600
2056.000000	21.187100
2055.000000	21.223500
2054.000000	21.280200
2053.000000	21.352100
2052.000000	21.413500
2051.000000	21.515500
2050.000000	21.622600
2049.000000	21.729600
2048.000000	21.874200
2047.000000	22.033800
2046.000000	22.178300
2045.000000	22.307600
2044.000000	22.466300
2043.000000	22.639000
2042.000000	22.811200
2041.000000	22.964500
2040.000000	23.122000
2039.000000	23.281100
2038.000000	23.436900
2037.000000	23.584500
2036.000000	23.715500
2035.000000	23.860200
2034.000000	23.995100
2033.000000	24.139700
2032.000000	24.250300
2031.000000	24.340300
2030.000000	24.452900
2029.000000	24.552500
2028.000000	24.659400
2027.000000	24.767700
2026.000000	24.850800
2025.000000	24.931200
2024.000000	25.021700
2023.000000	25.120700
2022.000000	25.185500
2021.000000	25.237700
2020.000000	25.298200
2019.000000	25.369700
2018.000000	25.436100
2017.000000	25.460400
2016.000000	25.522100
2015.000000	25.555100
2014.000000	25.625500
2013.000000	25.650300
2012.000000	25.662200
2011.000000	25.667100
2010.000000	25.688800
2009.000000	25.689300
2008.000000	25.700900
2007.000000	25.689300
2006.000000	25.672300
2005.000000	25.672200
2004.000000	25.638100
2003.000000	25.598600
2002.000000	25.571200
2001.000000	25.541500
2000.000000	25.502900
1999.000000	25.455700
1998.000000	25.420800
1997.000000	25.340200
1996.000000	25.277000
1995.000000	25.210100
1994.000000	25.147700
1993.000000	25.073900
1992.000000	24.994700
1991.000000	24.925800
1990.000000	24.837300
1989.000000	24.751400
1988.000000	24.663100
1987.000000	24.577900
1986.000000	24.456700
1985.000000	24.378700
1984.000000	24.277700
1983.000000	24.189100
1982.000000	24.085000
1981.000000	23.959100
1980.000000	23.859800
1979.000000	23.755600
1978.000000	23.666400
1977.000000	23.558300
1976.000000	23.463800
1975.000000	23.357700
1974.000000	23.269100
1973.000000	23.188700
1972.000000	23.076300
1971.000000	22.969200
1970.000000	22.873200
1969.000000	22.780200
1968.000000	22.670100
1967.000000	22.599400
1966.000000	22.505300
1965.000000	22.405200
1964.000000	22.358600
1963.000000	22.258700
1962.000000	22.146700
1961.000000	22.074000
1960.000000	21.953200
1959.000000	21.870200
1958.000000	21.767500
1957.000000	21.683900
1956.000000	21.585400
1955.000000	21.489000
1954.000000	21.389200
1953.000000	21.300200
1952.000000	21.228400
1951.000000	21.137000
1950.000000	21.049500
1949.000000	20.997300
1948.000000	20.918000
1947.000000	20.832600
1946.000000	20.781400
1945.000000	20.743100
1944.000000	20.695200
1943.000000	20.641800
1942.000000	20.587800
1941.000000	20.576100
1940.000000	20.568400
1939.000000	20.542200
1938.000000	20.540700
1937.000000	20.574300
1936.000000	20.588500
1935.000000	20.601700
1934.000000	20.640100
1933.000000	20.714800
1932.000000	20.787500
1931.000000	20.866600
1930.000000	20.960100
1929.000000	21.044500
1928.000000	21.162400
1927.000000	21.320600
1926.000000	21.458700
1925.000000	21.622500
1924.000000	21.768100
1923.000000	21.918500
1922.000000	22.119700
1921.000000	22.374100
1920.000000	22.621100
1919.000000	22.815100
1918.000000	23.057400
1917.000000	23.291200
1916.000000	23.495800
1915.000000	23.743300
1914.000000	24.080100
1913.000000	24.421600
1912.000000	24.739900
1911.000000	25.041300
1910.000000	25.314900
1909.000000	25.560600
1908.000000	25.857700
1907.000000	26.197700
1906.000000	26.593200
1905.000000	27.035700
1904.000000	27.433900
1903.000000	27.767200
1902.000000	28.119200
1901.000000	28.499000
1900.000000	28.920300
1899.000000	29.372700
1898.000000	29.792500
1897.000000	30.216000
1896.000000	30.550000
1895.000000	30.884300
1894.000000	31.262100
1893.000000	31.658900
1892.000000	32.111100
1891.000000	32.578400
1890.000000	32.992200
1889.000000	33.373900
1888.000000	33.794300
1887.000000	34.201400
1886.000000	34.644500
1885.000000	35.145900
1884.000000	35.712400
1883.000000	36.230000
1882.000000	36.737500
1881.000000	37.263700
1880.000000	37.723500
1879.000000	38.166800
1878.000000	38.602100
1877.000000	39.013800
1876.000000	39.386500
1875.000000	39.757400
1874.000000	40.099600
1873.000000	40.426200
1872.000000	40.718300
1871.000000	40.984800
1870.000000	41.200600
1869.000000	41.401000
1868.000000	41.581100
1867.000000	41.653500
1866.000000	41.674700
1865.000000	41.727100
1864.000000	41.758300
1863.000000	41.784600
1862.000000	41.839700
1861.000000	41.903500
1860.000000	41.953900
1859.000000	41.992600
1858.000000	42.006100
1857.000000	41.989200
1856.000000	41.932700
1855.000000	41.901000
1854.000000	41.875200
1853.000000	41.809600
1852.000000	41.744100
1851.000000	41.676700
1850.000000	41.606600
1849.000000	41.596200
1848.000000	41.593900
1847.000000	41.555700
1846.000000	41.456100
1845.000000	41.325700
1844.000000	41.206500
1843.000000	41.166400
1842.000000	41.179300
1841.000000	41.173400
1840.000000	41.134900
1839.000000	41.048500
1838.000000	40.971700
1837.000000	40.935000
1836.000000	40.883400
1835.000000	40.804300
1834.000000	40.681600
1833.000000	40.557800
1832.000000	40.462600
1831.000000	40.373700
1830.000000	40.297300
1829.000000	40.213400
1828.000000	40.110200
1827.000000	40.028700
1826.000000	39.967300
1825.000000	39.877900
1824.000000	39.784900
1823.000000	39.724400
1822.000000	39.725500
1821.000000	39.753700
1820.000000	39.743900
1819.000000	39.682200
1818.000000	39.616800
1817.000000	39.592600
1816.000000	39.591200
1815.000000	39.579500
1814.000000	39.549700
1813.000000	39.521900
1812.000000	39.502700
1811.000000	39.468500
1810.000000	39.397400
1809.000000	39.347500
1808.000000	39.308800
1807.000000	39.273700
1806.000000	39.227800
1805.000000	39.151400
1804.000000	39.079200
1803.000000	39.019800
1802.000000	38.982900
1801.000000	38.941000
1800.000000	38.874100
1799.000000	38.800000
1798.000000	38.743300
1797.000000	38.694200
1796.000000	38.653000
1795.000000	38.613700
1794.000000	38.542600
1793.000000	38.475700
1792.000000	38.408600
1791.000000	38.354800
1790.000000	38.306500
1789.000000	38.239300
1788.000000	38.162400
1787.000000	38.103800
1786.000000	38.036100
1785.000000	37.959300
1784.000000	37.864300
1783.000000	37.776300
1782.000000	37.689800
1781.000000	37.614700
1780.000000	37.512100
1779.000000	37.438500
1778.000000	37.336300
1777.000000	37.220500
1776.000000	37.100100
1775.000000	36.980800
1774.000000	36.824400
1773.000000	36.682800
1772.000000	36.531500
1771.000000	36.377300
1770.000000	36.235500
1769.000000	36.089900
1768.000000	35.981600
1767.000000	35.861300
1766.000000	35.749700
1765.000000	35.670800
1764.000000	35.614600
1763.000000	35.593300
1762.000000	35.603600
1761.000000	35.631800
1760.000000	35.693700
1759.000000	35.759400
1758.000000	35.802600
1757.000000	35.853300
1756.000000	35.880500
1755.000000	35.911700
1754.000000	35.912500
1753.000000	35.896700
1752.000000	35.869100
1751.000000	35.807900
1750.000000	35.744700
1749.000000	35.664400
1748.000000	35.569900
1747.000000	35.447800
1746.000000	35.331000
1745.000000	35.175700
1744.000000	34.984300
1743.000000	34.775700
1742.000000	34.546800
1741.000000	34.290100
1740.000000	34.052600
1739.000000	33.818900
1738.000000	33.584000
1737.000000	33.396300
1736.000000	33.285600
1735.000000	33.196000
1734.000000	33.146900
1733.000000	33.132700
1732.000000	33.193600
1731.000000	33.288900
1730.000000	33.410900
1729.000000	33.527400
1728.000000	33.643000
1727.000000	33.751000
1726.000000	33.828000
1725.000000	33.915700
1724.000000	33.973000
1723.000000	34.023300
1722.000000	34.064000
1721.000000	34.094400
1720.000000	34.127500
1719.000000	34.175000
1718.000000	34.246500
1717.000000	34.329400
1716.000000	34.402200
1715.000000	34.495600
1714.000000	34.580200
1713.000000	34.653900
1712.000000	34.724000
1711.000000	34.772200
1710.000000	34.790300
1709.000000	34.797100
1708.000000	34.790300
1707.000000	34.762700
1706.000000	34.740800
1705.000000	34.687800
1704.000000	34.640700
1703.000000	34.532800
1702.000000	34.409800
1701.000000	34.273100
1700.000000	34.074600
1699.000000	33.928000
1698.000000	33.757200
1697.000000	33.629800
1696.000000	33.596800
1695.000000	33.600200
1694.000000	33.662800
1693.000000	33.760000
1692.000000	33.925600
1691.000000	34.130900
1690.000000	34.265500
1689.000000	34.404700
1688.000000	34.494300
1687.000000	34.535800
1686.000000	34.559700
1685.000000	34.622900
1684.000000	34.775800
1683.000000	35.039300
1682.000000	35.421200
1681.000000	35.918600
1680.000000	36.508200
1679.000000	37.146400
1678.000000	37.703100
1677.000000	38.265600
1676.000000	38.741000
1675.000000	39.161400
1674.000000	39.522900
1673.000000	39.851300
1672.000000	40.159800
1671.000000	40.424300
1670.000000	40.620500
1669.000000	40.832900
1668.000000	41.016200
1667.000000	41.207400
1666.000000	41.318600
1665.000000	41.447600
1664.000000	41.552900
1663.000000	41.666000
1662.000000	41.729800
1661.000000	41.805700
1660.000000	41.868900
1659.000000	41.903900
1658.000000	41.940000
1657.000000	41.986600
1656.000000	42.003200
1655.000000	41.997200
1654.000000	42.017800
1653.000000	41.985000
1652.000000	41.967300
1651.000000	41.961200
1650.000000	41.918000
1649.000000	41.867800
1648.000000	41.814100
1647.000000	41.783900
1646.000000	41.724300
1645.000000	41.655600
1644.000000	41.591900
1643.000000	41.553700
1642.000000	41.480300
1641.000000	41.422200
1640.000000	41.362800
1639.000000	41.285900
1638.000000	41.211500
1637.000000	41.148200
1636.000000	41.066400
1635.000000	40.989400
1634.000000	40.911300
1633.000000	40.825600
1632.000000	40.741400
1631.000000	40.649000
1630.000000	40.562900
1629.000000	40.467600
1628.000000	40.368100
1627.000000	40.274700
1626.000000	40.170800
1625.000000	40.079600
