PE UV       SUBTECH     SPECTRUM    ASCII       PEDS        4.00        
   -1
CICIMAUCR0019-4.Sample.ASC
24/04/25
13:38:40.00
24/04/25
13:38:40.00
Vinicio Soto Monge
C. cupreomarginata
250,000000
1
Lambda 1050
1050L1511233
PerkinElmer UV WinLab 6.3.2.0749 / 2.02.05 Lambda 900 UV/VIS/NIR, Aug  7 2015 09:38:08

0
0
3350/servo 860,8/2
0
0
UV/VIS
1
1
1
DoubleDePol,CommonBeamDepol,RBeamAtt,SBeamAtt,60mm sphere, WB InGaAs Detector
0
0
0
0
Program
Program
3350/servo 860,8/2
3350/0,2 860,8/0,2
3350/0,2 860,8/0,2
0
15.00
 
 
 
0
 
860,8
319,2
860,8
Front
100
on
S:100 R:100
0
0
0
0
 
0
 
 
 
0
 
 
0
0
0
0
0
 
 
 
 
0
0


0
0
#HDR
-1
-1
#GR
nm
%R
1.0
0.0
2500,000000
-1,000000
2251
8
69,189300
4,787900
#DATA
2500.000000	5.180900
2499.000000	5.056000
2498.000000	5.062500
2497.000000	5.060300
2496.000000	5.144800
2495.000000	5.011500
2494.000000	5.195000
2493.000000	4.977300
2492.000000	5.029700
2491.000000	5.001200
2490.000000	4.985400
2489.000000	4.942200
2488.000000	4.909400
2487.000000	4.942000
2486.000000	4.982400
2485.000000	4.972700
2484.000000	4.893300
2483.000000	4.917600
2482.000000	4.941500
2481.000000	4.912800
2480.000000	4.927000
2479.000000	4.904100
2478.000000	4.978500
2477.000000	4.916400
2476.000000	4.920300
2475.000000	4.894800
2474.000000	4.910700
2473.000000	4.892200
2472.000000	4.864900
2471.000000	4.885800
2470.000000	4.853700
2469.000000	4.879000
2468.000000	4.888100
2467.000000	4.894200
2466.000000	4.892500
2465.000000	4.906600
2464.000000	4.894700
2463.000000	4.885100
2462.000000	4.927200
2461.000000	4.939600
2460.000000	4.963900
2459.000000	4.935000
2458.000000	4.980100
2457.000000	4.994800
2456.000000	4.988100
2455.000000	5.013500
2454.000000	5.017800
2453.000000	5.049700
2452.000000	5.063000
2451.000000	5.071700
2450.000000	5.084700
2449.000000	5.097700
2448.000000	5.138700
2447.000000	5.173500
2446.000000	5.214400
2445.000000	5.217100
2444.000000	5.222500
2443.000000	5.255700
2442.000000	5.289200
2441.000000	5.277100
2440.000000	5.318600
2439.000000	5.374600
2438.000000	5.382300
2437.000000	5.399700
2436.000000	5.410500
2435.000000	5.430200
2434.000000	5.431300
2433.000000	5.437200
2432.000000	5.462800
2431.000000	5.491500
2430.000000	5.505700
2429.000000	5.511500
2428.000000	5.530400
2427.000000	5.537500
2426.000000	5.563000
2425.000000	5.569100
2424.000000	5.572400
2423.000000	5.596400
2422.000000	5.582900
2421.000000	5.588800
2420.000000	5.607100
2419.000000	5.611400
2418.000000	5.605000
2417.000000	5.620700
2416.000000	5.629700
2415.000000	5.635600
2414.000000	5.661000
2413.000000	5.669000
2412.000000	5.656000
2411.000000	5.661200
2410.000000	5.691400
2409.000000	5.727300
2408.000000	5.767700
2407.000000	5.838600
2406.000000	5.885800
2405.000000	5.892700
2404.000000	5.881900
2403.000000	5.887900
2402.000000	5.937400
2401.000000	5.958900
2400.000000	5.967300
2399.000000	6.011600
2398.000000	6.010700
2397.000000	6.023100
2396.000000	6.050600
2395.000000	6.067400
2394.000000	6.093700
2393.000000	6.120100
2392.000000	6.141900
2391.000000	6.167300
2390.000000	6.170600
2389.000000	6.172900
2388.000000	6.188300
2387.000000	6.208300
2386.000000	6.233700
2385.000000	6.259700
2384.000000	6.246600
2383.000000	6.263100
2382.000000	6.277700
2381.000000	6.274300
2380.000000	6.264700
2379.000000	6.287500
2378.000000	6.305900
2377.000000	6.299100
2376.000000	6.301200
2375.000000	6.315300
2374.000000	6.319400
2373.000000	6.302300
2372.000000	6.302000
2371.000000	6.300400
2370.000000	6.278900
2369.000000	6.277900
2368.000000	6.290000
2367.000000	6.269600
2366.000000	6.246300
2365.000000	6.239000
2364.000000	6.238700
2363.000000	6.219200
2362.000000	6.208500
2361.000000	6.209300
2360.000000	6.188700
2359.000000	6.161800
2358.000000	6.163000
2357.000000	6.163600
2356.000000	6.148200
2355.000000	6.125800
2354.000000	6.138400
2353.000000	6.162800
2352.000000	6.164000
2351.000000	6.182400
2350.000000	6.200600
2349.000000	6.207100
2348.000000	6.243900
2347.000000	6.271500
2346.000000	6.286800
2345.000000	6.313100
2344.000000	6.350600
2343.000000	6.388500
2342.000000	6.422500
2341.000000	6.444300
2340.000000	6.440700
2339.000000	6.447800
2338.000000	6.498700
2337.000000	6.531100
2336.000000	6.512100
2335.000000	6.510500
2334.000000	6.519300
2333.000000	6.519700
2332.000000	6.513800
2331.000000	6.490000
2330.000000	6.475200
2329.000000	6.467000
2328.000000	6.477900
2327.000000	6.462300
2326.000000	6.433500
2325.000000	6.401400
2324.000000	6.384500
2323.000000	6.372900
2322.000000	6.341800
2321.000000	6.306100
2320.000000	6.281500
2319.000000	6.252200
2318.000000	6.219900
2317.000000	6.169200
2316.000000	6.128800
2315.000000	6.116200
2314.000000	6.086800
2313.000000	6.058200
2312.000000	6.026600
2311.000000	6.010700
2310.000000	6.008000
2309.000000	5.983700
2308.000000	5.973900
2307.000000	5.986900
2306.000000	5.997500
2305.000000	6.009700
2304.000000	6.017500
2303.000000	6.063900
2302.000000	6.074400
2301.000000	6.107300
2300.000000	6.156700
2299.000000	6.190700
2298.000000	6.226200
2297.000000	6.256500
2296.000000	6.303000
2295.000000	6.338400
2294.000000	6.368400
2293.000000	6.387800
2292.000000	6.416800
2291.000000	6.423300
2290.000000	6.462500
2289.000000	6.463000
2288.000000	6.471300
2287.000000	6.458400
2286.000000	6.454500
2285.000000	6.446700
2284.000000	6.441800
2283.000000	6.424600
2282.000000	6.433800
2281.000000	6.404600
2280.000000	6.391300
2279.000000	6.407700
2278.000000	6.389900
2277.000000	6.371700
2276.000000	6.353400
2275.000000	6.356100
2274.000000	6.361000
2273.000000	6.351400
2272.000000	6.380500
2271.000000	6.394500
2270.000000	6.409700
2269.000000	6.402900
2268.000000	6.430300
2267.000000	6.471100
2266.000000	6.550600
2265.000000	6.587500
2264.000000	6.659300
2263.000000	6.707700
2262.000000	6.805500
2261.000000	6.868700
2260.000000	6.960100
2259.000000	7.052600
2258.000000	7.162800
2257.000000	7.285500
2256.000000	7.362200
2255.000000	7.479500
2254.000000	7.576200
2253.000000	7.685900
2252.000000	7.794900
2251.000000	7.878900
2250.000000	7.985100
2249.000000	8.070800
2248.000000	8.162400
2247.000000	8.249200
2246.000000	8.302400
2245.000000	8.379300
2244.000000	8.461500
2243.000000	8.525200
2242.000000	8.577900
2241.000000	8.639800
2240.000000	8.728100
2239.000000	8.761400
2238.000000	8.811800
2237.000000	8.863000
2236.000000	8.890200
2235.000000	8.943700
2234.000000	9.003900
2233.000000	9.028900
2232.000000	9.058300
2231.000000	9.091000
2230.000000	9.098900
2229.000000	9.147600
2228.000000	9.175600
2227.000000	9.180300
2226.000000	9.198100
2225.000000	9.219000
2224.000000	9.204100
2223.000000	9.218500
2222.000000	9.223900
2221.000000	9.233100
2220.000000	9.228800
2219.000000	9.234300
2218.000000	9.252800
2217.000000	9.245700
2216.000000	9.252100
2215.000000	9.260500
2214.000000	9.229400
2213.000000	9.232300
2212.000000	9.224800
2211.000000	9.216500
2210.000000	9.239500
2209.000000	9.248400
2208.000000	9.205900
2207.000000	9.215100
2206.000000	9.206700
2205.000000	9.210500
2204.000000	9.219000
2203.000000	9.234800
2202.000000	9.216300
2201.000000	9.204200
2200.000000	9.211700
2199.000000	9.200400
2198.000000	9.195800
2197.000000	9.220200
2196.000000	9.205000
2195.000000	9.207400
2194.000000	9.205300
2193.000000	9.222500
2192.000000	9.215800
2191.000000	9.215400
2190.000000	9.210300
2189.000000	9.215200
2188.000000	9.208100
2187.000000	9.178200
2186.000000	9.189100
2185.000000	9.174500
2184.000000	9.160000
2183.000000	9.174000
2182.000000	9.155800
2181.000000	9.150900
2180.000000	9.163700
2179.000000	9.147300
2178.000000	9.131600
2177.000000	9.141500
2176.000000	9.139200
2175.000000	9.140800
2174.000000	9.151100
2173.000000	9.138300
2172.000000	9.149000
2171.000000	9.171900
2170.000000	9.172800
2169.000000	9.166800
2168.000000	9.150900
2167.000000	9.157300
2166.000000	9.181500
2165.000000	9.195200
2164.000000	9.178400
2163.000000	9.182400
2162.000000	9.201300
2161.000000	9.222000
2160.000000	9.229500
2159.000000	9.235200
2158.000000	9.235100
2157.000000	9.256000
2156.000000	9.269800
2155.000000	9.270100
2154.000000	9.254400
2153.000000	9.285300
2152.000000	9.310500
2151.000000	9.310600
2150.000000	9.321800
2149.000000	9.338900
2148.000000	9.347900
2147.000000	9.367100
2146.000000	9.376500
2145.000000	9.369900
2144.000000	9.372800
2143.000000	9.368100
2142.000000	9.366800
2141.000000	9.400600
2140.000000	9.416600
2139.000000	9.411500
2138.000000	9.413600
2137.000000	9.432000
2136.000000	9.423600
2135.000000	9.431200
2134.000000	9.447000
2133.000000	9.428900
2132.000000	9.433600
2131.000000	9.444200
2130.000000	9.430900
2129.000000	9.431000
2128.000000	9.434300
2127.000000	9.435600
2126.000000	9.412000
2125.000000	9.398200
2124.000000	9.391600
2123.000000	9.380400
2122.000000	9.368500
2121.000000	9.371100
2120.000000	9.347700
2119.000000	9.340200
2118.000000	9.347000
2117.000000	9.323100
2116.000000	9.294000
2115.000000	9.281800
2114.000000	9.265900
2113.000000	9.262100
2112.000000	9.253500
2111.000000	9.246300
2110.000000	9.228900
2109.000000	9.203200
2108.000000	9.194500
2107.000000	9.182100
2106.000000	9.162800
2105.000000	9.147700
2104.000000	9.126500
2103.000000	9.120300
2102.000000	9.109300
2101.000000	9.089900
2100.000000	9.071900
2099.000000	9.058900
2098.000000	9.059300
2097.000000	9.045300
2096.000000	9.035700
2095.000000	9.028800
2094.000000	9.008600
2093.000000	8.998700
2092.000000	9.001500
2091.000000	8.992400
2090.000000	8.982600
2089.000000	8.969400
2088.000000	8.961000
2087.000000	8.964500
2086.000000	8.956300
2085.000000	8.948500
2084.000000	8.939700
2083.000000	8.934900
2082.000000	8.928200
2081.000000	8.913800
2080.000000	8.912400
2079.000000	8.916800
2078.000000	8.915600
2077.000000	8.896400
2076.000000	8.890200
2075.000000	8.884200
2074.000000	8.869900
2073.000000	8.867200
2072.000000	8.861100
2071.000000	8.856900
2070.000000	8.835800
2069.000000	8.835300
2068.000000	8.839200
2067.000000	8.816000
2066.000000	8.806100
2065.000000	8.815300
2064.000000	8.803100
2063.000000	8.802000
2062.000000	8.805600
2061.000000	8.801100
2060.000000	8.800000
2059.000000	8.805300
2058.000000	8.812100
2057.000000	8.822100
2056.000000	8.840500
2055.000000	8.850600
2054.000000	8.868300
2053.000000	8.892500
2052.000000	8.928400
2051.000000	8.965300
2050.000000	8.989700
2049.000000	9.027200
2048.000000	9.062300
2047.000000	9.130400
2046.000000	9.180000
2045.000000	9.226600
2044.000000	9.258200
2043.000000	9.320700
2042.000000	9.379700
2041.000000	9.414300
2040.000000	9.475900
2039.000000	9.533700
2038.000000	9.595100
2037.000000	9.637200
2036.000000	9.669800
2035.000000	9.715100
2034.000000	9.748800
2033.000000	9.793900
2032.000000	9.822300
2031.000000	9.863800
2030.000000	9.906600
2029.000000	9.931300
2028.000000	9.962700
2027.000000	9.988500
2026.000000	10.025800
2025.000000	10.039200
2024.000000	10.069700
2023.000000	10.099100
2022.000000	10.103600
2021.000000	10.133300
2020.000000	10.172800
2019.000000	10.191500
2018.000000	10.200500
2017.000000	10.214700
2016.000000	10.239100
2015.000000	10.256800
2014.000000	10.260100
2013.000000	10.277700
2012.000000	10.266800
2011.000000	10.272200
2010.000000	10.262200
2009.000000	10.277300
2008.000000	10.274900
2007.000000	10.269900
2006.000000	10.269200
2005.000000	10.260100
2004.000000	10.243300
2003.000000	10.234000
2002.000000	10.235300
2001.000000	10.216600
2000.000000	10.200600
1999.000000	10.177200
1998.000000	10.157900
1997.000000	10.157400
1996.000000	10.122300
1995.000000	10.091400
1994.000000	10.068400
1993.000000	10.069300
1992.000000	10.034700
1991.000000	10.001900
1990.000000	9.954400
1989.000000	9.931400
1988.000000	9.918400
1987.000000	9.873900
1986.000000	9.863200
1985.000000	9.810000
1984.000000	9.784100
1983.000000	9.762000
1982.000000	9.738500
1981.000000	9.687900
1980.000000	9.641100
1979.000000	9.616100
1978.000000	9.582000
1977.000000	9.566300
1976.000000	9.522700
1975.000000	9.483900
1974.000000	9.464800
1973.000000	9.432200
1972.000000	9.381200
1971.000000	9.358600
1970.000000	9.329300
1969.000000	9.312600
1968.000000	9.268800
1967.000000	9.245000
1966.000000	9.215000
1965.000000	9.226800
1964.000000	9.172600
1963.000000	9.134400
1962.000000	9.123000
1961.000000	9.081200
1960.000000	9.069200
1959.000000	9.043400
1958.000000	9.008400
1957.000000	8.987100
1956.000000	8.978400
1955.000000	8.944900
1954.000000	8.909400
1953.000000	8.901300
1952.000000	8.877400
1951.000000	8.847500
1950.000000	8.819800
1949.000000	8.816900
1948.000000	8.802400
1947.000000	8.774700
1946.000000	8.782400
1945.000000	8.744500
1944.000000	8.741400
1943.000000	8.740200
1942.000000	8.753100
1941.000000	8.743000
1940.000000	8.741900
1939.000000	8.761400
1938.000000	8.753000
1937.000000	8.774400
1936.000000	8.761900
1935.000000	8.766800
1934.000000	8.801600
1933.000000	8.825300
1932.000000	8.849000
1931.000000	8.900000
1930.000000	8.907100
1929.000000	8.952600
1928.000000	8.989300
1927.000000	9.022900
1926.000000	9.061900
1925.000000	9.121500
1924.000000	9.186900
1923.000000	9.237800
1922.000000	9.304800
1921.000000	9.372900
1920.000000	9.432300
1919.000000	9.501200
1918.000000	9.582200
1917.000000	9.660000
1916.000000	9.730900
1915.000000	9.827000
1914.000000	9.920300
1913.000000	10.017600
1912.000000	10.100800
1911.000000	10.191700
1910.000000	10.301800
1909.000000	10.379700
1908.000000	10.475500
1907.000000	10.601400
1906.000000	10.723700
1905.000000	10.839800
1904.000000	10.953600
1903.000000	11.072100
1902.000000	11.190900
1901.000000	11.324500
1900.000000	11.454300
1899.000000	11.586300
1898.000000	11.708000
1897.000000	11.833900
1896.000000	11.957600
1895.000000	12.092400
1894.000000	12.228500
1893.000000	12.366300
1892.000000	12.548800
1891.000000	12.723100
1890.000000	12.885400
1889.000000	13.049400
1888.000000	13.229100
1887.000000	13.438500
1886.000000	13.665400
1885.000000	13.916200
1884.000000	14.219500
1883.000000	14.519000
1882.000000	14.827800
1881.000000	15.162700
1880.000000	15.462000
1879.000000	15.777600
1878.000000	16.104800
1877.000000	16.417000
1876.000000	16.696300
1875.000000	16.961800
1874.000000	17.215300
1873.000000	17.438300
1872.000000	17.656700
1871.000000	17.839100
1870.000000	17.996900
1869.000000	18.140300
1868.000000	18.249000
1867.000000	18.342800
1866.000000	18.409100
1865.000000	18.482600
1864.000000	18.544900
1863.000000	18.599400
1862.000000	18.667800
1861.000000	18.713300
1860.000000	18.735500
1859.000000	18.720200
1858.000000	18.719500
1857.000000	18.712700
1856.000000	18.705000
1855.000000	18.679800
1854.000000	18.634800
1853.000000	18.584700
1852.000000	18.540700
1851.000000	18.517100
1850.000000	18.508100
1849.000000	18.476900
1848.000000	18.395100
1847.000000	18.299700
1846.000000	18.221500
1845.000000	18.180600
1844.000000	18.188100
1843.000000	18.202700
1842.000000	18.174300
1841.000000	18.130200
1840.000000	18.085400
1839.000000	18.052200
1838.000000	18.018900
1837.000000	17.975900
1836.000000	17.926000
1835.000000	17.861700
1834.000000	17.813700
1833.000000	17.786500
1832.000000	17.747400
1831.000000	17.672900
1830.000000	17.595000
1829.000000	17.534100
1828.000000	17.448800
1827.000000	17.377300
1826.000000	17.323500
1825.000000	17.269800
1824.000000	17.253600
1823.000000	17.266100
1822.000000	17.254800
1821.000000	17.196500
1820.000000	17.140400
1819.000000	17.102400
1818.000000	17.104000
1817.000000	17.106100
1816.000000	17.101500
1815.000000	17.096100
1814.000000	17.080800
1813.000000	17.068300
1812.000000	17.054200
1811.000000	17.005700
1810.000000	16.982700
1809.000000	16.963100
1808.000000	16.920000
1807.000000	16.887400
1806.000000	16.848800
1805.000000	16.793500
1804.000000	16.754000
1803.000000	16.743200
1802.000000	16.700300
1801.000000	16.640900
1800.000000	16.589100
1799.000000	16.549500
1798.000000	16.517700
1797.000000	16.479000
1796.000000	16.439200
1795.000000	16.391100
1794.000000	16.351200
1793.000000	16.312600
1792.000000	16.272900
1791.000000	16.216900
1790.000000	16.162400
1789.000000	16.122500
1788.000000	16.074100
1787.000000	15.993200
1786.000000	15.926400
1785.000000	15.866400
1784.000000	15.804300
1783.000000	15.729600
1782.000000	15.668600
1781.000000	15.601000
1780.000000	15.540000
1779.000000	15.466700
1778.000000	15.391400
1777.000000	15.317200
1776.000000	15.225600
1775.000000	15.137000
1774.000000	15.035300
1773.000000	14.960900
1772.000000	14.857400
1771.000000	14.748700
1770.000000	14.644300
1769.000000	14.572600
1768.000000	14.476200
1767.000000	14.418300
1766.000000	14.351800
1765.000000	14.297200
1764.000000	14.268400
1763.000000	14.273400
1762.000000	14.269200
1761.000000	14.311200
1760.000000	14.372600
1759.000000	14.421600
1758.000000	14.471700
1757.000000	14.507700
1756.000000	14.550800
1755.000000	14.585100
1754.000000	14.606400
1753.000000	14.596200
1752.000000	14.597700
1751.000000	14.574500
1750.000000	14.530300
1749.000000	14.500800
1748.000000	14.453700
1747.000000	14.374200
1746.000000	14.285300
1745.000000	14.189600
1744.000000	14.078500
1743.000000	13.950200
1742.000000	13.801000
1741.000000	13.637300
1740.000000	13.472200
1739.000000	13.332800
1738.000000	13.161600
1737.000000	13.054100
1736.000000	12.955900
1735.000000	12.887000
1734.000000	12.873200
1733.000000	12.902000
1732.000000	12.934000
1731.000000	13.009400
1730.000000	13.095000
1729.000000	13.188300
1728.000000	13.288500
1727.000000	13.364700
1726.000000	13.434300
1725.000000	13.498700
1724.000000	13.547500
1723.000000	13.548700
1722.000000	13.584400
1721.000000	13.565300
1720.000000	13.558700
1719.000000	13.566600
1718.000000	13.593400
1717.000000	13.595200
1716.000000	13.612300
1715.000000	13.654100
1714.000000	13.690700
1713.000000	13.715500
1712.000000	13.748900
1711.000000	13.758600
1710.000000	13.780800
1709.000000	13.756800
1708.000000	13.752300
1707.000000	13.728700
1706.000000	13.690900
1705.000000	13.643200
1704.000000	13.626000
1703.000000	13.562300
1702.000000	13.482000
1701.000000	13.371500
1700.000000	13.268000
1699.000000	13.160300
1698.000000	13.052300
1697.000000	13.008000
1696.000000	12.976300
1695.000000	12.965100
1694.000000	13.023800
1693.000000	13.138300
1692.000000	13.234700
1691.000000	13.353300
1690.000000	13.483500
1689.000000	13.558400
1688.000000	13.598000
1687.000000	13.629200
1686.000000	13.630400
1685.000000	13.620000
1684.000000	13.701000
1683.000000	13.858000
1682.000000	14.115100
1681.000000	14.426500
1680.000000	14.789200
1679.000000	15.215000
1678.000000	15.601800
1677.000000	16.009300
1676.000000	16.340000
1675.000000	16.635500
1674.000000	16.887300
1673.000000	17.100600
1672.000000	17.288600
1671.000000	17.454800
1670.000000	17.565400
1669.000000	17.678600
1668.000000	17.801300
1667.000000	17.891700
1666.000000	17.963400
1665.000000	18.018200
1664.000000	18.069300
1663.000000	18.107600
1662.000000	18.148500
1661.000000	18.159400
1660.000000	18.193600
1659.000000	18.220000
1658.000000	18.212200
1657.000000	18.218200
1656.000000	18.214500
1655.000000	18.213400
1654.000000	18.196000
1653.000000	18.191000
1652.000000	18.162100
1651.000000	18.123300
1650.000000	18.116200
1649.000000	18.086300
1648.000000	18.058200
1647.000000	18.022300
1646.000000	17.978200
1645.000000	17.948500
1644.000000	17.891100
1643.000000	17.854400
1642.000000	17.794200
1641.000000	17.757000
1640.000000	17.705400
1639.000000	17.656100
1638.000000	17.615900
1637.000000	17.545700
1636.000000	17.483400
1635.000000	17.440000
1634.000000	17.383500
1633.000000	17.329300
1632.000000	17.269600
1631.000000	17.211300
1630.000000	17.147900
1629.000000	17.094600
1628.000000	17.029500
1627.000000	16.983400
1626.000000	16.925500
1625.000000	16.849900
1624.000000	16.796800
1623.000000	16.726000
1622.000000	16.672000
1621.000000	16.603900
1620.000000	16.554900
1619.000000	16.498800
1618.000000	16.423700
1617.000000	16.383000
1616.000000	16.325600
1615.000000	16.280200
1614.000000	16.221200
1613.000000	16.157300
1612.000000	16.107400
1611.000000	16.064800
1610.000000	16.027000
1609.000000	15.980200
1608.000000	15.935200
1607.000000	15.891000
1606.000000	15.832800
1605.000000	15.775400
1604.000000	15.722100
1603.000000	15.689900
1602.000000	15.646300
1601.000000	15.603700
1600.000000	15.560600
1599.000000	15.518400
