PE UV       SUBTECH     SPECTRUM    ASCII       PEDS        4.00        
   -1
CICIMAUCR0071-2.Sample.ASC
24/04/18
15:50:28.00
24/04/18
15:50:28.00
Vinicio Soto Monge
C. resplendens
250,000000
1
Lambda 1050
1050L1511233
PerkinElmer UV WinLab 6.3.2.0749 / 2.02.05 Lambda 900 UV/VIS/NIR, Aug  7 2015 09:38:08

0
0
3350/servo 860,8/2
0
0
UV/VIS
1
1
1
DoubleDePol,CommonBeamDepol,RBeamAtt,SBeamAtt,60mm sphere, WB InGaAs Detector
0
0
0
0
Program
Program
3350/servo 860,8/2
3350/0,2 860,8/0,2
3350/0,2 860,8/0,2
0
15.00
 
 
 
0
 
860,8
319,2
860,8
Front
100
on
S:100 R:100
0
0
0
0
 
0
 
 
 
0
 
 
0
0
0
0
0
 
 
 
 
0
0


0
0
#HDR
-1
-1
#GR
nm
%R
1.0
0.0
2500,000000
-1,000000
2251
8
94,034700
5,881900
#DATA
2500.000000	13.970200
2499.000000	13.903500
2498.000000	13.849600
2497.000000	13.795700
2496.000000	13.805300
2495.000000	13.867200
2494.000000	13.823000
2493.000000	13.751500
2492.000000	13.762200
2491.000000	13.780600
2490.000000	13.691600
2489.000000	13.778100
2488.000000	13.715400
2487.000000	13.735800
2486.000000	13.686300
2485.000000	13.791900
2484.000000	13.725200
2483.000000	13.721400
2482.000000	13.730000
2481.000000	13.737800
2480.000000	13.751500
2479.000000	13.771500
2478.000000	13.817200
2477.000000	13.822300
2476.000000	13.824700
2475.000000	13.911900
2474.000000	13.905700
2473.000000	13.917600
2472.000000	13.951200
2471.000000	13.988800
2470.000000	14.024200
2469.000000	14.030800
2468.000000	14.103100
2467.000000	14.108200
2466.000000	14.157900
2465.000000	14.208200
2464.000000	14.269000
2463.000000	14.334400
2462.000000	14.373500
2461.000000	14.424800
2460.000000	14.496400
2459.000000	14.577500
2458.000000	14.615800
2457.000000	14.703700
2456.000000	14.790500
2455.000000	14.841500
2454.000000	14.910700
2453.000000	15.033900
2452.000000	15.100700
2451.000000	15.201000
2450.000000	15.286800
2449.000000	15.378800
2448.000000	15.479800
2447.000000	15.593700
2446.000000	15.686200
2445.000000	15.784600
2444.000000	15.885400
2443.000000	15.976400
2442.000000	16.087800
2441.000000	16.190600
2440.000000	16.282100
2439.000000	16.382200
2438.000000	16.498900
2437.000000	16.597700
2436.000000	16.697500
2435.000000	16.792100
2434.000000	16.889100
2433.000000	16.990200
2432.000000	17.094400
2431.000000	17.188100
2430.000000	17.296000
2429.000000	17.373100
2428.000000	17.466500
2427.000000	17.564100
2426.000000	17.643200
2425.000000	17.733200
2424.000000	17.823000
2423.000000	17.893300
2422.000000	17.964600
2421.000000	18.039000
2420.000000	18.109100
2419.000000	18.171800
2418.000000	18.236100
2417.000000	18.291100
2416.000000	18.359000
2415.000000	18.424500
2414.000000	18.476300
2413.000000	18.523000
2412.000000	18.545400
2411.000000	18.603200
2410.000000	18.639700
2409.000000	18.675600
2408.000000	18.708400
2407.000000	18.741600
2406.000000	18.765200
2405.000000	18.796500
2404.000000	18.832700
2403.000000	18.855500
2402.000000	18.877900
2401.000000	18.883400
2400.000000	18.900000
2399.000000	18.919500
2398.000000	18.939200
2397.000000	18.973200
2396.000000	18.979400
2395.000000	18.987100
2394.000000	19.005200
2393.000000	19.016900
2392.000000	19.023400
2391.000000	19.023500
2390.000000	19.041300
2389.000000	19.063600
2388.000000	19.067000
2387.000000	19.068100
2386.000000	19.083900
2385.000000	19.085200
2384.000000	19.077100
2383.000000	19.076300
2382.000000	19.073100
2381.000000	19.058300
2380.000000	19.044500
2379.000000	19.042400
2378.000000	19.041800
2377.000000	19.030200
2376.000000	18.997800
2375.000000	18.979700
2374.000000	18.986200
2373.000000	18.980400
2372.000000	18.953100
2371.000000	18.941000
2370.000000	18.935400
2369.000000	18.926800
2368.000000	18.925600
2367.000000	18.920700
2366.000000	18.899400
2365.000000	18.887600
2364.000000	18.899100
2363.000000	18.906500
2362.000000	18.876800
2361.000000	18.850100
2360.000000	18.850600
2359.000000	18.850600
2358.000000	18.830000
2357.000000	18.808600
2356.000000	18.799200
2355.000000	18.777000
2354.000000	18.755200
2353.000000	18.726300
2352.000000	18.713500
2351.000000	18.675900
2350.000000	18.641500
2349.000000	18.628600
2348.000000	18.607200
2347.000000	18.580700
2346.000000	18.571300
2345.000000	18.551600
2344.000000	18.528300
2343.000000	18.511800
2342.000000	18.495500
2341.000000	18.491500
2340.000000	18.487100
2339.000000	18.480200
2338.000000	18.471300
2337.000000	18.475800
2336.000000	18.469500
2335.000000	18.476100
2334.000000	18.467200
2333.000000	18.470400
2332.000000	18.480100
2331.000000	18.501300
2330.000000	18.499900
2329.000000	18.513300
2328.000000	18.536500
2327.000000	18.542800
2326.000000	18.564900
2325.000000	18.578000
2324.000000	18.594900
2323.000000	18.604700
2322.000000	18.600100
2321.000000	18.599300
2320.000000	18.602500
2319.000000	18.588400
2318.000000	18.553200
2317.000000	18.527400
2316.000000	18.499700
2315.000000	18.465300
2314.000000	18.431300
2313.000000	18.399400
2312.000000	18.351000
2311.000000	18.312000
2310.000000	18.276200
2309.000000	18.228600
2308.000000	18.192600
2307.000000	18.169300
2306.000000	18.138600
2305.000000	18.126000
2304.000000	18.102400
2303.000000	18.098300
2302.000000	18.097800
2301.000000	18.085400
2300.000000	18.096200
2299.000000	18.091200
2298.000000	18.095300
2297.000000	18.107200
2296.000000	18.120300
2295.000000	18.145500
2294.000000	18.164900
2293.000000	18.171500
2292.000000	18.184200
2291.000000	18.231700
2290.000000	18.254700
2289.000000	18.274100
2288.000000	18.303800
2287.000000	18.334300
2286.000000	18.366500
2285.000000	18.407100
2284.000000	18.444000
2283.000000	18.474100
2282.000000	18.502400
2281.000000	18.545100
2280.000000	18.584700
2279.000000	18.615300
2278.000000	18.637300
2277.000000	18.681800
2276.000000	18.708500
2275.000000	18.732200
2274.000000	18.747500
2273.000000	18.781700
2272.000000	18.789500
2271.000000	18.823400
2270.000000	18.848400
2269.000000	18.880100
2268.000000	18.915800
2267.000000	18.980700
2266.000000	19.008000
2265.000000	19.069700
2264.000000	19.133700
2263.000000	19.234100
2262.000000	19.302000
2261.000000	19.409700
2260.000000	19.507300
2259.000000	19.644900
2258.000000	19.746300
2257.000000	19.885600
2256.000000	20.027900
2255.000000	20.166400
2254.000000	20.329600
2253.000000	20.465100
2252.000000	20.619400
2251.000000	20.750300
2250.000000	20.915400
2249.000000	21.075600
2248.000000	21.209600
2247.000000	21.340800
2246.000000	21.459800
2245.000000	21.587100
2244.000000	21.711200
2243.000000	21.800200
2242.000000	21.887600
2241.000000	21.943700
2240.000000	22.040400
2239.000000	22.112400
2238.000000	22.159300
2237.000000	22.185700
2236.000000	22.216800
2235.000000	22.245400
2234.000000	22.274000
2233.000000	22.275200
2232.000000	22.271000
2231.000000	22.274800
2230.000000	22.250800
2229.000000	22.232300
2228.000000	22.197700
2227.000000	22.159100
2226.000000	22.122700
2225.000000	22.073300
2224.000000	22.020600
2223.000000	21.941900
2222.000000	21.890600
2221.000000	21.821600
2220.000000	21.764600
2219.000000	21.674300
2218.000000	21.602700
2217.000000	21.542300
2216.000000	21.459400
2215.000000	21.382200
2214.000000	21.290000
2213.000000	21.218300
2212.000000	21.165200
2211.000000	21.080400
2210.000000	21.006600
2209.000000	20.949200
2208.000000	20.901000
2207.000000	20.835100
2206.000000	20.789100
2205.000000	20.714400
2204.000000	20.671100
2203.000000	20.649800
2202.000000	20.606300
2201.000000	20.559500
2200.000000	20.512700
2199.000000	20.463700
2198.000000	20.449900
2197.000000	20.403500
2196.000000	20.345600
2195.000000	20.314700
2194.000000	20.311800
2193.000000	20.273000
2192.000000	20.255100
2191.000000	20.231500
2190.000000	20.228800
2189.000000	20.192900
2188.000000	20.178000
2187.000000	20.138900
2186.000000	20.129000
2185.000000	20.110300
2184.000000	20.085900
2183.000000	20.074400
2182.000000	20.046800
2181.000000	20.038600
2180.000000	19.997600
2179.000000	19.972900
2178.000000	19.954600
2177.000000	19.952300
2176.000000	19.943500
2175.000000	19.940200
2174.000000	19.932400
2173.000000	19.942900
2172.000000	19.945600
2171.000000	19.947300
2170.000000	19.967800
2169.000000	20.000100
2168.000000	20.040900
2167.000000	20.055800
2166.000000	20.088900
2165.000000	20.123700
2164.000000	20.155700
2163.000000	20.214000
2162.000000	20.264600
2161.000000	20.303900
2160.000000	20.369400
2159.000000	20.445400
2158.000000	20.516700
2157.000000	20.591800
2156.000000	20.672100
2155.000000	20.756800
2154.000000	20.850900
2153.000000	20.944700
2152.000000	21.053000
2151.000000	21.165600
2150.000000	21.260700
2149.000000	21.353900
2148.000000	21.470100
2147.000000	21.574400
2146.000000	21.676900
2145.000000	21.787800
2144.000000	21.890000
2143.000000	21.991200
2142.000000	22.091400
2141.000000	22.181100
2140.000000	22.288600
2139.000000	22.400500
2138.000000	22.498200
2137.000000	22.596300
2136.000000	22.674900
2135.000000	22.752400
2134.000000	22.841100
2133.000000	22.910200
2132.000000	22.997700
2131.000000	23.080200
2130.000000	23.145900
2129.000000	23.204700
2128.000000	23.265500
2127.000000	23.336000
2126.000000	23.396800
2125.000000	23.441200
2124.000000	23.501400
2123.000000	23.532200
2122.000000	23.579100
2121.000000	23.620300
2120.000000	23.645700
2119.000000	23.687200
2118.000000	23.693800
2117.000000	23.721900
2116.000000	23.750800
2115.000000	23.768200
2114.000000	23.782700
2113.000000	23.806200
2112.000000	23.822500
2111.000000	23.820700
2110.000000	23.813900
2109.000000	23.828900
2108.000000	23.842000
2107.000000	23.838300
2106.000000	23.843800
2105.000000	23.834900
2104.000000	23.826600
2103.000000	23.823800
2102.000000	23.835800
2101.000000	23.844700
2100.000000	23.833400
2099.000000	23.842600
2098.000000	23.863100
2097.000000	23.867700
2096.000000	23.864000
2095.000000	23.860300
2094.000000	23.876700
2093.000000	23.891800
2092.000000	23.916000
2091.000000	23.936000
2090.000000	23.938100
2089.000000	23.962400
2088.000000	23.980700
2087.000000	23.989800
2086.000000	23.993900
2085.000000	23.986600
2084.000000	23.978100
2083.000000	23.970400
2082.000000	23.944700
2081.000000	23.925500
2080.000000	23.893800
2079.000000	23.841000
2078.000000	23.784200
2077.000000	23.749100
2076.000000	23.691500
2075.000000	23.625500
2074.000000	23.549300
2073.000000	23.452800
2072.000000	23.367500
2071.000000	23.276700
2070.000000	23.181700
2069.000000	23.073700
2068.000000	22.977300
2067.000000	22.866300
2066.000000	22.759200
2065.000000	22.644300
2064.000000	22.532700
2063.000000	22.415800
2062.000000	22.303900
2061.000000	22.196800
2060.000000	22.098900
2059.000000	22.016400
2058.000000	21.943000
2057.000000	21.879300
2056.000000	21.818800
2055.000000	21.770800
2054.000000	21.763300
2053.000000	21.773400
2052.000000	21.783200
2051.000000	21.818700
2050.000000	21.876800
2049.000000	21.939000
2048.000000	22.030500
2047.000000	22.151400
2046.000000	22.264900
2045.000000	22.393300
2044.000000	22.519100
2043.000000	22.644200
2042.000000	22.800400
2041.000000	22.935700
2040.000000	23.073200
2039.000000	23.212200
2038.000000	23.345600
2037.000000	23.460700
2036.000000	23.591900
2035.000000	23.705800
2034.000000	23.817600
2033.000000	23.923400
2032.000000	24.020800
2031.000000	24.114300
2030.000000	24.206100
2029.000000	24.289300
2028.000000	24.373600
2027.000000	24.440200
2026.000000	24.514200
2025.000000	24.579600
2024.000000	24.635700
2023.000000	24.695600
2022.000000	24.751600
2021.000000	24.773700
2020.000000	24.823300
2019.000000	24.868300
2018.000000	24.893100
2017.000000	24.925200
2016.000000	24.930700
2015.000000	24.947000
2014.000000	24.961400
2013.000000	24.955600
2012.000000	24.969500
2011.000000	24.962900
2010.000000	24.958800
2009.000000	24.936600
2008.000000	24.924900
2007.000000	24.898700
2006.000000	24.851800
2005.000000	24.808300
2004.000000	24.777200
2003.000000	24.712100
2002.000000	24.653600
2001.000000	24.592100
2000.000000	24.540800
1999.000000	24.457400
1998.000000	24.403000
1997.000000	24.337400
1996.000000	24.241900
1995.000000	24.154900
1994.000000	24.081600
1993.000000	23.995900
1992.000000	23.902900
1991.000000	23.821400
1990.000000	23.709600
1989.000000	23.622400
1988.000000	23.540400
1987.000000	23.426800
1986.000000	23.321200
1985.000000	23.202600
1984.000000	23.111700
1983.000000	23.020800
1982.000000	22.916100
1981.000000	22.798500
1980.000000	22.690300
1979.000000	22.601300
1978.000000	22.494100
1977.000000	22.379500
1976.000000	22.294100
1975.000000	22.214300
1974.000000	22.092800
1973.000000	22.014300
1972.000000	21.914600
1971.000000	21.812300
1970.000000	21.711300
1969.000000	21.632900
1968.000000	21.540300
1967.000000	21.461600
1966.000000	21.358200
1965.000000	21.271200
1964.000000	21.195800
1963.000000	21.104600
1962.000000	21.000000
1961.000000	20.932600
1960.000000	20.790800
1959.000000	20.706200
1958.000000	20.614000
1957.000000	20.529800
1956.000000	20.457100
1955.000000	20.366000
1954.000000	20.261500
1953.000000	20.175900
1952.000000	20.077200
1951.000000	20.029000
1950.000000	19.956100
1949.000000	19.869500
1948.000000	19.794300
1947.000000	19.725900
1946.000000	19.662900
1945.000000	19.607800
1944.000000	19.539800
1943.000000	19.504000
1942.000000	19.464900
1941.000000	19.455600
1940.000000	19.433100
1939.000000	19.404800
1938.000000	19.387200
1937.000000	19.386600
1936.000000	19.378000
1935.000000	19.374600
1934.000000	19.403500
1933.000000	19.440500
1932.000000	19.491300
1931.000000	19.545500
1930.000000	19.633100
1929.000000	19.673800
1928.000000	19.758200
1927.000000	19.846000
1926.000000	19.951700
1925.000000	20.071900
1924.000000	20.189100
1923.000000	20.333400
1922.000000	20.502100
1921.000000	20.656900
1920.000000	20.847300
1919.000000	21.021600
1918.000000	21.207500
1917.000000	21.424400
1916.000000	21.685200
1915.000000	21.902800
1914.000000	22.193000
1913.000000	22.480000
1912.000000	22.791700
1911.000000	23.084600
1910.000000	23.393200
1909.000000	23.717500
1908.000000	24.091900
1907.000000	24.496900
1906.000000	24.949200
1905.000000	25.434600
1904.000000	25.918500
1903.000000	26.367000
1902.000000	26.872000
1901.000000	27.386600
1900.000000	27.954500
1899.000000	28.546400
1898.000000	29.097500
1897.000000	29.688000
1896.000000	30.238900
1895.000000	30.780200
1894.000000	31.356600
1893.000000	31.966000
1892.000000	32.593400
1891.000000	33.231500
1890.000000	33.812000
1889.000000	34.356100
1888.000000	34.920500
1887.000000	35.427800
1886.000000	35.936400
1885.000000	36.447200
1884.000000	36.958300
1883.000000	37.415000
1882.000000	37.820400
1881.000000	38.220000
1880.000000	38.610300
1879.000000	38.966900
1878.000000	39.325000
1877.000000	39.675600
1876.000000	39.999000
1875.000000	40.313300
1874.000000	40.586100
1873.000000	40.873000
1872.000000	41.121600
1871.000000	41.359500
1870.000000	41.530100
1869.000000	41.682100
1868.000000	41.854800
1867.000000	41.965900
1866.000000	42.048800
1865.000000	42.142300
1864.000000	42.244700
1863.000000	42.343100
1862.000000	42.453800
1861.000000	42.588800
1860.000000	42.712700
1859.000000	42.777600
1858.000000	42.838000
1857.000000	42.902300
1856.000000	42.956600
1855.000000	43.014200
1854.000000	43.049100
1853.000000	43.054500
1852.000000	43.061300
1851.000000	43.100300
1850.000000	43.168300
1849.000000	43.236600
1848.000000	43.243100
1847.000000	43.211900
1846.000000	43.122500
1845.000000	43.062700
1844.000000	43.076900
1843.000000	43.092700
1842.000000	43.134900
1841.000000	43.142400
1840.000000	43.094500
1839.000000	43.051300
1838.000000	43.009600
1837.000000	42.970500
1836.000000	42.931800
1835.000000	42.862600
1834.000000	42.788600
1833.000000	42.746000
1832.000000	42.720700
1831.000000	42.716800
1830.000000	42.687400
1829.000000	42.642000
1828.000000	42.603300
1827.000000	42.558100
1826.000000	42.530600
1825.000000	42.505300
1824.000000	42.482500
1823.000000	42.492100
1822.000000	42.565000
1821.000000	42.603700
1820.000000	42.560400
1819.000000	42.503100
1818.000000	42.472300
1817.000000	42.477200
1816.000000	42.479300
1815.000000	42.460700
1814.000000	42.429500
1813.000000	42.424300
1812.000000	42.413300
1811.000000	42.368600
1810.000000	42.303100
1809.000000	42.285200
1808.000000	42.270700
1807.000000	42.255100
1806.000000	42.224800
1805.000000	42.178200
1804.000000	42.147800
1803.000000	42.141500
1802.000000	42.140300
1801.000000	42.112600
1800.000000	42.085900
1799.000000	42.034400
1798.000000	42.008300
1797.000000	41.991000
1796.000000	41.971800
1795.000000	41.946000
1794.000000	41.921000
1793.000000	41.913600
1792.000000	41.889300
1791.000000	41.868200
1790.000000	41.861000
1789.000000	41.853300
1788.000000	41.847700
1787.000000	41.865400
1786.000000	41.870000
1785.000000	41.871700
1784.000000	41.850500
1783.000000	41.846600
1782.000000	41.852200
1781.000000	41.828700
1780.000000	41.801000
1779.000000	41.775000
1778.000000	41.741700
1777.000000	41.706400
1776.000000	41.671300
1775.000000	41.623300
1774.000000	41.574200
1773.000000	41.509500
1772.000000	41.470800
1771.000000	41.408600
1770.000000	41.369300
1769.000000	41.316700
1768.000000	41.258800
1767.000000	41.206000
1766.000000	41.137700
1765.000000	41.099500
1764.000000	41.077200
1763.000000	41.053700
1762.000000	41.028000
1761.000000	41.039100
1760.000000	41.041400
1759.000000	41.040800
1758.000000	41.052500
1757.000000	41.077800
1756.000000	41.074200
1755.000000	41.096800
1754.000000	41.100000
1753.000000	41.102400
1752.000000	41.103100
1751.000000	41.088500
1750.000000	41.080100
1749.000000	41.062600
1748.000000	41.031900
1747.000000	40.983400
1746.000000	40.931300
1745.000000	40.867800
1744.000000	40.780100
1743.000000	40.711500
1742.000000	40.628200
1741.000000	40.529400
1740.000000	40.440800
1739.000000	40.328000
1738.000000	40.240900
1737.000000	40.147400
1736.000000	40.050000
1735.000000	39.967700
1734.000000	39.876200
1733.000000	39.786100
1732.000000	39.710100
1731.000000	39.634500
1730.000000	39.569400
1729.000000	39.504900
1728.000000	39.442900
1727.000000	39.389300
1726.000000	39.357200
1725.000000	39.343500
1724.000000	39.320500
1723.000000	39.361000
1722.000000	39.431900
1721.000000	39.548300
1720.000000	39.735100
1719.000000	39.916900
1718.000000	40.123500
1717.000000	40.370800
1716.000000	40.605600
1715.000000	40.829000
1714.000000	41.051600
1713.000000	41.264700
1712.000000	41.442800
1711.000000	41.602200
1710.000000	41.750300
1709.000000	41.890100
1708.000000	42.013500
1707.000000	42.126100
1706.000000	42.211400
1705.000000	42.292500
1704.000000	42.364200
1703.000000	42.422800
1702.000000	42.475000
1701.000000	42.511200
1700.000000	42.548900
1699.000000	42.583100
1698.000000	42.605400
1697.000000	42.610800
1696.000000	42.600100
1695.000000	42.550900
1694.000000	42.506400
1693.000000	42.437400
1692.000000	42.355600
1691.000000	42.268400
1690.000000	42.213300
1689.000000	42.170900
1688.000000	42.176800
1687.000000	42.223900
1686.000000	42.331700
1685.000000	42.465000
1684.000000	42.645800
1683.000000	42.864300
1682.000000	43.118100
1681.000000	43.322300
1680.000000	43.551100
1679.000000	43.774200
1678.000000	43.955600
1677.000000	44.163900
1676.000000	44.336800
1675.000000	44.503700
1674.000000	44.662200
1673.000000	44.843400
1672.000000	45.000200
1671.000000	45.160800
1670.000000	45.349300
1669.000000	45.542100
1668.000000	45.710200
1667.000000	45.876500
1666.000000	46.037700
1665.000000	46.174700
1664.000000	46.342400
1663.000000	46.506800
1662.000000	46.631800
1661.000000	46.774400
1660.000000	46.897400
1659.000000	47.011100
1658.000000	47.142400
1657.000000	47.219400
1656.000000	47.286200
1655.000000	47.362100
1654.000000	47.406500
1653.000000	47.448800
1652.000000	47.490300
1651.000000	47.525200
1650.000000	47.540400
1649.000000	47.557300
1648.000000	47.555700
1647.000000	47.568500
1646.000000	47.554800
1645.000000	47.543200
1644.000000	47.537100
1643.000000	47.535000
1642.000000	47.547200
1641.000000	47.541600
1640.000000	47.519100
1639.000000	47.507800
1638.000000	47.498800
1637.000000	47.478800
1636.000000	47.471000
1635.000000	47.436100
1634.000000	47.409800
1633.000000	47.376900
1632.000000	47.350600
1631.000000	47.315800
1630.000000	47.284600
1629.000000	47.241100
1628.000000	47.193800
1627.000000	47.147200
1626.000000	47.102800
1625.000000	47.073500
1624.000000	47.029900
