PE UV       SUBTECH     SPECTRUM    ASCII       PEDS        4.00        
   -1
CICIMAUCR0071-3.Sample.ASC
24/04/18
16:44:28.00
24/04/18
16:44:28.00
Vinicio Soto Monge
C. resplendens
250,000000
1
Lambda 1050
1050L1511233
PerkinElmer UV WinLab 6.3.2.0749 / 2.02.05 Lambda 900 UV/VIS/NIR, Aug  7 2015 09:38:08

0
0
3350/servo 860,8/2
0
0
UV/VIS
1
1
1
DoubleDePol,CommonBeamDepol,RBeamAtt,SBeamAtt,60mm sphere, WB InGaAs Detector
0
0
0
0
Program
Program
3350/servo 860,8/2
3350/0,2 860,8/0,2
3350/0,2 860,8/0,2
0
15.00
 
 
 
0
 
860,8
319,2
860,8
Front
100
on
S:100 R:100
0
0
0
0
 
0
 
 
 
0
 
 
0
0
0
0
0
 
 
 
 
0
0


0
0
#HDR
-1
-1
#GR
nm
%R
1.0
0.0
2500,000000
-1,000000
2251
8
72,832800
4,915400
#DATA
2500.000000	12.747700
2499.000000	12.733900
2498.000000	12.613400
2497.000000	12.650800
2496.000000	12.622800
2495.000000	12.494700
2494.000000	12.496400
2493.000000	12.471600
2492.000000	12.532500
2491.000000	12.458600
2490.000000	12.434700
2489.000000	12.551300
2488.000000	12.520000
2487.000000	12.528800
2486.000000	12.481000
2485.000000	12.484300
2484.000000	12.497100
2483.000000	12.510400
2482.000000	12.583100
2481.000000	12.529900
2480.000000	12.492900
2479.000000	12.549800
2478.000000	12.511100
2477.000000	12.570300
2476.000000	12.570600
2475.000000	12.620000
2474.000000	12.619700
2473.000000	12.640500
2472.000000	12.641100
2471.000000	12.685300
2470.000000	12.712100
2469.000000	12.762300
2468.000000	12.742600
2467.000000	12.796700
2466.000000	12.814200
2465.000000	12.822300
2464.000000	12.885300
2463.000000	12.914300
2462.000000	12.948200
2461.000000	12.929300
2460.000000	12.976600
2459.000000	13.028000
2458.000000	13.115000
2457.000000	13.172900
2456.000000	13.230300
2455.000000	13.254700
2454.000000	13.301100
2453.000000	13.372100
2452.000000	13.465900
2451.000000	13.536400
2450.000000	13.584200
2449.000000	13.667400
2448.000000	13.744800
2447.000000	13.797300
2446.000000	13.885600
2445.000000	13.964800
2444.000000	14.045400
2443.000000	14.121600
2442.000000	14.213400
2441.000000	14.264500
2440.000000	14.340800
2439.000000	14.414500
2438.000000	14.495700
2437.000000	14.579400
2436.000000	14.660000
2435.000000	14.728500
2434.000000	14.814700
2433.000000	14.880300
2432.000000	14.956600
2431.000000	15.022300
2430.000000	15.074300
2429.000000	15.140900
2428.000000	15.222400
2427.000000	15.277900
2426.000000	15.326400
2425.000000	15.393900
2424.000000	15.447600
2423.000000	15.503500
2422.000000	15.558000
2421.000000	15.612200
2420.000000	15.669600
2419.000000	15.754000
2418.000000	15.826600
2417.000000	15.868000
2416.000000	15.908300
2415.000000	15.955900
2414.000000	15.991900
2413.000000	16.023600
2412.000000	16.075000
2411.000000	16.110400
2410.000000	16.131200
2409.000000	16.170700
2408.000000	16.218700
2407.000000	16.240000
2406.000000	16.259900
2405.000000	16.274500
2404.000000	16.307000
2403.000000	16.336000
2402.000000	16.333200
2401.000000	16.346900
2400.000000	16.377800
2399.000000	16.400000
2398.000000	16.429800
2397.000000	16.431700
2396.000000	16.433800
2395.000000	16.452900
2394.000000	16.470600
2393.000000	16.472300
2392.000000	16.498500
2391.000000	16.530500
2390.000000	16.522000
2389.000000	16.527700
2388.000000	16.537400
2387.000000	16.541000
2386.000000	16.555800
2385.000000	16.552700
2384.000000	16.566800
2383.000000	16.575400
2382.000000	16.570000
2381.000000	16.561900
2380.000000	16.553000
2379.000000	16.555500
2378.000000	16.544100
2377.000000	16.532500
2376.000000	16.526100
2375.000000	16.518300
2374.000000	16.506000
2373.000000	16.509300
2372.000000	16.514600
2371.000000	16.503800
2370.000000	16.506400
2369.000000	16.514600
2368.000000	16.516400
2367.000000	16.518600
2366.000000	16.516100
2365.000000	16.509400
2364.000000	16.514000
2363.000000	16.510600
2362.000000	16.511800
2361.000000	16.515800
2360.000000	16.496300
2359.000000	16.499600
2358.000000	16.504600
2357.000000	16.487700
2356.000000	16.464600
2355.000000	16.437600
2354.000000	16.426200
2353.000000	16.414300
2352.000000	16.391500
2351.000000	16.380600
2350.000000	16.373900
2349.000000	16.358800
2348.000000	16.345100
2347.000000	16.347000
2346.000000	16.359300
2345.000000	16.356800
2344.000000	16.347200
2343.000000	16.341700
2342.000000	16.330000
2341.000000	16.324400
2340.000000	16.331100
2339.000000	16.372700
2338.000000	16.385300
2337.000000	16.360300
2336.000000	16.385700
2335.000000	16.400700
2334.000000	16.386600
2333.000000	16.395600
2332.000000	16.415300
2331.000000	16.427900
2330.000000	16.452900
2329.000000	16.465900
2328.000000	16.479200
2327.000000	16.517700
2326.000000	16.545300
2325.000000	16.544300
2324.000000	16.561300
2323.000000	16.571200
2322.000000	16.568100
2321.000000	16.564300
2320.000000	16.557200
2319.000000	16.550600
2318.000000	16.536700
2317.000000	16.529800
2316.000000	16.489900
2315.000000	16.466000
2314.000000	16.439900
2313.000000	16.405900
2312.000000	16.367500
2311.000000	16.342500
2310.000000	16.325300
2309.000000	16.316100
2308.000000	16.276500
2307.000000	16.263300
2306.000000	16.274000
2305.000000	16.246900
2304.000000	16.249800
2303.000000	16.243500
2302.000000	16.245700
2301.000000	16.265500
2300.000000	16.270100
2299.000000	16.277300
2298.000000	16.297400
2297.000000	16.314200
2296.000000	16.334800
2295.000000	16.344600
2294.000000	16.379000
2293.000000	16.402000
2292.000000	16.436400
2291.000000	16.474300
2290.000000	16.513800
2289.000000	16.519000
2288.000000	16.557900
2287.000000	16.593100
2286.000000	16.621000
2285.000000	16.671200
2284.000000	16.689300
2283.000000	16.744500
2282.000000	16.797800
2281.000000	16.821800
2280.000000	16.853800
2279.000000	16.885300
2278.000000	16.935700
2277.000000	16.961500
2276.000000	16.980100
2275.000000	17.007500
2274.000000	17.032600
2273.000000	17.054300
2272.000000	17.093400
2271.000000	17.155500
2270.000000	17.183100
2269.000000	17.192400
2268.000000	17.238000
2267.000000	17.298400
2266.000000	17.358700
2265.000000	17.407400
2264.000000	17.471000
2263.000000	17.560900
2262.000000	17.626400
2261.000000	17.730100
2260.000000	17.821600
2259.000000	17.933100
2258.000000	18.078600
2257.000000	18.190600
2256.000000	18.317100
2255.000000	18.449800
2254.000000	18.604300
2253.000000	18.727100
2252.000000	18.863000
2251.000000	18.990500
2250.000000	19.099800
2249.000000	19.281700
2248.000000	19.391900
2247.000000	19.478400
2246.000000	19.595700
2245.000000	19.722200
2244.000000	19.809000
2243.000000	19.908000
2242.000000	19.981000
2241.000000	20.042900
2240.000000	20.098700
2239.000000	20.195100
2238.000000	20.230500
2237.000000	20.275700
2236.000000	20.273200
2235.000000	20.302500
2234.000000	20.349900
2233.000000	20.348900
2232.000000	20.346600
2231.000000	20.343200
2230.000000	20.306400
2229.000000	20.313000
2228.000000	20.296100
2227.000000	20.256100
2226.000000	20.223900
2225.000000	20.173400
2224.000000	20.145400
2223.000000	20.085700
2222.000000	20.036800
2221.000000	19.971500
2220.000000	19.905500
2219.000000	19.870000
2218.000000	19.786800
2217.000000	19.723900
2216.000000	19.646300
2215.000000	19.592600
2214.000000	19.547100
2213.000000	19.464000
2212.000000	19.422800
2211.000000	19.346600
2210.000000	19.296600
2209.000000	19.248000
2208.000000	19.197500
2207.000000	19.144500
2206.000000	19.098900
2205.000000	19.077000
2204.000000	19.018800
2203.000000	18.985500
2202.000000	18.946500
2201.000000	18.920700
2200.000000	18.888100
2199.000000	18.854200
2198.000000	18.778300
2197.000000	18.770300
2196.000000	18.747100
2195.000000	18.704400
2194.000000	18.673000
2193.000000	18.649700
2192.000000	18.636000
2191.000000	18.603400
2190.000000	18.593000
2189.000000	18.545200
2188.000000	18.524800
2187.000000	18.495200
2186.000000	18.470200
2185.000000	18.466100
2184.000000	18.431900
2183.000000	18.394000
2182.000000	18.389800
2181.000000	18.360700
2180.000000	18.334500
2179.000000	18.316300
2178.000000	18.277000
2177.000000	18.276300
2176.000000	18.262000
2175.000000	18.246500
2174.000000	18.226600
2173.000000	18.228400
2172.000000	18.207500
2171.000000	18.230000
2170.000000	18.223400
2169.000000	18.234300
2168.000000	18.243800
2167.000000	18.260200
2166.000000	18.263200
2165.000000	18.298300
2164.000000	18.327300
2163.000000	18.363400
2162.000000	18.392600
2161.000000	18.426100
2160.000000	18.473000
2159.000000	18.529100
2158.000000	18.589200
2157.000000	18.661900
2156.000000	18.730500
2155.000000	18.804500
2154.000000	18.866700
2153.000000	18.947700
2152.000000	19.050400
2151.000000	19.131800
2150.000000	19.227000
2149.000000	19.307200
2148.000000	19.394400
2147.000000	19.476800
2146.000000	19.556900
2145.000000	19.642000
2144.000000	19.728900
2143.000000	19.818900
2142.000000	19.913400
2141.000000	19.995100
2140.000000	20.075000
2139.000000	20.162600
2138.000000	20.243600
2137.000000	20.315200
2136.000000	20.393400
2135.000000	20.467800
2134.000000	20.546300
2133.000000	20.619100
2132.000000	20.678900
2131.000000	20.747500
2130.000000	20.825300
2129.000000	20.875200
2128.000000	20.934300
2127.000000	20.998700
2126.000000	21.041500
2125.000000	21.099200
2124.000000	21.159200
2123.000000	21.195700
2122.000000	21.236300
2121.000000	21.295200
2120.000000	21.319600
2119.000000	21.339600
2118.000000	21.368300
2117.000000	21.400600
2116.000000	21.420100
2115.000000	21.419400
2114.000000	21.443500
2113.000000	21.472400
2112.000000	21.486700
2111.000000	21.491200
2110.000000	21.508300
2109.000000	21.522200
2108.000000	21.517900
2107.000000	21.520100
2106.000000	21.520300
2105.000000	21.526900
2104.000000	21.536700
2103.000000	21.551300
2102.000000	21.544000
2101.000000	21.548200
2100.000000	21.566000
2099.000000	21.558100
2098.000000	21.562100
2097.000000	21.581100
2096.000000	21.592300
2095.000000	21.606500
2094.000000	21.612900
2093.000000	21.625600
2092.000000	21.647000
2091.000000	21.679400
2090.000000	21.698400
2089.000000	21.720700
2088.000000	21.744200
2087.000000	21.754200
2086.000000	21.779600
2085.000000	21.778100
2084.000000	21.764500
2083.000000	21.760900
2082.000000	21.754800
2081.000000	21.747200
2080.000000	21.714500
2079.000000	21.684900
2078.000000	21.635900
2077.000000	21.605700
2076.000000	21.570100
2075.000000	21.514900
2074.000000	21.451700
2073.000000	21.397000
2072.000000	21.330400
2071.000000	21.246000
2070.000000	21.151900
2069.000000	21.075200
2068.000000	20.995100
2067.000000	20.912200
2066.000000	20.816800
2065.000000	20.721900
2064.000000	20.628400
2063.000000	20.537900
2062.000000	20.455700
2061.000000	20.367500
2060.000000	20.292100
2059.000000	20.232500
2058.000000	20.171700
2057.000000	20.113600
2056.000000	20.067800
2055.000000	20.053200
2054.000000	20.058300
2053.000000	20.057700
2052.000000	20.086700
2051.000000	20.115300
2050.000000	20.179700
2049.000000	20.266100
2048.000000	20.350100
2047.000000	20.456200
2046.000000	20.550600
2045.000000	20.670200
2044.000000	20.795800
2043.000000	20.936400
2042.000000	21.058700
2041.000000	21.165600
2040.000000	21.281400
2039.000000	21.417200
2038.000000	21.552000
2037.000000	21.665900
2036.000000	21.778800
2035.000000	21.886500
2034.000000	21.989200
2033.000000	22.086300
2032.000000	22.171200
2031.000000	22.251900
2030.000000	22.353000
2029.000000	22.435700
2028.000000	22.498000
2027.000000	22.554800
2026.000000	22.623000
2025.000000	22.705500
2024.000000	22.760500
2023.000000	22.821600
2022.000000	22.871100
2021.000000	22.910000
2020.000000	22.941000
2019.000000	22.988800
2018.000000	23.010000
2017.000000	23.026900
2016.000000	23.066100
2015.000000	23.086700
2014.000000	23.109600
2013.000000	23.107400
2012.000000	23.100900
2011.000000	23.098800
2010.000000	23.092800
2009.000000	23.102100
2008.000000	23.068400
2007.000000	23.064300
2006.000000	23.027200
2005.000000	22.986500
2004.000000	22.955500
2003.000000	22.921900
2002.000000	22.881100
2001.000000	22.826800
2000.000000	22.759300
1999.000000	22.708000
1998.000000	22.634600
1997.000000	22.584700
1996.000000	22.517700
1995.000000	22.448100
1994.000000	22.378700
1993.000000	22.294300
1992.000000	22.205200
1991.000000	22.132300
1990.000000	22.058200
1989.000000	21.978000
1988.000000	21.872200
1987.000000	21.785600
1986.000000	21.697800
1985.000000	21.613800
1984.000000	21.538400
1983.000000	21.417100
1982.000000	21.308700
1981.000000	21.240100
1980.000000	21.163200
1979.000000	21.065800
1978.000000	20.978300
1977.000000	20.889200
1976.000000	20.810300
1975.000000	20.723000
1974.000000	20.631500
1973.000000	20.541100
1972.000000	20.486900
1971.000000	20.375700
1970.000000	20.291600
1969.000000	20.218000
1968.000000	20.154100
1967.000000	20.053800
1966.000000	19.957200
1965.000000	19.868800
1964.000000	19.802000
1963.000000	19.705200
1962.000000	19.635800
1961.000000	19.553900
1960.000000	19.469600
1959.000000	19.383300
1958.000000	19.305000
1957.000000	19.220700
1956.000000	19.139600
1955.000000	19.041400
1954.000000	18.978100
1953.000000	18.900700
1952.000000	18.806900
1951.000000	18.734600
1950.000000	18.660200
1949.000000	18.593800
1948.000000	18.519400
1947.000000	18.450800
1946.000000	18.394500
1945.000000	18.349100
1944.000000	18.278400
1943.000000	18.253000
1942.000000	18.179400
1941.000000	18.142700
1940.000000	18.115000
1939.000000	18.118300
1938.000000	18.103600
1937.000000	18.090200
1936.000000	18.091800
1935.000000	18.104800
1934.000000	18.091500
1933.000000	18.136200
1932.000000	18.142900
1931.000000	18.168100
1930.000000	18.203700
1929.000000	18.275400
1928.000000	18.362400
1927.000000	18.445300
1926.000000	18.552500
1925.000000	18.652200
1924.000000	18.736900
1923.000000	18.802800
1922.000000	18.969800
1921.000000	19.141800
1920.000000	19.355800
1919.000000	19.555500
1918.000000	19.719900
1917.000000	19.860400
1916.000000	19.989200
1915.000000	20.162600
1914.000000	20.431300
1913.000000	20.763800
1912.000000	21.092800
1911.000000	21.372700
1910.000000	21.638900
1909.000000	21.834400
1908.000000	22.081500
1907.000000	22.407300
1906.000000	22.821000
1905.000000	23.341200
1904.000000	23.823700
1903.000000	24.206000
1902.000000	24.607200
1901.000000	25.034300
1900.000000	25.539600
1899.000000	26.156600
1898.000000	26.698700
1897.000000	27.237500
1896.000000	27.663000
1895.000000	28.035000
1894.000000	28.477900
1893.000000	28.970800
1892.000000	29.540300
1891.000000	30.151500
1890.000000	30.686000
1889.000000	31.155000
1888.000000	31.641400
1887.000000	32.039200
1886.000000	32.444900
1885.000000	32.873000
1884.000000	33.340200
1883.000000	33.787600
1882.000000	34.143500
1881.000000	34.463100
1880.000000	34.735100
1879.000000	34.984900
1878.000000	35.280300
1877.000000	35.556600
1876.000000	35.814300
1875.000000	36.053100
1874.000000	36.292400
1873.000000	36.561100
1872.000000	36.825500
1871.000000	37.058200
1870.000000	37.301000
1869.000000	37.515200
1868.000000	37.680900
1867.000000	37.799200
1866.000000	37.836200
1865.000000	37.888000
1864.000000	37.942600
1863.000000	37.954100
1862.000000	38.015800
1861.000000	38.112800
1860.000000	38.226600
1859.000000	38.335500
1858.000000	38.426500
1857.000000	38.493000
1856.000000	38.519200
1855.000000	38.546300
1854.000000	38.620700
1853.000000	38.661400
1852.000000	38.670800
1851.000000	38.670000
1850.000000	38.638100
1849.000000	38.632600
1848.000000	38.725500
1847.000000	38.863500
1846.000000	38.882900
1845.000000	38.787900
1844.000000	38.667700
1843.000000	38.589200
1842.000000	38.623500
1841.000000	38.699600
1840.000000	38.709700
1839.000000	38.674000
1838.000000	38.619500
1837.000000	38.624800
1836.000000	38.646900
1835.000000	38.642000
1834.000000	38.584500
1833.000000	38.483700
1832.000000	38.416200
1831.000000	38.386000
1830.000000	38.398300
1829.000000	38.396900
1828.000000	38.351100
1827.000000	38.316800
1826.000000	38.326500
1825.000000	38.317200
1824.000000	38.262300
1823.000000	38.209200
1822.000000	38.233700
1821.000000	38.307700
1820.000000	38.365800
1819.000000	38.369300
1818.000000	38.325900
1817.000000	38.280900
1816.000000	38.276100
1815.000000	38.288000
1814.000000	38.283700
1813.000000	38.267100
1812.000000	38.236700
1811.000000	38.225900
1810.000000	38.192600
1809.000000	38.150500
1808.000000	38.117000
1807.000000	38.094100
1806.000000	38.094200
1805.000000	38.072800
1804.000000	38.043000
1803.000000	38.018500
1802.000000	38.011300
1801.000000	38.000200
1800.000000	37.980900
1799.000000	37.951600
1798.000000	37.922300
1797.000000	37.896400
1796.000000	37.890500
1795.000000	37.867800
1794.000000	37.849800
1793.000000	37.846400
1792.000000	37.830300
1791.000000	37.802000
1790.000000	37.789400
1789.000000	37.798000
1788.000000	37.797800
1787.000000	37.789200
1786.000000	37.804100
1785.000000	37.805200
1784.000000	37.806900
1783.000000	37.791700
1782.000000	37.797200
1781.000000	37.788100
1780.000000	37.766000
1779.000000	37.714000
1778.000000	37.685600
1777.000000	37.664100
1776.000000	37.624600
1775.000000	37.586100
1774.000000	37.544900
1773.000000	37.497200
1772.000000	37.461500
1771.000000	37.414400
1770.000000	37.379800
1769.000000	37.335300
1768.000000	37.274600
1767.000000	37.231100
1766.000000	37.191100
1765.000000	37.175200
1764.000000	37.142400
1763.000000	37.119700
1762.000000	37.099600
1761.000000	37.104200
1760.000000	37.112400
1759.000000	37.125900
1758.000000	37.123500
1757.000000	37.135800
1756.000000	37.138800
1755.000000	37.156200
1754.000000	37.159500
1753.000000	37.175300
1752.000000	37.178500
1751.000000	37.175400
1750.000000	37.166400
1749.000000	37.150700
1748.000000	37.120100
1747.000000	37.067800
1746.000000	37.040700
1745.000000	36.979900
1744.000000	36.923000
1743.000000	36.855800
1742.000000	36.774200
1741.000000	36.692700
1740.000000	36.612900
1739.000000	36.529100
1738.000000	36.439700
1737.000000	36.372200
1736.000000	36.298300
1735.000000	36.212100
1734.000000	36.140900
1733.000000	36.072100
1732.000000	36.000500
1731.000000	35.932900
1730.000000	35.878000
1729.000000	35.822700
1728.000000	35.784600
1727.000000	35.711800
1726.000000	35.692400
1725.000000	35.663400
1724.000000	35.663800
1723.000000	35.686700
1722.000000	35.755600
1721.000000	35.851100
1720.000000	35.979300
1719.000000	36.137200
1718.000000	36.332500
1717.000000	36.540000
1716.000000	36.737700
1715.000000	36.939100
1714.000000	37.137600
1713.000000	37.307300
1712.000000	37.477100
1711.000000	37.628800
1710.000000	37.753700
1709.000000	37.858500
1708.000000	37.980300
1707.000000	38.066400
1706.000000	38.165100
1705.000000	38.245700
1704.000000	38.303100
1703.000000	38.349400
1702.000000	38.396500
1701.000000	38.438000
1700.000000	38.464200
1699.000000	38.495500
1698.000000	38.517100
1697.000000	38.530900
1696.000000	38.524300
1695.000000	38.486200
1694.000000	38.424300
1693.000000	38.377400
1692.000000	38.299900
1691.000000	38.228400
1690.000000	38.161200
1689.000000	38.133300
1688.000000	38.132900
1687.000000	38.165600
1686.000000	38.246600
1685.000000	38.387300
1684.000000	38.533800
1683.000000	38.686700
1682.000000	38.886700
1681.000000	39.082800
1680.000000	39.292300
1679.000000	39.461400
1678.000000	39.653300
1677.000000	39.812500
1676.000000	39.938300
1675.000000	40.092100
1674.000000	40.212400
1673.000000	40.376800
1672.000000	40.515000
1671.000000	40.658900
1670.000000	40.799100
1669.000000	40.971800
1668.000000	41.117100
1667.000000	41.290100
1666.000000	41.417700
1665.000000	41.563400
1664.000000	41.701600
1663.000000	41.822700
1662.000000	41.969200
1661.000000	42.106100
1660.000000	42.209000
1659.000000	42.299500
1658.000000	42.401800
1657.000000	42.472000
1656.000000	42.560700
1655.000000	42.623500
1654.000000	42.679400
1653.000000	42.701600
1652.000000	42.752000
1651.000000	42.776100
1650.000000	42.801500
1649.000000	42.811700
1648.000000	42.819600
1647.000000	42.825900
1646.000000	42.829100
1645.000000	42.833700
1644.000000	42.839700
1643.000000	42.838300
1642.000000	42.825200
1641.000000	42.856700
1640.000000	42.852100
1639.000000	42.840500
1638.000000	42.832800
1637.000000	42.828100
1636.000000	42.820100
1635.000000	42.804000
1634.000000	42.776700
1633.000000	42.760700
1632.000000	42.735700
1631.000000	42.727900
1630.000000	42.711500
1629.000000	42.670000
1628.000000	42.619300
1627.000000	42.605400
1626.000000	42.572800
1625.000000	42.537700
1624.000000	42.518300
