PE UV       SUBTECH     SPECTRUM    ASCII       PEDS        4.00        
   -1
CICIMAUCR0108-3.Sample.ASC
24/04/22
10:06:33.00
24/04/22
10:06:33.00
Vinicio Soto Monge
C. resplendens
250,000000
1
Lambda 1050
1050L1511233
PerkinElmer UV WinLab 6.3.2.0749 / 2.02.05 Lambda 900 UV/VIS/NIR, Aug  7 2015 09:38:08

0
0
3350/servo 860,8/2
0
0
UV/VIS
1
1
1
DoubleDePol,CommonBeamDepol,RBeamAtt,SBeamAtt,60mm sphere, WB InGaAs Detector
0
0
0
0
Program
Program
3350/servo 860,8/2
3350/0,2 860,8/0,2
3350/0,2 860,8/0,2
0
15.00
 
 
 
0
 
860,8
319,2
860,8
Front
100
on
S:100 R:100
0
0
0
0
 
0
 
 
 
0
 
 
0
0
0
0
0
 
 
 
 
0
0


0
0
#HDR
-1
-1
#GR
nm
%R
1.0
0.0
2500,000000
-1,000000
2251
8
82,967800
5,292400
#DATA
2500.000000	17.094400
2499.000000	16.940800
2498.000000	17.007300
2497.000000	16.984900
2496.000000	16.899000
2495.000000	16.874300
2494.000000	16.838500
2493.000000	16.860000
2492.000000	16.873100
2491.000000	16.807100
2490.000000	16.826300
2489.000000	16.843300
2488.000000	16.903500
2487.000000	16.761500
2486.000000	16.825700
2485.000000	16.878500
2484.000000	16.838500
2483.000000	16.915900
2482.000000	16.927000
2481.000000	16.838100
2480.000000	16.899700
2479.000000	16.911500
2478.000000	16.969000
2477.000000	16.940700
2476.000000	16.987100
2475.000000	17.067700
2474.000000	17.030800
2473.000000	17.110100
2472.000000	17.133900
2471.000000	17.173700
2470.000000	17.199500
2469.000000	17.245700
2468.000000	17.298100
2467.000000	17.347400
2466.000000	17.410600
2465.000000	17.466700
2464.000000	17.541800
2463.000000	17.584300
2462.000000	17.670900
2461.000000	17.703800
2460.000000	17.795800
2459.000000	17.885600
2458.000000	17.977900
2457.000000	18.050400
2456.000000	18.137800
2455.000000	18.228300
2454.000000	18.316100
2453.000000	18.420200
2452.000000	18.545500
2451.000000	18.638800
2450.000000	18.749700
2449.000000	18.848300
2448.000000	18.963700
2447.000000	19.083000
2446.000000	19.215700
2445.000000	19.327600
2444.000000	19.438000
2443.000000	19.561300
2442.000000	19.678900
2441.000000	19.787300
2440.000000	19.913000
2439.000000	20.013400
2438.000000	20.128000
2437.000000	20.248500
2436.000000	20.373100
2435.000000	20.479300
2434.000000	20.595300
2433.000000	20.709100
2432.000000	20.800900
2431.000000	20.909500
2430.000000	21.000000
2429.000000	21.105800
2428.000000	21.207800
2427.000000	21.297700
2426.000000	21.387900
2425.000000	21.470200
2424.000000	21.542400
2423.000000	21.628200
2422.000000	21.688100
2421.000000	21.737900
2420.000000	21.809300
2419.000000	21.891300
2418.000000	21.955800
2417.000000	22.010400
2416.000000	22.074300
2415.000000	22.132300
2414.000000	22.181600
2413.000000	22.240500
2412.000000	22.283700
2411.000000	22.335300
2410.000000	22.360400
2409.000000	22.397600
2408.000000	22.426400
2407.000000	22.456200
2406.000000	22.490500
2405.000000	22.522700
2404.000000	22.552100
2403.000000	22.576200
2402.000000	22.593500
2401.000000	22.606900
2400.000000	22.631700
2399.000000	22.670600
2398.000000	22.685300
2397.000000	22.692600
2396.000000	22.708100
2395.000000	22.722300
2394.000000	22.729400
2393.000000	22.736300
2392.000000	22.753500
2391.000000	22.766800
2390.000000	22.756600
2389.000000	22.766200
2388.000000	22.776700
2387.000000	22.770100
2386.000000	22.761100
2385.000000	22.767100
2384.000000	22.769600
2383.000000	22.742700
2382.000000	22.736000
2381.000000	22.724100
2380.000000	22.698000
2379.000000	22.672900
2378.000000	22.653300
2377.000000	22.629400
2376.000000	22.610100
2375.000000	22.593300
2374.000000	22.564700
2373.000000	22.538800
2372.000000	22.521400
2371.000000	22.499400
2370.000000	22.467300
2369.000000	22.457000
2368.000000	22.453200
2367.000000	22.434000
2366.000000	22.406600
2365.000000	22.391600
2364.000000	22.378000
2363.000000	22.354300
2362.000000	22.344900
2361.000000	22.329500
2360.000000	22.296800
2359.000000	22.269600
2358.000000	22.257200
2357.000000	22.236100
2356.000000	22.204300
2355.000000	22.185300
2354.000000	22.166000
2353.000000	22.152700
2352.000000	22.116000
2351.000000	22.095100
2350.000000	22.085500
2349.000000	22.066500
2348.000000	22.034900
2347.000000	22.023200
2346.000000	22.022400
2345.000000	22.020200
2344.000000	22.004200
2343.000000	21.981300
2342.000000	21.983700
2341.000000	21.963900
2340.000000	21.949000
2339.000000	21.928000
2338.000000	21.927900
2337.000000	21.930500
2336.000000	21.926900
2335.000000	21.905500
2334.000000	21.902100
2333.000000	21.908400
2332.000000	21.900400
2331.000000	21.905400
2330.000000	21.922000
2329.000000	21.926100
2328.000000	21.928800
2327.000000	21.942500
2326.000000	21.936200
2325.000000	21.944200
2324.000000	21.933800
2323.000000	21.915100
2322.000000	21.914400
2321.000000	21.894600
2320.000000	21.876800
2319.000000	21.846300
2318.000000	21.796800
2317.000000	21.750800
2316.000000	21.694100
2315.000000	21.648900
2314.000000	21.602600
2313.000000	21.545800
2312.000000	21.482400
2311.000000	21.432500
2310.000000	21.380800
2309.000000	21.317100
2308.000000	21.260800
2307.000000	21.224500
2306.000000	21.184700
2305.000000	21.143500
2304.000000	21.112100
2303.000000	21.105200
2302.000000	21.102300
2301.000000	21.084400
2300.000000	21.095700
2299.000000	21.083400
2298.000000	21.089100
2297.000000	21.097900
2296.000000	21.116100
2295.000000	21.119000
2294.000000	21.148700
2293.000000	21.181900
2292.000000	21.200300
2291.000000	21.223000
2290.000000	21.243500
2289.000000	21.279200
2288.000000	21.323600
2287.000000	21.336200
2286.000000	21.360500
2285.000000	21.401400
2284.000000	21.431300
2283.000000	21.449200
2282.000000	21.487300
2281.000000	21.513100
2280.000000	21.527500
2279.000000	21.559400
2278.000000	21.574400
2277.000000	21.588700
2276.000000	21.620300
2275.000000	21.633500
2274.000000	21.640400
2273.000000	21.666000
2272.000000	21.688900
2271.000000	21.709700
2270.000000	21.739600
2269.000000	21.805500
2268.000000	21.850300
2267.000000	21.922100
2266.000000	21.998200
2265.000000	22.105200
2264.000000	22.175900
2263.000000	22.288200
2262.000000	22.429500
2261.000000	22.555600
2260.000000	22.715100
2259.000000	22.882600
2258.000000	23.060000
2257.000000	23.238500
2256.000000	23.395700
2255.000000	23.599000
2254.000000	23.807200
2253.000000	23.990500
2252.000000	24.172000
2251.000000	24.373400
2250.000000	24.545400
2249.000000	24.690800
2248.000000	24.854800
2247.000000	25.015700
2246.000000	25.148300
2245.000000	25.282100
2244.000000	25.391300
2243.000000	25.483700
2242.000000	25.573400
2241.000000	25.675500
2240.000000	25.745900
2239.000000	25.799700
2238.000000	25.848400
2237.000000	25.879400
2236.000000	25.915300
2235.000000	25.927600
2234.000000	25.921300
2233.000000	25.909500
2232.000000	25.887600
2231.000000	25.882900
2230.000000	25.849800
2229.000000	25.824000
2228.000000	25.764500
2227.000000	25.692200
2226.000000	25.626500
2225.000000	25.595900
2224.000000	25.518800
2223.000000	25.431300
2222.000000	25.353500
2221.000000	25.252100
2220.000000	25.159500
2219.000000	25.077100
2218.000000	24.980200
2217.000000	24.902300
2216.000000	24.814400
2215.000000	24.714500
2214.000000	24.641200
2213.000000	24.559200
2212.000000	24.460400
2211.000000	24.401500
2210.000000	24.325800
2209.000000	24.258200
2208.000000	24.187800
2207.000000	24.152800
2206.000000	24.095700
2205.000000	24.033000
2204.000000	23.970800
2203.000000	23.935500
2202.000000	23.870500
2201.000000	23.824000
2200.000000	23.795900
2199.000000	23.774900
2198.000000	23.711000
2197.000000	23.679500
2196.000000	23.629800
2195.000000	23.603200
2194.000000	23.590900
2193.000000	23.543000
2192.000000	23.539300
2191.000000	23.528200
2190.000000	23.486800
2189.000000	23.454600
2188.000000	23.429000
2187.000000	23.415900
2186.000000	23.403100
2185.000000	23.366100
2184.000000	23.336900
2183.000000	23.323400
2182.000000	23.291800
2181.000000	23.276400
2180.000000	23.255500
2179.000000	23.253400
2178.000000	23.238900
2177.000000	23.223100
2176.000000	23.210400
2175.000000	23.210600
2174.000000	23.211100
2173.000000	23.213600
2172.000000	23.242700
2171.000000	23.256500
2170.000000	23.279500
2169.000000	23.311100
2168.000000	23.338500
2167.000000	23.383500
2166.000000	23.399300
2165.000000	23.454900
2164.000000	23.497200
2163.000000	23.561600
2162.000000	23.630300
2161.000000	23.681700
2160.000000	23.755400
2159.000000	23.835400
2158.000000	23.917900
2157.000000	24.021000
2156.000000	24.126200
2155.000000	24.231300
2154.000000	24.333400
2153.000000	24.437500
2152.000000	24.556400
2151.000000	24.667600
2150.000000	24.784100
2149.000000	24.907200
2148.000000	25.023600
2147.000000	25.148800
2146.000000	25.259900
2145.000000	25.375800
2144.000000	25.477600
2143.000000	25.606400
2142.000000	25.742800
2141.000000	25.838400
2140.000000	25.931600
2139.000000	26.040000
2138.000000	26.145000
2137.000000	26.238500
2136.000000	26.328700
2135.000000	26.430100
2134.000000	26.517900
2133.000000	26.593000
2132.000000	26.672000
2131.000000	26.740800
2130.000000	26.806000
2129.000000	26.881500
2128.000000	26.956000
2127.000000	27.000700
2126.000000	27.050200
2125.000000	27.117400
2124.000000	27.167200
2123.000000	27.201500
2122.000000	27.240200
2121.000000	27.279600
2120.000000	27.308000
2119.000000	27.322900
2118.000000	27.344300
2117.000000	27.366700
2116.000000	27.372300
2115.000000	27.387800
2114.000000	27.399700
2113.000000	27.410800
2112.000000	27.415700
2111.000000	27.411600
2110.000000	27.410100
2109.000000	27.411800
2108.000000	27.413700
2107.000000	27.399800
2106.000000	27.383200
2105.000000	27.384700
2104.000000	27.376800
2103.000000	27.364100
2102.000000	27.361400
2101.000000	27.356600
2100.000000	27.348000
2099.000000	27.337100
2098.000000	27.330400
2097.000000	27.335100
2096.000000	27.335400
2095.000000	27.330400
2094.000000	27.332100
2093.000000	27.347300
2092.000000	27.369100
2091.000000	27.382000
2090.000000	27.392500
2089.000000	27.389400
2088.000000	27.382000
2087.000000	27.378300
2086.000000	27.358600
2085.000000	27.343600
2084.000000	27.319500
2083.000000	27.290400
2082.000000	27.244000
2081.000000	27.202700
2080.000000	27.149100
2079.000000	27.088800
2078.000000	27.027700
2077.000000	26.935300
2076.000000	26.841000
2075.000000	26.744400
2074.000000	26.653700
2073.000000	26.544700
2072.000000	26.413700
2071.000000	26.304300
2070.000000	26.170500
2069.000000	26.044000
2068.000000	25.917800
2067.000000	25.777100
2066.000000	25.654800
2065.000000	25.513100
2064.000000	25.392400
2063.000000	25.270700
2062.000000	25.151800
2061.000000	25.046200
2060.000000	24.937100
2059.000000	24.842600
2058.000000	24.763700
2057.000000	24.702400
2056.000000	24.675200
2055.000000	24.650600
2054.000000	24.654900
2053.000000	24.686300
2052.000000	24.722500
2051.000000	24.797400
2050.000000	24.898800
2049.000000	24.994500
2048.000000	25.119700
2047.000000	25.263800
2046.000000	25.421400
2045.000000	25.587300
2044.000000	25.759200
2043.000000	25.922200
2042.000000	26.085500
2041.000000	26.276500
2040.000000	26.442500
2039.000000	26.595200
2038.000000	26.766600
2037.000000	26.914100
2036.000000	27.057700
2035.000000	27.208900
2034.000000	27.339100
2033.000000	27.461400
2032.000000	27.590500
2031.000000	27.706300
2030.000000	27.800200
2029.000000	27.895400
2028.000000	28.008600
2027.000000	28.109200
2026.000000	28.203400
2025.000000	28.279200
2024.000000	28.350100
2023.000000	28.432800
2022.000000	28.487100
2021.000000	28.555500
2020.000000	28.615200
2019.000000	28.664700
2018.000000	28.720300
2017.000000	28.743900
2016.000000	28.786200
2015.000000	28.820700
2014.000000	28.838700
2013.000000	28.877100
2012.000000	28.872400
2011.000000	28.876900
2010.000000	28.880900
2009.000000	28.882500
2008.000000	28.865400
2007.000000	28.838200
2006.000000	28.822700
2005.000000	28.790700
2004.000000	28.754200
2003.000000	28.709100
2002.000000	28.652700
2001.000000	28.590400
2000.000000	28.525800
1999.000000	28.462800
1998.000000	28.382400
1997.000000	28.313500
1996.000000	28.245400
1995.000000	28.140000
1994.000000	28.047700
1993.000000	27.980500
1992.000000	27.887400
1991.000000	27.784200
1990.000000	27.665800
1989.000000	27.569800
1988.000000	27.481800
1987.000000	27.359200
1986.000000	27.274600
1985.000000	27.156800
1984.000000	27.047400
1983.000000	26.944800
1982.000000	26.826200
1981.000000	26.732200
1980.000000	26.608300
1979.000000	26.507400
1978.000000	26.393400
1977.000000	26.294300
1976.000000	26.192700
1975.000000	26.104400
1974.000000	25.990800
1973.000000	25.902100
1972.000000	25.792800
1971.000000	25.697000
1970.000000	25.610200
1969.000000	25.516100
1968.000000	25.405500
1967.000000	25.325600
1966.000000	25.246300
1965.000000	25.149800
1964.000000	25.061400
1963.000000	24.951500
1962.000000	24.853000
1961.000000	24.721900
1960.000000	24.651100
1959.000000	24.550300
1958.000000	24.445600
1957.000000	24.342900
1956.000000	24.234800
1955.000000	24.152600
1954.000000	24.040700
1953.000000	23.927600
1952.000000	23.841000
1951.000000	23.747500
1950.000000	23.674800
1949.000000	23.576300
1948.000000	23.510800
1947.000000	23.408100
1946.000000	23.347700
1945.000000	23.291000
1944.000000	23.231800
1943.000000	23.198800
1942.000000	23.149800
1941.000000	23.117800
1940.000000	23.102700
1939.000000	23.071400
1938.000000	23.058000
1937.000000	23.047900
1936.000000	23.029900
1935.000000	23.062000
1934.000000	23.084700
1933.000000	23.148500
1932.000000	23.220500
1931.000000	23.291200
1930.000000	23.353700
1929.000000	23.440800
1928.000000	23.539500
1927.000000	23.637400
1926.000000	23.755700
1925.000000	23.893000
1924.000000	24.040100
1923.000000	24.209800
1922.000000	24.405200
1921.000000	24.612000
1920.000000	24.807900
1919.000000	24.981000
1918.000000	25.217100
1917.000000	25.465400
1916.000000	25.724800
1915.000000	26.006500
1914.000000	26.325400
1913.000000	26.654100
1912.000000	26.979500
1911.000000	27.301800
1910.000000	27.625600
1909.000000	27.984700
1908.000000	28.389400
1907.000000	28.839400
1906.000000	29.331300
1905.000000	29.823600
1904.000000	30.290800
1903.000000	30.791900
1902.000000	31.283100
1901.000000	31.846400
1900.000000	32.406000
1899.000000	32.987700
1898.000000	33.575200
1897.000000	34.099200
1896.000000	34.618600
1895.000000	35.169000
1894.000000	35.740000
1893.000000	36.339100
1892.000000	36.973700
1891.000000	37.561400
1890.000000	38.071300
1889.000000	38.602100
1888.000000	39.155700
1887.000000	39.666900
1886.000000	40.149200
1885.000000	40.621600
1884.000000	41.088800
1883.000000	41.491900
1882.000000	41.864500
1881.000000	42.240600
1880.000000	42.574200
1879.000000	42.923700
1878.000000	43.240600
1877.000000	43.549800
1876.000000	43.839000
1875.000000	44.114700
1874.000000	44.389300
1873.000000	44.627500
1872.000000	44.837400
1871.000000	45.008700
1870.000000	45.122400
1869.000000	45.262900
1868.000000	45.353100
1867.000000	45.410000
1866.000000	45.465700
1865.000000	45.550000
1864.000000	45.652900
1863.000000	45.774000
1862.000000	45.880500
1861.000000	45.974900
1860.000000	46.045500
1859.000000	46.090700
1858.000000	46.137600
1857.000000	46.185500
1856.000000	46.228800
1855.000000	46.270200
1854.000000	46.269900
1853.000000	46.259500
1852.000000	46.291000
1851.000000	46.354600
1850.000000	46.424700
1849.000000	46.457400
1848.000000	46.415200
1847.000000	46.300500
1846.000000	46.235800
1845.000000	46.255200
1844.000000	46.285000
1843.000000	46.358000
1842.000000	46.363700
1841.000000	46.290200
1840.000000	46.251500
1839.000000	46.218400
1838.000000	46.185400
1837.000000	46.138200
1836.000000	46.052700
1835.000000	45.960600
1834.000000	45.912400
1833.000000	45.896500
1832.000000	45.890600
1831.000000	45.872100
1830.000000	45.822900
1829.000000	45.776900
1828.000000	45.729400
1827.000000	45.682900
1826.000000	45.647500
1825.000000	45.629100
1824.000000	45.653400
1823.000000	45.750700
1822.000000	45.786600
1821.000000	45.739400
1820.000000	45.687300
1819.000000	45.648600
1818.000000	45.642100
1817.000000	45.647700
1816.000000	45.641300
1815.000000	45.617000
1814.000000	45.606000
1813.000000	45.587500
1812.000000	45.580000
1811.000000	45.535900
1810.000000	45.485400
1809.000000	45.481700
1808.000000	45.475900
1807.000000	45.455900
1806.000000	45.400700
1805.000000	45.356600
1804.000000	45.360500
1803.000000	45.368400
1802.000000	45.345600
1801.000000	45.303900
1800.000000	45.244300
1799.000000	45.230600
1798.000000	45.227300
1797.000000	45.197500
1796.000000	45.172800
1795.000000	45.162100
1794.000000	45.148600
1793.000000	45.121100
1792.000000	45.099200
1791.000000	45.087700
1790.000000	45.082400
1789.000000	45.070600
1788.000000	45.069700
1787.000000	45.075300
1786.000000	45.090500
1785.000000	45.067000
1784.000000	45.044500
1783.000000	45.020300
1782.000000	45.016700
1781.000000	45.002000
1780.000000	44.963500
1779.000000	44.926800
1778.000000	44.888400
1777.000000	44.834800
1776.000000	44.780100
1775.000000	44.717600
1774.000000	44.671600
1773.000000	44.627700
1772.000000	44.563700
1771.000000	44.515100
1770.000000	44.458700
1769.000000	44.403300
1768.000000	44.340600
1767.000000	44.294600
1766.000000	44.251900
1765.000000	44.216000
1764.000000	44.197900
1763.000000	44.174400
1762.000000	44.158000
1761.000000	44.132300
1760.000000	44.130400
1759.000000	44.127900
1758.000000	44.124200
1757.000000	44.104700
1756.000000	44.096700
1755.000000	44.081200
1754.000000	44.075800
1753.000000	44.066800
1752.000000	44.047200
1751.000000	43.998900
1750.000000	43.969500
1749.000000	43.908500
1748.000000	43.857100
1747.000000	43.789700
1746.000000	43.705100
1745.000000	43.637600
1744.000000	43.553900
1743.000000	43.472200
1742.000000	43.368100
1741.000000	43.261200
1740.000000	43.160000
1739.000000	43.083800
1738.000000	43.010400
1737.000000	42.947800
1736.000000	42.895700
1735.000000	42.845600
1734.000000	42.796800
1733.000000	42.749200
1732.000000	42.730300
1731.000000	42.697100
1730.000000	42.649100
1729.000000	42.633700
1728.000000	42.615900
1727.000000	42.585700
1726.000000	42.572300
1725.000000	42.557600
1724.000000	42.597800
1723.000000	42.671100
1722.000000	42.771100
1721.000000	42.908300
1720.000000	43.094600
1719.000000	43.281200
1718.000000	43.497100
1717.000000	43.715500
1716.000000	43.924100
1715.000000	44.145500
1714.000000	44.333600
1713.000000	44.497900
1712.000000	44.648800
1711.000000	44.779500
1710.000000	44.883300
1709.000000	44.973400
1708.000000	45.073600
1707.000000	45.143600
1706.000000	45.173300
1705.000000	45.215600
1704.000000	45.236600
1703.000000	45.229500
1702.000000	45.252800
1701.000000	45.236800
1700.000000	45.220300
1699.000000	45.205700
1698.000000	45.195100
1697.000000	45.162300
1696.000000	45.140000
1695.000000	45.092900
1694.000000	45.013600
1693.000000	44.976900
1692.000000	44.909900
1691.000000	44.841900
1690.000000	44.811800
1689.000000	44.803200
1688.000000	44.847500
1687.000000	44.936400
1686.000000	45.075400
1685.000000	45.261900
1684.000000	45.485000
1683.000000	45.713200
1682.000000	45.963900
1681.000000	46.216300
1680.000000	46.433600
1679.000000	46.661700
1678.000000	46.882800
1677.000000	47.065300
1676.000000	47.275200
1675.000000	47.456500
1674.000000	47.610100
1673.000000	47.804000
1672.000000	47.979600
1671.000000	48.157600
1670.000000	48.349600
1669.000000	48.522900
1668.000000	48.691000
1667.000000	48.854000
1666.000000	49.016100
1665.000000	49.162400
1664.000000	49.308800
1663.000000	49.453800
1662.000000	49.558300
1661.000000	49.661800
1660.000000	49.774400
1659.000000	49.869400
1658.000000	49.949300
1657.000000	50.038500
1656.000000	50.086100
1655.000000	50.120700
1654.000000	50.171000
1653.000000	50.215200
1652.000000	50.244500
1651.000000	50.245600
1650.000000	50.258300
1649.000000	50.277500
1648.000000	50.266000
1647.000000	50.268100
1646.000000	50.252200
1645.000000	50.249300
1644.000000	50.245700
1643.000000	50.231800
1642.000000	50.220200
1641.000000	50.230900
1640.000000	50.218900
1639.000000	50.182600
1638.000000	50.179300
1637.000000	50.184200
1636.000000	50.145400
1635.000000	50.118200
1634.000000	50.101600
1633.000000	50.068200
1632.000000	50.037000
1631.000000	49.996800
1630.000000	49.945600
1629.000000	49.911600
1628.000000	49.868400
1627.000000	49.836300
1626.000000	49.788500
1625.000000	49.736900
1624.000000	49.707900
