PE UV       SUBTECH     SPECTRUM    ASCII       PEDS        4.00        
   -1
CICIMAUCR0113-6.Sample.ASC
24/04/25
11:40:20.00
24/04/25
11:40:20.00
Vinicio Soto Monge
C. kalinini
250,000000
1
Lambda 1050
1050L1511233
PerkinElmer UV WinLab 6.3.2.0749 / 2.02.05 Lambda 900 UV/VIS/NIR, Aug  7 2015 09:38:08

0
0
3350/servo 860,8/2
0
0
UV/VIS
1
1
1
DoubleDePol,CommonBeamDepol,RBeamAtt,SBeamAtt,60mm sphere, WB InGaAs Detector
0
0
0
0
Program
Program
3350/servo 860,8/2
3350/0,2 860,8/0,2
3350/0,2 860,8/0,2
0
15.00
 
 
 
0
 
860,8
319,2
860,8
Front
100
on
S:100 R:100
0
0
0
0
 
0
 
 
 
0
 
 
0
0
0
0
0
 
 
 
 
0
0


0
0
#HDR
-1
-1
#GR
nm
%R
1.0
0.0
2500,000000
-1,000000
2251
8
101,774400
5,807200
#DATA
2500.000000	7.710142
2499.000000	7.621393
2498.000000	7.548583
2497.000000	7.536146
2496.000000	7.432666
2495.000000	7.453193
2494.000000	7.447760
2493.000000	7.484950
2492.000000	7.368912
2491.000000	7.405498
2490.000000	7.355630
2489.000000	7.340295
2488.000000	7.271470
2487.000000	7.295861
2486.000000	7.318199
2485.000000	7.371206
2484.000000	7.331722
2483.000000	7.333292
2482.000000	7.344763
2481.000000	7.332447
2480.000000	7.290548
2479.000000	7.330756
2478.000000	7.283545
2477.000000	7.285235
2476.000000	7.280888
2475.000000	7.208440
2474.000000	7.283424
2473.000000	7.366014
2472.000000	7.310592
2471.000000	7.253720
2470.000000	7.255169
2469.000000	7.347178
2468.000000	7.330394
2467.000000	7.340778
2466.000000	7.299845
2465.000000	7.389318
2464.000000	7.409242
2463.000000	7.392699
2462.000000	7.397891
2461.000000	7.451503
2460.000000	7.460559
2459.000000	7.487365
2458.000000	7.542666
2457.000000	7.567178
2456.000000	7.596882
2455.000000	7.665828
2454.000000	7.699033
2453.000000	7.752041
2452.000000	7.772205
2451.000000	7.833786
2450.000000	7.882809
2449.000000	7.934247
2448.000000	7.966728
2447.000000	8.046541
2446.000000	8.104137
2445.000000	8.138308
2444.000000	8.199648
2443.000000	8.242633
2442.000000	8.286947
2441.000000	8.334763
2440.000000	8.368813
2439.000000	8.449351
2438.000000	8.469395
2437.000000	8.524214
2436.000000	8.594247
2435.000000	8.618034
2434.000000	8.677200
2433.000000	8.700504
2432.000000	8.714752
2431.000000	8.753270
2430.000000	8.798912
2429.000000	8.838758
2428.000000	8.870515
2427.000000	8.889351
2426.000000	8.931371
2425.000000	8.967112
2424.000000	9.000076
2423.000000	9.002491
2422.000000	9.018067
2421.000000	9.039077
2420.000000	9.070712
2419.000000	9.096311
2418.000000	9.105004
2417.000000	9.116958
2416.000000	9.145696
2415.000000	9.161755
2414.000000	9.195443
2413.000000	9.221162
2412.000000	9.228286
2411.000000	9.245191
2410.000000	9.255817
2409.000000	9.247606
2408.000000	9.227441
2407.000000	9.218023
2406.000000	9.221162
2405.000000	9.237946
2404.000000	9.258835
2403.000000	9.290954
2402.000000	9.306892
2401.000000	9.327178
2400.000000	9.336596
2399.000000	9.350119
2398.000000	9.359296
2397.000000	9.364005
2396.000000	9.383566
2395.000000	9.408199
2394.000000	9.434400
2393.000000	9.439110
2392.000000	9.435729
2391.000000	9.448407
2390.000000	9.463983
2389.000000	9.479077
2388.000000	9.488978
2387.000000	9.485718
2386.000000	9.490668
2385.000000	9.482458
2384.000000	9.479680
2383.000000	9.475092
2382.000000	9.489944
2381.000000	9.483061
2380.000000	9.456376
2379.000000	9.455893
2378.000000	9.449977
2377.000000	9.428122
2376.000000	9.417617
2375.000000	9.407353
2374.000000	9.391777
2373.000000	9.364005
2372.000000	9.357847
2371.000000	9.351568
2370.000000	9.306047
2369.000000	9.282984
2368.000000	9.257265
2367.000000	9.216695
2366.000000	9.172502
2365.000000	9.141832
2364.000000	9.098605
2363.000000	9.063588
2362.000000	9.029055
2361.000000	8.985828
2360.000000	8.953588
2359.000000	8.923643
2358.000000	8.884038
2357.000000	8.846245
2356.000000	8.824993
2355.000000	8.804225
2354.000000	8.788649
2353.000000	8.782732
2352.000000	8.777057
2351.000000	8.791184
2350.000000	8.801086
2349.000000	8.821371
2348.000000	8.855904
2347.000000	8.884884
2346.000000	8.908912
2345.000000	8.926058
2344.000000	8.975202
2343.000000	9.015652
2342.000000	9.022776
2341.000000	9.047408
2340.000000	9.076025
2339.000000	9.084960
2338.000000	9.099571
2337.000000	9.109955
2336.000000	9.097759
2335.000000	9.090394
2334.000000	9.099933
2333.000000	9.083994
2332.000000	9.051755
2331.000000	9.019757
2330.000000	9.010822
2329.000000	8.984982
2328.000000	8.962403
2327.000000	8.939702
2326.000000	8.909878
2325.000000	8.849626
2324.000000	8.802293
2323.000000	8.770657
2322.000000	8.711975
2321.000000	8.658122
2320.000000	8.594971
2319.000000	8.515400
2318.000000	8.444642
2317.000000	8.415904
2316.000000	8.359395
2315.000000	8.291053
2314.000000	8.233457
2313.000000	8.173687
2312.000000	8.110054
2311.000000	8.063325
2310.000000	8.033501
2309.000000	8.016838
2308.000000	8.000416
2307.000000	7.983995
2306.000000	7.971437
2305.000000	8.001865
2304.000000	8.021547
2303.000000	8.043643
2302.000000	8.113435
2301.000000	8.157024
2300.000000	8.232974
2299.000000	8.277529
2298.000000	8.317858
2297.000000	8.379318
2296.000000	8.458286
2295.000000	8.518297
2294.000000	8.554642
2293.000000	8.604631
2292.000000	8.661503
2291.000000	8.667781
2290.000000	8.706903
2289.000000	8.707628
2288.000000	8.719823
2287.000000	8.713424
2286.000000	8.720548
2285.000000	8.717771
2284.000000	8.702556
2283.000000	8.673215
2282.000000	8.637233
2281.000000	8.648824
2280.000000	8.615498
2279.000000	8.591108
2278.000000	8.575893
2277.000000	8.561162
2276.000000	8.541601
2275.000000	8.536892
2274.000000	8.531700
2273.000000	8.526991
2272.000000	8.530855
2271.000000	8.559834
2270.000000	8.574082
2269.000000	8.616344
2268.000000	8.640855
2267.000000	8.713786
2266.000000	8.779834
2265.000000	8.855904
2264.000000	8.971579
2263.000000	9.066728
2262.000000	9.201722
2261.000000	9.337441
2260.000000	9.489461
2259.000000	9.659713
2258.000000	9.825136
2257.000000	10.021228
2256.000000	10.176508
2255.000000	10.362216
2254.000000	10.514236
2253.000000	10.691250
2252.000000	10.905454
2251.000000	11.037792
2250.000000	11.209252
2249.000000	11.383368
2248.000000	11.498198
2247.000000	11.651063
2246.000000	11.747660
2245.000000	11.896903
2244.000000	12.021996
2243.000000	12.095651
2242.000000	12.186694
2241.000000	12.307682
2240.000000	12.393654
2239.000000	12.482765
2238.000000	12.531305
2237.000000	12.608462
2236.000000	12.653983
2235.000000	12.743215
2234.000000	12.769779
2233.000000	12.822303
2232.000000	12.857199
2231.000000	12.904652
2230.000000	12.904411
2229.000000	12.962611
2228.000000	12.974444
2227.000000	12.998593
2226.000000	12.995333
2225.000000	12.962369
2224.000000	12.983138
2223.000000	12.986881
2222.000000	12.986277
2221.000000	12.945586
2220.000000	12.956453
2219.000000	12.923247
2218.000000	12.921436
2217.000000	12.889076
2216.000000	12.869757
2215.000000	12.846090
2214.000000	12.828220
2213.000000	12.831601
2212.000000	12.785717
2211.000000	12.772677
2210.000000	12.738868
2209.000000	12.741283
2208.000000	12.722929
2207.000000	12.727035
2206.000000	12.703247
2205.000000	12.680064
2204.000000	12.667627
2203.000000	12.673182
2202.000000	12.644202
2201.000000	12.609065
2200.000000	12.634543
2199.000000	12.628385
2198.000000	12.632128
2197.000000	12.628988
2196.000000	12.607254
2195.000000	12.628988
2194.000000	12.623555
2193.000000	12.603632
2192.000000	12.585037
2191.000000	12.596749
2190.000000	12.588297
2189.000000	12.576947
2188.000000	12.579965
2187.000000	12.577188
2186.000000	12.554971
2185.000000	12.523698
2184.000000	12.525388
2183.000000	12.515487
2182.000000	12.490372
2181.000000	12.488681
2180.000000	12.488440
2179.000000	12.499910
2178.000000	12.485059
2177.000000	12.457046
2176.000000	12.454751
2175.000000	12.462358
2174.000000	12.481074
2173.000000	12.480350
2172.000000	12.464653
2171.000000	12.476003
2170.000000	12.491217
2169.000000	12.505586
2168.000000	12.503774
2167.000000	12.516815
2166.000000	12.532271
2165.000000	12.553643
2164.000000	12.563665
2163.000000	12.565838
2162.000000	12.591557
2161.000000	12.623555
2160.000000	12.646859
2159.000000	12.666420
2158.000000	12.682721
2157.000000	12.719669
2156.000000	12.752150
2155.000000	12.794773
2154.000000	12.824839
2153.000000	12.866859
2152.000000	12.875190
2151.000000	12.913105
2150.000000	12.954159
2149.000000	12.999680
2148.000000	13.020328
2147.000000	13.062227
2146.000000	13.114268
2145.000000	13.144455
2144.000000	13.178626
2143.000000	13.206398
2142.000000	13.258439
2141.000000	13.281019
2140.000000	13.288143
2139.000000	13.300821
2138.000000	13.332699
2137.000000	13.376892
2136.000000	13.419394
2135.000000	13.412753
2134.000000	13.433522
2133.000000	13.466606
2132.000000	13.503555
2131.000000	13.522995
2130.000000	13.522391
2129.000000	13.540624
2128.000000	13.567913
2127.000000	13.551612
2126.000000	13.564290
2125.000000	13.587353
2124.000000	13.596650
2123.000000	13.591941
2122.000000	13.585179
2121.000000	13.609691
2120.000000	13.609208
2119.000000	13.606793
2118.000000	13.606793
2117.000000	13.607034
2116.000000	13.601722
2115.000000	13.582402
2114.000000	13.574433
2113.000000	13.562600
2112.000000	13.550042
2111.000000	13.558132
2110.000000	13.543763
2109.000000	13.516595
2108.000000	13.506453
2107.000000	13.501140
2106.000000	13.489910
2105.000000	13.488944
2104.000000	13.489548
2103.000000	13.466848
2102.000000	13.466123
2101.000000	13.462742
2100.000000	13.438835
2099.000000	13.438955
2098.000000	13.431590
2097.000000	13.412753
2096.000000	13.413236
2095.000000	13.417463
2094.000000	13.405871
2093.000000	13.397056
2092.000000	13.398143
2091.000000	13.390415
2090.000000	13.380273
2089.000000	13.396936
2088.000000	13.414565
2087.000000	13.407803
2086.000000	13.389208
2085.000000	13.383654
2084.000000	13.391261
2083.000000	13.378824
2082.000000	13.359866
2081.000000	13.362161
2080.000000	13.347792
2079.000000	13.328472
2078.000000	13.329438
2077.000000	13.319658
2076.000000	13.312655
2075.000000	13.296475
2074.000000	13.284521
2073.000000	13.259043
2072.000000	13.241776
2071.000000	13.214246
2070.000000	13.200481
2069.000000	13.216178
2068.000000	13.203500
2067.000000	13.178626
2066.000000	13.145662
2065.000000	13.131173
2064.000000	13.116804
2063.000000	13.119340
2062.000000	13.113302
2061.000000	13.093258
2060.000000	13.086376
2059.000000	13.095311
2058.000000	13.126826
2057.000000	13.128637
2056.000000	13.137693
2055.000000	13.170778
2054.000000	13.210865
2053.000000	13.256870
2052.000000	13.311568
2051.000000	13.400075
2050.000000	13.455498
2049.000000	13.527100
2048.000000	13.634323
2047.000000	13.715465
2046.000000	13.819427
2045.000000	13.921579
2044.000000	14.029526
2043.000000	14.138077
2042.000000	14.259669
2041.000000	14.357111
2040.000000	14.463006
2039.000000	14.583028
2038.000000	14.683368
2037.000000	14.798922
2036.000000	14.874027
2035.000000	14.979076
2034.000000	15.072775
2033.000000	15.167561
2032.000000	15.251963
2031.000000	15.317045
2030.000000	15.389251
2029.000000	15.458922
2028.000000	15.525695
2027.000000	15.582204
2026.000000	15.662501
2025.000000	15.750404
2024.000000	15.796650
2023.000000	15.830097
2022.000000	15.880689
2021.000000	15.945530
2020.000000	16.011941
2019.000000	16.048406
2018.000000	16.086924
2017.000000	16.116386
2016.000000	16.185091
2015.000000	16.212259
2014.000000	16.254279
2013.000000	16.268889
2012.000000	16.295695
2011.000000	16.315135
2010.000000	16.331315
2009.000000	16.362951
2008.000000	16.363192
2007.000000	16.378527
2006.000000	16.351238
2005.000000	16.359449
2004.000000	16.367056
2003.000000	16.338801
2002.000000	16.332402
2001.000000	16.320448
2000.000000	16.313082
1999.000000	16.278066
1998.000000	16.274443
1997.000000	16.251864
1996.000000	16.194389
1995.000000	16.163115
1994.000000	16.114092
1993.000000	16.070261
1992.000000	16.022204
1991.000000	15.986584
1990.000000	15.955794
1989.000000	15.908944
1988.000000	15.859921
1987.000000	15.809087
1986.000000	15.740865
1985.000000	15.699691
1984.000000	15.636299
1983.000000	15.601282
1982.000000	15.541633
1981.000000	15.495629
1980.000000	15.413884
1979.000000	15.367276
1978.000000	15.297726
1977.000000	15.261985
1976.000000	15.182413
1975.000000	15.144619
1974.000000	15.100788
1973.000000	15.045124
1972.000000	14.986079
1971.000000	14.944542
1970.000000	14.908922
1969.000000	14.872578
1968.000000	14.820657
1967.000000	14.769581
1966.000000	14.715486
1965.000000	14.663928
1964.000000	14.653423
1963.000000	14.598604
1962.000000	14.556222
1961.000000	14.498988
1960.000000	14.478824
1959.000000	14.413862
1958.000000	14.379691
1957.000000	14.334290
1956.000000	14.281524
1955.000000	14.239746
1954.000000	14.213181
1953.000000	14.163072
1952.000000	14.134817
1951.000000	14.107166
1950.000000	14.051985
1949.000000	14.021195
1948.000000	13.977001
1947.000000	13.948988
1946.000000	13.946090
1945.000000	13.920371
1944.000000	13.923269
1943.000000	13.928341
1942.000000	13.915421
1941.000000	13.911678
1940.000000	13.942106
1939.000000	13.931842
1938.000000	13.927978
1937.000000	13.956716
1936.000000	13.974224
1935.000000	14.049329
1934.000000	14.074685
1933.000000	14.127331
1932.000000	14.209076
1931.000000	14.263291
1930.000000	14.308692
1929.000000	14.393214
1928.000000	14.473028
1927.000000	14.555135
1926.000000	14.657407
1925.000000	14.782621
1924.000000	14.888999
1923.000000	14.999965
1922.000000	15.129767
1921.000000	15.282029
1920.000000	15.404466
1919.000000	15.556244
1918.000000	15.732775
1917.000000	15.874894
1916.000000	16.038505
1915.000000	16.226507
1914.000000	16.405453
1913.000000	16.600459
1912.000000	16.803313
1911.000000	16.978154
1910.000000	17.195376
1909.000000	17.420206
1908.000000	17.630909
1907.000000	17.872039
1906.000000	18.092160
1905.000000	18.320250
1904.000000	18.576715
1903.000000	18.814827
1902.000000	19.061391
1901.000000	19.320513
1900.000000	19.571304
1899.000000	19.812796
1898.000000	20.049339
1897.000000	20.349031
1896.000000	20.604893
1895.000000	20.878746
1894.000000	21.122533
1893.000000	21.394454
1892.000000	21.686056
1891.000000	21.946023
1890.000000	22.216495
1889.000000	22.497231
1888.000000	22.795716
1887.000000	23.118592
1886.000000	23.494717
1885.000000	23.894991
1884.000000	24.307823
1883.000000	24.748427
1882.000000	25.216923
1881.000000	25.695562
1880.000000	26.149448
1879.000000	26.591621
1878.000000	27.030896
1877.000000	27.396154
1876.000000	27.754771
1875.000000	28.102159
1874.000000	28.412356
1873.000000	28.685485
1872.000000	28.924804
1871.000000	29.108580
1870.000000	29.256253
1869.000000	29.414672
1868.000000	29.531796
1867.000000	29.602312
1866.000000	29.673794
1865.000000	29.745397
1864.000000	29.819052
1863.000000	29.895967
1862.000000	29.932191
1861.000000	29.957065
1860.000000	29.953805
1859.000000	29.901039
1858.000000	29.871214
1857.000000	29.844167
1856.000000	29.800940
1855.000000	29.743585
1854.000000	29.652422
1853.000000	29.553893
1852.000000	29.483135
1851.000000	29.462005
1850.000000	29.452707
1849.000000	29.364200
1848.000000	29.193223
1847.000000	29.034804
1846.000000	28.914661
1845.000000	28.872400
1844.000000	28.874090
1843.000000	28.902345
1842.000000	28.871313
1841.000000	28.764573
1840.000000	28.681258
1839.000000	28.625111
1838.000000	28.556165
1837.000000	28.470435
1836.000000	28.374321
1835.000000	28.267823
1834.000000	28.168207
1833.000000	28.092499
1832.000000	28.048789
1831.000000	27.965111
1830.000000	27.859096
1829.000000	27.746319
1828.000000	27.633783
1827.000000	27.549502
1826.000000	27.462565
1825.000000	27.401105
1824.000000	27.390600
1823.000000	27.417285
1822.000000	27.400622
1821.000000	27.337109
1820.000000	27.279030
1819.000000	27.254640
1818.000000	27.253191
1817.000000	27.259832
1816.000000	27.266714
1815.000000	27.258503
1814.000000	27.243289
1813.000000	27.239788
1812.000000	27.235441
1811.000000	27.185090
1810.000000	27.132203
1809.000000	27.115781
1808.000000	27.093202
1807.000000	27.059030
1806.000000	26.996121
1805.000000	26.948306
1804.000000	26.903630
1803.000000	26.855210
1802.000000	26.817900
1801.000000	26.758251
1800.000000	26.710315
1799.000000	26.654892
1798.000000	26.608767
1797.000000	26.563608
1796.000000	26.532817
1795.000000	26.490798
1794.000000	26.437307
1793.000000	26.382971
1792.000000	26.317527
1791.000000	26.279250
1790.000000	26.203904
1789.000000	26.150293
1788.000000	26.081105
1787.000000	26.002499
1786.000000	25.922565
1785.000000	25.846978
1784.000000	25.755090
1783.000000	25.665254
1782.000000	25.575540
1781.000000	25.501160
1780.000000	25.434629
1779.000000	25.341413
1778.000000	25.221391
1777.000000	25.117549
1776.000000	24.999459
1775.000000	24.855046
1774.000000	24.705441
1773.000000	24.551490
1772.000000	24.410578
1771.000000	24.262785
1770.000000	24.109195
1769.000000	23.964903
1768.000000	23.828822
1767.000000	23.736089
1766.000000	23.636232
1765.000000	23.556539
1764.000000	23.515123
1763.000000	23.518625
1762.000000	23.527439
1761.000000	23.580085
1760.000000	23.632247
1759.000000	23.715441
1758.000000	23.771588
1757.000000	23.818317
1756.000000	23.841984
1755.000000	23.866737
1754.000000	23.881951
1753.000000	23.843312
1752.000000	23.804190
1751.000000	23.764706
1750.000000	23.705419
1749.000000	23.621259
1748.000000	23.522247
1747.000000	23.377231
1746.000000	23.218208
1745.000000	23.045057
1744.000000	22.842807
1743.000000	22.611940
1742.000000	22.360184
1741.000000	22.116155
1740.000000	21.851962
1739.000000	21.586561
1738.000000	21.378998
1737.000000	21.196067
1736.000000	21.080030
1735.000000	20.999854
1734.000000	20.961578
1733.000000	20.963027
1732.000000	21.018691
1731.000000	21.091863
1730.000000	21.217198
1729.000000	21.289404
1728.000000	21.406045
1727.000000	21.488274
1726.000000	21.587165
1725.000000	21.620008
1724.000000	21.659613
1723.000000	21.687868
1722.000000	21.684487
1721.000000	21.703323
1720.000000	21.701995
1719.000000	21.740875
1718.000000	21.772632
1717.000000	21.826726
1716.000000	21.883597
1715.000000	21.949767
1714.000000	22.010502
1713.000000	22.055178
1712.000000	22.102752
1711.000000	22.139821
1710.000000	22.118449
1709.000000	22.150689
1708.000000	22.113378
1707.000000	22.070754
1706.000000	22.054333
1705.000000	21.989130
1704.000000	21.914509
1703.000000	21.815859
1702.000000	21.680140
1701.000000	21.550096
1700.000000	21.392763
1699.000000	21.248713
1698.000000	21.099832
1697.000000	21.003718
1696.000000	20.957593
1695.000000	20.979448
1694.000000	21.091863
1693.000000	21.231567
1692.000000	21.381896
1691.000000	21.551062
1690.000000	21.720469
1689.000000	21.816462
1688.000000	21.867900
1687.000000	21.902675
1686.000000	21.931896
1685.000000	21.990096
1684.000000	22.149240
1683.000000	22.424904
1682.000000	22.840754
1681.000000	23.419492
1680.000000	24.002818
1679.000000	24.632873
1678.000000	25.235759
1677.000000	25.812807
1676.000000	26.336001
1675.000000	26.786143
1674.000000	27.177966
1673.000000	27.536462
1672.000000	27.819008
1671.000000	28.068712
1670.000000	28.318053
1669.000000	28.526099
1668.000000	28.734025
1667.000000	28.880852
1666.000000	29.026835
1665.000000	29.159294
1664.000000	29.251665
1663.000000	29.363717
1662.000000	29.443048
1661.000000	29.518393
1660.000000	29.570677
1659.000000	29.654112
1658.000000	29.722817
1657.000000	29.760490
1656.000000	29.783794
1655.000000	29.785847
1654.000000	29.808668
1653.000000	29.797197
1652.000000	29.785484
1651.000000	29.783070
1650.000000	29.745517
1649.000000	29.728251
1648.000000	29.692872
1647.000000	29.634672
1646.000000	29.571280
1645.000000	29.526483
1644.000000	29.481445
1643.000000	29.424090
1642.000000	29.345967
1641.000000	29.295133
1640.000000	29.216165
1639.000000	29.153377
1638.000000	29.066923
1637.000000	29.008361
1636.000000	28.912367
1635.000000	28.834727
1634.000000	28.749601
1633.000000	28.662664
1632.000000	28.587197
1631.000000	28.499414
1630.000000	28.396055
1629.000000	28.307790
1628.000000	28.205397
1627.000000	28.101434
1626.000000	28.005682
1625.000000	27.914036
1624.000000	27.801742
1623.000000	27.707801
1622.000000	27.618086
1621.000000	27.514124
1620.000000	27.407263
1619.000000	27.314892
1618.000000	27.234716
1617.000000	27.135825
1616.000000	27.035002
1615.000000	26.953377
1614.000000	26.876824
1613.000000	26.784091
