PE UV       SUBTECH     SPECTRUM    ASCII       PEDS        4.00        
   -1
CICIMAUCR0002-2.Sample.ASC
24/05/03
14:12:31.00
24/05/03
14:12:31.00
Vinicio Soto Monge
C. kalinini
250,000000
1
Lambda 1050
1050L1511233
PerkinElmer UV WinLab 6.3.2.0749 / 2.02.05 Lambda 900 UV/VIS/NIR, Aug  7 2015 09:38:08

0
0
3350/servo 860,8/2
0
0
UV/VIS
1
1
1
DoubleDePol,CommonBeamDepol,RBeamAtt,SBeamAtt,60mm sphere, WB InGaAs Detector
0
0
0
0
Program
Program
3350/servo 860,8/2
3350/0,2 860,8/0,2
3350/0,2 860,8/0,2
0
15.00
 
 
 
0
 
860,8
319,2
860,8
Front
100
on
S:100 R:100
0
0
0
0
 
0
 
 
 
0
 
 
0
0
0
0
0
 
 
 
 
0
0


0
0
#HDR
-1
-1
#GR
nm
%R
1.0
0.0
2500,000000
-1,000000
2251
8
99,661500
5,320700
#DATA
2500.000000	8.519682
2499.000000	8.337518
2498.000000	8.519891
2497.000000	8.420652
2496.000000	8.471370
2495.000000	8.386562
2494.000000	8.374118
2493.000000	8.170725
2492.000000	8.339714
2491.000000	8.266409
2490.000000	8.131302
2489.000000	8.230018
2488.000000	8.203979
2487.000000	8.174595
2486.000000	8.205443
2485.000000	8.171457
2484.000000	8.215482
2483.000000	8.110074
2482.000000	8.116139
2481.000000	8.152530
2480.000000	8.118021
2479.000000	8.189758
2478.000000	8.140504
2477.000000	8.169575
2476.000000	8.166961
2475.000000	8.142073
2474.000000	8.146360
2473.000000	8.177000
2472.000000	8.178046
2471.000000	8.147197
2470.000000	8.160373
2469.000000	8.234933
2468.000000	8.233364
2467.000000	8.223953
2466.000000	8.271219
2465.000000	8.240057
2464.000000	8.274670
2463.000000	8.333126
2462.000000	8.362719
2461.000000	8.426508
2460.000000	8.490297
2459.000000	8.505774
2458.000000	8.552727
2457.000000	8.604071
2456.000000	8.679782
2455.000000	8.738342
2454.000000	8.802131
2453.000000	8.916428
2452.000000	8.941734
2451.000000	9.026437
2450.000000	9.109781
2449.000000	9.170851
2448.000000	9.226797
2447.000000	9.335029
2446.000000	9.392125
2445.000000	9.489168
2444.000000	9.566760
2443.000000	9.679803
2442.000000	9.723618
2441.000000	9.800269
2440.000000	9.882358
2439.000000	9.946147
2438.000000	10.021648
2437.000000	10.103737
2436.000000	10.163970
2435.000000	10.233093
2434.000000	10.298868
2433.000000	10.358997
2432.000000	10.417348
2431.000000	10.490862
2430.000000	10.545553
2429.000000	10.589369
2428.000000	10.626701
2427.000000	10.680033
2426.000000	10.720084
2425.000000	10.763167
2424.000000	10.795271
2423.000000	10.833126
2422.000000	10.865648
2421.000000	10.897752
2420.000000	10.943868
2419.000000	10.971893
2418.000000	10.979318
2417.000000	11.019264
2416.000000	11.054505
2415.000000	11.075315
2414.000000	11.087654
2413.000000	11.123418
2412.000000	11.136385
2411.000000	11.161273
2410.000000	11.198082
2409.000000	11.229976
2408.000000	11.244930
2407.000000	11.263544
2406.000000	11.278812
2405.000000	11.300353
2404.000000	11.328379
2403.000000	11.359855
2402.000000	11.388821
2401.000000	11.406808
2400.000000	11.434415
2399.000000	11.472060
2398.000000	11.511693
2397.000000	11.573495
2396.000000	11.610409
2395.000000	11.616265
2394.000000	11.638225
2393.000000	11.669388
2392.000000	11.686328
2391.000000	11.707661
2390.000000	11.704105
2389.000000	11.727425
2388.000000	11.760783
2387.000000	11.742274
2386.000000	11.731399
2385.000000	11.739764
2384.000000	11.739346
2383.000000	11.733281
2382.000000	11.728471
2381.000000	11.713831
2380.000000	11.687897
2379.000000	11.675244
2378.000000	11.650983
2377.000000	11.623481
2376.000000	11.600475
2375.000000	11.576946
2374.000000	11.549444
2373.000000	11.519536
2372.000000	11.473943
2371.000000	11.433160
2370.000000	11.401893
2369.000000	11.344483
2368.000000	11.279753
2367.000000	11.225271
2366.000000	11.170998
2365.000000	11.105431
2364.000000	11.035891
2363.000000	10.977435
2362.000000	10.910718
2361.000000	10.833754
2360.000000	10.760971
2359.000000	10.693627
2358.000000	10.639877
2357.000000	10.598990
2356.000000	10.567827
2355.000000	10.534260
2354.000000	10.497973
2353.000000	10.483438
2352.000000	10.494627
2351.000000	10.501006
2350.000000	10.509894
2349.000000	10.522652
2348.000000	10.565108
2347.000000	10.589996
2346.000000	10.617290
2345.000000	10.661210
2344.000000	10.703457
2343.000000	10.733887
2342.000000	10.764945
2341.000000	10.801127
2340.000000	10.833544
2339.000000	10.849962
2338.000000	10.837727
2337.000000	10.819950
2336.000000	10.808656
2335.000000	10.793598
2334.000000	10.762435
2333.000000	10.741312
2332.000000	10.716528
2331.000000	10.651903
2330.000000	10.585291
2329.000000	10.532900
2328.000000	10.471935
2327.000000	10.398944
2326.000000	10.319469
2325.000000	10.223367
2324.000000	10.132285
2323.000000	10.038589
2322.000000	9.940814
2321.000000	9.843353
2320.000000	9.735226
2319.000000	9.613504
2318.000000	9.494710
2317.000000	9.377485
2316.000000	9.253672
2315.000000	9.152237
2314.000000	9.051639
2313.000000	8.956479
2312.000000	8.868325
2311.000000	8.795438
2310.000000	8.727048
2309.000000	8.690448
2308.000000	8.658135
2307.000000	8.640881
2306.000000	8.650292
2305.000000	8.652279
2304.000000	8.686997
2303.000000	8.734995
2302.000000	8.808823
2301.000000	8.864246
2300.000000	8.940375
2299.000000	9.037940
2298.000000	9.123689
2297.000000	9.206406
2296.000000	9.299370
2295.000000	9.348728
2294.000000	9.416281
2293.000000	9.492723
2292.000000	9.549611
2291.000000	9.584328
2290.000000	9.602419
2289.000000	9.624798
2288.000000	9.615177
2287.000000	9.621556
2286.000000	9.606393
2285.000000	9.588407
2284.000000	9.563832
2283.000000	9.518866
2282.000000	9.490841
2281.000000	9.456123
2280.000000	9.422974
2279.000000	9.375708
2278.000000	9.325095
2277.000000	9.298011
2276.000000	9.285567
2275.000000	9.271554
2274.000000	9.260783
2273.000000	9.261829
2272.000000	9.267057
2271.000000	9.302403
2270.000000	9.331892
2269.000000	9.391916
2268.000000	9.469195
2267.000000	9.549297
2266.000000	9.673947
2265.000000	9.792427
2264.000000	9.944683
2263.000000	10.137514
2262.000000	10.327730
2261.000000	10.531854
2260.000000	10.757730
2259.000000	10.984651
2258.000000	11.243885
2257.000000	11.498726
2256.000000	11.742483
2255.000000	12.036226
2254.000000	12.271408
2253.000000	12.536812
2252.000000	12.778895
2251.000000	13.014496
2250.000000	13.225313
2249.000000	13.446273
2248.000000	13.646947
2247.000000	13.841241
2246.000000	14.031039
2245.000000	14.181937
2244.000000	14.333148
2243.000000	14.469091
2242.000000	14.601061
2241.000000	14.716613
2240.000000	14.839171
2239.000000	14.933077
2238.000000	15.028864
2237.000000	15.090771
2236.000000	15.169200
2235.000000	15.238008
2234.000000	15.279314
2233.000000	15.329195
2232.000000	15.379599
2231.000000	15.411911
2230.000000	15.451440
2229.000000	15.450080
2228.000000	15.458446
2227.000000	15.437636
2226.000000	15.434708
2225.000000	15.415885
2224.000000	15.417767
2223.000000	15.370187
2222.000000	15.341221
2221.000000	15.319052
2220.000000	15.268752
2219.000000	15.247629
2218.000000	15.215734
2217.000000	15.171291
2216.000000	15.124966
2215.000000	15.090562
2214.000000	15.055112
2213.000000	15.008996
2212.000000	14.957546
2211.000000	14.912371
2210.000000	14.884974
2209.000000	14.869288
2208.000000	14.823904
2207.000000	14.793369
2206.000000	14.783225
2205.000000	14.753945
2204.000000	14.730835
2203.000000	14.693607
2202.000000	14.694444
2201.000000	14.674784
2200.000000	14.646027
2199.000000	14.634628
2198.000000	14.606812
2197.000000	14.611413
2196.000000	14.582447
2195.000000	14.571676
2194.000000	14.564042
2193.000000	14.546579
2192.000000	14.526187
2191.000000	14.516567
2190.000000	14.499103
2189.000000	14.481640
2188.000000	14.462921
2187.000000	14.453614
2186.000000	14.441589
2185.000000	14.442530
2184.000000	14.403838
2183.000000	14.385643
2182.000000	14.377172
2181.000000	14.348624
2180.000000	14.356781
2179.000000	14.343500
2178.000000	14.326246
2177.000000	14.317776
2176.000000	14.315684
2175.000000	14.326350
2174.000000	14.329801
2173.000000	14.344232
2172.000000	14.366611
2171.000000	14.370271
2170.000000	14.366401
2169.000000	14.400178
2168.000000	14.436883
2167.000000	14.450268
2166.000000	14.483104
2165.000000	14.513639
2164.000000	14.531311
2163.000000	14.555258
2162.000000	14.589976
2161.000000	14.635151
2160.000000	14.677607
2159.000000	14.720900
2158.000000	14.763252
2157.000000	14.813133
2156.000000	14.868660
2155.000000	14.910280
2154.000000	14.974696
2153.000000	15.033256
2152.000000	15.104261
2151.000000	15.156965
2150.000000	15.202349
2149.000000	15.257772
2148.000000	15.326058
2147.000000	15.395494
2146.000000	15.463152
2145.000000	15.517634
2144.000000	15.561031
2143.000000	15.618232
2142.000000	15.654414
2141.000000	15.705654
2140.000000	15.745182
2139.000000	15.776867
2138.000000	15.833964
2137.000000	15.887923
2136.000000	15.923582
2135.000000	15.960391
2134.000000	15.983501
2133.000000	16.002429
2132.000000	16.026271
2131.000000	16.050114
2130.000000	16.069250
2129.000000	16.080335
2128.000000	16.098844
2127.000000	16.109197
2126.000000	16.106478
2125.000000	16.117458
2124.000000	16.117249
2123.000000	16.114739
2122.000000	16.101981
2121.000000	16.080126
2120.000000	16.073433
2119.000000	16.065381
2118.000000	16.041643
2117.000000	16.016442
2116.000000	15.994900
2115.000000	15.972521
2114.000000	15.935712
2113.000000	15.902667
2112.000000	15.882485
2111.000000	15.852996
2110.000000	15.812526
2109.000000	15.775090
2108.000000	15.744136
2107.000000	15.718725
2106.000000	15.696033
2105.000000	15.663616
2104.000000	15.633290
2103.000000	15.601500
2102.000000	15.580063
2101.000000	15.544195
2100.000000	15.496615
2099.000000	15.471831
2098.000000	15.446525
2097.000000	15.438159
2096.000000	15.426656
2095.000000	15.394657
2094.000000	15.373847
2093.000000	15.372279
2092.000000	15.346868
2091.000000	15.324071
2090.000000	15.326790
2089.000000	15.306398
2088.000000	15.285902
2087.000000	15.278373
2086.000000	15.262792
2085.000000	15.240413
2084.000000	15.209042
2083.000000	15.185618
2082.000000	15.173801
2081.000000	15.137828
2080.000000	15.098509
2079.000000	15.065674
2078.000000	15.037544
2077.000000	14.985781
2076.000000	14.936946
2075.000000	14.906934
2074.000000	14.862804
2073.000000	14.813446
2072.000000	14.763356
2071.000000	14.710443
2070.000000	14.658680
2069.000000	14.602002
2068.000000	14.531625
2067.000000	14.482058
2066.000000	14.430609
2065.000000	14.387107
2064.000000	14.337644
2063.000000	14.296547
2062.000000	14.245516
2061.000000	14.211844
2060.000000	14.183087
2059.000000	14.148892
2058.000000	14.137180
2057.000000	14.155585
2056.000000	14.165519
2055.000000	14.188211
2054.000000	14.228785
2053.000000	14.284417
2052.000000	14.334612
2051.000000	14.422243
2050.000000	14.521795
2049.000000	14.644354
2048.000000	14.774127
2047.000000	14.900868
2046.000000	15.049570
2045.000000	15.197748
2044.000000	15.371024
2043.000000	15.532378
2042.000000	15.696451
2041.000000	15.861152
2040.000000	16.027003
2039.000000	16.191809
2038.000000	16.354836
2037.000000	16.512531
2036.000000	16.659245
2035.000000	16.804182
2034.000000	16.954347
2033.000000	17.083911
2032.000000	17.219960
2031.000000	17.347746
2030.000000	17.449599
2029.000000	17.551662
2028.000000	17.660312
2027.000000	17.780988
2026.000000	17.872697
2025.000000	17.972877
2024.000000	18.071175
2023.000000	18.165290
2022.000000	18.251875
2021.000000	18.353101
2020.000000	18.422536
2019.000000	18.480992
2018.000000	18.577303
2017.000000	18.641405
2016.000000	18.696201
2015.000000	18.763127
2014.000000	18.793453
2013.000000	18.838314
2012.000000	18.906286
2011.000000	18.931697
2010.000000	18.978441
2009.000000	19.022361
2008.000000	19.034909
2007.000000	19.042648
2006.000000	19.055719
2005.000000	19.057288
2004.000000	19.065444
2003.000000	19.059484
2002.000000	19.039301
2001.000000	19.029576
2000.000000	18.999146
1999.000000	18.992976
1998.000000	18.943514
1997.000000	18.933370
1996.000000	18.879725
1995.000000	18.843229
1994.000000	18.791675
1993.000000	18.757062
1992.000000	18.683025
1991.000000	18.635236
1990.000000	18.562244
1989.000000	18.495214
1988.000000	18.429020
1987.000000	18.339193
1986.000000	18.271430
1985.000000	18.197707
1984.000000	18.102965
1983.000000	18.029032
1982.000000	17.969635
1981.000000	17.886501
1980.000000	17.796569
1979.000000	17.715839
1978.000000	17.620993
1977.000000	17.555426
1976.000000	17.464344
1975.000000	17.411431
1974.000000	17.331119
1973.000000	17.241815
1972.000000	17.165268
1971.000000	17.117270
1970.000000	16.991574
1969.000000	16.937929
1968.000000	16.860128
1967.000000	16.790587
1966.000000	16.731086
1965.000000	16.659663
1964.000000	16.593678
1963.000000	16.504792
1962.000000	16.430755
1961.000000	16.368744
1960.000000	16.283832
1959.000000	16.208122
1958.000000	16.141719
1957.000000	16.077302
1956.000000	16.003684
1955.000000	15.932679
1954.000000	15.839506
1953.000000	15.783246
1952.000000	15.702308
1951.000000	15.638310
1950.000000	15.582782
1949.000000	15.502052
1948.000000	15.458132
1947.000000	15.388383
1946.000000	15.379703
1945.000000	15.336097
1944.000000	15.308385
1943.000000	15.277536
1942.000000	15.257459
1941.000000	15.267498
1940.000000	15.231420
1939.000000	15.231211
1938.000000	15.260178
1937.000000	15.268543
1936.000000	15.289353
1935.000000	15.314555
1934.000000	15.375520
1933.000000	15.423833
1932.000000	15.510627
1931.000000	15.584873
1930.000000	15.680870
1929.000000	15.762436
1928.000000	15.873596
1927.000000	15.961332
1926.000000	16.078662
1925.000000	16.219206
1924.000000	16.355882
1923.000000	16.496949
1922.000000	16.688525
1921.000000	16.877068
1920.000000	17.054108
1919.000000	17.219123
1918.000000	17.415195
1917.000000	17.620365
1916.000000	17.821039
1915.000000	18.042104
1914.000000	18.270384
1913.000000	18.555029
1912.000000	18.799204
1911.000000	19.052164
1910.000000	19.305855
1909.000000	19.565298
1908.000000	19.829238
1907.000000	20.124967
1906.000000	20.454891
1905.000000	20.759300
1904.000000	21.106479
1903.000000	21.418312
1902.000000	21.725858
1901.000000	22.040097
1900.000000	22.412477
1899.000000	22.735709
1898.000000	23.048065
1897.000000	23.369206
1896.000000	23.664935
1895.000000	23.959828
1894.000000	24.270929
1893.000000	24.622709
1892.000000	24.973443
1891.000000	25.313197
1890.000000	25.636743
1889.000000	25.961961
1888.000000	26.299310
1887.000000	26.654123
1886.000000	27.027549
1885.000000	27.421785
1884.000000	27.862346
1883.000000	28.326646
1882.000000	28.762711
1881.000000	29.226801
1880.000000	29.654604
1879.000000	30.061180
1878.000000	30.465873
1877.000000	30.832084
1876.000000	31.174871
1875.000000	31.505945
1874.000000	31.804603
1873.000000	32.076489
1872.000000	32.329135
1871.000000	32.520920
1870.000000	32.674745
1869.000000	32.824806
1868.000000	32.909614
1867.000000	32.969324
1866.000000	33.012513
1865.000000	33.058838
1864.000000	33.097111
1863.000000	33.141136
1862.000000	33.197396
1861.000000	33.230336
1860.000000	33.238806
1859.000000	33.234100
1858.000000	33.226885
1857.000000	33.194886
1856.000000	33.150547
1855.000000	33.110810
1854.000000	33.043989
1853.000000	32.958031
1852.000000	32.900412
1851.000000	32.854714
1850.000000	32.801382
1849.000000	32.756207
1848.000000	32.681124
1847.000000	32.576657
1846.000000	32.485156
1845.000000	32.416034
1844.000000	32.359566
1843.000000	32.349631
1842.000000	32.334468
1841.000000	32.286156
1840.000000	32.245791
1839.000000	32.194028
1838.000000	32.120201
1837.000000	32.039366
1836.000000	31.968571
1835.000000	31.883031
1834.000000	31.778460
1833.000000	31.695429
1832.000000	31.614073
1831.000000	31.544951
1830.000000	31.475515
1829.000000	31.390080
1828.000000	31.295547
1827.000000	31.228516
1826.000000	31.174871
1825.000000	31.101043
1824.000000	31.077096
1823.000000	31.096128
1822.000000	31.096023
1821.000000	31.074586
1820.000000	31.043215
1819.000000	31.007869
1818.000000	30.987582
1817.000000	31.000445
1816.000000	30.997621
1815.000000	30.973047
1814.000000	30.962380
1813.000000	30.947218
1812.000000	30.943348
1811.000000	30.925257
1810.000000	30.862723
1809.000000	30.814830
1808.000000	30.787118
1807.000000	30.732636
1806.000000	30.672507
1805.000000	30.623254
1804.000000	30.579856
1803.000000	30.549426
1802.000000	30.499545
1801.000000	30.447782
1800.000000	30.382529
1799.000000	30.319577
1798.000000	30.276912
1797.000000	30.242507
1796.000000	30.195973
1795.000000	30.133857
1794.000000	30.075402
1793.000000	30.019456
1792.000000	29.967588
1791.000000	29.922099
1790.000000	29.849108
1789.000000	29.784796
1788.000000	29.722262
1787.000000	29.651258
1786.000000	29.582136
1785.000000	29.514060
1784.000000	29.420468
1783.000000	29.338379
1782.000000	29.232657
1781.000000	29.162071
1780.000000	29.070884
1779.000000	28.968403
1778.000000	28.837689
1777.000000	28.722346
1776.000000	28.588180
1775.000000	28.449622
1774.000000	28.304476
1773.000000	28.156507
1772.000000	27.995153
1771.000000	27.849484
1770.000000	27.686770
1769.000000	27.531586
1768.000000	27.399198
1767.000000	27.288142
1766.000000	27.187126
1765.000000	27.120513
1764.000000	27.088619
1763.000000	27.076907
1762.000000	27.104932
1761.000000	27.144670
1760.000000	27.211282
1759.000000	27.267437
1758.000000	27.335513
1757.000000	27.410073
1756.000000	27.470725
1755.000000	27.468529
1754.000000	27.504397
1753.000000	27.480241
1752.000000	27.447301
1751.000000	27.402648
1750.000000	27.342101
1749.000000	27.257293
1748.000000	27.165688
1747.000000	27.025771
1746.000000	26.867449
1745.000000	26.686749
1744.000000	26.477292
1743.000000	26.250266
1742.000000	25.989464
1741.000000	25.722283
1740.000000	25.456774
1739.000000	25.186874
1738.000000	24.952842
1737.000000	24.741503
1736.000000	24.607337
1735.000000	24.523470
1734.000000	24.467629
1733.000000	24.461250
1732.000000	24.503079
1731.000000	24.577429
1730.000000	24.686184
1729.000000	24.796717
1728.000000	24.884766
1727.000000	24.968424
1726.000000	25.067453
1725.000000	25.136262
1724.000000	25.166065
1723.000000	25.212076
1722.000000	25.245330
1721.000000	25.299289
1720.000000	25.378555
1719.000000	25.474865
1718.000000	25.570235
1717.000000	25.679826
1716.000000	25.803012
1715.000000	25.906956
1714.000000	26.009855
1713.000000	26.133459
1712.000000	26.212725
1711.000000	26.284461
1710.000000	26.320643
1709.000000	26.346263
1708.000000	26.361635
1707.000000	26.359648
1706.000000	26.360067
1705.000000	26.302238
1704.000000	26.253612
1703.000000	26.185118
1702.000000	26.083578
1701.000000	25.959452
1700.000000	25.777496
1699.000000	25.634756
1698.000000	25.497348
1697.000000	25.414737
1696.000000	25.347392
1695.000000	25.364333
1694.000000	25.410031
1693.000000	25.536772
1692.000000	25.666441
1691.000000	25.824972
1690.000000	25.976392
1689.000000	26.032443
1688.000000	26.062246
1687.000000	26.100414
1686.000000	26.151550
1685.000000	26.235312
1684.000000	26.399490
1683.000000	26.727428
1682.000000	27.152094
1681.000000	27.692522
1680.000000	28.284399
1679.000000	28.879622
1678.000000	29.468989
1677.000000	29.954726
1676.000000	30.430528
1675.000000	30.823823
1674.000000	31.199968
1673.000000	31.503331
1672.000000	31.798851
1671.000000	32.046896
1670.000000	32.285738
1669.000000	32.471039
1668.000000	32.660105
1667.000000	32.818323
1666.000000	32.942345
1665.000000	33.068772
1664.000000	33.198128
1663.000000	33.288792
1662.000000	33.391167
1661.000000	33.489988
1660.000000	33.553777
1659.000000	33.615474
1658.000000	33.671525
1657.000000	33.683655
1656.000000	33.707811
1655.000000	33.743052
1654.000000	33.747235
1653.000000	33.733118
1652.000000	33.733327
1651.000000	33.718477
1650.000000	33.684596
1649.000000	33.659917
1648.000000	33.616206
1647.000000	33.568731
1646.000000	33.515713
1645.000000	33.476707
1644.000000	33.408004
1643.000000	33.377259
1642.000000	33.316503
1641.000000	33.255015
1640.000000	33.206180
1639.000000	33.134339
1638.000000	33.067622
1637.000000	32.997036
1636.000000	32.930110
1635.000000	32.864648
1634.000000	32.786742
1633.000000	32.711659
1632.000000	32.628002
1631.000000	32.531168
1630.000000	32.445001
1629.000000	32.356115
1628.000000	32.285006
1627.000000	32.203754
1626.000000	32.109848
1625.000000	32.013119
1624.000000	31.932180
1623.000000	31.842353
1622.000000	31.758800
1621.000000	31.693338
1620.000000	31.598178
1619.000000	31.521631
