PE UV       SUBTECH     SPECTRUM    ASCII       PEDS        4.00        
   -1
CICIMAUCR0101-3.Sample.ASC
24/04/11
14:27:02.00
24/04/11
14:27:02.00
Vinicio Soto Monge
C. resplendens
250,000000
1
Lambda 1050
1050L1511233
PerkinElmer UV WinLab 6.3.2.0749 / 2.02.05 Lambda 900 UV/VIS/NIR, Aug  7 2015 09:38:08

0
0
3350/2 860,8/2
0
0
UV/VIS
1
1
1
DoubleDePol,CommonBeamDepol,RBeamAtt,SBeamAtt,60mm sphere, WB InGaAs Detector
0
0
0
0
Program
Program
3350/2 860,8/2
3350/0,2 860,8/0,2
3350/0,2 860,8/0,2
0
15.00
 
 
 
0
 
860,8
319,2
860,8
Front
100
on
S:100 R:100
0
0
0
0
 
0
 
 
 
0
 
 
0
0
0
0
0
 
 
 
 
0
0


0
0
#HDR
-1
-1
#GR
nm
%R
1.0
0.0
2400,000000
-1,000000
2151
8
92,537900
5,932000
#DATA
2400.000000	10.135704
2399.000000	9.814603
2398.000000	11.215194
2397.000000	9.911979
2396.000000	9.963685
2395.000000	10.348162
2394.000000	10.519979
2393.000000	10.548950
2392.000000	10.516357
2391.000000	10.195357
2390.000000	10.726501
2389.000000	9.935116
2388.000000	11.202419
2387.000000	11.555107
2386.000000	9.687048
2385.000000	11.091864
2384.000000	10.166888
2383.000000	10.989659
2382.000000	11.472518
2381.000000	10.742496
2380.000000	10.110454
2379.000000	10.280863
2378.000000	9.672461
2377.000000	10.301083
2376.000000	9.953223
2375.000000	9.514828
2374.000000	10.228855
2373.000000	10.263963
2372.000000	9.787140
2371.000000	10.321001
2370.000000	10.452177
2369.000000	9.802230
2368.000000	9.450045
2367.000000	8.891438
2366.000000	9.855042
2365.000000	9.145844
2364.000000	9.469761
2363.000000	9.642484
2362.000000	9.550640
2361.000000	9.508491
2360.000000	9.447731
2359.000000	9.764406
2358.000000	9.309613
2357.000000	9.311022
2356.000000	9.535450
2355.000000	8.848685
2354.000000	8.864377
2353.000000	9.158720
2352.000000	8.804020
2351.000000	8.518128
2350.000000	9.470466
2349.000000	8.445095
2348.000000	8.638038
2347.000000	9.491389
2346.000000	9.133571
2345.000000	8.897172
2344.000000	9.760684
2343.000000	9.249759
2342.000000	9.179040
2341.000000	8.897172
2340.000000	9.364337
2339.000000	9.532432
2338.000000	8.850194
2337.000000	9.083072
2336.000000	9.207207
2335.000000	8.913468
2334.000000	9.125825
2333.000000	8.766397
2332.000000	9.168780
2331.000000	9.183265
2330.000000	8.831986
2329.000000	8.895059
2328.000000	9.305489
2327.000000	9.019395
2326.000000	8.799192
2325.000000	8.871419
2324.000000	8.706141
2323.000000	8.433225
2322.000000	8.293397
2321.000000	8.788730
2320.000000	8.739639
2319.000000	7.964550
2318.000000	7.931656
2317.000000	8.394697
2316.000000	7.827640
2315.000000	7.788408
2314.000000	7.874417
2313.000000	8.206684
2312.000000	7.633088
2311.000000	7.433808
2310.000000	7.420932
2309.000000	7.136247
2308.000000	7.336533
2307.000000	7.952881
2306.000000	7.450105
2305.000000	7.420530
2304.000000	7.489941
2303.000000	7.563878
2302.000000	7.446986
2301.000000	7.110595
2300.000000	7.909424
2299.000000	7.777946
2298.000000	7.558547
2297.000000	7.751791
2296.000000	7.676847
2295.000000	7.792331
2294.000000	7.905803
2293.000000	8.126207
2292.000000	8.269355
2291.000000	7.987486
2290.000000	7.944934
2289.000000	8.235655
2288.000000	8.305770
2287.000000	8.173990
2286.000000	7.953988
2285.000000	7.784786
2284.000000	7.640331
2283.000000	8.045832
2282.000000	7.983865
2281.000000	7.798870
2280.000000	7.490846
2279.000000	7.574843
2278.000000	8.049453
2277.000000	7.604720
2276.000000	7.166325
2275.000000	7.391156
2274.000000	7.565186
2273.000000	7.500503
2272.000000	7.417814
2271.000000	7.545972
2270.000000	7.674031
2269.000000	7.770300
2268.000000	7.603413
2267.000000	7.625041
2266.000000	7.698174
2265.000000	7.613371
2264.000000	7.509456
2263.000000	7.611460
2262.000000	7.846451
2261.000000	7.991510
2260.000000	8.200749
2259.000000	8.217649
2258.000000	8.213927
2257.000000	8.308285
2256.000000	8.499115
2255.000000	8.920711
2254.000000	8.914172
2253.000000	8.906728
2252.000000	9.132968
2251.000000	9.134476
2250.000000	9.189905
2249.000000	9.253682
2248.000000	9.621258
2247.000000	9.815810
2246.000000	9.948395
2245.000000	10.356712
2244.000000	10.103916
2243.000000	10.081986
2242.000000	10.196061
2241.000000	10.335688
2240.000000	10.323817
2239.000000	10.407915
2238.000000	10.340516
2237.000000	10.332167
2236.000000	10.752053
2235.000000	10.704370
2234.000000	10.651155
2233.000000	10.789172
2232.000000	10.765935
2231.000000	10.574401
2230.000000	10.752757
2229.000000	10.568164
2228.000000	10.615846
2227.000000	11.037844
2226.000000	10.857477
2225.000000	11.020039
2224.000000	11.040460
2223.000000	10.848524
2222.000000	10.591301
2221.000000	10.351783
2220.000000	10.626107
2219.000000	10.451775
2218.000000	10.511730
2217.000000	10.837961
2216.000000	10.808688
2215.000000	10.672381
2214.000000	10.891880
2213.000000	10.769355
2212.000000	10.545027
2211.000000	10.721170
2210.000000	10.617858
2209.000000	10.733141
2208.000000	10.688376
2207.000000	10.705980
2206.000000	10.605485
2205.000000	10.464349
2204.000000	10.707086
2203.000000	10.669262
2202.000000	10.828304
2201.000000	10.767645
2200.000000	10.558205
2199.000000	10.324723
2198.000000	10.069311
2197.000000	10.316373
2196.000000	10.509517
2195.000000	10.354197
2194.000000	10.585869
2193.000000	10.672985
2192.000000	10.591905
2191.000000	10.852346
2190.000000	10.225234
2189.000000	10.279857
2188.000000	10.447248
2187.000000	10.441917
2186.000000	10.605988
2185.000000	10.393933
2184.000000	10.330054
2183.000000	10.086915
2182.000000	9.880795
2181.000000	10.468373
2180.000000	10.523600
2179.000000	10.350878
2178.000000	9.891055
2177.000000	10.098081
2176.000000	10.108040
2175.000000	10.254909
2174.000000	10.504487
2173.000000	10.412744
2172.000000	10.274827
2171.000000	10.951634
2170.000000	10.193446
2169.000000	10.429845
2168.000000	10.561323
2167.000000	10.354901
2166.000000	10.640995
2165.000000	10.769959
2164.000000	10.258028
2163.000000	10.702358
2162.000000	10.847618
2161.000000	10.593112
2160.000000	10.606390
2159.000000	10.498652
2158.000000	10.044464
2157.000000	10.641096
2156.000000	11.019033
2155.000000	11.071242
2154.000000	10.680529
2153.000000	11.353211
2152.000000	10.789877
2151.000000	10.942581
2150.000000	10.733442
2149.000000	10.775793
2148.000000	10.685257
2147.000000	10.795912
2146.000000	11.038247
2145.000000	10.896407
2144.000000	11.519194
2143.000000	11.346170
2142.000000	11.026175
2141.000000	11.084521
2140.000000	11.389627
2139.000000	11.129889
2138.000000	11.484086
2137.000000	11.433286
2136.000000	11.116208
2135.000000	11.530662
2134.000000	11.120534
2133.000000	11.513661
2132.000000	11.038951
2131.000000	11.015412
2130.000000	11.874296
2129.000000	11.271126
2128.000000	11.102427
2127.000000	11.538307
2126.000000	11.069331
2125.000000	11.361863
2124.000000	11.712136
2123.000000	11.161175
2122.000000	11.165400
2121.000000	11.335004
2120.000000	11.284706
2119.000000	11.220526
2118.000000	11.368603
2117.000000	10.636569
2116.000000	10.965215
2115.000000	11.322530
2114.000000	11.169926
2113.000000	10.839269
2112.000000	11.202419
2111.000000	10.847518
2110.000000	10.876590
2109.000000	10.888058
2108.000000	10.798528
2107.000000	10.801747
2106.000000	10.981813
2105.000000	10.981712
2104.000000	10.929805
2103.000000	10.736158
2102.000000	10.890271
2101.000000	10.756579
2100.000000	10.495735
2099.000000	10.588685
2098.000000	10.873874
2097.000000	10.575910
2096.000000	10.393731
2095.000000	10.682440
2094.000000	10.580235
2093.000000	10.230767
2092.000000	10.335788
2091.000000	10.618864
2090.000000	10.553879
2089.000000	10.519375
2088.000000	10.529032
2087.000000	10.736460
2086.000000	10.369488
2085.000000	10.616752
2084.000000	10.402785
2083.000000	10.436987
2082.000000	10.381358
2081.000000	10.253300
2080.000000	10.428034
2079.000000	10.395844
2078.000000	10.245856
2077.000000	10.170812
2076.000000	10.250886
2075.000000	10.346854
2074.000000	10.059654
2073.000000	10.086714
2072.000000	10.014889
2071.000000	10.158137
2070.000000	10.215778
2069.000000	10.172321
2068.000000	10.061565
2067.000000	10.195860
2066.000000	10.138822
2065.000000	10.115082
2064.000000	10.069613
2063.000000	10.024546
2062.000000	9.902121
2061.000000	9.840355
2060.000000	9.924353
2059.000000	9.896186
2058.000000	9.944069
2057.000000	9.907855
2056.000000	9.987124
2055.000000	9.772856
2054.000000	9.917009
2053.000000	10.200186
2052.000000	10.251690
2051.000000	10.143550
2050.000000	10.237506
2049.000000	10.184895
2048.000000	10.296355
2047.000000	10.293538
2046.000000	10.277745
2045.000000	10.448858
2044.000000	10.539494
2043.000000	10.760000
2042.000000	10.825588
2041.000000	10.825890
2040.000000	11.044383
2039.000000	11.085527
2038.000000	11.084320
2037.000000	11.288428
2036.000000	11.369005
2035.000000	11.526236
2034.000000	11.637595
2033.000000	11.762132
2032.000000	11.876107
2031.000000	11.914434
2030.000000	11.856290
2029.000000	11.922482
2028.000000	12.046918
2027.000000	12.086352
2026.000000	12.172059
2025.000000	12.226783
2024.000000	12.407553
2023.000000	12.394778
2022.000000	12.389848
2021.000000	12.534203
2020.000000	12.633893
2019.000000	12.748572
2018.000000	12.787201
2017.000000	12.846552
2016.000000	12.942420
2015.000000	12.846351
2014.000000	12.845144
2013.000000	12.959119
2012.000000	13.037885
2011.000000	13.063436
2010.000000	13.080940
2009.000000	13.138078
2008.000000	13.218051
2007.000000	13.200548
2006.000000	13.170671
2005.000000	13.205678
2004.000000	13.173890
2003.000000	13.183447
2002.000000	13.198737
2001.000000	13.228111
2000.000000	13.191092
1999.000000	13.155783
1998.000000	13.212016
1997.000000	13.148238
1996.000000	13.138782
1995.000000	13.195920
1994.000000	13.163227
1993.000000	13.122083
1992.000000	13.080537
1991.000000	13.038086
1990.000000	12.988895
1989.000000	13.015050
1988.000000	12.974007
1987.000000	12.905199
1986.000000	12.878642
1985.000000	12.788408
1984.000000	12.752596
1983.000000	12.754910
1982.000000	12.701996
1981.000000	12.599288
1980.000000	12.541949
1979.000000	12.519516
1978.000000	12.469621
1977.000000	12.426566
1976.000000	12.363090
1975.000000	12.271850
1974.000000	12.237446
1973.000000	12.285531
1972.000000	12.218132
1971.000000	12.144597
1970.000000	12.156064
1969.000000	12.116832
1968.000000	12.051747
1967.000000	12.030018
1966.000000	12.079310
1965.000000	11.966945
1964.000000	11.854982
1963.000000	11.789394
1962.000000	11.776216
1961.000000	11.814040
1960.000000	11.729338
1959.000000	11.654897
1958.000000	11.635885
1957.000000	11.611742
1956.000000	11.607517
1955.000000	11.599570
1954.000000	11.524324
1953.000000	11.469601
1952.000000	11.411758
1951.000000	11.332489
1950.000000	11.383189
1949.000000	11.340536
1948.000000	11.218413
1947.000000	11.310760
1946.000000	11.327459
1945.000000	11.239337
1944.000000	11.176767
1943.000000	11.137132
1942.000000	11.154636
1941.000000	11.210668
1940.000000	11.234106
1939.000000	11.263782
1938.000000	11.193868
1937.000000	11.226260
1936.000000	11.190448
1935.000000	11.220828
1934.000000	11.263279
1933.000000	11.288529
1932.000000	11.348986
1931.000000	11.441534
1930.000000	11.447168
1929.000000	11.588806
1928.000000	11.783559
1927.000000	11.787281
1926.000000	11.801264
1925.000000	11.953465
1924.000000	12.110696
1923.000000	12.147614
1922.000000	12.154354
1921.000000	12.485615
1920.000000	12.520220
1919.000000	12.511871
1918.000000	12.612768
1917.000000	12.757022
1916.000000	13.011328
1915.000000	13.009919
1914.000000	13.262313
1913.000000	13.440971
1912.000000	13.565408
1911.000000	13.739337
1910.000000	13.848987
1909.000000	13.978151
1908.000000	14.188698
1907.000000	14.366551
1906.000000	14.614820
1905.000000	14.991249
1904.000000	15.013983
1903.000000	15.172019
1902.000000	15.278952
1901.000000	15.474912
1900.000000	15.851341
1899.000000	16.014305
1898.000000	16.114398
1897.000000	16.271528
1896.000000	16.449280
1895.000000	16.653791
1894.000000	16.897534
1893.000000	17.138863
1892.000000	17.326373
1891.000000	17.532493
1890.000000	17.760644
1889.000000	17.861541
1888.000000	17.909022
1887.000000	18.251248
1886.000000	18.484529
1885.000000	18.835205
1884.000000	19.268571
1883.000000	19.416849
1882.000000	19.635443
1881.000000	20.126148
1880.000000	20.533660
1879.000000	20.793498
1878.000000	21.251510
1877.000000	21.577540
1876.000000	21.861219
1875.000000	22.068547
1874.000000	22.379990
1873.000000	22.666889
1872.000000	22.796758
1871.000000	23.098444
1870.000000	23.127214
1869.000000	23.277001
1868.000000	23.432622
1867.000000	23.370253
1866.000000	23.179222
1865.000000	23.305268
1864.000000	23.394798
1863.000000	23.363010
1862.000000	23.222981
1861.000000	23.437149
1860.000000	23.525874
1859.000000	23.359187
1858.000000	23.299132
1857.000000	23.358081
1856.000000	23.261107
1855.000000	23.140593
1854.000000	23.193507
1853.000000	23.115344
1852.000000	22.846351
1851.000000	22.836996
1850.000000	22.812451
1849.000000	22.841422
1848.000000	22.891921
1847.000000	22.692843
1846.000000	22.366108
1845.000000	22.268128
1844.000000	22.273057
1843.000000	22.340356
1842.000000	22.391458
1841.000000	22.355043
1840.000000	22.203747
1839.000000	22.054162
1838.000000	22.082731
1837.000000	22.131419
1836.000000	22.023279
1835.000000	21.906186
1834.000000	21.691716
1833.000000	21.638803
1832.000000	21.599671
1831.000000	21.614961
1830.000000	21.469802
1829.000000	21.358845
1828.000000	21.295872
1827.000000	21.213384
1826.000000	21.229178
1825.000000	21.025975
1824.000000	20.942983
1823.000000	21.009276
1822.000000	21.035833
1821.000000	21.084622
1820.000000	21.011992
1819.000000	20.847719
1818.000000	20.867034
1817.000000	20.855465
1816.000000	20.889366
1815.000000	20.894194
1814.000000	20.837559
1813.000000	20.822872
1812.000000	20.882224
1811.000000	20.823778
1810.000000	20.775391
1809.000000	20.708294
1808.000000	20.667955
1807.000000	20.654475
1806.000000	20.619166
1805.000000	20.520683
1804.000000	20.446846
1803.000000	20.470989
1802.000000	20.438698
1801.000000	20.338505
1800.000000	20.289314
1799.000000	20.261449
1798.000000	20.216080
1797.000000	20.177653
1796.000000	20.114378
1795.000000	20.067802
1794.000000	20.002113
1793.000000	19.981994
1792.000000	19.911779
1791.000000	19.832610
1790.000000	19.789153
1789.000000	19.688356
1788.000000	19.644094
1787.000000	19.573174
1786.000000	19.520663
1785.000000	19.469259
1784.000000	19.386670
1783.000000	19.253783
1782.000000	19.152685
1781.000000	19.078747
1780.000000	18.984791
1779.000000	18.896669
1778.000000	18.811465
1777.000000	18.707046
1776.000000	18.611984
1775.000000	18.474771
1774.000000	18.329109
1773.000000	18.191494
1772.000000	18.051365
1771.000000	17.947349
1770.000000	17.826433
1769.000000	17.689623
1768.000000	17.548287
1767.000000	17.434513
1766.000000	17.312692
1765.000000	17.272152
1764.000000	17.219239
1763.000000	17.176284
1762.000000	17.200628
1761.000000	17.255956
1760.000000	17.295389
1759.000000	17.333415
1758.000000	17.397494
1757.000000	17.438034
1756.000000	17.469721
1755.000000	17.488432
1754.000000	17.459360
1753.000000	17.453626
1752.000000	17.465597
1751.000000	17.470426
1750.000000	17.396287
1749.000000	17.300922
1748.000000	17.243080
1747.000000	17.161296
1746.000000	17.019456
1745.000000	16.879326
1744.000000	16.729841
1743.000000	16.523520
1742.000000	16.318305
1741.000000	16.091864
1740.000000	15.839973
1739.000000	15.604379
1738.000000	15.418981
1737.000000	15.266780
1736.000000	15.125041
1735.000000	14.995172
1734.000000	14.968212
1733.000000	15.002918
1732.000000	15.047079
1731.000000	15.113472
1730.000000	15.182280
1729.000000	15.260442
1728.000000	15.361843
1727.000000	15.505594
1726.000000	15.594520
1725.000000	15.633652
1724.000000	15.687571
1723.000000	15.703465
1722.000000	15.694814
1721.000000	15.718253
1720.000000	15.738975
1719.000000	15.730626
1718.000000	15.744106
1717.000000	15.817138
1716.000000	15.874679
1715.000000	15.949522
1714.000000	16.025874
1713.000000	16.107356
1712.000000	16.165400
1711.000000	16.201916
1710.000000	16.203827
1709.000000	16.199703
1708.000000	16.195880
1707.000000	16.177471
1706.000000	16.139949
1705.000000	16.106551
1704.000000	16.080095
1703.000000	16.010583
1702.000000	15.919544
1701.000000	15.804262
1700.000000	15.686766
1699.000000	15.582147
1698.000000	15.403288
1697.000000	15.288207
1696.000000	15.221613
1695.000000	15.210849
1694.000000	15.270200
1693.000000	15.315770
1692.000000	15.476019
1691.000000	15.618361
1690.000000	15.762917
1689.000000	15.863211
1688.000000	15.895301
1687.000000	15.894999
1686.000000	15.886147
1685.000000	15.890472
1684.000000	15.978292
1683.000000	16.085527
1682.000000	16.340436
1681.000000	16.800962
1680.000000	17.288851
1679.000000	17.804906
1678.000000	18.277202
1677.000000	18.781588
1676.000000	19.226723
1675.000000	19.593192
1674.000000	19.936827
1673.000000	20.185801
1672.000000	20.444432
1671.000000	20.677612
1670.000000	20.835748
1669.000000	20.975476
1668.000000	21.092971
1667.000000	21.207348
1666.000000	21.333596
1665.000000	21.420510
1664.000000	21.500383
1663.000000	21.587499
1662.000000	21.642122
1661.000000	21.700266
1660.000000	21.740907
1659.000000	21.748452
1658.000000	21.814442
1657.000000	21.815951
1656.000000	21.831845
1655.000000	21.807602
1654.000000	21.797643
1653.000000	21.808407
1652.000000	21.813939
1651.000000	21.791205
1650.000000	21.793619
1649.000000	21.753079
1648.000000	21.699562
1647.000000	21.612950
1646.000000	21.606411
1645.000000	21.537603
1644.000000	21.480264
1643.000000	21.427854
1642.000000	21.392042
1641.000000	21.336312
1640.000000	21.249196
1639.000000	21.210165
1638.000000	21.123049
1637.000000	21.038750
1636.000000	20.987447
1635.000000	20.924574
1634.000000	20.843293
1633.000000	20.812008
1632.000000	20.718856
1631.000000	20.612628
1630.000000	20.536477
1629.000000	20.489700
1628.000000	20.419887
1627.000000	20.321907
1626.000000	20.247265
1625.000000	20.198778
1624.000000	20.066394
1623.000000	20.008350
1622.000000	19.959662
1621.000000	19.899405
1620.000000	19.830699
1619.000000	19.724872
1618.000000	19.647313
1617.000000	19.560801
1616.000000	19.529214
1615.000000	19.463424
1614.000000	19.401256
1613.000000	19.316857
1612.000000	19.266861
1611.000000	19.212338
1610.000000	19.164756
1609.000000	19.052693
1608.000000	19.038006
1607.000000	18.960748
1606.000000	18.935398
1605.000000	18.851401
1604.000000	18.782191
1603.000000	18.749800
1602.000000	18.660773
1601.000000	18.635221
1600.000000	18.569130
1599.000000	18.546798
1598.000000	18.500725
1597.000000	18.416728
1596.000000	18.400632
1595.000000	18.346512
1594.000000	18.331825
1593.000000	18.284847
1592.000000	18.240887
1591.000000	18.233745
1590.000000	18.182240
1589.000000	18.163227
1588.000000	18.145723
1587.000000	18.116953
1586.000000	18.093112
1585.000000	18.087479
1584.000000	18.057501
1583.000000	18.056395
1582.000000	18.034666
1581.000000	18.016961
1580.000000	18.032855
1579.000000	17.998653
1578.000000	18.016861
1577.000000	18.038891
1576.000000	18.044826
1575.000000	18.071182
1574.000000	18.073697
1573.000000	18.120876
1572.000000	18.115645
1571.000000	18.148540
1570.000000	18.160612
1569.000000	18.192098
1568.000000	18.232336
1567.000000	18.262716
1566.000000	18.316535
1565.000000	18.328505
1564.000000	18.326494
1563.000000	18.392987
1562.000000	18.431817
1561.000000	18.457368
1560.000000	18.477890
1559.000000	18.470949
1558.000000	18.511388
1557.000000	18.515110
1556.000000	18.549916
1555.000000	18.536034
1554.000000	18.544082
1553.000000	18.542875
1552.000000	18.545993
1551.000000	18.555851
1550.000000	18.572852
1549.000000	18.518530
1548.000000	18.540158
1547.000000	18.535129
1546.000000	18.540561
1545.000000	18.506157
1544.000000	18.488754
1543.000000	18.507465
1542.000000	18.521146
1541.000000	18.513903
1540.000000	18.499216
1539.000000	18.507063
1538.000000	18.533519
1537.000000	18.530099
1536.000000	18.495192
1535.000000	18.527685
1534.000000	18.513802
1533.000000	18.517625
1532.000000	18.526779
1531.000000	18.533318
1530.000000	18.515613
1529.000000	18.500323
1528.000000	18.515613
1527.000000	18.500323
1526.000000	18.461694
1525.000000	18.428598
1524.000000	18.454552
1523.000000	18.449421
1522.000000	18.430409
1521.000000	18.418740
1520.000000	18.403147
1519.000000	18.393490
1518.000000	18.343595
1517.000000	18.340476
