PE UV       SUBTECH     SPECTRUM    ASCII       PEDS        4.00        
   -1
CICIMAUCR0101-3.Sample.ASC
24/04/11
14:27:02.00
24/04/11
14:27:02.00
Vinicio Soto Monge
C. resplendens
250,000000
1
Lambda 1050
1050L1511233
PerkinElmer UV WinLab 6.3.2.0749 / 2.02.05 Lambda 900 UV/VIS/NIR, Aug  7 2015 09:38:08

0
0
3350/2 860,8/2
0
0
UV/VIS
1
1
1
DoubleDePol,CommonBeamDepol,RBeamAtt,SBeamAtt,60mm sphere, WB InGaAs Detector
0
0
0
0
Program
Program
3350/2 860,8/2
3350/0,2 860,8/0,2
3350/0,2 860,8/0,2
0
15.00
 
 
 
0
 
860,8
319,2
860,8
Front
100
on
S:100 R:100
0
0
0
0
 
0
 
 
 
0
 
 
0
0
0
0
0
 
 
 
 
0
0


0
0
#HDR
-1
-1
#GR
nm
%R
1.0
0.0
2400,000000
-1,000000
2151
8
92,537900
5,932000
#DATA
2400.000000	10.075700
2399.000000	9.756500
2398.000000	11.148800
2397.000000	9.853300
2396.000000	9.904700
2395.000000	10.286900
2394.000000	10.457700
2393.000000	10.486500
2392.000000	10.454100
2391.000000	10.135000
2390.000000	10.663000
2389.000000	9.876300
2388.000000	11.136100
2387.000000	11.486700
2386.000000	9.629700
2385.000000	11.026200
2384.000000	10.106700
2383.000000	10.924600
2382.000000	11.404600
2381.000000	10.678900
2380.000000	10.050600
2379.000000	10.220000
2378.000000	9.615200
2377.000000	10.240100
2376.000000	9.894300
2375.000000	9.458500
2374.000000	10.168300
2373.000000	10.203200
2372.000000	9.729200
2371.000000	10.259900
2370.000000	10.390300
2369.000000	9.744200
2368.000000	9.394100
2367.000000	8.838800
2366.000000	9.796700
2365.000000	9.091700
2364.000000	9.413700
2363.000000	9.585400
2362.000000	9.494100
2361.000000	9.452200
2360.000000	9.391800
2359.000000	9.706600
2358.000000	9.254500
2357.000000	9.255900
2356.000000	9.479000
2355.000000	8.796300
2354.000000	8.811900
2353.000000	9.104500
2352.000000	8.751900
2351.000000	8.467700
2350.000000	9.414400
2349.000000	8.395100
2348.000000	8.586900
2347.000000	9.435200
2346.000000	9.079500
2345.000000	8.844500
2344.000000	9.702900
2343.000000	9.195000
2342.000000	9.124700
2341.000000	8.844500
2340.000000	9.308900
2339.000000	9.476000
2338.000000	8.797800
2337.000000	9.029300
2336.000000	9.152700
2335.000000	8.860700
2334.000000	9.071800
2333.000000	8.714500
2332.000000	9.114500
2331.000000	9.128900
2330.000000	8.779700
2329.000000	8.842400
2328.000000	9.250400
2327.000000	8.966000
2326.000000	8.747100
2325.000000	8.818900
2324.000000	8.654600
2323.000000	8.383300
2322.000000	8.244300
2321.000000	8.736700
2320.000000	8.687900
2319.000000	7.917400
2318.000000	7.884700
2317.000000	8.345000
2316.000000	7.781300
2315.000000	7.742300
2314.000000	7.827800
2313.000000	8.158100
2312.000000	7.587900
2311.000000	7.389800
2310.000000	7.377000
2309.000000	7.094000
2308.000000	7.293100
2307.000000	7.905800
2306.000000	7.406000
2305.000000	7.376600
2304.000000	7.445600
2303.000000	7.519100
2302.000000	7.402900
2301.000000	7.068500
2300.000000	7.862600
2299.000000	7.731900
2298.000000	7.513800
2297.000000	7.705900
2296.000000	7.631400
2295.000000	7.746200
2294.000000	7.859000
2293.000000	8.078100
2292.000000	8.220400
2291.000000	7.940200
2290.000000	7.897900
2289.000000	8.186900
2288.000000	8.256600
2287.000000	8.125600
2286.000000	7.906900
2285.000000	7.738700
2284.000000	7.595100
2283.000000	7.998200
2282.000000	7.936600
2281.000000	7.752700
2280.000000	7.446500
2279.000000	7.530000
2278.000000	8.001800
2277.000000	7.559700
2276.000000	7.123900
2275.000000	7.347400
2274.000000	7.520400
2273.000000	7.456100
2272.000000	7.373900
2271.000000	7.501300
2270.000000	7.628600
2269.000000	7.724300
2268.000000	7.558400
2267.000000	7.579900
2266.000000	7.652600
2265.000000	7.568300
2264.000000	7.465000
2263.000000	7.566400
2262.000000	7.800000
2261.000000	7.944200
2260.000000	8.152200
2259.000000	8.169000
2258.000000	8.165300
2257.000000	8.259100
2256.000000	8.448800
2255.000000	8.867900
2254.000000	8.861400
2253.000000	8.854000
2252.000000	9.078900
2251.000000	9.080400
2250.000000	9.135500
2249.000000	9.198900
2248.000000	9.564300
2247.000000	9.757700
2246.000000	9.889500
2245.000000	10.295400
2244.000000	10.044100
2243.000000	10.022300
2242.000000	10.135700
2241.000000	10.274500
2240.000000	10.262700
2239.000000	10.346300
2238.000000	10.279300
2237.000000	10.271000
2236.000000	10.688400
2235.000000	10.641000
2234.000000	10.588100
2233.000000	10.725300
2232.000000	10.702200
2231.000000	10.511800
2230.000000	10.689100
2229.000000	10.505600
2228.000000	10.553000
2227.000000	10.972500
2226.000000	10.793200
2225.000000	10.954800
2224.000000	10.975100
2223.000000	10.784300
2222.000000	10.528600
2221.000000	10.290500
2220.000000	10.563200
2219.000000	10.389900
2218.000000	10.449500
2217.000000	10.773800
2216.000000	10.744700
2215.000000	10.609200
2214.000000	10.827400
2213.000000	10.705600
2212.000000	10.482600
2211.000000	10.657700
2210.000000	10.555000
2209.000000	10.669600
2208.000000	10.625100
2207.000000	10.642600
2206.000000	10.542700
2205.000000	10.402400
2204.000000	10.643700
2203.000000	10.606100
2202.000000	10.764200
2201.000000	10.703900
2200.000000	10.495700
2199.000000	10.263600
2198.000000	10.009700
2197.000000	10.255300
2196.000000	10.447300
2195.000000	10.292900
2194.000000	10.523200
2193.000000	10.609800
2192.000000	10.529200
2191.000000	10.788100
2190.000000	10.164700
2189.000000	10.219000
2188.000000	10.385400
2187.000000	10.380100
2186.000000	10.543200
2185.000000	10.332400
2184.000000	10.268900
2183.000000	10.027200
2182.000000	9.822300
2181.000000	10.406400
2180.000000	10.461300
2179.000000	10.289600
2178.000000	9.832500
2177.000000	10.038300
2176.000000	10.048200
2175.000000	10.194200
2174.000000	10.442300
2173.000000	10.351100
2172.000000	10.214000
2171.000000	10.886800
2170.000000	10.133100
2169.000000	10.368100
2168.000000	10.498800
2167.000000	10.293600
2166.000000	10.578000
2165.000000	10.706200
2164.000000	10.197300
2163.000000	10.639000
2162.000000	10.783400
2161.000000	10.530400
2160.000000	10.543600
2159.000000	10.436500
2158.000000	9.985000
2157.000000	10.578100
2156.000000	10.953800
2155.000000	11.005700
2154.000000	10.617300
2153.000000	11.286000
2152.000000	10.726000
2151.000000	10.877800
2150.000000	10.669900
2149.000000	10.712000
2148.000000	10.622000
2147.000000	10.732000
2146.000000	10.972900
2145.000000	10.831900
2144.000000	11.451000
2143.000000	11.279000
2142.000000	10.960900
2141.000000	11.018900
2140.000000	11.322200
2139.000000	11.064000
2138.000000	11.416100
2137.000000	11.365600
2136.000000	11.050400
2135.000000	11.462400
2134.000000	11.054700
2133.000000	11.445500
2132.000000	10.973600
2131.000000	10.950200
2130.000000	11.804000
2129.000000	11.204400
2128.000000	11.036700
2127.000000	11.470000
2126.000000	11.003800
2125.000000	11.294600
2124.000000	11.642800
2123.000000	11.095100
2122.000000	11.099300
2121.000000	11.267900
2120.000000	11.217900
2119.000000	11.154100
2118.000000	11.301300
2117.000000	10.573600
2116.000000	10.900300
2115.000000	11.255500
2114.000000	11.103800
2113.000000	10.775100
2112.000000	11.136100
2111.000000	10.783300
2110.000000	10.812200
2109.000000	10.823600
2108.000000	10.734600
2107.000000	10.737800
2106.000000	10.916800
2105.000000	10.916700
2104.000000	10.865100
2103.000000	10.672600
2102.000000	10.825800
2101.000000	10.692900
2100.000000	10.433600
2099.000000	10.526000
2098.000000	10.809500
2097.000000	10.513300
2096.000000	10.332200
2095.000000	10.619200
2094.000000	10.517600
2093.000000	10.170200
2092.000000	10.274600
2091.000000	10.556000
2090.000000	10.491400
2089.000000	10.457100
2088.000000	10.466700
2087.000000	10.672900
2086.000000	10.308100
2085.000000	10.553900
2084.000000	10.341200
2083.000000	10.375200
2082.000000	10.319900
2081.000000	10.192600
2080.000000	10.366300
2079.000000	10.334300
2078.000000	10.185200
2077.000000	10.110600
2076.000000	10.190200
2075.000000	10.285600
2074.000000	10.000100
2073.000000	10.027000
2072.000000	9.955600
2071.000000	10.098000
2070.000000	10.155300
2069.000000	10.112100
2068.000000	10.002000
2067.000000	10.135500
2066.000000	10.078800
2065.000000	10.055200
2064.000000	10.010000
2063.000000	9.965200
2062.000000	9.843500
2061.000000	9.782100
2060.000000	9.865600
2059.000000	9.837600
2058.000000	9.885200
2057.000000	9.849200
2056.000000	9.928000
2055.000000	9.715000
2054.000000	9.858300
2053.000000	10.139800
2052.000000	10.191000
2051.000000	10.083500
2050.000000	10.176900
2049.000000	10.124600
2048.000000	10.235400
2047.000000	10.232600
2046.000000	10.216900
2045.000000	10.387000
2044.000000	10.477100
2043.000000	10.696300
2042.000000	10.761500
2041.000000	10.761800
2040.000000	10.979000
2039.000000	11.019900
2038.000000	11.018700
2037.000000	11.221600
2036.000000	11.301700
2035.000000	11.458000
2034.000000	11.568700
2033.000000	11.692500
2032.000000	11.805800
2031.000000	11.843900
2030.000000	11.786100
2029.000000	11.851900
2028.000000	11.975600
2027.000000	12.014800
2026.000000	12.100000
2025.000000	12.154400
2024.000000	12.334100
2023.000000	12.321400
2022.000000	12.316500
2021.000000	12.460000
2020.000000	12.559100
2019.000000	12.673100
2018.000000	12.711500
2017.000000	12.770500
2016.000000	12.865800
2015.000000	12.770300
2014.000000	12.769100
2013.000000	12.882400
2012.000000	12.960700
2011.000000	12.986100
2010.000000	13.003500
2009.000000	13.060300
2008.000000	13.139800
2007.000000	13.122400
2006.000000	13.092700
2005.000000	13.127500
2004.000000	13.095900
2003.000000	13.105400
2002.000000	13.120600
2001.000000	13.149800
2000.000000	13.113000
1999.000000	13.077900
1998.000000	13.133800
1997.000000	13.070400
1996.000000	13.061000
1995.000000	13.117800
1994.000000	13.085300
1993.000000	13.044400
1992.000000	13.003100
1991.000000	12.960900
1990.000000	12.912000
1989.000000	12.938000
1988.000000	12.897200
1987.000000	12.828800
1986.000000	12.802400
1985.000000	12.712700
1984.000000	12.677100
1983.000000	12.679400
1982.000000	12.626800
1981.000000	12.524700
1980.000000	12.467700
1979.000000	12.445400
1978.000000	12.395800
1977.000000	12.353000
1976.000000	12.289900
1975.000000	12.199200
1974.000000	12.165000
1973.000000	12.212800
1972.000000	12.145800
1971.000000	12.072700
1970.000000	12.084100
1969.000000	12.045100
1968.000000	11.980400
1967.000000	11.958800
1966.000000	12.007800
1965.000000	11.896100
1964.000000	11.784800
1963.000000	11.719600
1962.000000	11.706500
1961.000000	11.744100
1960.000000	11.659900
1959.000000	11.585900
1958.000000	11.567000
1957.000000	11.543000
1956.000000	11.538800
1955.000000	11.530900
1954.000000	11.456100
1953.000000	11.401700
1952.000000	11.344200
1951.000000	11.265400
1950.000000	11.315800
1949.000000	11.273400
1948.000000	11.152000
1947.000000	11.243800
1946.000000	11.260400
1945.000000	11.172800
1944.000000	11.110600
1943.000000	11.071200
1942.000000	11.088600
1941.000000	11.144300
1940.000000	11.167600
1939.000000	11.197100
1938.000000	11.127600
1937.000000	11.159800
1936.000000	11.124200
1935.000000	11.154400
1934.000000	11.196600
1933.000000	11.221700
1932.000000	11.281800
1931.000000	11.373800
1930.000000	11.379400
1929.000000	11.520200
1928.000000	11.713800
1927.000000	11.717500
1926.000000	11.731400
1925.000000	11.882700
1924.000000	12.039000
1923.000000	12.075700
1922.000000	12.082400
1921.000000	12.411700
1920.000000	12.446100
1919.000000	12.437800
1918.000000	12.538100
1917.000000	12.681500
1916.000000	12.934300
1915.000000	12.932900
1914.000000	13.183800
1913.000000	13.361400
1912.000000	13.485100
1911.000000	13.658000
1910.000000	13.767000
1909.000000	13.895400
1908.000000	14.104700
1907.000000	14.281500
1906.000000	14.528300
1905.000000	14.902500
1904.000000	14.925100
1903.000000	15.082200
1902.000000	15.188500
1901.000000	15.383300
1900.000000	15.757500
1899.000000	15.919500
1898.000000	16.019000
1897.000000	16.175200
1896.000000	16.351900
1895.000000	16.555200
1894.000000	16.797500
1893.000000	17.037400
1892.000000	17.223800
1891.000000	17.428700
1890.000000	17.655500
1889.000000	17.755800
1888.000000	17.803000
1887.000000	18.143200
1886.000000	18.375100
1885.000000	18.723700
1884.000000	19.154500
1883.000000	19.301900
1882.000000	19.519200
1881.000000	20.007000
1880.000000	20.412100
1879.000000	20.670400
1878.000000	21.125700
1877.000000	21.449800
1876.000000	21.731800
1875.000000	21.937900
1874.000000	22.247500
1873.000000	22.532700
1872.000000	22.661800
1871.000000	22.961700
1870.000000	22.990300
1869.000000	23.139200
1868.000000	23.293900
1867.000000	23.231900
1866.000000	23.042000
1865.000000	23.167300
1864.000000	23.256300
1863.000000	23.224700
1862.000000	23.085500
1861.000000	23.298400
1860.000000	23.386600
1859.000000	23.220900
1858.000000	23.161200
1857.000000	23.219800
1856.000000	23.123400
1855.000000	23.003600
1854.000000	23.056200
1853.000000	22.978500
1852.000000	22.711100
1851.000000	22.701800
1850.000000	22.677400
1849.000000	22.706200
1848.000000	22.756400
1847.000000	22.558500
1846.000000	22.233700
1845.000000	22.136300
1844.000000	22.141200
1843.000000	22.208100
1842.000000	22.258900
1841.000000	22.222700
1840.000000	22.072300
1839.000000	21.923600
1838.000000	21.952000
1837.000000	22.000400
1836.000000	21.892900
1835.000000	21.776500
1834.000000	21.563300
1833.000000	21.510700
1832.000000	21.471800
1831.000000	21.487000
1830.000000	21.342700
1829.000000	21.232400
1828.000000	21.169800
1827.000000	21.087800
1826.000000	21.103500
1825.000000	20.901500
1824.000000	20.819000
1823.000000	20.884900
1822.000000	20.911300
1821.000000	20.959800
1820.000000	20.887600
1819.000000	20.724300
1818.000000	20.743500
1817.000000	20.732000
1816.000000	20.765700
1815.000000	20.770500
1814.000000	20.714200
1813.000000	20.699600
1812.000000	20.758600
1811.000000	20.700500
1810.000000	20.652400
1809.000000	20.585700
1808.000000	20.545600
1807.000000	20.532200
1806.000000	20.497100
1805.000000	20.399200
1804.000000	20.325800
1803.000000	20.349800
1802.000000	20.317700
1801.000000	20.218100
1800.000000	20.169200
1799.000000	20.141500
1798.000000	20.096400
1797.000000	20.058200
1796.000000	19.995300
1795.000000	19.949000
1794.000000	19.883700
1793.000000	19.863700
1792.000000	19.793900
1791.000000	19.715200
1790.000000	19.672000
1789.000000	19.571800
1788.000000	19.527800
1787.000000	19.457300
1786.000000	19.405100
1785.000000	19.354000
1784.000000	19.271900
1783.000000	19.139800
1782.000000	19.039300
1781.000000	18.965800
1780.000000	18.872400
1779.000000	18.784800
1778.000000	18.700100
1777.000000	18.596300
1776.000000	18.501800
1775.000000	18.365400
1774.000000	18.220600
1773.000000	18.083800
1772.000000	17.944500
1771.000000	17.841100
1770.000000	17.720900
1769.000000	17.584900
1768.000000	17.444400
1767.000000	17.331300
1766.000000	17.210200
1765.000000	17.169900
1764.000000	17.117300
1763.000000	17.074600
1762.000000	17.098800
1761.000000	17.153800
1760.000000	17.193000
1759.000000	17.230800
1758.000000	17.294500
1757.000000	17.334800
1756.000000	17.366300
1755.000000	17.384900
1754.000000	17.356000
1753.000000	17.350300
1752.000000	17.362200
1751.000000	17.367000
1750.000000	17.293300
1749.000000	17.198500
1748.000000	17.141000
1747.000000	17.059700
1746.000000	16.918700
1745.000000	16.779400
1744.000000	16.630800
1743.000000	16.425700
1742.000000	16.221700
1741.000000	15.996600
1740.000000	15.746200
1739.000000	15.512000
1738.000000	15.327700
1737.000000	15.176400
1736.000000	15.035500
1735.000000	14.906400
1734.000000	14.879600
1733.000000	14.914100
1732.000000	14.958000
1731.000000	15.024000
1730.000000	15.092400
1729.000000	15.170100
1728.000000	15.270900
1727.000000	15.413800
1726.000000	15.502200
1725.000000	15.541100
1724.000000	15.594700
1723.000000	15.610500
1722.000000	15.601900
1721.000000	15.625200
1720.000000	15.645800
1719.000000	15.637500
1718.000000	15.650900
1717.000000	15.723500
1716.000000	15.780700
1715.000000	15.855100
1714.000000	15.931000
1713.000000	16.012000
1712.000000	16.069700
1711.000000	16.106000
1710.000000	16.107900
1709.000000	16.103800
1708.000000	16.100000
1707.000000	16.081700
1706.000000	16.044400
1705.000000	16.011200
1704.000000	15.984900
1703.000000	15.915800
1702.000000	15.825300
1701.000000	15.710700
1700.000000	15.593900
1699.000000	15.489900
1698.000000	15.312100
1697.000000	15.197700
1696.000000	15.131500
1695.000000	15.120800
1694.000000	15.179800
1693.000000	15.225100
1692.000000	15.384400
1691.000000	15.525900
1690.000000	15.669600
1689.000000	15.769300
1688.000000	15.801200
1687.000000	15.800900
1686.000000	15.792100
1685.000000	15.796400
1684.000000	15.883700
1683.000000	15.990300
1682.000000	16.243700
1681.000000	16.701500
1680.000000	17.186500
1679.000000	17.699500
1678.000000	18.169000
1677.000000	18.670400
1676.000000	19.112900
1675.000000	19.477200
1674.000000	19.818800
1673.000000	20.066300
1672.000000	20.323400
1671.000000	20.555200
1670.000000	20.712400
1669.000000	20.851300
1668.000000	20.968100
1667.000000	21.081800
1666.000000	21.207300
1665.000000	21.293700
1664.000000	21.373100
1663.000000	21.459700
1662.000000	21.514000
1661.000000	21.571800
1660.000000	21.612200
1659.000000	21.619700
1658.000000	21.685300
1657.000000	21.686800
1656.000000	21.702600
1655.000000	21.678500
1654.000000	21.668600
1653.000000	21.679300
1652.000000	21.684800
1651.000000	21.662200
1650.000000	21.664600
1649.000000	21.624300
1648.000000	21.571100
1647.000000	21.485000
1646.000000	21.478500
1645.000000	21.410100
1644.000000	21.353100
1643.000000	21.301000
1642.000000	21.265400
1641.000000	21.210000
1640.000000	21.123400
1639.000000	21.084600
1638.000000	20.998000
1637.000000	20.914200
1636.000000	20.863200
1635.000000	20.800700
1634.000000	20.719900
1633.000000	20.688800
1632.000000	20.596200
1631.000000	20.490600
1630.000000	20.414900
1629.000000	20.368400
1628.000000	20.299000
1627.000000	20.201600
1626.000000	20.127400
1625.000000	20.079200
1624.000000	19.947600
1623.000000	19.889900
1622.000000	19.841500
1621.000000	19.781600
1620.000000	19.713300
1619.000000	19.608100
1618.000000	19.531000
1617.000000	19.445000
1616.000000	19.413600
1615.000000	19.348200
1614.000000	19.286400
1613.000000	19.202500
1612.000000	19.152800
1611.000000	19.098600
1610.000000	19.051300
1609.000000	18.939900
1608.000000	18.925300
1607.000000	18.848500
1606.000000	18.823300
1605.000000	18.739800
1604.000000	18.671000
1603.000000	18.638800
1602.000000	18.550300
1601.000000	18.524900
1600.000000	18.459200
1599.000000	18.437000
1598.000000	18.391200
1597.000000	18.307700
1596.000000	18.291700
1595.000000	18.237900
1594.000000	18.223300
1593.000000	18.176600
1592.000000	18.132900
1591.000000	18.125800
1590.000000	18.074600
1589.000000	18.055700
1588.000000	18.038300
1587.000000	18.009700
1586.000000	17.986000
1585.000000	17.980400
1584.000000	17.950600
1583.000000	17.949500
1582.000000	17.927900
1581.000000	17.910300
1580.000000	17.926100
1579.000000	17.892100
1578.000000	17.910200
1577.000000	17.932100
1576.000000	17.938000
1575.000000	17.964200
1574.000000	17.966700
1573.000000	18.013600
1572.000000	18.008400
1571.000000	18.041100
1570.000000	18.053100
1569.000000	18.084400
1568.000000	18.124400
1567.000000	18.154600
1566.000000	18.208100
1565.000000	18.220000
1564.000000	18.218000
1563.000000	18.284100
1562.000000	18.322700
1561.000000	18.348100
1560.000000	18.368500
1559.000000	18.361600
1558.000000	18.401800
1557.000000	18.405500
1556.000000	18.440100
1555.000000	18.426300
1554.000000	18.434300
1553.000000	18.433100
1552.000000	18.436200
1551.000000	18.446000
1550.000000	18.462900
1549.000000	18.408900
1548.000000	18.430400
1547.000000	18.425400
1546.000000	18.430800
1545.000000	18.396600
1544.000000	18.379300
1543.000000	18.397900
1542.000000	18.411500
1541.000000	18.404300
1540.000000	18.389700
1539.000000	18.397500
1538.000000	18.423800
1537.000000	18.420400
1536.000000	18.385700
1535.000000	18.418000
1534.000000	18.404200
1533.000000	18.408000
1532.000000	18.417100
1531.000000	18.423600
1530.000000	18.406000
1529.000000	18.390800
1528.000000	18.406000
1527.000000	18.390800
1526.000000	18.352400
1525.000000	18.319500
1524.000000	18.345300
1523.000000	18.340200
1522.000000	18.321300
1521.000000	18.309700
1520.000000	18.294200
1519.000000	18.284600
1518.000000	18.235000
1517.000000	18.231900
