PE UV       SUBTECH     SPECTRUM    ASCII       PEDS        4.00        
   -1
CICIMAUCR0019-4.Sample.ASC
24/04/25
13:38:40.00
24/04/25
13:38:40.00
Vinicio Soto Monge
C. cupreomarginata
250,000000
1
Lambda 1050
1050L1511233
PerkinElmer UV WinLab 6.3.2.0749 / 2.02.05 Lambda 900 UV/VIS/NIR, Aug  7 2015 09:38:08

0
0
3350/servo 860,8/2
0
0
UV/VIS
1
1
1
DoubleDePol,CommonBeamDepol,RBeamAtt,SBeamAtt,60mm sphere, WB InGaAs Detector
0
0
0
0
Program
Program
3350/servo 860,8/2
3350/0,2 860,8/0,2
3350/0,2 860,8/0,2
0
15.00
 
 
 
0
 
860,8
319,2
860,8
Front
100
on
S:100 R:100
0
0
0
0
 
0
 
 
 
0
 
 
0
0
0
0
0
 
 
 
 
0
0


0
0
#HDR
-1
-1
#GR
nm
%R
1.0
0.0
2500,000000
-1,000000
2251
8
69,189300
4,787900
#DATA
2500.000000	6.393996
2499.000000	6.239851
2498.000000	6.247873
2497.000000	6.245158
2496.000000	6.349443
2495.000000	6.184931
2494.000000	6.411397
2493.000000	6.142723
2492.000000	6.207393
2491.000000	6.172220
2490.000000	6.152720
2489.000000	6.099405
2488.000000	6.058925
2487.000000	6.099158
2486.000000	6.149018
2485.000000	6.137046
2484.000000	6.039055
2483.000000	6.069045
2482.000000	6.098541
2481.000000	6.063121
2480.000000	6.080646
2479.000000	6.052384
2478.000000	6.144204
2477.000000	6.067564
2476.000000	6.072377
2475.000000	6.040906
2474.000000	6.060529
2473.000000	6.037697
2472.000000	6.004005
2471.000000	6.029799
2470.000000	5.990183
2469.000000	6.021407
2468.000000	6.032637
2467.000000	6.040166
2466.000000	6.038068
2465.000000	6.055469
2464.000000	6.040783
2463.000000	6.028935
2462.000000	6.080893
2461.000000	6.096196
2460.000000	6.126186
2459.000000	6.090519
2458.000000	6.146179
2457.000000	6.164321
2456.000000	6.156052
2455.000000	6.187400
2454.000000	6.192706
2453.000000	6.232076
2452.000000	6.248490
2451.000000	6.259227
2450.000000	6.275271
2449.000000	6.291315
2448.000000	6.341915
2447.000000	6.384863
2446.000000	6.435340
2445.000000	6.438672
2444.000000	6.445336
2443.000000	6.486310
2442.000000	6.527654
2441.000000	6.512721
2440.000000	6.563938
2439.000000	6.633050
2438.000000	6.642553
2437.000000	6.664027
2436.000000	6.677356
2435.000000	6.701669
2434.000000	6.703027
2433.000000	6.710308
2432.000000	6.741902
2431.000000	6.777322
2430.000000	6.794847
2429.000000	6.802005
2428.000000	6.825331
2427.000000	6.834093
2426.000000	6.865564
2425.000000	6.873092
2424.000000	6.877165
2423.000000	6.906784
2422.000000	6.890123
2421.000000	6.897405
2420.000000	6.919990
2419.000000	6.925297
2418.000000	6.917398
2417.000000	6.936774
2416.000000	6.947881
2415.000000	6.955163
2414.000000	6.986510
2413.000000	6.996383
2412.000000	6.980339
2411.000000	6.986757
2410.000000	7.024028
2409.000000	7.068334
2408.000000	7.118194
2407.000000	7.205695
2406.000000	7.263947
2405.000000	7.272462
2404.000000	7.259133
2403.000000	7.266538
2402.000000	7.327629
2401.000000	7.354163
2400.000000	7.364530
2399.000000	7.419202
2398.000000	7.418092
2397.000000	7.433395
2396.000000	7.467334
2395.000000	7.488068
2394.000000	7.520526
2393.000000	7.553107
2392.000000	7.580012
2391.000000	7.611359
2390.000000	7.615432
2389.000000	7.618270
2388.000000	7.637276
2387.000000	7.661959
2386.000000	7.693307
2385.000000	7.725394
2384.000000	7.709227
2383.000000	7.729591
2382.000000	7.747609
2381.000000	7.743413
2380.000000	7.731565
2379.000000	7.759704
2378.000000	7.782412
2377.000000	7.774020
2376.000000	7.776612
2375.000000	7.794013
2374.000000	7.799073
2373.000000	7.777969
2372.000000	7.777599
2371.000000	7.775624
2370.000000	7.749090
2369.000000	7.747856
2368.000000	7.762789
2367.000000	7.737613
2366.000000	7.708857
2365.000000	7.699848
2364.000000	7.699477
2363.000000	7.675411
2362.000000	7.662206
2361.000000	7.663193
2360.000000	7.637770
2359.000000	7.604571
2358.000000	7.606052
2357.000000	7.606793
2356.000000	7.587787
2355.000000	7.560142
2354.000000	7.575692
2353.000000	7.605806
2352.000000	7.607287
2351.000000	7.629995
2350.000000	7.652456
2349.000000	7.660478
2348.000000	7.705895
2347.000000	7.739957
2346.000000	7.758840
2345.000000	7.791298
2344.000000	7.837578
2343.000000	7.884353
2342.000000	7.926314
2341.000000	7.953218
2340.000000	7.948775
2339.000000	7.957538
2338.000000	8.020356
2337.000000	8.060342
2336.000000	8.036893
2335.000000	8.034919
2334.000000	8.045779
2333.000000	8.046273
2332.000000	8.038991
2331.000000	8.009619
2330.000000	7.991353
2329.000000	7.981233
2328.000000	7.994686
2327.000000	7.975433
2326.000000	7.939889
2325.000000	7.900273
2324.000000	7.879416
2323.000000	7.865100
2322.000000	7.826718
2321.000000	7.782659
2320.000000	7.752299
2319.000000	7.716138
2318.000000	7.676275
2317.000000	7.613704
2316.000000	7.563845
2315.000000	7.548294
2314.000000	7.512010
2313.000000	7.476714
2312.000000	7.437715
2311.000000	7.418092
2310.000000	7.414759
2309.000000	7.384770
2308.000000	7.372675
2307.000000	7.388719
2306.000000	7.401801
2305.000000	7.416858
2304.000000	7.426484
2303.000000	7.483748
2302.000000	7.496707
2301.000000	7.537310
2300.000000	7.598277
2299.000000	7.640238
2298.000000	7.684051
2297.000000	7.721445
2296.000000	7.778833
2295.000000	7.822522
2294.000000	7.859546
2293.000000	7.883489
2292.000000	7.919279
2291.000000	7.927301
2290.000000	7.975680
2289.000000	7.976297
2288.000000	7.986540
2287.000000	7.970620
2286.000000	7.965806
2285.000000	7.956180
2284.000000	7.950133
2283.000000	7.928905
2282.000000	7.940260
2281.000000	7.904222
2280.000000	7.887808
2279.000000	7.908048
2278.000000	7.886081
2277.000000	7.863619
2276.000000	7.841034
2275.000000	7.844366
2274.000000	7.850414
2273.000000	7.838566
2272.000000	7.874480
2271.000000	7.891758
2270.000000	7.910517
2269.000000	7.902124
2268.000000	7.935940
2267.000000	7.986293
2266.000000	8.084408
2265.000000	8.129948
2264.000000	8.218560
2263.000000	8.278293
2262.000000	8.398992
2261.000000	8.476990
2260.000000	8.589792
2259.000000	8.703950
2258.000000	8.839953
2257.000000	8.991383
2256.000000	9.086042
2255.000000	9.230808
2254.000000	9.350150
2253.000000	9.485536
2252.000000	9.620058
2251.000000	9.723726
2250.000000	9.854793
2249.000000	9.960559
2248.000000	10.073607
2247.000000	10.180731
2246.000000	10.246388
2245.000000	10.341294
2244.000000	10.442741
2243.000000	10.521356
2242.000000	10.586396
2241.000000	10.662789
2240.000000	10.771765
2239.000000	10.812862
2238.000000	10.875063
2237.000000	10.938251
2236.000000	10.971820
2235.000000	11.037847
2234.000000	11.112143
2233.000000	11.142996
2232.000000	11.179280
2231.000000	11.219637
2230.000000	11.229387
2229.000000	11.289490
2228.000000	11.324046
2227.000000	11.329846
2226.000000	11.351814
2225.000000	11.377608
2224.000000	11.359219
2223.000000	11.376991
2222.000000	11.383655
2221.000000	11.395009
2220.000000	11.389702
2219.000000	11.396490
2218.000000	11.419322
2217.000000	11.410560
2216.000000	11.418458
2215.000000	11.428825
2214.000000	11.390443
2213.000000	11.394022
2212.000000	11.384766
2211.000000	11.374522
2210.000000	11.402908
2209.000000	11.413892
2208.000000	11.361440
2207.000000	11.372795
2206.000000	11.362428
2205.000000	11.367118
2204.000000	11.377608
2203.000000	11.397107
2202.000000	11.374276
2201.000000	11.359342
2200.000000	11.368599
2199.000000	11.354653
2198.000000	11.348976
2197.000000	11.379089
2196.000000	11.360330
2195.000000	11.363292
2194.000000	11.360700
2193.000000	11.381927
2192.000000	11.373659
2191.000000	11.373165
2190.000000	11.366871
2189.000000	11.372918
2188.000000	11.364156
2187.000000	11.327255
2186.000000	11.340707
2185.000000	11.322688
2184.000000	11.304793
2183.000000	11.322071
2182.000000	11.299610
2181.000000	11.293562
2180.000000	11.309359
2179.000000	11.289119
2178.000000	11.269743
2177.000000	11.281961
2176.000000	11.279123
2175.000000	11.281097
2174.000000	11.293809
2173.000000	11.278012
2172.000000	11.291217
2171.000000	11.319479
2170.000000	11.320590
2169.000000	11.313185
2168.000000	11.293562
2167.000000	11.301461
2166.000000	11.331327
2165.000000	11.348235
2164.000000	11.327501
2163.000000	11.332438
2162.000000	11.355763
2161.000000	11.381310
2160.000000	11.390566
2159.000000	11.397601
2158.000000	11.397478
2157.000000	11.423271
2156.000000	11.440303
2155.000000	11.440673
2154.000000	11.421297
2153.000000	11.459432
2152.000000	11.490532
2151.000000	11.490656
2150.000000	11.504478
2149.000000	11.525582
2148.000000	11.536689
2147.000000	11.560385
2146.000000	11.571986
2145.000000	11.563841
2144.000000	11.567420
2143.000000	11.561619
2142.000000	11.560015
2141.000000	11.601729
2140.000000	11.621475
2139.000000	11.615181
2138.000000	11.617773
2137.000000	11.640481
2136.000000	11.630114
2135.000000	11.639494
2134.000000	11.658993
2133.000000	11.636655
2132.000000	11.642456
2131.000000	11.655538
2130.000000	11.639124
2129.000000	11.639247
2128.000000	11.643320
2127.000000	11.644924
2126.000000	11.615798
2125.000000	11.598767
2124.000000	11.590622
2123.000000	11.576799
2122.000000	11.562113
2121.000000	11.565322
2120.000000	11.536443
2119.000000	11.527187
2118.000000	11.535579
2117.000000	11.506083
2116.000000	11.470169
2115.000000	11.455112
2114.000000	11.435489
2113.000000	11.430800
2112.000000	11.420186
2111.000000	11.411300
2110.000000	11.389826
2109.000000	11.358108
2108.000000	11.347371
2107.000000	11.332068
2106.000000	11.308249
2105.000000	11.289613
2104.000000	11.263449
2103.000000	11.255797
2102.000000	11.242222
2101.000000	11.218279
2100.000000	11.196065
2099.000000	11.180021
2098.000000	11.180514
2097.000000	11.163236
2096.000000	11.151389
2095.000000	11.142873
2094.000000	11.117943
2093.000000	11.105725
2092.000000	11.109181
2091.000000	11.097950
2090.000000	11.085855
2089.000000	11.069565
2088.000000	11.059198
2087.000000	11.063517
2086.000000	11.053397
2085.000000	11.043771
2084.000000	11.032910
2083.000000	11.026986
2082.000000	11.018718
2081.000000	11.000946
2080.000000	10.999218
2079.000000	11.004648
2078.000000	11.003167
2077.000000	10.979472
2076.000000	10.971820
2075.000000	10.964415
2074.000000	10.946767
2073.000000	10.943435
2072.000000	10.935906
2071.000000	10.930723
2070.000000	10.904682
2069.000000	10.904065
2068.000000	10.908879
2067.000000	10.880246
2066.000000	10.868028
2065.000000	10.879382
2064.000000	10.864326
2063.000000	10.862968
2062.000000	10.867411
2061.000000	10.861857
2060.000000	10.860500
2059.000000	10.867041
2058.000000	10.875433
2057.000000	10.887775
2056.000000	10.910483
2055.000000	10.922948
2054.000000	10.944792
2053.000000	10.974659
2052.000000	11.018964
2051.000000	11.064505
2050.000000	11.094618
2049.000000	11.140898
2048.000000	11.184217
2047.000000	11.268262
2046.000000	11.329476
2045.000000	11.386987
2044.000000	11.425986
2043.000000	11.503121
2042.000000	11.575935
2041.000000	11.618637
2040.000000	11.694660
2039.000000	11.765994
2038.000000	11.841771
2037.000000	11.893728
2036.000000	11.933962
2035.000000	11.989868
2034.000000	12.031459
2033.000000	12.087119
2032.000000	12.122169
2031.000000	12.173386
2030.000000	12.226208
2029.000000	12.256691
2028.000000	12.295443
2027.000000	12.327284
2026.000000	12.373318
2025.000000	12.389856
2024.000000	12.427497
2023.000000	12.463781
2022.000000	12.469335
2021.000000	12.505989
2020.000000	12.554738
2019.000000	12.577816
2018.000000	12.588924
2017.000000	12.606449
2016.000000	12.636562
2015.000000	12.658406
2014.000000	12.662479
2013.000000	12.684200
2012.000000	12.670748
2011.000000	12.677412
2010.000000	12.665071
2009.000000	12.683706
2008.000000	12.680744
2007.000000	12.674574
2006.000000	12.673710
2005.000000	12.662479
2004.000000	12.641745
2003.000000	12.630268
2002.000000	12.631872
2001.000000	12.608794
2000.000000	12.589047
1999.000000	12.560168
1998.000000	12.536349
1997.000000	12.535732
1996.000000	12.492413
1995.000000	12.454278
1994.000000	12.425893
1993.000000	12.427004
1992.000000	12.384302
1991.000000	12.343822
1990.000000	12.285200
1989.000000	12.256815
1988.000000	12.240771
1987.000000	12.185851
1986.000000	12.172646
1985.000000	12.106989
1984.000000	12.075025
1983.000000	12.047750
1982.000000	12.018748
1981.000000	11.956300
1980.000000	11.898542
1979.000000	11.867688
1978.000000	11.825603
1977.000000	11.806227
1976.000000	11.752418
1975.000000	11.704534
1974.000000	11.680961
1973.000000	11.640728
1972.000000	11.577787
1971.000000	11.549895
1970.000000	11.513734
1969.000000	11.493124
1968.000000	11.439068
1967.000000	11.409696
1966.000000	11.372671
1965.000000	11.387234
1964.000000	11.320343
1963.000000	11.273199
1962.000000	11.259130
1961.000000	11.207542
1960.000000	11.192732
1959.000000	11.160891
1958.000000	11.117696
1957.000000	11.091409
1956.000000	11.080672
1955.000000	11.039328
1954.000000	10.995516
1953.000000	10.985519
1952.000000	10.956023
1951.000000	10.919122
1950.000000	10.884936
1949.000000	10.881357
1948.000000	10.863462
1947.000000	10.829276
1946.000000	10.838779
1945.000000	10.792005
1944.000000	10.788179
1943.000000	10.786698
1942.000000	10.802618
1941.000000	10.790154
1940.000000	10.788796
1939.000000	10.812862
1938.000000	10.802495
1937.000000	10.828906
1936.000000	10.813479
1935.000000	10.819526
1934.000000	10.862475
1933.000000	10.891724
1932.000000	10.920973
1931.000000	10.983915
1930.000000	10.992677
1929.000000	11.048831
1928.000000	11.094124
1927.000000	11.135591
1926.000000	11.183723
1925.000000	11.257278
1924.000000	11.337992
1923.000000	11.400810
1922.000000	11.483498
1921.000000	11.567543
1920.000000	11.640852
1919.000000	11.725884
1918.000000	11.825850
1917.000000	11.921867
1916.000000	12.009368
1915.000000	12.127970
1914.000000	12.243116
1913.000000	12.363198
1912.000000	12.465879
1911.000000	12.578063
1910.000000	12.713943
1909.000000	12.810083
1908.000000	12.928314
1907.000000	13.083694
1906.000000	13.234630
1905.000000	13.377914
1904.000000	13.518360
1903.000000	13.664607
1902.000000	13.811224
1901.000000	13.976106
1900.000000	14.136298
1899.000000	14.299206
1898.000000	14.449401
1897.000000	14.604781
1896.000000	14.757445
1895.000000	14.923808
1894.000000	15.091775
1893.000000	15.261841
1892.000000	15.487073
1891.000000	15.702185
1890.000000	15.902487
1889.000000	16.104887
1888.000000	16.326664
1887.000000	16.585094
1886.000000	16.865122
1885.000000	17.174646
1884.000000	17.548963
1883.000000	17.918591
1882.000000	18.299696
1881.000000	18.713012
1880.000000	19.082392
1879.000000	19.471889
1878.000000	19.875702
1877.000000	20.261003
1876.000000	20.605701
1875.000000	20.933367
1874.000000	21.246223
1873.000000	21.521438
1872.000000	21.790976
1871.000000	22.016085
1870.000000	22.210833
1869.000000	22.387810
1868.000000	22.521962
1867.000000	22.637725
1866.000000	22.719549
1865.000000	22.810259
1864.000000	22.887146
1863.000000	22.954407
1862.000000	23.038823
1861.000000	23.094976
1860.000000	23.122375
1859.000000	23.103492
1858.000000	23.102628
1857.000000	23.094236
1856.000000	23.084733
1855.000000	23.053633
1854.000000	22.998096
1853.000000	22.936265
1852.000000	22.881963
1851.000000	22.852837
1850.000000	22.841729
1849.000000	22.803224
1848.000000	22.702271
1847.000000	22.584533
1846.000000	22.488023
1845.000000	22.437546
1844.000000	22.446802
1843.000000	22.464821
1842.000000	22.429771
1841.000000	22.375345
1840.000000	22.320055
1839.000000	22.279081
1838.000000	22.237984
1837.000000	22.184916
1836.000000	22.123332
1835.000000	22.043976
1834.000000	21.984737
1833.000000	21.951168
1832.000000	21.902913
1831.000000	21.810969
1830.000000	21.714829
1829.000000	21.639670
1828.000000	21.534397
1827.000000	21.446155
1826.000000	21.379758
1825.000000	21.313484
1824.000000	21.293491
1823.000000	21.308918
1822.000000	21.294972
1821.000000	21.223021
1820.000000	21.153786
1819.000000	21.106888
1818.000000	21.108863
1817.000000	21.111454
1816.000000	21.105777
1815.000000	21.099113
1814.000000	21.080230
1813.000000	21.064803
1812.000000	21.047402
1811.000000	20.987546
1810.000000	20.959160
1809.000000	20.934971
1808.000000	20.881779
1807.000000	20.841546
1806.000000	20.793908
1805.000000	20.725660
1804.000000	20.676911
1803.000000	20.663582
1802.000000	20.610637
1801.000000	20.537329
1800.000000	20.473400
1799.000000	20.424528
1798.000000	20.385282
1797.000000	20.337520
1796.000000	20.288401
1795.000000	20.229039
1794.000000	20.179796
1793.000000	20.132158
1792.000000	20.083162
1791.000000	20.014050
1790.000000	19.946789
1789.000000	19.897547
1788.000000	19.837814
1787.000000	19.737971
1786.000000	19.655530
1785.000000	19.581481
1784.000000	19.504841
1783.000000	19.412650
1782.000000	19.337367
1781.000000	19.253939
1780.000000	19.178656
1779.000000	19.088193
1778.000000	18.995261
1777.000000	18.903687
1776.000000	18.790639
1775.000000	18.681294
1774.000000	18.555781
1773.000000	18.463961
1772.000000	18.336226
1771.000000	18.202074
1770.000000	18.073229
1769.000000	17.984741
1768.000000	17.865769
1767.000000	17.794312
1766.000000	17.712241
1765.000000	17.644857
1764.000000	17.609313
1763.000000	17.615484
1762.000000	17.610301
1761.000000	17.662135
1760.000000	17.737911
1759.000000	17.798385
1758.000000	17.860216
1757.000000	17.904645
1756.000000	17.957837
1755.000000	18.000168
1754.000000	18.026455
1753.000000	18.013867
1752.000000	18.015718
1751.000000	17.987086
1750.000000	17.932537
1749.000000	17.896129
1748.000000	17.838001
1747.000000	17.739886
1746.000000	17.630170
1745.000000	17.512062
1744.000000	17.374949
1743.000000	17.216607
1742.000000	17.032473
1741.000000	16.830443
1740.000000	16.626685
1739.000000	16.454645
1738.000000	16.243359
1737.000000	16.110688
1736.000000	15.989494
1735.000000	15.904462
1734.000000	15.887430
1733.000000	15.922974
1732.000000	15.962467
1731.000000	16.055521
1730.000000	16.161164
1729.000000	16.276310
1728.000000	16.399972
1727.000000	16.494014
1726.000000	16.579911
1725.000000	16.659390
1724.000000	16.719616
1723.000000	16.721097
1722.000000	16.765156
1721.000000	16.741584
1720.000000	16.733439
1719.000000	16.743188
1718.000000	16.776264
1717.000000	16.778485
1716.000000	16.799589
1715.000000	16.851176
1714.000000	16.896346
1713.000000	16.926953
1712.000000	16.968174
1711.000000	16.980145
1710.000000	17.007543
1709.000000	16.977923
1708.000000	16.972370
1707.000000	16.943244
1706.000000	16.896593
1705.000000	16.837724
1704.000000	16.816497
1703.000000	16.737882
1702.000000	16.638780
1701.000000	16.502406
1700.000000	16.374672
1699.000000	16.241754
1698.000000	16.108466
1697.000000	16.053794
1696.000000	16.014671
1695.000000	16.000849
1694.000000	16.073293
1693.000000	16.214603
1692.000000	16.333575
1691.000000	16.479945
1690.000000	16.640631
1689.000000	16.733068
1688.000000	16.781941
1687.000000	16.820446
1686.000000	16.821927
1685.000000	16.809092
1684.000000	16.909058
1683.000000	17.102819
1682.000000	17.420118
1681.000000	17.804432
1680.000000	18.252057
1679.000000	18.777558
1678.000000	19.254926
1677.000000	19.757841
1676.000000	20.165974
1675.000000	20.530664
1674.000000	20.841423
1673.000000	21.104666
1672.000000	21.336686
1671.000000	21.541802
1670.000000	21.678298
1669.000000	21.818004
1668.000000	21.969434
1667.000000	22.081001
1666.000000	22.169489
1665.000000	22.237120
1664.000000	22.300185
1663.000000	22.347453
1662.000000	22.397930
1661.000000	22.411382
1660.000000	22.453590
1659.000000	22.486171
1658.000000	22.476545
1657.000000	22.483950
1656.000000	22.479384
1655.000000	22.478026
1654.000000	22.456552
1653.000000	22.450381
1652.000000	22.414714
1651.000000	22.366829
1650.000000	22.358067
1649.000000	22.321166
1648.000000	22.286486
1647.000000	22.242180
1646.000000	22.187755
1645.000000	22.151100
1644.000000	22.080260
1643.000000	22.034967
1642.000000	21.960671
1641.000000	21.914761
1640.000000	21.851079
1639.000000	21.790236
1638.000000	21.740623
1637.000000	21.653986
1636.000000	21.577098
1635.000000	21.523536
1634.000000	21.453807
1633.000000	21.386916
1632.000000	21.313237
1631.000000	21.241287
1630.000000	21.163042
1629.000000	21.097262
1628.000000	21.016919
1627.000000	20.960024
1626.000000	20.888567
1625.000000	20.795266
1624.000000	20.729732
1623.000000	20.642355
1622.000000	20.575711
1621.000000	20.491665
1620.000000	20.431192
1619.000000	20.361956
1618.000000	20.269272
1617.000000	20.219042
1616.000000	20.148202
1615.000000	20.092172
1614.000000	20.019357
1613.000000	19.940495
