PE UV       SUBTECH     SPECTRUM    ASCII       PEDS        4.00        
   -1
CICIMAUCR0112-1.Sample.ASC
24/04/19
15:29:01.00
24/04/19
15:29:01.00
Vinicio Soto Monge
C. resplendens
250,000000
1
Lambda 1050
1050L1511233
PerkinElmer UV WinLab 6.3.2.0749 / 2.02.05 Lambda 900 UV/VIS/NIR, Aug  7 2015 09:38:08

0
0
3350/servo 860,8/2
0
0
UV/VIS
1
1
1
DoubleDePol,CommonBeamDepol,RBeamAtt,SBeamAtt,60mm sphere, WB InGaAs Detector
0
0
0
0
Program
Program
3350/servo 860,8/2
3350/0,2 860,8/0,2
3350/0,2 860,8/0,2
0
15.00
 
 
 
0
 
860,8
319,2
860,8
Front
100
on
S:100 R:100
0
0
0
0
 
0
 
 
 
0
 
 
0
0
0
0
0
 
 
 
 
0
0


0
0
#HDR
-1
-1
#GR
nm
%R
1.0
0.0
2500,000000
-1,000000
2251
8
88,637500
5,329100
#DATA
2500.000000	7.978287
2499.000000	7.978497
2498.000000	7.902440
2497.000000	7.748643
2496.000000	7.786304
2495.000000	7.759794
2494.000000	7.848895
2493.000000	7.787776
2492.000000	7.711088
2491.000000	7.785357
2490.000000	7.656597
2489.000000	7.723081
2488.000000	7.651547
2487.000000	7.607155
2486.000000	7.664276
2485.000000	7.574649
2484.000000	7.615991
2483.000000	7.580540
2482.000000	7.580856
2481.000000	7.593900
2480.000000	7.572335
2479.000000	7.617885
2478.000000	7.557607
2477.000000	7.571388
2476.000000	7.536568
2475.000000	7.559080
2474.000000	7.555082
2473.000000	7.552137
2472.000000	7.566970
2471.000000	7.545615
2470.000000	7.514161
2469.000000	7.574228
2468.000000	7.547719
2467.000000	7.578331
2466.000000	7.593795
2465.000000	7.615044
2464.000000	7.590534
2463.000000	7.623881
2462.000000	7.641975
2461.000000	7.714349
2460.000000	7.698780
2459.000000	7.727394
2458.000000	7.772207
2457.000000	7.812182
2456.000000	7.858784
2455.000000	7.882769
2454.000000	7.943151
2453.000000	8.011108
2452.000000	8.076329
2451.000000	8.138185
2450.000000	8.205510
2449.000000	8.250639
2448.000000	8.311443
2447.000000	8.382029
2446.000000	8.422320
2445.000000	8.502479
2444.000000	8.570646
2443.000000	8.631344
2442.000000	8.691411
2441.000000	8.746008
2440.000000	8.804708
2439.000000	8.854255
2438.000000	8.925788
2437.000000	8.987644
2436.000000	9.036350
2435.000000	9.084214
2434.000000	9.132604
2433.000000	9.195301
2432.000000	9.247899
2431.000000	9.283455
2430.000000	9.322693
2429.000000	9.368454
2428.000000	9.408428
2427.000000	9.436621
2426.000000	9.467864
2425.000000	9.467338
2424.000000	9.524354
2423.000000	9.576427
2422.000000	9.591470
2421.000000	9.648276
2420.000000	9.678467
2419.000000	9.705607
2418.000000	9.722334
2417.000000	9.748212
2416.000000	9.778508
2415.000000	9.794709
2414.000000	9.805859
2413.000000	9.828792
2412.000000	9.858878
2411.000000	9.874763
2410.000000	9.888333
2409.000000	9.917052
2408.000000	9.945981
2407.000000	9.957868
2406.000000	9.974699
2405.000000	9.993319
2404.000000	10.014569
2403.000000	10.035608
2402.000000	10.047390
2401.000000	10.073689
2400.000000	10.101566
2399.000000	10.129127
2398.000000	10.151008
2397.000000	10.161948
2396.000000	10.187721
2395.000000	10.206026
2394.000000	10.241161
2393.000000	10.272299
2392.000000	10.284397
2391.000000	10.295863
2390.000000	10.312274
2389.000000	10.320479
2388.000000	10.320058
2387.000000	10.322793
2386.000000	10.340571
2385.000000	10.341834
2384.000000	10.341308
2383.000000	10.337100
2382.000000	10.310906
2381.000000	10.293970
2380.000000	10.280399
2379.000000	10.262937
2378.000000	10.238742
2377.000000	10.217492
2376.000000	10.191824
2375.000000	10.173625
2374.000000	10.153533
2373.000000	10.119239
2372.000000	10.082841
2371.000000	10.047600
2370.000000	10.003839
2369.000000	9.951346
2368.000000	9.900852
2367.000000	9.850463
2366.000000	9.802178
2365.000000	9.749053
2364.000000	9.676889
2363.000000	9.603567
2362.000000	9.533822
2361.000000	9.467023
2360.000000	9.390861
2359.000000	9.327638
2358.000000	9.273462
2357.000000	9.206136
2356.000000	9.165425
2355.000000	9.138390
2354.000000	9.097468
2353.000000	9.079690
2352.000000	9.080427
2351.000000	9.089789
2350.000000	9.107567
2349.000000	9.119139
2348.000000	9.140914
2347.000000	9.184781
2346.000000	9.234013
2345.000000	9.268938
2344.000000	9.308597
2343.000000	9.346468
2342.000000	9.378447
2341.000000	9.406640
2340.000000	9.427890
2339.000000	9.448929
2338.000000	9.448613
2337.000000	9.439882
2336.000000	9.419579
2335.000000	9.405483
2334.000000	9.376975
2333.000000	9.347835
2332.000000	9.307966
2331.000000	9.253159
2330.000000	9.209292
2329.000000	9.151224
2328.000000	9.069592
2327.000000	9.006053
2326.000000	8.933362
2325.000000	8.865616
2324.000000	8.781249
2323.000000	8.702562
2322.000000	8.600627
2321.000000	8.518574
2320.000000	8.421478
2319.000000	8.317755
2318.000000	8.227286
2317.000000	8.120196
2316.000000	8.040352
2315.000000	7.933052
2314.000000	7.833326
2313.000000	7.734758
2312.000000	7.659753
2311.000000	7.624933
2310.000000	7.544984
2309.000000	7.506061
2308.000000	7.483654
2307.000000	7.451990
2306.000000	7.430951
2305.000000	7.438210
2304.000000	7.449150
2303.000000	7.486389
2302.000000	7.554872
2301.000000	7.623250
2300.000000	7.688366
2299.000000	7.760320
2298.000000	7.823017
2297.000000	7.902230
2296.000000	7.967977
2295.000000	8.055080
2294.000000	8.100630
2293.000000	8.130400
2292.000000	8.176581
2291.000000	8.215083
2290.000000	8.225918
2289.000000	8.223920
2288.000000	8.225498
2287.000000	8.215188
2286.000000	8.189941
2285.000000	8.168692
2284.000000	8.123668
2283.000000	8.095160
2282.000000	8.054449
2281.000000	8.019103
2280.000000	7.978287
2279.000000	7.943467
2278.000000	7.889606
2277.000000	7.866884
2276.000000	7.840059
2275.000000	7.789880
2274.000000	7.789460
2273.000000	7.770840
2272.000000	7.766422
2271.000000	7.798506
2270.000000	7.827225
2269.000000	7.863412
2268.000000	7.908121
2267.000000	7.979759
2266.000000	8.067388
2265.000000	8.148073
2264.000000	8.284513
2263.000000	8.436521
2262.000000	8.616406
2261.000000	8.769046
2260.000000	8.969655
2259.000000	9.186359
2258.000000	9.406956
2257.000000	9.636388
2256.000000	9.897170
2255.000000	10.134387
2254.000000	10.376969
2253.000000	10.652794
2252.000000	10.824158
2251.000000	11.058114
2250.000000	11.301854
2249.000000	11.502989
2248.000000	11.690133
2247.000000	11.871386
2246.000000	12.044434
2245.000000	12.220427
2244.000000	12.356761
2243.000000	12.505719
2242.000000	12.633742
2241.000000	12.782069
2240.000000	12.882952
2239.000000	13.000667
2238.000000	13.099130
2237.000000	13.202222
2236.000000	13.302790
2235.000000	13.396940
2234.000000	13.481308
2233.000000	13.540533
2232.000000	13.603546
2231.000000	13.658458
2230.000000	13.721997
2229.000000	13.765232
2228.000000	13.792373
2227.000000	13.812886
2226.000000	13.811308
2225.000000	13.855806
2224.000000	13.859383
2223.000000	13.872322
2222.000000	13.877687
2221.000000	13.837818
2220.000000	13.841605
2219.000000	13.838344
2218.000000	13.831716
2217.000000	13.827508
2216.000000	13.805312
2215.000000	13.771754
2214.000000	13.770597
2213.000000	13.751136
2212.000000	13.734620
2211.000000	13.724100
2210.000000	13.704639
2209.000000	13.694225
2208.000000	13.692331
2207.000000	13.676867
2206.000000	13.642994
2205.000000	13.637629
2204.000000	13.631212
2203.000000	13.627951
2202.000000	13.606176
2201.000000	13.618063
2200.000000	13.616169
2199.000000	13.598181
2198.000000	13.614065
2197.000000	13.605439
2196.000000	13.600285
2195.000000	13.587661
2194.000000	13.595866
2193.000000	13.584190
2192.000000	13.579245
2191.000000	13.567148
2190.000000	13.574827
2189.000000	13.555366
2188.000000	13.560836
2187.000000	13.571776
2186.000000	13.520651
2185.000000	13.523071
2184.000000	13.498876
2183.000000	13.487830
2182.000000	13.492038
2181.000000	13.457533
2180.000000	13.452800
2179.000000	13.448171
2178.000000	13.454798
2177.000000	13.453431
2176.000000	13.444384
2175.000000	13.449223
2174.000000	13.463530
2173.000000	13.453326
2172.000000	13.456692
2171.000000	13.469421
2170.000000	13.482149
2169.000000	13.498244
2168.000000	13.496772
2167.000000	13.512867
2166.000000	13.566201
2165.000000	13.568410
2164.000000	13.595025
2163.000000	13.620167
2162.000000	13.646676
2161.000000	13.668241
2160.000000	13.692331
2159.000000	13.707585
2158.000000	13.753345
2157.000000	13.794266
2156.000000	13.832768
2155.000000	13.864432
2154.000000	13.903144
2153.000000	13.921869
2152.000000	13.950588
2151.000000	14.000346
2150.000000	14.046106
2149.000000	14.065146
2148.000000	14.088290
2147.000000	14.137837
2146.000000	14.156351
2145.000000	14.169080
2144.000000	14.203269
2143.000000	14.222835
2142.000000	14.239036
2141.000000	14.253237
2140.000000	14.271541
2139.000000	14.306677
2138.000000	14.308360
2137.000000	14.329294
2136.000000	14.341286
2135.000000	14.359590
2134.000000	14.378631
2133.000000	14.351490
2132.000000	14.342654
2131.000000	14.354331
2130.000000	14.339288
2129.000000	14.332765
2128.000000	14.334238
2127.000000	14.321825
2126.000000	14.306677
2125.000000	14.290266
2124.000000	14.271226
2123.000000	14.248188
2122.000000	14.233250
2121.000000	14.208844
2120.000000	14.177075
2119.000000	14.134891
2118.000000	14.099230
2117.000000	14.069775
2116.000000	14.038637
2115.000000	14.004869
2114.000000	13.958583
2113.000000	13.929759
2112.000000	13.892625
2111.000000	13.852650
2110.000000	13.826351
2109.000000	13.792268
2108.000000	13.766915
2107.000000	13.736829
2106.000000	13.698012
2105.000000	13.672765
2104.000000	13.636998
2103.000000	13.590501
2102.000000	13.565675
2101.000000	13.552315
2100.000000	13.519073
2099.000000	13.480677
2098.000000	13.447014
2097.000000	13.411352
2096.000000	13.377058
2095.000000	13.360122
2094.000000	13.344553
2093.000000	13.324565
2092.000000	13.297320
2091.000000	13.280383
2090.000000	13.275860
2089.000000	13.266813
2088.000000	13.247562
2087.000000	13.232098
2086.000000	13.213373
2085.000000	13.190756
2084.000000	13.170979
2083.000000	13.161722
2082.000000	13.153096
2081.000000	13.135844
2080.000000	13.123115
2079.000000	13.095869
2078.000000	13.076513
2077.000000	13.059156
2076.000000	13.037485
2075.000000	13.018024
2074.000000	13.011502
2073.000000	12.996353
2072.000000	12.976577
2071.000000	12.960482
2070.000000	12.943966
2069.000000	12.916510
2068.000000	12.903886
2067.000000	12.889790
2066.000000	12.890211
2065.000000	12.863806
2064.000000	12.862334
2063.000000	12.859598
2062.000000	12.852024
2061.000000	12.863491
2060.000000	12.869382
2059.000000	12.884425
2058.000000	12.899783
2057.000000	12.937128
2056.000000	12.978996
2055.000000	13.035486
2054.000000	13.088716
2053.000000	13.170138
2052.000000	13.237147
2051.000000	13.322146
2050.000000	13.427553
2049.000000	13.551579
2048.000000	13.676762
2047.000000	13.810361
2046.000000	13.963948
2045.000000	14.101439
2044.000000	14.250923
2043.000000	14.414398
2042.000000	14.575453
2041.000000	14.748711
2040.000000	14.892619
2039.000000	15.062722
2038.000000	15.219674
2037.000000	15.364740
2036.000000	15.512751
2035.000000	15.663918
2034.000000	15.796991
2033.000000	15.945528
2032.000000	16.091855
2031.000000	16.207992
2030.000000	16.315292
2029.000000	16.436373
2028.000000	16.576915
2027.000000	16.669067
2026.000000	16.752487
2025.000000	16.878092
2024.000000	16.981605
2023.000000	17.090588
2022.000000	17.165067
2021.000000	17.280677
2020.000000	17.374407
2019.000000	17.480865
2018.000000	17.565864
2017.000000	17.638239
2016.000000	17.733021
2015.000000	17.810971
2014.000000	17.878612
2013.000000	17.952249
2012.000000	18.002533
2011.000000	18.044296
2010.000000	18.116566
2009.000000	18.172741
2008.000000	18.200933
2007.000000	18.229021
2006.000000	18.268574
2005.000000	18.296556
2004.000000	18.303079
2003.000000	18.319700
2002.000000	18.303184
2001.000000	18.355151
2000.000000	18.379872
1999.000000	18.367248
1998.000000	18.355571
1997.000000	18.324854
1996.000000	18.307602
1995.000000	18.300659
1994.000000	18.260053
1993.000000	18.231861
1992.000000	18.181367
1991.000000	18.149913
1990.000000	18.108887
1989.000000	18.060812
1988.000000	18.004953
1987.000000	17.936260
1986.000000	17.906489
1985.000000	17.835482
1984.000000	17.757742
1983.000000	17.698937
1982.000000	17.610046
1981.000000	17.549874
1980.000000	17.502326
1979.000000	17.406176
1978.000000	17.355682
1977.000000	17.258376
1976.000000	17.194206
1975.000000	17.129195
1974.000000	17.067024
1973.000000	16.995070
1972.000000	16.942787
1971.000000	16.876934
1970.000000	16.799826
1969.000000	16.728292
1968.000000	16.676956
1967.000000	16.611630
1966.000000	16.547460
1965.000000	16.485499
1964.000000	16.407760
1963.000000	16.338435
1962.000000	16.284470
1961.000000	16.227453
1960.000000	16.163389
1959.000000	16.099430
1958.000000	16.051776
1957.000000	15.975403
1956.000000	15.915547
1955.000000	15.845065
1954.000000	15.795308
1953.000000	15.713360
1952.000000	15.676120
1951.000000	15.619209
1950.000000	15.556828
1949.000000	15.529477
1948.000000	15.483927
1947.000000	15.434274
1946.000000	15.430277
1945.000000	15.377889
1944.000000	15.364740
1943.000000	15.337809
1942.000000	15.341597
1941.000000	15.352853
1940.000000	15.334128
1939.000000	15.352958
1938.000000	15.367370
1937.000000	15.398508
1936.000000	15.424070
1935.000000	15.464150
1934.000000	15.536525
1933.000000	15.586914
1932.000000	15.702840
1931.000000	15.774899
1930.000000	15.861791
1929.000000	15.957204
1928.000000	16.085018
1927.000000	16.201680
1926.000000	16.332439
1925.000000	16.468668
1924.000000	16.610683
1923.000000	16.786781
1922.000000	16.961407
1921.000000	17.133192
1920.000000	17.315076
1919.000000	17.486862
1918.000000	17.664854
1917.000000	17.877139
1916.000000	18.117933
1915.000000	18.351574
1914.000000	18.597523
1913.000000	18.838211
1912.000000	19.088999
1911.000000	19.310437
1910.000000	19.576688
1909.000000	19.825267
1908.000000	20.093938
1907.000000	20.371025
1906.000000	20.676935
1905.000000	20.962017
1904.000000	21.251727
1903.000000	21.532390
1902.000000	21.799168
1901.000000	22.084039
1900.000000	22.393631
1899.000000	22.668614
1898.000000	22.955799
1897.000000	23.246561
1896.000000	23.515022
1895.000000	23.786533
1894.000000	24.064251
1893.000000	24.350911
1892.000000	24.659872
1891.000000	24.941692
1890.000000	25.200159
1889.000000	25.481348
1888.000000	25.803670
1887.000000	26.130198
1886.000000	26.497123
1885.000000	26.920958
1884.000000	27.386030
1883.000000	27.857940
1882.000000	28.364670
1881.000000	28.886758
1880.000000	29.376131
1879.000000	29.854879
1878.000000	30.323527
1877.000000	30.798593
1876.000000	31.194341
1875.000000	31.570417
1874.000000	31.894001
1873.000000	32.172665
1872.000000	32.446281
1871.000000	32.649204
1870.000000	32.773861
1869.000000	32.903042
1868.000000	33.044321
1867.000000	33.106492
1866.000000	33.158353
1865.000000	33.196224
1864.000000	33.231149
1863.000000	33.277330
1862.000000	33.307101
1861.000000	33.305838
1860.000000	33.287113
1859.000000	33.223891
1858.000000	33.176342
1857.000000	33.119326
1856.000000	33.054420
1855.000000	32.980467
1854.000000	32.868959
1853.000000	32.726523
1852.000000	32.623536
1851.000000	32.560839
1850.000000	32.505506
1849.000000	32.432500
1848.000000	32.277125
1847.000000	32.082407
1846.000000	31.951753
1845.000000	31.872856
1844.000000	31.842560
1843.000000	31.835512
1842.000000	31.785544
1841.000000	31.708330
1840.000000	31.621753
1839.000000	31.546222
1838.000000	31.488364
1837.000000	31.393372
1836.000000	31.277972
1835.000000	31.153525
1834.000000	31.034653
1833.000000	30.958281
1832.000000	30.863710
1831.000000	30.736948
1830.000000	30.621443
1829.000000	30.514879
1828.000000	30.387697
1827.000000	30.278714
1826.000000	30.179619
1825.000000	30.085153
1824.000000	30.037394
1823.000000	30.037709
1822.000000	30.032870
1821.000000	29.987741
1820.000000	29.931777
1819.000000	29.879494
1818.000000	29.845832
1817.000000	29.860454
1816.000000	29.873498
1815.000000	29.855615
1814.000000	29.844675
1813.000000	29.831315
1812.000000	29.801439
1811.000000	29.744317
1810.000000	29.684356
1809.000000	29.653112
1808.000000	29.595570
1807.000000	29.537923
1806.000000	29.463023
1805.000000	29.385073
1804.000000	29.331317
1803.000000	29.284610
1802.000000	29.219704
1801.000000	29.123976
1800.000000	29.040871
1799.000000	28.961868
1798.000000	28.917476
1797.000000	28.871295
1796.000000	28.799866
1795.000000	28.733067
1794.000000	28.667845
1793.000000	28.580953
1792.000000	28.492904
1791.000000	28.422107
1790.000000	28.342789
1789.000000	28.263050
1788.000000	28.169531
1787.000000	28.074854
1786.000000	27.949987
1785.000000	27.850155
1784.000000	27.720975
1783.000000	27.593161
1782.000000	27.504060
1781.000000	27.372986
1780.000000	27.250958
1779.000000	27.128931
1778.000000	27.004694
1777.000000	26.837011
1776.000000	26.654075
1775.000000	26.480186
1774.000000	26.293778
1773.000000	26.089172
1772.000000	25.894138
1771.000000	25.722774
1770.000000	25.540784
1769.000000	25.345435
1768.000000	25.187115
1767.000000	25.046888
1766.000000	24.910975
1765.000000	24.790420
1764.000000	24.743503
1763.000000	24.745501
1762.000000	24.767487
1761.000000	24.805779
1760.000000	24.896247
1759.000000	25.011332
1758.000000	25.092754
1757.000000	25.155977
1756.000000	25.223197
1755.000000	25.248655
1754.000000	25.254020
1753.000000	25.224459
1752.000000	25.194058
1751.000000	25.112531
1750.000000	25.028900
1749.000000	24.923073
1748.000000	24.785371
1747.000000	24.633993
1746.000000	24.456002
1745.000000	24.247818
1744.000000	23.997872
1743.000000	23.703323
1742.000000	23.407932
1741.000000	23.069411
1740.000000	22.734151
1739.000000	22.407622
1738.000000	22.130746
1737.000000	21.879222
1736.000000	21.717220
1735.000000	21.611498
1734.000000	21.568683
1733.000000	21.606133
1732.000000	21.689448
1731.000000	21.794013
1730.000000	21.946127
1729.000000	22.128326
1728.000000	22.264555
1727.000000	22.400679
1726.000000	22.513765
1725.000000	22.606232
1724.000000	22.657463
1723.000000	22.669771
1722.000000	22.708799
1721.000000	22.696701
1720.000000	22.716268
1719.000000	22.737307
1718.000000	22.756558
1717.000000	22.807578
1716.000000	22.897941
1715.000000	22.961901
1714.000000	23.035643
1713.000000	23.084980
1712.000000	23.152516
1711.000000	23.178815
1710.000000	23.201327
1709.000000	23.185022
1708.000000	23.173240
1707.000000	23.154936
1706.000000	23.103495
1705.000000	23.046899
1704.000000	22.962427
1703.000000	22.862490
1702.000000	22.712270
1701.000000	22.550899
1700.000000	22.352394
1699.000000	22.138004
1698.000000	21.952964
1697.000000	21.834408
1696.000000	21.779075
1695.000000	21.778444
1694.000000	21.896895
1693.000000	22.048062
1692.000000	22.306213
1691.000000	22.548690
1690.000000	22.736886
1689.000000	22.927922
1688.000000	22.966740
1687.000000	22.981572
1686.000000	22.958114
1685.000000	23.005978
1684.000000	23.123482
1683.000000	23.431707
1682.000000	23.943486
1681.000000	24.595281
1680.000000	25.393194
1679.000000	26.119258
1678.000000	26.895080
1677.000000	27.565600
1676.000000	28.205929
1675.000000	28.743481
1674.000000	29.197192
1673.000000	29.615768
1672.000000	29.935354
1671.000000	30.205813
1670.000000	30.471749
1669.000000	30.691504
1668.000000	30.886853
1667.000000	31.037494
1666.000000	31.159521
1665.000000	31.272081
1664.000000	31.376751
1663.000000	31.433136
1662.000000	31.494571
1661.000000	31.539700
1660.000000	31.572732
1659.000000	31.601976
1658.000000	31.617966
1657.000000	31.627960
1656.000000	31.618071
1655.000000	31.610602
1654.000000	31.592088
1653.000000	31.549378
1652.000000	31.531705
1651.000000	31.482053
1650.000000	31.419251
1649.000000	31.364864
1648.000000	31.287966
1647.000000	31.231581
1646.000000	31.139955
1645.000000	31.062425
1644.000000	30.981845
1643.000000	30.895268
1642.000000	30.810480
1641.000000	30.715067
1640.000000	30.628386
1639.000000	30.533183
1638.000000	30.426620
1637.000000	30.323948
1636.000000	30.240317
1635.000000	30.136489
1634.000000	30.019616
1633.000000	29.899692
1632.000000	29.796915
1631.000000	29.695086
1630.000000	29.559488
1629.000000	29.436619
1628.000000	29.330897
1627.000000	29.213918
1626.000000	29.095468
1625.000000	28.970074
1624.000000	28.845206
1623.000000	28.731173
1622.000000	28.636707
1621.000000	28.518782
1620.000000	28.389391
1619.000000	28.285773
1618.000000	28.196251
1617.000000	28.078852
1616.000000	27.962189
1615.000000	27.858782
