PE UV       SUBTECH     SPECTRUM    ASCII       PEDS        4.00        
   -1
CICIMAUCR0098-1.Sample.ASC
24/04/17
15:24:50.00
24/04/17
15:24:50.00
Vinicio Soto Monge
C. cupreomarginata
250,000000
1
Lambda 1050
1050L1511233
PerkinElmer UV WinLab 6.3.2.0749 / 2.02.05 Lambda 900 UV/VIS/NIR, Aug  7 2015 09:38:08

0
0
3350/servo 860,8/2
0
0
UV/VIS
1
1
1
DoubleDePol,CommonBeamDepol,RBeamAtt,SBeamAtt,60mm sphere, WB InGaAs Detector
0
0
0
0
Program
Program
3350/servo 860,8/2
3350/0,2 860,8/0,2
3350/0,2 860,8/0,2
0
15.00
 
 
 
0
 
860,8
319,2
860,8
Front
100
on
S:100 R:100
0
0
0
0
 
0
 
 
 
0
 
 
0
0
0
0
0
 
 
 
 
0
0


0
0
#HDR
-1
-1
#GR
nm
%R
1.0
0.0
2500,000000
-1,000000
2251
8
65,024400
5,292200
#DATA
2500.000000	7.058642
2499.000000	7.000931
2498.000000	7.038772
2497.000000	7.055147
2496.000000	7.119547
2495.000000	6.968681
2494.000000	6.921055
2493.000000	6.917461
2492.000000	6.946915
2491.000000	6.873629
2490.000000	6.913167
2489.000000	6.876025
2488.000000	6.874028
2487.000000	6.967882
2486.000000	6.852162
2485.000000	6.922054
2484.000000	6.910372
2483.000000	6.943720
2482.000000	6.934235
2481.000000	6.884013
2480.000000	6.906278
2479.000000	6.875027
2478.000000	6.862446
2477.000000	6.906977
2476.000000	6.860649
2475.000000	6.884312
2474.000000	6.877323
2473.000000	6.922353
2472.000000	6.870434
2471.000000	6.919158
2470.000000	6.894197
2469.000000	6.903782
2468.000000	6.919158
2467.000000	6.893897
2466.000000	6.957998
2465.000000	6.937230
2464.000000	6.954304
2463.000000	6.968981
2462.000000	6.980762
2461.000000	7.037874
2460.000000	6.993443
2459.000000	7.044663
2458.000000	7.075515
2457.000000	7.101076
2456.000000	7.123641
2455.000000	7.160384
2454.000000	7.197426
2453.000000	7.244553
2452.000000	7.273808
2451.000000	7.310251
2450.000000	7.331518
2449.000000	7.388430
2448.000000	7.453229
2447.000000	7.459819
2446.000000	7.500655
2445.000000	7.541891
2444.000000	7.580731
2443.000000	7.629855
2442.000000	7.679278
2441.000000	7.697050
2440.000000	7.755060
2439.000000	7.794899
2438.000000	7.823654
2437.000000	7.874575
2436.000000	7.902531
2435.000000	7.909820
2434.000000	7.950757
2433.000000	7.999281
2432.000000	8.033428
2431.000000	8.056892
2430.000000	8.078658
2429.000000	8.097229
2428.000000	8.136468
2427.000000	8.147651
2426.000000	8.167221
2425.000000	8.192082
2424.000000	8.228126
2423.000000	8.233617
2422.000000	8.263172
2421.000000	8.288732
2420.000000	8.281743
2419.000000	8.256282
2418.000000	8.251789
2417.000000	8.264869
2416.000000	8.266966
2415.000000	8.275552
2414.000000	8.280644
2413.000000	8.303709
2412.000000	8.305106
2411.000000	8.320682
2410.000000	8.324377
2409.000000	8.329568
2408.000000	8.327771
2407.000000	8.346942
2406.000000	8.356926
2405.000000	8.367709
2404.000000	8.365513
2403.000000	8.375297
2402.000000	8.385781
2401.000000	8.399061
2400.000000	8.398761
2399.000000	8.415635
2398.000000	8.435005
2397.000000	8.441495
2396.000000	8.448783
2395.000000	8.445688
2394.000000	8.449482
2393.000000	8.465358
2392.000000	8.471748
2391.000000	8.481732
2390.000000	8.487823
2389.000000	8.495211
2388.000000	8.505096
2387.000000	8.508790
2386.000000	8.513183
2385.000000	8.519773
2384.000000	8.522669
2383.000000	8.513084
2382.000000	8.491018
2381.000000	8.496809
2380.000000	8.494912
2379.000000	8.465458
2378.000000	8.458269
2377.000000	8.473245
2376.000000	8.451280
2375.000000	8.433707
2374.000000	8.437102
2373.000000	8.411841
2372.000000	8.402056
2371.000000	8.388577
2370.000000	8.358324
2369.000000	8.344745
2368.000000	8.318785
2367.000000	8.301512
2366.000000	8.286435
2365.000000	8.255683
2364.000000	8.226429
2363.000000	8.196974
2362.000000	8.169317
2361.000000	8.131476
2360.000000	8.084050
2359.000000	8.050302
2358.000000	8.017952
2357.000000	7.985503
2356.000000	7.969627
2355.000000	7.950457
2354.000000	7.932984
2353.000000	7.923898
2352.000000	7.916809
2351.000000	7.913514
2350.000000	7.912216
2349.000000	7.922500
2348.000000	7.933384
2347.000000	7.953153
2346.000000	7.981309
2345.000000	8.005571
2344.000000	8.028835
2343.000000	8.044211
2342.000000	8.064480
2341.000000	8.081454
2340.000000	8.096830
2339.000000	8.121991
2338.000000	8.123988
2337.000000	8.117498
2336.000000	8.113704
2335.000000	8.093535
2334.000000	8.090540
2333.000000	8.098128
2332.000000	8.080855
2331.000000	8.065878
2330.000000	8.044112
2329.000000	8.010364
2328.000000	7.976816
2327.000000	7.938476
2326.000000	7.904528
2325.000000	7.871679
2324.000000	7.841027
2323.000000	7.809176
2322.000000	7.762748
2321.000000	7.716520
2320.000000	7.661106
2319.000000	7.601698
2318.000000	7.553673
2317.000000	7.507844
2316.000000	7.461416
2315.000000	7.408299
2314.000000	7.350089
2313.000000	7.287287
2312.000000	7.252840
2311.000000	7.216297
2310.000000	7.183548
2309.000000	7.137220
2308.000000	7.121544
2307.000000	7.109662
2306.000000	7.103272
2305.000000	7.084202
2304.000000	7.100377
2303.000000	7.111460
2302.000000	7.139816
2301.000000	7.156590
2300.000000	7.193332
2299.000000	7.245152
2298.000000	7.288684
2297.000000	7.327724
2296.000000	7.379843
2295.000000	7.425472
2294.000000	7.470602
2293.000000	7.501254
2292.000000	7.525816
2291.000000	7.537099
2290.000000	7.554472
2289.000000	7.568750
2288.000000	7.584026
2287.000000	7.584026
2286.000000	7.572943
2285.000000	7.571545
2284.000000	7.547483
2283.000000	7.532206
2282.000000	7.538996
2281.000000	7.495963
2280.000000	7.478889
2279.000000	7.455725
2278.000000	7.443045
2277.000000	7.438652
2276.000000	7.400211
2275.000000	7.384735
2274.000000	7.373852
2273.000000	7.362370
2272.000000	7.348292
2271.000000	7.353384
2270.000000	7.357877
2269.000000	7.371057
2268.000000	7.413091
2267.000000	7.423375
2266.000000	7.462315
2265.000000	7.528013
2264.000000	7.576038
2263.000000	7.654417
2262.000000	7.740783
2261.000000	7.832540
2260.000000	7.935181
2259.000000	8.043612
2258.000000	8.149947
2257.000000	8.279846
2256.000000	8.412739
2255.000000	8.526363
2254.000000	8.643381
2253.000000	8.775876
2252.000000	8.897986
2251.000000	9.021594
2250.000000	9.123935
2249.000000	9.218488
2248.000000	9.339101
2247.000000	9.412787
2246.000000	9.533000
2245.000000	9.607385
2244.000000	9.691754
2243.000000	9.776921
2242.000000	9.836928
2241.000000	9.893540
2240.000000	9.984200
2239.000000	10.019345
2238.000000	10.076257
2237.000000	10.117493
2236.000000	10.177400
2235.000000	10.214742
2234.000000	10.257076
2233.000000	10.282437
2232.000000	10.334755
2231.000000	10.345339
2230.000000	10.374194
2229.000000	10.401053
2228.000000	10.417527
2227.000000	10.444884
2226.000000	10.441689
2225.000000	10.433302
2224.000000	10.459662
2223.000000	10.458863
2222.000000	10.464654
2221.000000	10.479930
2220.000000	10.460760
2219.000000	10.459761
2218.000000	10.452473
2217.000000	10.447680
2216.000000	10.439792
2215.000000	10.440791
2214.000000	10.427012
2213.000000	10.398856
2212.000000	10.415031
2211.000000	10.396360
2210.000000	10.387474
2209.000000	10.376291
2208.000000	10.375093
2207.000000	10.350431
2206.000000	10.365508
2205.000000	10.363810
2204.000000	10.360815
2203.000000	10.365408
2202.000000	10.341345
2201.000000	10.331461
2200.000000	10.338649
2199.000000	10.314387
2198.000000	10.333058
2197.000000	10.325670
2196.000000	10.312989
2195.000000	10.300209
2194.000000	10.300509
2193.000000	10.305101
2192.000000	10.310094
2191.000000	10.302805
2190.000000	10.292221
2189.000000	10.279741
2188.000000	10.279441
2187.000000	10.258674
2186.000000	10.258174
2185.000000	10.266661
2184.000000	10.252283
2183.000000	10.247990
2182.000000	10.251185
2181.000000	10.241101
2180.000000	10.244595
2179.000000	10.243297
2178.000000	10.219634
2177.000000	10.236208
2176.000000	10.237207
2175.000000	10.241201
2174.000000	10.241500
2173.000000	10.229020
2172.000000	10.229020
2171.000000	10.242299
2170.000000	10.246592
2169.000000	10.252383
2168.000000	10.250386
2167.000000	10.271454
2166.000000	10.295716
2165.000000	10.304103
2164.000000	10.331261
2163.000000	10.347835
2162.000000	10.344840
2161.000000	10.348534
2160.000000	10.364609
2159.000000	10.385776
2158.000000	10.408441
2157.000000	10.411536
2156.000000	10.425714
2155.000000	10.455967
2154.000000	10.483724
2153.000000	10.510882
2152.000000	10.520267
2151.000000	10.534346
2150.000000	10.551319
2149.000000	10.562502
2148.000000	10.593354
2147.000000	10.605435
2146.000000	10.608131
2145.000000	10.646971
2144.000000	10.663645
2143.000000	10.654359
2142.000000	10.674428
2141.000000	10.688107
2140.000000	10.700887
2139.000000	10.712469
2138.000000	10.710272
2137.000000	10.714965
2136.000000	10.738728
2135.000000	10.747914
2134.000000	10.744519
2133.000000	10.755402
2132.000000	10.754005
2131.000000	10.739627
2130.000000	10.736632
2129.000000	10.742522
2128.000000	10.731340
2127.000000	10.724850
2126.000000	10.731240
2125.000000	10.720956
2124.000000	10.713567
2123.000000	10.697093
2122.000000	10.672731
2121.000000	10.660250
2120.000000	10.645872
2119.000000	10.609030
2118.000000	10.606334
2117.000000	10.609928
2116.000000	10.585167
2115.000000	10.559207
2114.000000	10.548224
2113.000000	10.528155
2112.000000	10.491113
2111.000000	10.477733
2110.000000	10.472342
2109.000000	10.448080
2108.000000	10.411536
2107.000000	10.398257
2106.000000	10.387174
2105.000000	10.356222
2104.000000	10.328465
2103.000000	10.329264
2102.000000	10.317382
2101.000000	10.284034
2100.000000	10.260770
2099.000000	10.250986
2098.000000	10.246992
2097.000000	10.230318
2096.000000	10.211447
2095.000000	10.193575
2094.000000	10.172607
2093.000000	10.151939
2092.000000	10.146448
2091.000000	10.144750
2090.000000	10.133967
2089.000000	10.113000
2088.000000	10.093630
2087.000000	10.082447
2086.000000	10.071564
2085.000000	10.054990
2084.000000	10.044506
2083.000000	10.041211
2082.000000	10.028231
2081.000000	10.020044
2080.000000	10.001573
2079.000000	9.973117
2078.000000	9.956043
2077.000000	9.940168
2076.000000	9.926989
2075.000000	9.912611
2074.000000	9.893441
2073.000000	9.892842
2072.000000	9.871674
2071.000000	9.854301
2070.000000	9.826544
2069.000000	9.811368
2068.000000	9.795093
2067.000000	9.791898
2066.000000	9.791599
2065.000000	9.778519
2064.000000	9.756853
2063.000000	9.734188
2062.000000	9.731592
2061.000000	9.739080
2060.000000	9.732590
2059.000000	9.730893
2058.000000	9.726200
2057.000000	9.729495
2056.000000	9.747667
2055.000000	9.753558
2054.000000	9.772928
2053.000000	9.790800
2052.000000	9.820055
2051.000000	9.869478
2050.000000	9.905522
2049.000000	9.933279
2048.000000	9.981704
2047.000000	10.028830
2046.000000	10.091333
2045.000000	10.167615
2044.000000	10.213144
2043.000000	10.269756
2042.000000	10.377289
2041.000000	10.415929
2040.000000	10.468747
2039.000000	10.545928
2038.000000	10.595251
2037.000000	10.645473
2036.000000	10.704382
2035.000000	10.764289
2034.000000	10.826692
2033.000000	10.873120
2032.000000	10.920047
2031.000000	10.967273
2030.000000	11.021290
2029.000000	11.053440
2028.000000	11.089484
2027.000000	11.140904
2026.000000	11.166963
2025.000000	11.200511
2024.000000	11.225373
2023.000000	11.261517
2022.000000	11.316232
2021.000000	11.329910
2020.000000	11.359365
2019.000000	11.406492
2018.000000	11.410086
2017.000000	11.447528
2016.000000	11.466998
2015.000000	11.484870
2014.000000	11.515422
2013.000000	11.519916
2012.000000	11.542680
2011.000000	11.556958
2010.000000	11.572434
2009.000000	11.578724
2008.000000	11.584515
2007.000000	11.577826
2006.000000	11.582119
2005.000000	11.580621
2004.000000	11.562350
2003.000000	11.571635
2002.000000	11.549370
2001.000000	11.538287
2000.000000	11.517120
1999.000000	11.509831
1998.000000	11.518118
1997.000000	11.473488
1996.000000	11.438142
1995.000000	11.423665
1994.000000	11.374941
1993.000000	11.361661
1992.000000	11.333305
1991.000000	11.313636
1990.000000	11.273099
1989.000000	11.234858
1988.000000	11.215388
1987.000000	11.163269
1986.000000	11.121634
1985.000000	11.092180
1984.000000	11.054538
1983.000000	11.015798
1982.000000	10.955492
1981.000000	10.940715
1980.000000	10.912059
1979.000000	10.855447
1978.000000	10.830086
1977.000000	10.805824
1976.000000	10.728045
1975.000000	10.709673
1974.000000	10.631894
1973.000000	10.615619
1972.000000	10.602340
1971.000000	10.558408
1970.000000	10.514776
1969.000000	10.486320
1968.000000	10.456267
1967.000000	10.427711
1966.000000	10.384478
1965.000000	10.350132
1964.000000	10.326868
1963.000000	10.301807
1962.000000	10.234711
1961.000000	10.236408
1960.000000	10.180195
1959.000000	10.161225
1958.000000	10.130672
1957.000000	10.087439
1956.000000	10.088038
1955.000000	10.048200
1954.000000	9.995582
1953.000000	9.970621
1952.000000	9.971519
1951.000000	9.947856
1950.000000	9.907818
1949.000000	9.900829
1948.000000	9.872273
1947.000000	9.860691
1946.000000	9.833434
1945.000000	9.816660
1944.000000	9.805277
1943.000000	9.783312
1942.000000	9.783112
1941.000000	9.802781
1940.000000	9.803880
1939.000000	9.804579
1938.000000	9.813864
1937.000000	9.818257
1936.000000	9.819955
1935.000000	9.851905
1934.000000	9.864186
1933.000000	9.890046
1932.000000	9.928087
1931.000000	9.975613
1930.000000	9.999776
1929.000000	10.054191
1928.000000	10.106410
1927.000000	10.171110
1926.000000	10.220133
1925.000000	10.278842
1924.000000	10.347236
1923.000000	10.405745
1922.000000	10.506589
1921.000000	10.597148
1920.000000	10.695995
1919.000000	10.782960
1918.000000	10.879011
1917.000000	10.967473
1916.000000	11.062226
1915.000000	11.160474
1914.000000	11.283882
1913.000000	11.432052
1912.000000	11.568141
1911.000000	11.690950
1910.000000	11.814558
1909.000000	11.907514
1908.000000	12.023134
1907.000000	12.171803
1906.000000	12.321471
1905.000000	12.527851
1904.000000	12.704976
1903.000000	12.841164
1902.000000	12.977153
1901.000000	13.146690
1900.000000	13.341188
1899.000000	13.529396
1898.000000	13.711114
1897.000000	13.896726
1896.000000	14.046094
1895.000000	14.194963
1894.000000	14.364599
1893.000000	14.537431
1892.000000	14.746007
1891.000000	14.983938
1890.000000	15.214380
1889.000000	15.405383
1888.000000	15.626840
1887.000000	15.844002
1886.000000	16.079736
1885.000000	16.369187
1884.000000	16.720641
1883.000000	17.103148
1882.000000	17.468980
1881.000000	17.830119
1880.000000	18.181474
1879.000000	18.516653
1878.000000	18.881287
1877.000000	19.232043
1876.000000	19.550249
1875.000000	19.861266
1874.000000	20.157805
1873.000000	20.433577
1872.000000	20.687283
1871.000000	20.914630
1870.000000	21.115019
1869.000000	21.304825
1868.000000	21.462779
1867.000000	21.559729
1866.000000	21.650488
1865.000000	21.705403
1864.000000	21.738851
1863.000000	21.767107
1862.000000	21.811139
1861.000000	21.850078
1860.000000	21.890316
1859.000000	21.916675
1858.000000	21.921068
1857.000000	21.907789
1856.000000	21.859663
1855.000000	21.820224
1854.000000	21.801254
1853.000000	21.742944
1852.000000	21.676148
1851.000000	21.601963
1850.000000	21.523585
1849.000000	21.475560
1848.000000	21.459285
1847.000000	21.402673
1846.000000	21.324794
1845.000000	21.222253
1844.000000	21.135188
1843.000000	21.092055
1842.000000	21.093253
1841.000000	21.098345
1840.000000	21.064198
1839.000000	21.000896
1838.000000	20.957364
1837.000000	20.915928
1836.000000	20.859915
1835.000000	20.805600
1834.000000	20.721031
1833.000000	20.631570
1832.000000	20.541010
1831.000000	20.468623
1830.000000	20.398631
1829.000000	20.329339
1828.000000	20.250162
1827.000000	20.166991
1826.000000	20.109181
1825.000000	20.044781
1824.000000	19.972094
1823.000000	19.913884
1822.000000	19.909890
1821.000000	19.907893
1820.000000	19.894913
1819.000000	19.859269
1818.000000	19.820329
1817.000000	19.791075
1816.000000	19.784585
1815.000000	19.781190
1814.000000	19.774500
1813.000000	19.769408
1812.000000	19.741751
1811.000000	19.720384
1810.000000	19.690331
1809.000000	19.654786
1808.000000	19.619042
1807.000000	19.583297
1806.000000	19.551247
1805.000000	19.506117
1804.000000	19.445212
1803.000000	19.390596
1802.000000	19.356749
1801.000000	19.331288
1800.000000	19.294146
1799.000000	19.237035
1798.000000	19.180223
1797.000000	19.142681
1796.000000	19.103342
1795.000000	19.063904
1794.000000	19.001101
1793.000000	18.938299
1792.000000	18.916333
1791.000000	18.877693
1790.000000	18.823776
1789.000000	18.761074
1788.000000	18.710852
1787.000000	18.649147
1786.000000	18.579356
1785.000000	18.516154
1784.000000	18.423598
1783.000000	18.362992
1782.000000	18.303983
1781.000000	18.222909
1780.000000	18.143133
1779.000000	18.080430
1778.000000	18.005347
1777.000000	17.919181
1776.000000	17.836110
1775.000000	17.741357
1774.000000	17.650698
1773.000000	17.536475
1772.000000	17.423550
1771.000000	17.302838
1770.000000	17.194606
1769.000000	17.097456
1768.000000	16.997512
1767.000000	16.923826
1766.000000	16.847744
1765.000000	16.769566
1764.000000	16.734919
1763.000000	16.719044
1762.000000	16.729628
1761.000000	16.773859
1760.000000	16.828474
1759.000000	16.891876
1758.000000	16.936107
1757.000000	17.008495
1756.000000	17.053225
1755.000000	17.105244
1754.000000	17.136396
1753.000000	17.131703
1752.000000	17.121120
1751.000000	17.125613
1750.000000	17.088570
1749.000000	17.037849
1748.000000	16.984632
1747.000000	16.948887
1746.000000	16.847445
1745.000000	16.746601
1744.000000	16.621196
1743.000000	16.477120
1742.000000	16.320463
1741.000000	16.149828
1740.000000	15.963717
1739.000000	15.788089
1738.000000	15.629635
1737.000000	15.478769
1736.000000	15.367243
1735.000000	15.293058
1734.000000	15.268596
1733.000000	15.278181
1732.000000	15.315323
1731.000000	15.362849
1730.000000	15.423056
1729.000000	15.519806
1728.000000	15.643114
1727.000000	15.739465
1726.000000	15.822136
1725.000000	15.896421
1724.000000	15.935361
1723.000000	15.963717
1722.000000	15.991473
1721.000000	15.985583
1720.000000	15.994169
1719.000000	16.022425
1718.000000	16.019230
1717.000000	16.044990
1716.000000	16.082133
1715.000000	16.126564
1714.000000	16.156717
1713.000000	16.209136
1712.000000	16.258559
1711.000000	16.281124
1710.000000	16.297498
1709.000000	16.291508
1708.000000	16.279726
1707.000000	16.265348
1706.000000	16.237991
1705.000000	16.195457
1704.000000	16.161010
1703.000000	16.090520
1702.000000	16.026120
1701.000000	15.927872
1700.000000	15.819640
1699.000000	15.689942
1698.000000	15.586203
1697.000000	15.495344
1696.000000	15.410475
1695.000000	15.405184
1694.000000	15.442027
1693.000000	15.490751
1692.000000	15.616156
1691.000000	15.748551
1690.000000	15.854386
1689.000000	15.958624
1688.000000	16.023324
1687.000000	16.029614
1686.000000	16.044391
1685.000000	16.047786
1684.000000	16.085128
1683.000000	16.222016
1682.000000	16.429493
1681.000000	16.750096
1680.000000	17.134799
1679.000000	17.579308
1678.000000	18.050976
1677.000000	18.498581
1676.000000	18.893668
1675.000000	19.264392
1674.000000	19.584196
1673.000000	19.826220
1672.000000	20.057761
1671.000000	20.261844
1670.000000	20.430282
1669.000000	20.579251
1668.000000	20.712844
1667.000000	20.904846
1666.000000	20.977133
1665.000000	21.076878
1664.000000	21.140779
1663.000000	21.201585
1662.000000	21.231339
1661.000000	21.262990
1660.000000	21.312113
1659.000000	21.331184
1658.000000	21.342566
1657.000000	21.352051
1656.000000	21.350054
1655.000000	21.355146
1654.000000	21.338073
1653.000000	21.323995
1652.000000	21.309717
1651.000000	21.272974
1650.000000	21.243620
1649.000000	21.207076
1648.000000	21.187107
1647.000000	21.131893
1646.000000	21.075580
1645.000000	21.011081
1644.000000	20.957364
1643.000000	20.918524
1642.000000	20.866305
1641.000000	20.801007
1640.000000	20.725125
1639.000000	20.697867
1638.000000	20.619389
1637.000000	20.570964
1636.000000	20.503768
1635.000000	20.456242
1634.000000	20.378463
1633.000000	20.312266
1632.000000	20.231092
1631.000000	20.170885
1630.000000	20.086616
1629.000000	19.997754
1628.000000	19.928661
1627.000000	19.862264
1626.000000	19.789477
1625.000000	19.717289
1624.000000	19.644902
1623.000000	19.572814
1622.000000	19.502922
1621.000000	19.448407
1620.000000	19.358846
1619.000000	19.277272
1618.000000	19.218863
1617.000000	19.159655
1616.000000	19.110332
1615.000000	19.031654
1614.000000	18.967254
1613.000000	18.899159
1612.000000	18.837355
1611.000000	18.782241
1610.000000	18.722534
