PE UV       SUBTECH     SPECTRUM    ASCII       PEDS        4.00        
   -1
CICIMAUCR0100-1.Sample.ASC
24/04/18
15:25:56.00
24/04/18
15:25:56.00
Vinicio Soto Monge
C. cupreomarginata
250,000000
1
Lambda 1050
1050L1511233
PerkinElmer UV WinLab 6.3.2.0749 / 2.02.05 Lambda 900 UV/VIS/NIR, Aug  7 2015 09:38:08

0
0
3350/servo 860,8/2
0
0
UV/VIS
1
1
1
DoubleDePol,CommonBeamDepol,RBeamAtt,SBeamAtt,60mm sphere, WB InGaAs Detector
0
0
0
0
Program
Program
3350/servo 860,8/2
3350/0,2 860,8/0,2
3350/0,2 860,8/0,2
0
15.00
 
 
 
0
 
860,8
319,2
860,8
Front
100
on
S:100 R:100
0
0
0
0
 
0
 
 
 
0
 
 
0
0
0
0
0
 
 
 
 
0
0


0
0
#HDR
-1
-1
#GR
nm
%R
1.0
0.0
2500,000000
-1,000000
2251
8
67,533200
4,656700
#DATA
2500.000000	9.651459
2499.000000	9.582559
2498.000000	9.510152
2497.000000	9.510152
2496.000000	9.534391
2495.000000	9.448163
2494.000000	9.521188
2493.000000	9.408762
2492.000000	9.418664
2491.000000	9.451463
2490.000000	9.412475
2489.000000	9.375549
2488.000000	9.386276
2487.000000	9.346050
2486.000000	9.364926
2485.000000	9.396281
2484.000000	9.317583
2483.000000	9.361213
2482.000000	9.371321
2481.000000	9.345019
2480.000000	9.363275
2479.000000	9.375240
2478.000000	9.328825
2477.000000	9.348732
2476.000000	9.372765
2475.000000	9.414950
2474.000000	9.349248
2473.000000	9.342337
2472.000000	9.359356
2471.000000	9.391227
2470.000000	9.424852
2469.000000	9.412991
2468.000000	9.415466
2467.000000	9.407833
2466.000000	9.459921
2465.000000	9.477249
2464.000000	9.536144
2463.000000	9.553575
2462.000000	9.574101
2461.000000	9.625157
2460.000000	9.666518
2459.000000	9.716542
2458.000000	9.802874
2457.000000	9.860531
2456.000000	9.911071
2455.000000	9.959342
2454.000000	10.036184
2453.000000	10.117358
2452.000000	10.202246
2451.000000	10.263100
2450.000000	10.372020
2449.000000	10.425655
2448.000000	10.489707
2447.000000	10.588519
2446.000000	10.679079
2445.000000	10.764172
2444.000000	10.825646
2443.000000	10.899806
2442.000000	10.982630
2441.000000	11.079585
2440.000000	11.159006
2439.000000	11.218623
2438.000000	11.300313
2437.000000	11.363127
2436.000000	11.426870
2435.000000	11.520731
2434.000000	11.571477
2433.000000	11.624699
2432.000000	11.699066
2431.000000	11.751050
2430.000000	11.799528
2429.000000	11.862136
2428.000000	11.923507
2427.000000	11.978688
2426.000000	11.994366
2425.000000	12.043566
2424.000000	12.111022
2423.000000	12.142068
2422.000000	12.179406
2421.000000	12.205501
2420.000000	12.234691
2419.000000	12.269244
2418.000000	12.296783
2417.000000	12.327108
2416.000000	12.353306
2415.000000	12.385281
2414.000000	12.420659
2413.000000	12.454284
2412.000000	12.472540
2411.000000	12.499770
2410.000000	12.520502
2409.000000	12.539171
2408.000000	12.558871
2407.000000	12.582388
2406.000000	12.607039
2405.000000	12.636023
2404.000000	12.675320
2403.000000	12.692752
2402.000000	12.699765
2401.000000	12.709564
2400.000000	12.742570
2399.000000	12.789604
2398.000000	12.807344
2397.000000	12.830139
2396.000000	12.864280
2395.000000	12.885733
2394.000000	12.910282
2393.000000	12.932251
2392.000000	12.960306
2391.000000	12.970208
2390.000000	12.992693
2389.000000	13.010950
2388.000000	13.020955
2387.000000	13.034570
2386.000000	13.037767
2385.000000	13.033229
2384.000000	13.039314
2383.000000	13.023636
2382.000000	13.023533
2381.000000	13.052104
2380.000000	13.036529
2379.000000	13.007030
2378.000000	13.004349
2377.000000	12.983823
2376.000000	12.956903
2375.000000	12.952261
2374.000000	12.936067
2373.000000	12.891716
2372.000000	12.860360
2371.000000	12.842619
2370.000000	12.807551
2369.000000	12.771450
2368.000000	12.730502
2367.000000	12.679652
2366.000000	12.622201
2365.000000	12.573827
2364.000000	12.527928
2363.000000	12.461607
2362.000000	12.389406
2361.000000	12.327623
2360.000000	12.281002
2359.000000	12.209833
2358.000000	12.130619
2357.000000	12.092868
2356.000000	12.044494
2355.000000	11.996429
2354.000000	11.970437
2353.000000	11.939700
2352.000000	11.915358
2351.000000	11.927529
2350.000000	11.931242
2349.000000	11.941557
2348.000000	11.970540
2347.000000	12.010560
2346.000000	12.052127
2345.000000	12.096582
2344.000000	12.146400
2343.000000	12.188792
2342.000000	12.231597
2341.000000	12.276361
2340.000000	12.322260
2339.000000	12.341548
2338.000000	12.365064
2337.000000	12.402093
2336.000000	12.400443
2335.000000	12.392501
2334.000000	12.397761
2333.000000	12.355575
2332.000000	12.324632
2331.000000	12.308335
2330.000000	12.268522
2329.000000	12.220870
2328.000000	12.165275
2327.000000	12.103286
2326.000000	12.051611
2325.000000	11.984877
2324.000000	11.900918
2323.000000	11.823663
2322.000000	11.741252
2321.000000	11.627072
2320.000000	11.526094
2319.000000	11.420269
2318.000000	11.298250
2317.000000	11.181491
2316.000000	11.074016
2315.000000	10.956122
2314.000000	10.837404
2313.000000	10.727247
2312.000000	10.626579
2311.000000	10.530449
2310.000000	10.440404
2309.000000	10.377590
2308.000000	10.313950
2307.000000	10.252270
2306.000000	10.246804
2305.000000	10.239171
2304.000000	10.245360
2303.000000	10.292290
2302.000000	10.340046
2301.000000	10.419982
2300.000000	10.482074
2299.000000	10.562939
2298.000000	10.672787
2297.000000	10.768401
2296.000000	10.865459
2295.000000	10.972832
2294.000000	11.060504
2293.000000	11.123318
2292.000000	11.194075
2291.000000	11.246369
2290.000000	11.296496
2289.000000	11.324448
2288.000000	11.335691
2287.000000	11.330637
2286.000000	11.323726
2285.000000	11.312999
2284.000000	11.270607
2283.000000	11.249050
2282.000000	11.222542
2281.000000	11.152611
2280.000000	11.113107
2279.000000	11.044413
2278.000000	11.002950
2277.000000	10.973863
2276.000000	10.922291
2275.000000	10.871442
2274.000000	10.853288
2273.000000	10.827605
2272.000000	10.822861
2271.000000	10.809246
2270.000000	10.829049
2269.000000	10.859064
2268.000000	10.914040
2267.000000	11.013161
2266.000000	11.122390
2265.000000	11.215116
2264.000000	11.364055
2263.000000	11.537440
2262.000000	11.710309
2261.000000	11.925157
2260.000000	12.142893
2259.000000	12.396317
2258.000000	12.672123
2257.000000	12.931220
2256.000000	13.197021
2255.000000	13.459934
2254.000000	13.745642
2253.000000	13.996900
2252.000000	14.248570
2251.000000	14.532937
2250.000000	14.748610
2249.000000	14.993680
2248.000000	15.205124
2247.000000	15.407389
2246.000000	15.593254
2245.000000	15.754983
2244.000000	15.918156
2243.000000	16.074419
2242.000000	16.218407
2241.000000	16.347234
2240.000000	16.451821
2239.000000	16.583329
2238.000000	16.650682
2237.000000	16.748565
2236.000000	16.850678
2235.000000	16.933915
2234.000000	16.993119
2233.000000	17.050983
2232.000000	17.095334
2231.000000	17.151960
2230.000000	17.177746
2229.000000	17.231381
2228.000000	17.249431
2227.000000	17.243345
2226.000000	17.238807
2225.000000	17.264180
2224.000000	17.251906
2223.000000	17.239632
2222.000000	17.214053
2221.000000	17.197446
2220.000000	17.187545
2219.000000	17.180943
2218.000000	17.139686
2217.000000	17.116891
2216.000000	17.077594
2215.000000	17.032623
2214.000000	17.014779
2213.000000	16.974553
2212.000000	16.937318
2211.000000	16.922981
2210.000000	16.879145
2209.000000	16.847274
2208.000000	16.815815
2207.000000	16.819941
2206.000000	16.796837
2205.000000	16.771670
2204.000000	16.770844
2203.000000	16.722264
2202.000000	16.716281
2201.000000	16.705039
2200.000000	16.678531
2199.000000	16.669557
2198.000000	16.641193
2197.000000	16.636551
2196.000000	16.627372
2195.000000	16.629022
2194.000000	16.627475
2193.000000	16.591993
2192.000000	16.579513
2191.000000	16.572809
2190.000000	16.560844
2189.000000	16.561360
2188.000000	16.541247
2187.000000	16.550117
2186.000000	16.522371
2185.000000	16.504424
2184.000000	16.484105
2183.000000	16.469768
2182.000000	16.446045
2181.000000	16.429336
2180.000000	16.437175
2179.000000	16.416030
2178.000000	16.401693
2177.000000	16.391895
2176.000000	16.395711
2175.000000	16.387460
2174.000000	16.394164
2173.000000	16.389419
2172.000000	16.396742
2171.000000	16.391585
2170.000000	16.411801
2169.000000	16.428614
2168.000000	16.438309
2167.000000	16.470800
2166.000000	16.504321
2165.000000	16.523093
2164.000000	16.536193
2163.000000	16.561360
2162.000000	16.587042
2161.000000	16.621905
2160.000000	16.651095
2159.000000	16.688948
2158.000000	16.723708
2157.000000	16.768060
2156.000000	16.809626
2155.000000	16.847996
2154.000000	16.910398
2153.000000	16.968261
2152.000000	17.011272
2151.000000	17.075531
2150.000000	17.128856
2149.000000	17.177746
2148.000000	17.230349
2147.000000	17.264902
2146.000000	17.316681
2145.000000	17.356391
2144.000000	17.415698
2143.000000	17.463351
2142.000000	17.485733
2141.000000	17.539574
2140.000000	17.602698
2139.000000	17.631887
2138.000000	17.658808
2137.000000	17.694702
2136.000000	17.724820
2135.000000	17.759992
2134.000000	17.789078
2133.000000	17.809398
2132.000000	17.831367
2131.000000	17.875925
2130.000000	17.879535
2129.000000	17.880876
2128.000000	17.908312
2127.000000	17.917905
2126.000000	17.925640
2125.000000	17.930282
2124.000000	17.923268
2123.000000	17.914810
2122.000000	17.916976
2121.000000	17.906662
2120.000000	17.887684
2119.000000	17.877472
2118.000000	17.847148
2117.000000	17.834771
2116.000000	17.823838
2115.000000	17.787531
2114.000000	17.760920
2113.000000	17.750606
2112.000000	17.744520
2111.000000	17.704294
2110.000000	17.659530
2109.000000	17.637457
2108.000000	17.615384
2107.000000	17.580006
2106.000000	17.554117
2105.000000	17.527403
2104.000000	17.504814
2103.000000	17.487590
2102.000000	17.451592
2101.000000	17.423847
2100.000000	17.387128
2099.000000	17.351749
2098.000000	17.345251
2097.000000	17.315855
2096.000000	17.276970
2095.000000	17.256135
2094.000000	17.235094
2093.000000	17.221066
2092.000000	17.212609
2091.000000	17.182594
2090.000000	17.152063
2089.000000	17.139892
2088.000000	17.135457
2087.000000	17.100904
2086.000000	17.066764
2085.000000	17.055315
2084.000000	17.033758
2083.000000	16.999101
2082.000000	16.965992
2081.000000	16.932986
2080.000000	16.915452
2079.000000	16.880692
2078.000000	16.832009
2077.000000	16.790029
2076.000000	16.754857
2075.000000	16.713909
2074.000000	16.671208
2073.000000	16.630775
2072.000000	16.584567
2071.000000	16.541144
2070.000000	16.496482
2069.000000	16.446148
2068.000000	16.395298
2067.000000	16.350637
2066.000000	16.300406
2065.000000	16.253682
2064.000000	16.220573
2063.000000	16.173540
2062.000000	16.159409
2061.000000	16.135789
2060.000000	16.095976
2059.000000	16.080607
2058.000000	16.066992
2057.000000	16.068849
2056.000000	16.063279
2055.000000	16.086899
2054.000000	16.123102
2053.000000	16.171786
2052.000000	16.220264
2051.000000	16.283388
2050.000000	16.365696
2049.000000	16.446767
2048.000000	16.540525
2047.000000	16.637789
2046.000000	16.753516
2045.000000	16.870687
2044.000000	17.002711
2043.000000	17.113591
2042.000000	17.244377
2041.000000	17.354741
2040.000000	17.467889
2039.000000	17.605380
2038.000000	17.738435
2037.000000	17.843951
2036.000000	17.960812
2035.000000	18.053951
2034.000000	18.141417
2033.000000	18.243839
2032.000000	18.322228
2031.000000	18.421968
2030.000000	18.515931
2029.000000	18.597931
2028.000000	18.644139
2027.000000	18.695195
2026.000000	18.765230
2025.000000	18.829385
2024.000000	18.893128
2023.000000	18.941193
2022.000000	19.002873
2021.000000	19.034125
2020.000000	19.086935
2019.000000	19.120456
2018.000000	19.166252
2017.000000	19.199155
2016.000000	19.211842
2015.000000	19.238556
2014.000000	19.242991
2013.000000	19.284351
2012.000000	19.293738
2011.000000	19.274243
2010.000000	19.267230
2009.000000	19.291056
2008.000000	19.267952
2007.000000	19.271871
2006.000000	19.249902
2005.000000	19.234843
2004.000000	19.198639
2003.000000	19.165221
2002.000000	19.108182
2001.000000	19.075589
2000.000000	19.053103
1999.000000	18.997303
1998.000000	18.951507
1997.000000	18.894159
1996.000000	18.818967
1995.000000	18.774100
1994.000000	18.709326
1993.000000	18.621447
1992.000000	18.557601
1991.000000	18.477459
1990.000000	18.400411
1989.000000	18.345435
1988.000000	18.246108
1987.000000	18.186078
1986.000000	18.091083
1985.000000	18.021770
1984.000000	17.897482
1983.000000	17.826416
1982.000000	17.721829
1981.000000	17.656436
1980.000000	17.566391
1979.000000	17.467064
1978.000000	17.380423
1977.000000	17.282643
1976.000000	17.202501
1975.000000	17.121739
1974.000000	17.024887
1973.000000	16.943197
1972.000000	16.862539
1971.000000	16.776724
1970.000000	16.706277
1969.000000	16.620977
1968.000000	16.537946
1967.000000	16.470181
1966.000000	16.403963
1965.000000	16.294837
1964.000000	16.232228
1963.000000	16.152808
1962.000000	16.081742
1961.000000	16.020887
1960.000000	15.926614
1959.000000	15.858745
1958.000000	15.776437
1957.000000	15.723730
1956.000000	15.632139
1955.000000	15.557360
1954.000000	15.486294
1953.000000	15.427708
1952.000000	15.331681
1951.000000	15.260512
1950.000000	15.197801
1949.000000	15.162629
1948.000000	15.108891
1947.000000	15.058866
1946.000000	14.983056
1945.000000	14.963871
1944.000000	14.916838
1943.000000	14.887442
1942.000000	14.864853
1941.000000	14.851238
1940.000000	14.839583
1939.000000	14.847319
1938.000000	14.833807
1937.000000	14.835251
1936.000000	14.852579
1935.000000	14.879809
1934.000000	14.901366
1933.000000	14.963356
1932.000000	15.004510
1931.000000	15.068768
1930.000000	15.141072
1929.000000	15.229775
1928.000000	15.330547
1927.000000	15.427914
1926.000000	15.509088
1925.000000	15.635646
1924.000000	15.786132
1923.000000	15.928677
1922.000000	16.063589
1921.000000	16.236354
1920.000000	16.402519
1919.000000	16.560019
1918.000000	16.746090
1917.000000	16.953821
1916.000000	17.152785
1915.000000	17.351852
1914.000000	17.577943
1913.000000	17.854781
1912.000000	18.089845
1911.000000	18.311501
1910.000000	18.582562
1909.000000	18.832789
1908.000000	19.094155
1907.000000	19.369548
1906.000000	19.702496
1905.000000	20.020900
1904.000000	20.346421
1903.000000	20.655027
1902.000000	20.993441
1901.000000	21.295240
1900.000000	21.669135
1899.000000	22.041174
1898.000000	22.370615
1897.000000	22.766171
1896.000000	23.116137
1895.000000	23.453314
1894.000000	23.819989
1893.000000	24.214411
1892.000000	24.624407
1891.000000	25.047399
1890.000000	25.457394
1889.000000	25.849753
1888.000000	26.292755
1887.000000	26.716469
1886.000000	27.171435
1885.000000	27.657861
1884.000000	28.221025
1883.000000	28.788212
1882.000000	29.311872
1881.000000	29.883184
1880.000000	30.439232
1879.000000	30.949999
1878.000000	31.446326
1877.000000	31.897889
1876.000000	32.328720
1875.000000	32.732527
1874.000000	33.116221
1873.000000	33.493933
1872.000000	33.816773
1871.000000	34.087628
1870.000000	34.319598
1869.000000	34.545998
1868.000000	34.761465
1867.000000	34.909270
1866.000000	35.012001
1865.000000	35.121746
1864.000000	35.227675
1863.000000	35.333603
1862.000000	35.415499
1861.000000	35.494920
1860.000000	35.586511
1859.000000	35.614979
1858.000000	35.643447
1857.000000	35.673771
1856.000000	35.683466
1855.000000	35.683776
1854.000000	35.666138
1853.000000	35.619414
1852.000000	35.572174
1851.000000	35.568152
1850.000000	35.574134
1849.000000	35.556806
1848.000000	35.505131
1847.000000	35.420347
1846.000000	35.304413
1845.000000	35.238298
1844.000000	35.229841
1843.000000	35.233451
1842.000000	35.247891
1841.000000	35.221795
1840.000000	35.166304
1839.000000	35.104005
1838.000000	35.048927
1837.000000	35.001171
1836.000000	34.926083
1835.000000	34.851716
1834.000000	34.767757
1833.000000	34.684108
1832.000000	34.625110
1831.000000	34.558582
1830.000000	34.482771
1829.000000	34.406754
1828.000000	34.315885
1827.000000	34.227697
1826.000000	34.153434
1825.000000	34.086287
1824.000000	34.037603
1823.000000	34.040285
1822.000000	34.073394
1821.000000	34.046577
1820.000000	33.967569
1819.000000	33.908983
1818.000000	33.882682
1817.000000	33.877421
1816.000000	33.877834
1815.000000	33.855039
1814.000000	33.836886
1813.000000	33.840496
1812.000000	33.823477
1811.000000	33.779744
1810.000000	33.719405
1809.000000	33.673197
1808.000000	33.653703
1807.000000	33.628226
1806.000000	33.569847
1805.000000	33.494655
1804.000000	33.440505
1803.000000	33.403476
1802.000000	33.371605
1801.000000	33.325294
1800.000000	33.252268
1799.000000	33.164596
1798.000000	33.126433
1797.000000	33.081565
1796.000000	33.038657
1795.000000	32.996472
1794.000000	32.942424
1793.000000	32.876412
1792.000000	32.817930
1791.000000	32.763470
1790.000000	32.700862
1789.000000	32.635985
1788.000000	32.565847
1787.000000	32.512109
1786.000000	32.447232
1785.000000	32.365645
1784.000000	32.273125
1783.000000	32.184216
1782.000000	32.116038
1781.000000	32.033935
1780.000000	31.929141
1779.000000	31.852815
1778.000000	31.742864
1777.000000	31.631572
1776.000000	31.525850
1775.000000	31.390835
1774.000000	31.256232
1773.000000	31.128334
1772.000000	30.974444
1771.000000	30.829218
1770.000000	30.691108
1769.000000	30.536290
1768.000000	30.409423
1767.000000	30.282969
1766.000000	30.176731
1765.000000	30.073175
1764.000000	30.023150
1763.000000	29.968278
1762.000000	29.975807
1761.000000	30.003450
1760.000000	30.050690
1759.000000	30.100611
1758.000000	30.153214
1757.000000	30.216648
1756.000000	30.257493
1755.000000	30.296481
1754.000000	30.305867
1753.000000	30.283485
1752.000000	30.264094
1751.000000	30.236142
1750.000000	30.194884
1749.000000	30.119177
1748.000000	30.017684
1747.000000	29.912168
1746.000000	29.796234
1745.000000	29.647707
1744.000000	29.496912
1743.000000	29.302176
1742.000000	29.081036
1741.000000	28.838855
1740.000000	28.597705
1739.000000	28.351708
1738.000000	28.121182
1737.000000	27.911181
1736.000000	27.731711
1735.000000	27.617944
1734.000000	27.553789
1733.000000	27.539761
1732.000000	27.572664
1731.000000	27.632694
1730.000000	27.716962
1729.000000	27.825778
1728.000000	27.933048
1727.000000	28.054345
1726.000000	28.157179
1725.000000	28.247017
1724.000000	28.332936
1723.000000	28.365116
1722.000000	28.401010
1721.000000	28.416998
1720.000000	28.467022
1719.000000	28.522307
1718.000000	28.569238
1717.000000	28.632774
1716.000000	28.697652
1715.000000	28.784498
1714.000000	28.884960
1713.000000	28.965206
1712.000000	29.040192
1711.000000	29.084337
1710.000000	29.102800
1709.000000	29.149214
1708.000000	29.111361
1707.000000	29.101253
1706.000000	29.067525
1705.000000	29.018944
1704.000000	28.951075
1703.000000	28.880422
1702.000000	28.757681
1701.000000	28.636281
1700.000000	28.483629
1699.000000	28.276722
1698.000000	28.146246
1697.000000	28.006796
1696.000000	27.910356
1695.000000	27.877866
1694.000000	27.924899
1693.000000	28.025465
1692.000000	28.175642
1691.000000	28.331698
1690.000000	28.512302
1689.000000	28.635869
1688.000000	28.748914
1687.000000	28.805643
1686.000000	28.844528
1685.000000	28.911675
1684.000000	29.018635
1683.000000	29.228635
1682.000000	29.552093
1681.000000	30.039550
1680.000000	30.551865
1679.000000	31.134317
1678.000000	31.718625
1677.000000	32.280449
1676.000000	32.767699
1675.000000	33.230298
1674.000000	33.624101
1673.000000	33.990570
1672.000000	34.264519
1671.000000	34.535065
1670.000000	34.763322
1669.000000	34.995498
1668.000000	35.177959
1667.000000	35.367744
1666.000000	35.525038
1665.000000	35.644994
1664.000000	35.755564
1663.000000	35.868093
1662.000000	35.949164
1661.000000	36.030132
1660.000000	36.093050
1659.000000	36.152976
1658.000000	36.197328
1657.000000	36.231984
1656.000000	36.259627
1655.000000	36.277264
1654.000000	36.286135
1653.000000	36.286341
1652.000000	36.268084
1651.000000	36.257873
1650.000000	36.229096
1649.000000	36.209189
1648.000000	36.175668
1647.000000	36.135957
1646.000000	36.079435
1645.000000	36.043025
1644.000000	35.978973
1643.000000	35.951846
1642.000000	35.899552
1641.000000	35.844473
1640.000000	35.782587
1639.000000	35.713481
1638.000000	35.647160
1637.000000	35.589606
1636.000000	35.520190
1635.000000	35.462739
1634.000000	35.402709
1633.000000	35.315553
1632.000000	35.232213
1631.000000	35.144850
1630.000000	35.069865
1629.000000	34.981368
1628.000000	34.876883
1627.000000	34.803032
1626.000000	34.732585
1625.000000	34.641303
1624.000000	34.552806
1623.000000	34.472044
1622.000000	34.379525
