PE UV       SUBTECH     SPECTRUM    ASCII       PEDS        4.00        
   -1
CICIMAUCR0012-2.Sample.ASC
24/04/11
16:25:16.00
24/04/11
16:25:16.00
Vinicio Soto Monge
C. cupreomarginata
250,000000
1
Lambda 1050
1050L1511233
PerkinElmer UV WinLab 6.3.2.0749 / 2.02.05 Lambda 900 UV/VIS/NIR, Aug  7 2015 09:38:08

0
0
3350/2 860,8/2
0
0
UV/VIS
1
1
1
DoubleDePol,CommonBeamDepol,RBeamAtt,SBeamAtt,60mm sphere, WB InGaAs Detector
0
0
0
0
Program
Program
3350/2 860,8/2
3350/0,2 860,8/0,2
3350/0,2 860,8/0,2
0
15.00
 
 
 
0
 
860,8
319,2
860,8
Front
100
on
S:100 R:100
0
0
0
0
 
0
 
 
 
0
 
 
0
0
0
0
0
 
 
 
 
0
0


0
0
#HDR
-1
-1
#GR
nm
%R
1.0
0.0
2400,000000
-1,000000
2151
8
58,508600
4,497300
#DATA
2400.000000	12.925000
2399.000000	13.470000
2398.000000	13.809500
2397.000000	12.997600
2396.000000	13.744700
2395.000000	14.488600
2394.000000	13.884800
2393.000000	14.244700
2392.000000	13.197800
2391.000000	13.359800
2390.000000	13.245300
2389.000000	13.099100
2388.000000	13.381300
2387.000000	14.543300
2386.000000	13.965800
2385.000000	13.653900
2384.000000	13.166000
2383.000000	13.594700
2382.000000	13.821700
2381.000000	14.151200
2380.000000	13.572300
2379.000000	13.547100
2378.000000	13.188600
2377.000000	12.675200
2376.000000	13.493600
2375.000000	14.104200
2374.000000	13.423800
2373.000000	13.348200
2372.000000	13.348800
2371.000000	13.092300
2370.000000	13.081100
2369.000000	13.291200
2368.000000	13.284300
2367.000000	13.144300
2366.000000	12.932500
2365.000000	13.332800
2364.000000	11.782100
2363.000000	12.673800
2362.000000	12.117400
2361.000000	12.563900
2360.000000	13.633300
2359.000000	13.328000
2358.000000	12.491500
2357.000000	11.555500
2356.000000	11.955900
2355.000000	12.709500
2354.000000	11.814100
2353.000000	12.080300
2352.000000	12.540600
2351.000000	12.610200
2350.000000	12.250200
2349.000000	12.521000
2348.000000	12.394900
2347.000000	11.733400
2346.000000	12.920400
2345.000000	12.533100
2344.000000	12.602400
2343.000000	12.594100
2342.000000	12.178700
2341.000000	12.180600
2340.000000	12.072700
2339.000000	12.387400
2338.000000	11.986400
2337.000000	12.615300
2336.000000	12.512500
2335.000000	13.012200
2334.000000	12.292100
2333.000000	11.326500
2332.000000	11.811600
2331.000000	12.055600
2330.000000	12.348200
2329.000000	12.905200
2328.000000	12.433200
2327.000000	12.037700
2326.000000	11.989900
2325.000000	11.985900
2324.000000	11.582600
2323.000000	12.032500
2322.000000	11.942200
2321.000000	11.649300
2320.000000	11.569000
2319.000000	11.682100
2318.000000	11.627200
2317.000000	11.132300
2316.000000	10.943400
2315.000000	11.232100
2314.000000	11.531000
2313.000000	11.026600
2312.000000	10.717400
2311.000000	10.715200
2310.000000	10.250900
2309.000000	10.198100
2308.000000	10.655100
2307.000000	10.560700
2306.000000	10.465800
2305.000000	10.561600
2304.000000	10.509700
2303.000000	10.621900
2302.000000	10.073900
2301.000000	10.138700
2300.000000	10.673700
2299.000000	10.642900
2298.000000	10.811300
2297.000000	11.175800
2296.000000	11.075700
2295.000000	10.673300
2294.000000	10.572400
2293.000000	11.070600
2292.000000	11.281100
2291.000000	10.986400
2290.000000	10.971900
2289.000000	11.010900
2288.000000	11.030400
2287.000000	11.031900
2286.000000	10.931500
2285.000000	10.826200
2284.000000	10.848600
2283.000000	10.787900
2282.000000	10.601900
2281.000000	10.760400
2280.000000	10.929800
2279.000000	10.543200
2278.000000	10.450800
2277.000000	10.840500
2276.000000	10.592600
2275.000000	10.189600
2274.000000	10.139500
2273.000000	10.029400
2272.000000	9.796000
2271.000000	9.987200
2270.000000	10.321300
2269.000000	10.415500
2268.000000	10.433500
2267.000000	10.499000
2266.000000	10.468800
2265.000000	10.454300
2264.000000	10.640800
2263.000000	10.742600
2262.000000	10.660700
2261.000000	10.865700
2260.000000	11.313500
2259.000000	11.567200
2258.000000	11.621700
2257.000000	12.082000
2256.000000	12.276600
2255.000000	12.216400
2254.000000	12.605300
2253.000000	12.746900
2252.000000	12.702700
2251.000000	12.686500
2250.000000	13.103000
2249.000000	13.346700
2248.000000	13.762100
2247.000000	14.154800
2246.000000	13.995300
2245.000000	14.010000
2244.000000	14.000700
2243.000000	13.947500
2242.000000	14.332800
2241.000000	14.513700
2240.000000	14.606400
2239.000000	14.638800
2238.000000	14.739100
2237.000000	14.649300
2236.000000	14.925300
2235.000000	15.198000
2234.000000	15.060200
2233.000000	15.226400
2232.000000	14.996500
2231.000000	15.117600
2230.000000	14.848900
2229.000000	14.955300
2228.000000	15.156100
2227.000000	14.970600
2226.000000	15.378300
2225.000000	15.429700
2224.000000	15.214500
2223.000000	15.341900
2222.000000	15.235500
2221.000000	14.978500
2220.000000	15.096900
2219.000000	15.044100
2218.000000	14.986700
2217.000000	14.668800
2216.000000	14.768500
2215.000000	14.928200
2214.000000	14.811400
2213.000000	15.156200
2212.000000	14.807000
2211.000000	14.979000
2210.000000	15.127200
2209.000000	14.866400
2208.000000	14.786800
2207.000000	14.902200
2206.000000	14.758000
2205.000000	14.859100
2204.000000	14.426000
2203.000000	14.104200
2202.000000	14.515500
2201.000000	14.566700
2200.000000	14.593000
2199.000000	14.433600
2198.000000	14.457400
2197.000000	14.675800
2196.000000	14.830300
2195.000000	14.466100
2194.000000	14.396100
2193.000000	14.594100
2192.000000	14.689600
2191.000000	14.505700
2190.000000	14.415400
2189.000000	14.526600
2188.000000	14.631600
2187.000000	14.678400
2186.000000	14.623100
2185.000000	14.450800
2184.000000	14.492700
2183.000000	14.508100
2182.000000	14.452000
2181.000000	14.204800
2180.000000	14.280900
2179.000000	14.462000
2178.000000	14.641300
2177.000000	14.469000
2176.000000	14.507900
2175.000000	14.341000
2174.000000	14.151000
2173.000000	14.456800
2172.000000	14.254700
2171.000000	14.295300
2170.000000	14.092500
2169.000000	14.150900
2168.000000	14.082600
2167.000000	13.891800
2166.000000	13.677200
2165.000000	14.264400
2164.000000	14.129300
2163.000000	14.480000
2162.000000	14.559500
2161.000000	14.352200
2160.000000	14.271600
2159.000000	14.288600
2158.000000	14.149900
2157.000000	14.476000
2156.000000	14.852800
2155.000000	14.400900
2154.000000	14.233700
2153.000000	14.599600
2152.000000	14.349100
2151.000000	14.637500
2150.000000	14.386000
2149.000000	14.401400
2148.000000	15.279400
2147.000000	14.688800
2146.000000	15.116700
2145.000000	15.084700
2144.000000	14.914200
2143.000000	14.647900
2142.000000	15.058100
2141.000000	15.327200
2140.000000	14.879700
2139.000000	14.998500
2138.000000	15.090100
2137.000000	15.124900
2136.000000	15.045900
2135.000000	15.265800
2134.000000	15.255000
2133.000000	15.323900
2132.000000	15.013900
2131.000000	14.989600
2130.000000	14.960100
2129.000000	15.220300
2128.000000	15.099100
2127.000000	14.958100
2126.000000	15.068200
2125.000000	15.085000
2124.000000	14.978000
2123.000000	15.182700
2122.000000	14.849400
2121.000000	15.074800
2120.000000	15.253000
2119.000000	14.776800
2118.000000	15.031200
2117.000000	14.986100
2116.000000	14.804400
2115.000000	15.161900
2114.000000	14.903700
2113.000000	14.381200
2112.000000	14.759000
2111.000000	14.575500
2110.000000	14.777900
2109.000000	14.616600
2108.000000	14.426200
2107.000000	14.426700
2106.000000	14.570100
2105.000000	14.480300
2104.000000	14.340000
2103.000000	14.700100
2102.000000	14.431800
2101.000000	14.217100
2100.000000	14.433400
2099.000000	14.418800
2098.000000	14.197100
2097.000000	14.399200
2096.000000	14.320400
2095.000000	14.069300
2094.000000	14.188800
2093.000000	13.883200
2092.000000	14.220400
2091.000000	13.967700
2090.000000	14.066100
2089.000000	14.094900
2088.000000	14.033500
2087.000000	14.087300
2086.000000	14.206500
2085.000000	13.920000
2084.000000	13.983100
2083.000000	13.977500
2082.000000	14.098100
2081.000000	14.110500
2080.000000	13.875900
2079.000000	13.581300
2078.000000	13.758500
2077.000000	13.793800
2076.000000	13.736600
2075.000000	13.764600
2074.000000	13.554600
2073.000000	13.616000
2072.000000	13.507400
2071.000000	13.509800
2070.000000	13.496900
2069.000000	13.530500
2068.000000	13.513100
2067.000000	13.396500
2066.000000	13.252400
2065.000000	13.399400
2064.000000	13.280800
2063.000000	13.282800
2062.000000	13.209200
2061.000000	13.193000
2060.000000	13.237600
2059.000000	13.312200
2058.000000	13.286900
2057.000000	13.278900
2056.000000	13.246700
2055.000000	13.098000
2054.000000	13.160200
2053.000000	13.014600
2052.000000	13.287900
2051.000000	13.361200
2050.000000	13.429100
2049.000000	13.702700
2048.000000	13.523500
2047.000000	13.629700
2046.000000	13.747300
2045.000000	13.630700
2044.000000	13.792800
2043.000000	13.974800
2042.000000	13.959900
2041.000000	14.054700
2040.000000	14.261000
2039.000000	14.309500
2038.000000	14.424000
2037.000000	14.580000
2036.000000	14.578000
2035.000000	14.712000
2034.000000	14.860400
2033.000000	14.896200
2032.000000	14.883000
2031.000000	14.839200
2030.000000	14.903100
2029.000000	14.972900
2028.000000	15.125200
2027.000000	15.235600
2026.000000	15.214100
2025.000000	15.259000
2024.000000	15.241000
2023.000000	15.288200
2022.000000	15.307000
2021.000000	15.322500
2020.000000	15.388200
2019.000000	15.546500
2018.000000	15.509400
2017.000000	15.360400
2016.000000	15.355100
2015.000000	15.422800
2014.000000	15.587700
2013.000000	15.620400
2012.000000	15.559000
2011.000000	15.519700
2010.000000	15.493500
2009.000000	15.563900
2008.000000	15.527600
2007.000000	15.439500
2006.000000	15.531400
2005.000000	15.546900
2004.000000	15.523200
2003.000000	15.589300
2002.000000	15.525800
2001.000000	15.326000
2000.000000	15.321100
1999.000000	15.355400
1998.000000	15.274300
1997.000000	15.247500
1996.000000	15.235300
1995.000000	15.173000
1994.000000	15.046600
1993.000000	14.996400
1992.000000	15.021400
1991.000000	14.986600
1990.000000	14.865800
1989.000000	14.821700
1988.000000	14.723100
1987.000000	14.697800
1986.000000	14.724500
1985.000000	14.583000
1984.000000	14.564300
1983.000000	14.490800
1982.000000	14.393800
1981.000000	14.322200
1980.000000	14.214400
1979.000000	14.074900
1978.000000	14.101800
1977.000000	14.141800
1976.000000	14.027200
1975.000000	13.931600
1974.000000	13.858100
1973.000000	13.755400
1972.000000	13.708500
1971.000000	13.749600
1970.000000	13.703600
1969.000000	13.549800
1968.000000	13.446100
1967.000000	13.379800
1966.000000	13.345400
1965.000000	13.374500
1964.000000	13.328300
1963.000000	13.226300
1962.000000	13.268400
1961.000000	13.187100
1960.000000	13.145200
1959.000000	13.101000
1958.000000	13.000300
1957.000000	12.908300
1956.000000	12.868500
1955.000000	12.860800
1954.000000	12.868000
1953.000000	12.807000
1952.000000	12.695700
1951.000000	12.660600
1950.000000	12.551700
1949.000000	12.529800
1948.000000	12.565000
1947.000000	12.432100
1946.000000	12.412300
1945.000000	12.418700
1944.000000	12.391400
1943.000000	12.382300
1942.000000	12.437400
1941.000000	12.406300
1940.000000	12.351400
1939.000000	12.359000
1938.000000	12.357600
1937.000000	12.345000
1936.000000	12.440300
1935.000000	12.492500
1934.000000	12.522900
1933.000000	12.405400
1932.000000	12.433500
1931.000000	12.603200
1930.000000	12.594900
1929.000000	12.676600
1928.000000	12.829600
1927.000000	12.881000
1926.000000	12.983700
1925.000000	13.010800
1924.000000	13.061800
1923.000000	13.264000
1922.000000	13.332600
1921.000000	13.492500
1920.000000	13.667100
1919.000000	13.581900
1918.000000	13.738500
1917.000000	13.864700
1916.000000	14.063200
1915.000000	14.191800
1914.000000	14.457200
1913.000000	14.522500
1912.000000	14.793400
1911.000000	14.962000
1910.000000	14.960400
1909.000000	15.223000
1908.000000	15.340600
1907.000000	15.740500
1906.000000	15.907700
1905.000000	16.109200
1904.000000	16.376100
1903.000000	16.515000
1902.000000	16.844400
1901.000000	16.976800
1900.000000	17.292700
1899.000000	17.726500
1898.000000	17.898800
1897.000000	18.060300
1896.000000	18.329800
1895.000000	18.579700
1894.000000	18.872500
1893.000000	19.218500
1892.000000	19.616300
1891.000000	19.925300
1890.000000	20.233400
1889.000000	20.512600
1888.000000	20.856500
1887.000000	21.297600
1886.000000	21.715000
1885.000000	22.130100
1884.000000	22.752600
1883.000000	23.238900
1882.000000	23.605200
1881.000000	24.259200
1880.000000	24.768400
1879.000000	25.261400
1878.000000	25.769800
1877.000000	26.346200
1876.000000	26.827700
1875.000000	27.202100
1874.000000	27.584700
1873.000000	28.135600
1872.000000	28.271300
1871.000000	28.704000
1870.000000	28.926900
1869.000000	29.052100
1868.000000	29.241400
1867.000000	29.514000
1866.000000	29.443100
1865.000000	29.557500
1864.000000	29.843400
1863.000000	29.856500
1862.000000	29.953300
1861.000000	30.181600
1860.000000	30.468200
1859.000000	30.370700
1858.000000	30.280700
1857.000000	30.427200
1856.000000	30.502200
1855.000000	30.446400
1854.000000	30.494000
1853.000000	30.456200
1852.000000	30.323000
1851.000000	30.277600
1850.000000	30.241800
1849.000000	30.362100
1848.000000	30.508100
1847.000000	30.449600
1846.000000	30.047700
1845.000000	29.920100
1844.000000	29.951900
1843.000000	30.077800
1842.000000	30.095600
1841.000000	30.068700
1840.000000	29.947000
1839.000000	29.830500
1838.000000	29.877200
1837.000000	29.952000
1836.000000	29.935500
1835.000000	29.672600
1834.000000	29.504400
1833.000000	29.451500
1832.000000	29.449200
1831.000000	29.354700
1830.000000	29.242500
1829.000000	29.174000
1828.000000	29.145800
1827.000000	29.094100
1826.000000	29.077100
1825.000000	28.884900
1824.000000	28.779200
1823.000000	28.819200
1822.000000	28.809300
1821.000000	28.844800
1820.000000	28.840500
1819.000000	28.654900
1818.000000	28.619000
1817.000000	28.665000
1816.000000	28.654500
1815.000000	28.670700
1814.000000	28.590800
1813.000000	28.579400
1812.000000	28.574400
1811.000000	28.537800
1810.000000	28.489000
1809.000000	28.445000
1808.000000	28.399700
1807.000000	28.362700
1806.000000	28.285300
1805.000000	28.236400
1804.000000	28.170000
1803.000000	28.150700
1802.000000	28.073200
1801.000000	28.022600
1800.000000	27.993600
1799.000000	27.929600
1798.000000	27.809300
1797.000000	27.789600
1796.000000	27.753200
1795.000000	27.725300
1794.000000	27.679000
1793.000000	27.594200
1792.000000	27.516400
1791.000000	27.477800
1790.000000	27.421600
1789.000000	27.333000
1788.000000	27.286800
1787.000000	27.212200
1786.000000	27.117400
1785.000000	27.079700
1784.000000	27.019600
1783.000000	26.932200
1782.000000	26.822300
1781.000000	26.744000
1780.000000	26.693100
1779.000000	26.635200
1778.000000	26.499700
1777.000000	26.376600
1776.000000	26.260400
1775.000000	26.124100
1774.000000	26.013300
1773.000000	25.875600
1772.000000	25.724600
1771.000000	25.619300
1770.000000	25.502600
1769.000000	25.347100
1768.000000	25.225300
1767.000000	25.113700
1766.000000	25.012100
1765.000000	24.896000
1764.000000	24.825500
1763.000000	24.810300
1762.000000	24.795200
1761.000000	24.851000
1760.000000	24.941400
1759.000000	25.005000
1758.000000	25.053600
1757.000000	25.147900
1756.000000	25.224600
1755.000000	25.241700
1754.000000	25.274300
1753.000000	25.276400
1752.000000	25.283500
1751.000000	25.275600
1750.000000	25.226200
1749.000000	25.162100
1748.000000	25.084400
1747.000000	25.002400
1746.000000	24.898600
1745.000000	24.754900
1744.000000	24.607600
1743.000000	24.433400
1742.000000	24.212200
1741.000000	23.980000
1740.000000	23.719100
1739.000000	23.458200
1738.000000	23.251100
1737.000000	23.068200
1736.000000	22.895700
1735.000000	22.757300
1734.000000	22.674800
1733.000000	22.686400
1732.000000	22.734900
1731.000000	22.775100
1730.000000	22.871400
1729.000000	23.021000
1728.000000	23.142300
1727.000000	23.255700
1726.000000	23.348300
1725.000000	23.428400
1724.000000	23.505100
1723.000000	23.594600
1722.000000	23.676100
1721.000000	23.691600
1720.000000	23.685100
1719.000000	23.715300
1718.000000	23.737800
1717.000000	23.808400
1716.000000	23.922000
1715.000000	23.985200
1714.000000	24.032600
1713.000000	24.098700
1712.000000	24.213300
1711.000000	24.274200
1710.000000	24.310400
1709.000000	24.309500
1708.000000	24.320600
1707.000000	24.307900
1706.000000	24.259700
1705.000000	24.189100
1704.000000	24.137300
1703.000000	24.071100
1702.000000	23.967100
1701.000000	23.823300
1700.000000	23.678400
1699.000000	23.487400
1698.000000	23.294100
1697.000000	23.165500
1696.000000	23.054100
1695.000000	23.031200
1694.000000	23.070900
1693.000000	23.147300
1692.000000	23.309600
1691.000000	23.494700
1690.000000	23.706600
1689.000000	23.852700
1688.000000	23.926600
1687.000000	23.935500
1686.000000	23.990600
1685.000000	24.024800
1684.000000	24.118100
1683.000000	24.266500
1682.000000	24.598000
1681.000000	25.028000
1680.000000	25.584600
1679.000000	26.185000
1678.000000	26.746500
1677.000000	27.302900
1676.000000	27.844100
1675.000000	28.283400
1674.000000	28.631800
1673.000000	28.985500
1672.000000	29.260400
1671.000000	29.519900
1670.000000	29.772000
1669.000000	29.999100
1668.000000	30.176800
1667.000000	30.292600
1666.000000	30.423700
1665.000000	30.519700
1664.000000	30.609300
1663.000000	30.717200
1662.000000	30.787700
1661.000000	30.818300
1660.000000	30.913200
1659.000000	30.963700
1658.000000	31.013200
1657.000000	31.023000
1656.000000	31.050800
1655.000000	31.017800
1654.000000	31.031200
1653.000000	31.007400
1652.000000	30.988000
1651.000000	30.980000
1650.000000	30.937800
1649.000000	30.908400
1648.000000	30.891800
1647.000000	30.844300
1646.000000	30.781300
1645.000000	30.736600
1644.000000	30.694700
1643.000000	30.627900
1642.000000	30.541000
1641.000000	30.523200
1640.000000	30.432500
1639.000000	30.339000
1638.000000	30.306600
1637.000000	30.223500
1636.000000	30.166000
1635.000000	30.087000
1634.000000	29.999300
1633.000000	29.930400
1632.000000	29.798600
1631.000000	29.736500
1630.000000	29.648700
1629.000000	29.554200
1628.000000	29.480000
1627.000000	29.383400
1626.000000	29.318200
1625.000000	29.214500
1624.000000	29.107400
1623.000000	29.008400
1622.000000	28.917000
1621.000000	28.827700
1620.000000	28.743500
1619.000000	28.648200
1618.000000	28.584500
1617.000000	28.519000
1616.000000	28.427600
1615.000000	28.340100
1614.000000	28.236200
1613.000000	28.169600
1612.000000	28.082200
1611.000000	28.017300
1610.000000	27.882200
1609.000000	27.785400
1608.000000	27.775300
1607.000000	27.689100
1606.000000	27.590300
1605.000000	27.501800
1604.000000	27.426300
1603.000000	27.341800
1602.000000	27.211300
1601.000000	27.143600
1600.000000	27.063900
1599.000000	27.011000
1598.000000	26.939500
1597.000000	26.843700
1596.000000	26.764100
1595.000000	26.697400
1594.000000	26.620600
1593.000000	26.560300
1592.000000	26.474800
1591.000000	26.451300
1590.000000	26.394000
1589.000000	26.298000
1588.000000	26.236100
1587.000000	26.236500
1586.000000	26.209400
1585.000000	26.164100
1584.000000	26.104600
1583.000000	26.061500
1582.000000	26.005500
1581.000000	25.982500
1580.000000	25.929600
1579.000000	25.910400
1578.000000	25.881600
1577.000000	25.864300
1576.000000	25.866700
1575.000000	25.843200
1574.000000	25.808400
1573.000000	25.835100
1572.000000	25.823900
1571.000000	25.832800
1570.000000	25.840900
1569.000000	25.834500
1568.000000	25.872600
1567.000000	25.853100
1566.000000	25.879600
1565.000000	25.897400
1564.000000	25.942800
1563.000000	25.953000
1562.000000	25.943400
1561.000000	25.956200
1560.000000	25.935400
1559.000000	25.939800
1558.000000	25.956300
1557.000000	25.969500
1556.000000	25.950200
1555.000000	25.951600
1554.000000	25.957100
1553.000000	25.940800
1552.000000	25.907500
1551.000000	25.837700
1550.000000	25.845800
1549.000000	25.832400
1548.000000	25.798600
1547.000000	25.783500
1546.000000	25.771100
1545.000000	25.739300
1544.000000	25.694900
1543.000000	25.662500
1542.000000	25.661100
1541.000000	25.658900
1540.000000	25.644400
1539.000000	25.632200
1538.000000	25.625700
1537.000000	25.627300
1536.000000	25.577300
1535.000000	25.551600
1534.000000	25.535100
1533.000000	25.493500
1532.000000	25.491900
1531.000000	25.460300
1530.000000	25.412200
1529.000000	25.393200
1528.000000	25.373000
1527.000000	25.329400
1526.000000	25.286200
1525.000000	25.209800
1524.000000	25.200900
