PE UV       SUBTECH     SPECTRUM    ASCII       PEDS        4.00        
   -1
CICIMAUCR0001-4.Sample.ASC
24/04/23
10:01:06.00
24/04/23
10:01:06.00
Vinicio Soto Monge
C. kalinini
250,000000
1
Lambda 1050
1050L1511233
PerkinElmer UV WinLab 6.3.2.0749 / 2.02.05 Lambda 900 UV/VIS/NIR, Aug  7 2015 09:38:08

0
0
3350/servo 860,8/2
0
0
UV/VIS
1
1
1
DoubleDePol,CommonBeamDepol,RBeamAtt,SBeamAtt,60mm sphere, WB InGaAs Detector
0
0
0
0
Program
Program
3350/servo 860,8/2
3350/0,2 860,8/0,2
3350/0,2 860,8/0,2
0
15.00
 
 
 
0
 
860,8
319,2
860,8
Front
100
on
S:100 R:100
0
0
0
0
 
0
 
 
 
0
 
 
0
0
0
0
0
 
 
 
 
0
0


0
0
#HDR
-1
-1
#GR
nm
%R
1.0
0.0
2500,000000
-1,000000
2251
8
99,252700
5,560900
#DATA
2500.000000	15.539661
2499.000000	15.534031
2498.000000	15.527387
2497.000000	15.501040
2496.000000	15.477957
2495.000000	15.518492
2494.000000	15.445529
2493.000000	15.431680
2492.000000	15.419519
2491.000000	15.457014
2490.000000	15.439224
2489.000000	15.383376
2488.000000	15.405332
2487.000000	15.336760
2486.000000	15.427964
2485.000000	15.454312
2484.000000	15.419181
2483.000000	15.418393
2482.000000	15.459041
2481.000000	15.381687
2480.000000	15.413664
2479.000000	15.450596
2478.000000	15.504080
2477.000000	15.519618
2476.000000	15.546304
2475.000000	15.593369
2474.000000	15.631202
2473.000000	15.680632
2472.000000	15.709232
2471.000000	15.734566
2470.000000	15.790978
2469.000000	15.820028
2468.000000	15.891752
2467.000000	15.964377
2466.000000	15.989487
2465.000000	16.082379
2464.000000	16.135413
2463.000000	16.188108
2462.000000	16.247222
2461.000000	16.301831
2460.000000	16.391234
2459.000000	16.459242
2458.000000	16.538286
2457.000000	16.624648
2456.000000	16.722157
2455.000000	16.825409
2454.000000	16.924494
2453.000000	17.008379
2452.000000	17.091476
2451.000000	17.210604
2450.000000	17.324552
2449.000000	17.433884
2448.000000	17.563146
2447.000000	17.664146
2446.000000	17.788791
2445.000000	17.893844
2444.000000	18.001937
2443.000000	18.138518
2442.000000	18.249088
2441.000000	18.376323
2440.000000	18.500631
2439.000000	18.620322
2438.000000	18.726951
2437.000000	18.842589
2436.000000	18.952371
2435.000000	19.082533
2434.000000	19.199860
2433.000000	19.312007
2432.000000	19.421113
2431.000000	19.526279
2430.000000	19.630657
2429.000000	19.732670
2428.000000	19.847407
2427.000000	19.938385
2426.000000	20.029476
2425.000000	20.087576
2424.000000	20.177767
2423.000000	20.293742
2422.000000	20.382356
2421.000000	20.461512
2420.000000	20.537290
2419.000000	20.616221
2418.000000	20.687720
2417.000000	20.784666
2416.000000	20.864272
2415.000000	20.942077
2414.000000	21.005582
2413.000000	21.062556
2412.000000	21.131916
2411.000000	21.208032
2410.000000	21.272888
2409.000000	21.320179
2408.000000	21.366681
2407.000000	21.418476
2406.000000	21.459687
2405.000000	21.502811
2404.000000	21.559673
2403.000000	21.620476
2402.000000	21.657407
2401.000000	21.693213
2400.000000	21.728344
2399.000000	21.776986
2398.000000	21.807837
2397.000000	21.848035
2396.000000	21.876972
2395.000000	21.903432
2394.000000	21.950160
2393.000000	21.975495
2392.000000	21.992835
2391.000000	22.011188
2390.000000	22.018282
2389.000000	22.031456
2388.000000	22.048345
2387.000000	22.068838
2386.000000	22.085840
2385.000000	22.081224
2384.000000	22.086741
2383.000000	22.094285
2382.000000	22.082913
2381.000000	22.090794
2380.000000	22.094172
2379.000000	22.106671
2378.000000	22.115453
2377.000000	22.094285
2376.000000	22.067487
2375.000000	22.050485
2374.000000	22.054876
2373.000000	22.046769
2372.000000	22.035622
2371.000000	22.036522
2370.000000	22.047107
2369.000000	22.025826
2368.000000	22.017719
2367.000000	22.035734
2366.000000	22.047107
2365.000000	22.049359
2364.000000	22.059042
2363.000000	22.064221
2362.000000	22.058141
2361.000000	22.060956
2360.000000	22.073567
2359.000000	22.080098
2358.000000	22.067824
2357.000000	22.074580
2356.000000	22.061969
2355.000000	22.046769
2354.000000	22.032244
2353.000000	22.019858
2352.000000	22.019633
2351.000000	22.014341
2350.000000	22.000604
2349.000000	21.996776
2348.000000	21.974594
2347.000000	21.944530
2346.000000	21.930005
2345.000000	21.932708
2344.000000	21.929555
2343.000000	21.921561
2342.000000	21.927979
2341.000000	21.918971
2340.000000	21.911652
2339.000000	21.919196
2338.000000	21.921223
2337.000000	21.917845
2336.000000	21.930118
2335.000000	21.952750
2334.000000	21.981012
2333.000000	21.976733
2332.000000	21.993060
2331.000000	22.041589
2330.000000	22.069176
2329.000000	22.092033
2328.000000	22.120970
2327.000000	22.160605
2326.000000	22.196861
2325.000000	22.231766
2324.000000	22.254736
2323.000000	22.300676
2322.000000	22.326010
2321.000000	22.343350
2320.000000	22.352020
2319.000000	22.344814
2318.000000	22.340873
2317.000000	22.336256
2316.000000	22.328712
2315.000000	22.306531
2314.000000	22.260028
2313.000000	22.229627
2312.000000	22.199225
2311.000000	22.189204
2310.000000	22.163645
2309.000000	22.117930
2308.000000	22.083701
2307.000000	22.035171
2306.000000	22.010850
2305.000000	21.978422
2304.000000	21.955903
2303.000000	21.959168
2302.000000	21.935861
2301.000000	21.927866
2300.000000	21.903770
2299.000000	21.876071
2298.000000	21.896902
2297.000000	21.910751
2296.000000	21.929330
2295.000000	21.942842
2294.000000	21.953651
2293.000000	21.974481
2292.000000	21.998465
2291.000000	22.042040
2290.000000	22.096312
2289.000000	22.105882
2288.000000	22.148669
2287.000000	22.207220
2286.000000	22.235369
2285.000000	22.278944
2284.000000	22.336819
2283.000000	22.373526
2282.000000	22.419241
2281.000000	22.460113
2280.000000	22.503013
2279.000000	22.558861
2278.000000	22.608404
2277.000000	22.631374
2276.000000	22.647137
2275.000000	22.700846
2274.000000	22.724154
2273.000000	22.767616
2272.000000	22.791487
2271.000000	22.808151
2270.000000	22.881677
2269.000000	22.911854
2268.000000	22.975021
2267.000000	23.005647
2266.000000	23.110926
2265.000000	23.162495
2264.000000	23.258878
2263.000000	23.376430
2262.000000	23.503665
2261.000000	23.630562
2260.000000	23.769619
2259.000000	23.919486
2258.000000	24.072394
2257.000000	24.248270
2256.000000	24.424936
2255.000000	24.605654
2254.000000	24.790201
2253.000000	24.976662
2252.000000	25.165037
2251.000000	25.336861
2250.000000	25.507783
2249.000000	25.699762
2248.000000	25.858073
2247.000000	26.029672
2246.000000	26.160510
2245.000000	26.291460
2244.000000	26.411039
2243.000000	26.566423
2242.000000	26.659879
2241.000000	26.756262
2240.000000	26.838120
2239.000000	26.897797
2238.000000	26.978867
2237.000000	26.989901
2236.000000	27.043497
2235.000000	27.042934
2234.000000	27.072548
2233.000000	27.057234
2232.000000	27.048677
2231.000000	27.065566
2230.000000	27.021991
2229.000000	26.977853
2228.000000	26.928648
2227.000000	26.873138
2226.000000	26.823482
2225.000000	26.761329
2224.000000	26.689942
2223.000000	26.614277
2222.000000	26.527239
2221.000000	26.440877
2220.000000	26.337963
2219.000000	26.268828
2218.000000	26.167716
2217.000000	26.064352
2216.000000	25.963802
2215.000000	25.886561
2214.000000	25.802788
2213.000000	25.698523
2212.000000	25.625560
2211.000000	25.561155
2210.000000	25.461281
2209.000000	25.417480
2208.000000	25.345981
2207.000000	25.289120
2206.000000	25.243067
2205.000000	25.190259
2204.000000	25.130132
2203.000000	25.084755
2202.000000	25.035550
2201.000000	25.004248
2200.000000	25.002897
2199.000000	24.962024
2198.000000	24.926894
2197.000000	24.878365
2196.000000	24.860011
2195.000000	24.821953
2194.000000	24.814635
2193.000000	24.805289
2192.000000	24.788737
2191.000000	24.753494
2190.000000	24.739983
2189.000000	24.731538
2188.000000	24.732326
2187.000000	24.722418
2186.000000	24.691791
2185.000000	24.662854
2184.000000	24.647090
2183.000000	24.636055
2182.000000	24.637744
2181.000000	24.632790
2180.000000	24.610158
2179.000000	24.573564
2178.000000	24.584711
2177.000000	24.577505
2176.000000	24.567033
2175.000000	24.584598
2174.000000	24.608919
2173.000000	24.596421
2172.000000	24.606105
2171.000000	24.623782
2170.000000	24.628511
2169.000000	24.676478
2168.000000	24.724106
2167.000000	24.749216
2166.000000	24.784909
2165.000000	24.833213
2164.000000	24.887710
2163.000000	24.953129
2162.000000	25.021926
2161.000000	25.094777
2160.000000	25.157156
2159.000000	25.244193
2158.000000	25.336298
2157.000000	25.436622
2156.000000	25.539085
2155.000000	25.650332
2154.000000	25.767883
2153.000000	25.885322
2152.000000	26.007715
2151.000000	26.116259
2150.000000	26.257456
2149.000000	26.382101
2148.000000	26.496387
2147.000000	26.642201
2146.000000	26.763581
2145.000000	26.882596
2144.000000	26.998796
2143.000000	27.127270
2142.000000	27.242457
2141.000000	27.367890
2140.000000	27.490509
2139.000000	27.603669
2138.000000	27.719869
2137.000000	27.817941
2136.000000	27.914775
2135.000000	28.033678
2134.000000	28.134565
2133.000000	28.229259
2132.000000	28.341181
2131.000000	28.446122
2130.000000	28.514918
2129.000000	28.589345
2128.000000	28.652174
2127.000000	28.720521
2126.000000	28.799677
2125.000000	28.866897
2124.000000	28.930177
2123.000000	29.011585
2122.000000	29.064506
2121.000000	29.107067
2120.000000	29.121029
2119.000000	29.162578
2118.000000	29.220678
2117.000000	29.243310
2116.000000	29.273599
2115.000000	29.303099
2114.000000	29.333838
2113.000000	29.351291
2112.000000	29.366379
2111.000000	29.385858
2110.000000	29.398920
2109.000000	29.399595
2108.000000	29.408153
2107.000000	29.415021
2106.000000	29.423015
2105.000000	29.421552
2104.000000	29.428758
2103.000000	29.430334
2102.000000	29.424141
2101.000000	29.427857
2100.000000	29.427181
2099.000000	29.433374
2098.000000	29.453417
2097.000000	29.463438
2096.000000	29.472783
2095.000000	29.481341
2094.000000	29.498230
2093.000000	29.519061
2092.000000	29.529307
2091.000000	29.557006
2090.000000	29.576711
2089.000000	29.587295
2088.000000	29.599680
2087.000000	29.593262
2086.000000	29.592249
2085.000000	29.570743
2084.000000	29.565901
2083.000000	29.558470
2082.000000	29.511404
2081.000000	29.474585
2080.000000	29.427407
2079.000000	29.359510
2078.000000	29.298145
2077.000000	29.223493
2076.000000	29.135104
2075.000000	29.057074
2074.000000	28.974428
2073.000000	28.861493
2072.000000	28.737523
2071.000000	28.637086
2070.000000	28.513117
2069.000000	28.386895
2068.000000	28.259548
2067.000000	28.116887
2066.000000	27.987175
2065.000000	27.862643
2064.000000	27.731579
2063.000000	27.603444
2062.000000	27.495238
2061.000000	27.390522
2060.000000	27.288509
2059.000000	27.189761
2058.000000	27.104525
2057.000000	27.067931
2056.000000	27.036291
2055.000000	27.006003
2054.000000	27.026495
2053.000000	27.047551
2052.000000	27.093491
2051.000000	27.172646
2050.000000	27.277137
2049.000000	27.405835
2048.000000	27.532170
2047.000000	27.660643
2046.000000	27.808033
2045.000000	28.016113
2044.000000	28.192215
2043.000000	28.355706
2042.000000	28.543631
2041.000000	28.702956
2040.000000	28.854737
2039.000000	29.036694
2038.000000	29.200861
2037.000000	29.347800
2036.000000	29.516021
2035.000000	29.642242
2034.000000	29.780174
2033.000000	29.909323
2032.000000	30.006044
2031.000000	30.130577
2030.000000	30.235630
2029.000000	30.338431
2028.000000	30.427045
2027.000000	30.520050
2026.000000	30.611592
2025.000000	30.684893
2024.000000	30.761121
2023.000000	30.811677
2022.000000	30.866963
2021.000000	30.938462
2020.000000	31.000278
2019.000000	31.027639
2018.000000	31.059729
2017.000000	31.086077
2016.000000	31.114564
2015.000000	31.136520
2014.000000	31.134831
2013.000000	31.143952
2012.000000	31.154986
2011.000000	31.122221
2010.000000	31.117492
2009.000000	31.103417
2008.000000	31.067386
2007.000000	31.021896
2006.000000	30.969539
2005.000000	30.932945
2004.000000	30.862346
2003.000000	30.804246
2002.000000	30.746934
2001.000000	30.663837
2000.000000	30.584794
1999.000000	30.491451
1998.000000	30.408804
1997.000000	30.335729
1996.000000	30.227072
1995.000000	30.113124
1994.000000	30.026424
1993.000000	29.920583
1992.000000	29.792785
1991.000000	29.670955
1990.000000	29.569054
1989.000000	29.456569
1988.000000	29.332600
1987.000000	29.196582
1986.000000	29.084661
1985.000000	28.943126
1984.000000	28.833569
1983.000000	28.687980
1982.000000	28.568740
1981.000000	28.471681
1980.000000	28.334875
1979.000000	28.199534
1978.000000	28.067795
1977.000000	27.953058
1976.000000	27.843726
1975.000000	27.739123
1974.000000	27.622022
1973.000000	27.508975
1972.000000	27.393562
1971.000000	27.278150
1970.000000	27.163414
1969.000000	27.060612
1968.000000	26.921555
1967.000000	26.848704
1966.000000	26.707395
1965.000000	26.616303
1964.000000	26.495036
1963.000000	26.398428
1962.000000	26.257569
1961.000000	26.158145
1960.000000	26.032149
1959.000000	25.914935
1958.000000	25.808531
1957.000000	25.696384
1956.000000	25.594033
1955.000000	25.488079
1954.000000	25.377283
1953.000000	25.258831
1952.000000	25.128668
1951.000000	25.037577
1950.000000	24.917436
1949.000000	24.839406
1948.000000	24.756647
1947.000000	24.680982
1946.000000	24.591579
1945.000000	24.531565
1944.000000	24.436420
1943.000000	24.390593
1942.000000	24.338236
1941.000000	24.309974
1940.000000	24.268425
1939.000000	24.237799
1938.000000	24.212465
1937.000000	24.195462
1936.000000	24.209199
1935.000000	24.234308
1934.000000	24.273605
1933.000000	24.313689
1932.000000	24.390030
1931.000000	24.443852
1930.000000	24.516252
1929.000000	24.609820
1928.000000	24.728836
1927.000000	24.831299
1926.000000	24.970807
1925.000000	25.122813
1924.000000	25.284503
1923.000000	25.452611
1922.000000	25.667784
1921.000000	25.912683
1920.000000	26.152853
1919.000000	26.366225
1918.000000	26.632855
1917.000000	26.909169
1916.000000	27.193252
1915.000000	27.528116
1914.000000	27.919617
1913.000000	28.296367
1912.000000	28.699128
1911.000000	29.068784
1910.000000	29.463550
1909.000000	29.852011
1908.000000	30.332126
1907.000000	30.873268
1906.000000	31.484896
1905.000000	32.093485
1904.000000	32.701735
1903.000000	33.284651
1902.000000	33.853943
1901.000000	34.521532
1900.000000	35.244181
1899.000000	35.989012
1898.000000	36.729114
1897.000000	37.383416
1896.000000	37.998535
1895.000000	38.677384
1894.000000	39.394854
1893.000000	40.110635
1892.000000	40.925501
1891.000000	41.664139
1890.000000	42.317316
1889.000000	42.990310
1888.000000	43.650130
1887.000000	44.264685
1886.000000	44.868432
1885.000000	45.475331
1884.000000	46.086960
1883.000000	46.594435
1882.000000	47.077590
1881.000000	47.540590
1880.000000	47.959790
1879.000000	48.385633
1878.000000	48.800553
1877.000000	49.198585
1876.000000	49.573646
1875.000000	49.944654
1874.000000	50.277154
1873.000000	50.611117
1872.000000	50.905334
1871.000000	51.165434
1870.000000	51.369685
1869.000000	51.563465
1868.000000	51.713219
1867.000000	51.821876
1866.000000	51.908688
1865.000000	52.015656
1864.000000	52.129942
1863.000000	52.248957
1862.000000	52.391055
1861.000000	52.533941
1860.000000	52.654082
1859.000000	52.737066
1858.000000	52.824780
1857.000000	52.891662
1856.000000	52.941205
1855.000000	53.010002
1854.000000	53.037701
1853.000000	53.038264
1852.000000	53.068553
1851.000000	53.099855
1850.000000	53.174619
1849.000000	53.273254
1848.000000	53.278884
1847.000000	53.221572
1846.000000	53.140840
1845.000000	53.078574
1844.000000	53.049974
1843.000000	53.097378
1842.000000	53.166062
1841.000000	53.156604
1840.000000	53.095463
1839.000000	53.041079
1838.000000	53.014056
1837.000000	52.978362
1836.000000	52.913957
1835.000000	52.830522
1834.000000	52.743597
1833.000000	52.676264
1832.000000	52.654533
1831.000000	52.648002
1830.000000	52.619853
1829.000000	52.575602
1828.000000	52.509282
1827.000000	52.480682
1826.000000	52.467171
1825.000000	52.418754
1824.000000	52.393870
1823.000000	52.482146
1822.000000	52.552407
1821.000000	52.537994
1820.000000	52.506017
1819.000000	52.461428
1818.000000	52.419429
1817.000000	52.408170
1816.000000	52.418416
1815.000000	52.405693
1814.000000	52.377656
1813.000000	52.362793
1812.000000	52.340274
1811.000000	52.305706
1810.000000	52.262807
1809.000000	52.218669
1808.000000	52.195248
1807.000000	52.186466
1806.000000	52.143454
1805.000000	52.080962
1804.000000	52.052813
1803.000000	52.050336
1802.000000	52.038175
1801.000000	52.014304
1800.000000	51.952939
1799.000000	51.912066
1798.000000	51.900581
1797.000000	51.873445
1796.000000	51.856443
1795.000000	51.808139
1794.000000	51.772220
1793.000000	51.773346
1792.000000	51.746999
1791.000000	51.719525
1790.000000	51.706351
1789.000000	51.687660
1788.000000	51.693740
1787.000000	51.701622
1786.000000	51.706914
1785.000000	51.701960
1784.000000	51.681917
1783.000000	51.650390
1782.000000	51.645886
1781.000000	51.621227
1780.000000	51.575175
1779.000000	51.547138
1778.000000	51.508518
1777.000000	51.463028
1776.000000	51.418102
1775.000000	51.353021
1774.000000	51.280621
1773.000000	51.230515
1772.000000	51.182661
1771.000000	51.124448
1770.000000	51.058579
1769.000000	50.998002
1768.000000	50.954201
1767.000000	50.908262
1766.000000	50.846784
1765.000000	50.798592
1764.000000	50.770555
1763.000000	50.744095
1762.000000	50.725967
1761.000000	50.691737
1760.000000	50.660435
1759.000000	50.648162
1758.000000	50.637578
1757.000000	50.623053
1756.000000	50.596818
1755.000000	50.587697
1754.000000	50.572834
1753.000000	50.551441
1752.000000	50.528471
1751.000000	50.481518
1750.000000	50.455846
1749.000000	50.393692
1748.000000	50.345050
1747.000000	50.275127
1746.000000	50.187527
1745.000000	50.110623
1744.000000	50.022121
1743.000000	49.921910
1742.000000	49.825639
1741.000000	49.754928
1740.000000	49.653816
1739.000000	49.581190
1738.000000	49.497418
1737.000000	49.429972
1736.000000	49.375025
1735.000000	49.309493
1734.000000	49.276727
1733.000000	49.207930
1732.000000	49.147015
1731.000000	49.113799
1730.000000	49.073602
1729.000000	49.003566
1728.000000	48.962919
1727.000000	48.946592
1726.000000	48.927113
1725.000000	48.911349
1724.000000	48.915403
1723.000000	48.996923
1722.000000	49.110083
1721.000000	49.275714
1720.000000	49.482330
1719.000000	49.728805
1718.000000	49.982825
1717.000000	50.228062
1716.000000	50.485797
1715.000000	50.730245
1714.000000	50.955890
1713.000000	51.159128
1712.000000	51.349080
1711.000000	51.509869
1710.000000	51.676851
1709.000000	51.793389
1708.000000	51.912854
1707.000000	52.016782
1706.000000	52.093460
1705.000000	52.169013
1704.000000	52.199077
1703.000000	52.237247
1702.000000	52.252785
1701.000000	52.284876
1700.000000	52.289380
1699.000000	52.278232
1698.000000	52.296361
1697.000000	52.283525
1696.000000	52.252223
1695.000000	52.200540
1694.000000	52.110913
1693.000000	52.035585
1692.000000	51.963298
1691.000000	51.891123
1690.000000	51.845071
1689.000000	51.860159
1688.000000	51.918484
1687.000000	52.024776
1686.000000	52.201216
1685.000000	52.407607
1684.000000	52.635616
1683.000000	52.885470
1682.000000	53.159419
1681.000000	53.438885
1680.000000	53.715987
1679.000000	53.945911
1678.000000	54.170655
1677.000000	54.412288
1676.000000	54.610572
1675.000000	54.834753
1674.000000	55.043621
1673.000000	55.267690
1672.000000	55.474531
1671.000000	55.670225
1670.000000	55.912647
1669.000000	56.130410
1668.000000	56.338602
1667.000000	56.540714
1666.000000	56.713664
1665.000000	56.914425
1664.000000	57.069359
1663.000000	57.223279
1662.000000	57.393526
1661.000000	57.536412
1660.000000	57.650248
1659.000000	57.763183
1658.000000	57.865984
1657.000000	57.950207
1656.000000	58.020017
1655.000000	58.069110
1654.000000	58.145563
1653.000000	58.186098
1652.000000	58.195106
1651.000000	58.213572
1650.000000	58.235641
1649.000000	58.212108
1648.000000	58.197133
1647.000000	58.195556
1646.000000	58.165155
1645.000000	58.170447
1644.000000	58.139708
1643.000000	58.128674
1642.000000	58.118652
1641.000000	58.115274
1640.000000	58.096471
1639.000000	58.073276
1638.000000	58.055035
1637.000000	58.026548
1636.000000	57.999975
1635.000000	57.964507
1634.000000	57.935231
1633.000000	57.892782
1632.000000	57.839073
1631.000000	57.794147
1630.000000	57.745505
1629.000000	57.695624
1628.000000	57.648559
1627.000000	57.581000
1626.000000	57.527517
1625.000000	57.484167
1624.000000	57.439803
