PE UV       SUBTECH     SPECTRUM    ASCII       PEDS        4.00        
   -1
CICIMAUCR0018-6.Sample.ASC
24/04/25
15:28:28.00
24/04/25
15:28:28.00
Vinicio Soto Monge
C. cupreomarginata
250,000000
1
Lambda 1050
1050L1511233
PerkinElmer UV WinLab 6.3.2.0749 / 2.02.05 Lambda 900 UV/VIS/NIR, Aug  7 2015 09:38:08

0
0
3350/servo 860,8/2
0
0
UV/VIS
1
1
1
DoubleDePol,CommonBeamDepol,RBeamAtt,SBeamAtt,60mm sphere, WB InGaAs Detector
0
0
0
0
Program
Program
3350/servo 860,8/2
3350/0,2 860,8/0,2
3350/0,2 860,8/0,2
0
15.00
 
 
 
0
 
860,8
319,2
860,8
Front
100
on
S:100 R:100
0
0
0
0
 
0
 
 
 
0
 
 
0
0
0
0
0
 
 
 
 
0
0


0
0
#HDR
-1
-1
#GR
nm
%R
1.0
0.0
2500,000000
-1,000000
2251
8
70,559000
5,550100
#DATA
2500.000000	6.461800
2499.000000	6.567400
2498.000000	6.552800
2497.000000	6.485700
2496.000000	6.350300
2495.000000	6.435500
2494.000000	6.368200
2493.000000	6.358100
2492.000000	6.382000
2491.000000	6.260800
2490.000000	6.337300
2489.000000	6.363500
2488.000000	6.286200
2487.000000	6.292900
2486.000000	6.284300
2485.000000	6.240100
2484.000000	6.310900
2483.000000	6.253800
2482.000000	6.293200
2481.000000	6.271900
2480.000000	6.275800
2479.000000	6.293800
2478.000000	6.267300
2477.000000	6.244100
2476.000000	6.244700
2475.000000	6.248500
2474.000000	6.246400
2473.000000	6.240400
2472.000000	6.276200
2471.000000	6.210900
2470.000000	6.252400
2469.000000	6.193100
2468.000000	6.189100
2467.000000	6.239100
2466.000000	6.270800
2465.000000	6.258500
2464.000000	6.252700
2463.000000	6.285500
2462.000000	6.315200
2461.000000	6.304800
2460.000000	6.336000
2459.000000	6.338200
2458.000000	6.420600
2457.000000	6.411000
2456.000000	6.442600
2455.000000	6.490500
2454.000000	6.518500
2453.000000	6.516200
2452.000000	6.566800
2451.000000	6.616400
2450.000000	6.645500
2449.000000	6.691700
2448.000000	6.708800
2447.000000	6.761300
2446.000000	6.805500
2445.000000	6.822400
2444.000000	6.868600
2443.000000	6.920700
2442.000000	6.968900
2441.000000	7.011100
2440.000000	7.039800
2439.000000	7.067900
2438.000000	7.102200
2437.000000	7.118500
2436.000000	7.170700
2435.000000	7.213600
2434.000000	7.251000
2433.000000	7.288300
2432.000000	7.306700
2431.000000	7.315600
2430.000000	7.365700
2429.000000	7.385600
2428.000000	7.401300
2427.000000	7.408700
2426.000000	7.433100
2425.000000	7.465700
2424.000000	7.492200
2423.000000	7.504900
2422.000000	7.509900
2421.000000	7.529200
2420.000000	7.539000
2419.000000	7.562800
2418.000000	7.580900
2417.000000	7.580000
2416.000000	7.599700
2415.000000	7.618900
2414.000000	7.637300
2413.000000	7.636000
2412.000000	7.640800
2411.000000	7.685700
2410.000000	7.734000
2409.000000	7.806000
2408.000000	7.881000
2407.000000	7.926400
2406.000000	7.961600
2405.000000	7.967900
2404.000000	7.982200
2403.000000	7.998000
2402.000000	8.007400
2401.000000	8.041300
2400.000000	8.105500
2399.000000	8.121600
2398.000000	8.130600
2397.000000	8.163400
2396.000000	8.203300
2395.000000	8.210900
2394.000000	8.244100
2393.000000	8.263800
2392.000000	8.283700
2391.000000	8.306200
2390.000000	8.323300
2389.000000	8.342900
2388.000000	8.343700
2387.000000	8.367500
2386.000000	8.378700
2385.000000	8.374700
2384.000000	8.378300
2383.000000	8.367900
2382.000000	8.373700
2381.000000	8.380300
2380.000000	8.366600
2379.000000	8.378400
2378.000000	8.390700
2377.000000	8.378000
2376.000000	8.369200
2375.000000	8.360800
2374.000000	8.340900
2373.000000	8.335600
2372.000000	8.336500
2371.000000	8.312300
2370.000000	8.285900
2369.000000	8.262600
2368.000000	8.243400
2367.000000	8.219100
2366.000000	8.202400
2365.000000	8.181500
2364.000000	8.141900
2363.000000	8.109500
2362.000000	8.074200
2361.000000	8.031300
2360.000000	8.001100
2359.000000	7.975200
2358.000000	7.960200
2357.000000	7.935200
2356.000000	7.897000
2355.000000	7.893500
2354.000000	7.889300
2353.000000	7.879100
2352.000000	7.879600
2351.000000	7.892700
2350.000000	7.896100
2349.000000	7.914100
2348.000000	7.944600
2347.000000	7.967500
2346.000000	8.003100
2345.000000	8.055200
2344.000000	8.085000
2343.000000	8.096200
2342.000000	8.122500
2341.000000	8.165500
2340.000000	8.187600
2339.000000	8.201500
2338.000000	8.214800
2337.000000	8.218000
2336.000000	8.218500
2335.000000	8.227500
2334.000000	8.218700
2333.000000	8.210300
2332.000000	8.202100
2331.000000	8.178900
2330.000000	8.131700
2329.000000	8.128300
2328.000000	8.107200
2327.000000	8.069400
2326.000000	8.034600
2325.000000	7.981800
2324.000000	7.944600
2323.000000	7.936800
2322.000000	7.883100
2321.000000	7.824900
2320.000000	7.766500
2319.000000	7.716200
2318.000000	7.658500
2317.000000	7.613700
2316.000000	7.556800
2315.000000	7.514900
2314.000000	7.455800
2313.000000	7.406500
2312.000000	7.362000
2311.000000	7.322400
2310.000000	7.285700
2309.000000	7.283000
2308.000000	7.257600
2307.000000	7.257500
2306.000000	7.243500
2305.000000	7.237000
2304.000000	7.290700
2303.000000	7.308200
2302.000000	7.356500
2301.000000	7.414400
2300.000000	7.446500
2299.000000	7.490100
2298.000000	7.552600
2297.000000	7.605900
2296.000000	7.685500
2295.000000	7.715000
2294.000000	7.764800
2293.000000	7.809800
2292.000000	7.831500
2291.000000	7.853500
2290.000000	7.887900
2289.000000	7.895700
2288.000000	7.912200
2287.000000	7.907200
2286.000000	7.920000
2285.000000	7.903600
2284.000000	7.882600
2283.000000	7.873100
2282.000000	7.852300
2281.000000	7.837700
2280.000000	7.800500
2279.000000	7.782500
2278.000000	7.775100
2277.000000	7.744200
2276.000000	7.717900
2275.000000	7.714500
2274.000000	7.721900
2273.000000	7.706800
2272.000000	7.730300
2271.000000	7.714800
2270.000000	7.734600
2269.000000	7.760200
2268.000000	7.805300
2267.000000	7.851000
2266.000000	7.916000
2265.000000	7.985600
2264.000000	8.065500
2263.000000	8.163900
2262.000000	8.290600
2261.000000	8.425200
2260.000000	8.554200
2259.000000	8.671100
2258.000000	8.817900
2257.000000	8.978500
2256.000000	9.120000
2255.000000	9.258200
2254.000000	9.432100
2253.000000	9.588000
2252.000000	9.712300
2251.000000	9.856600
2250.000000	9.995000
2249.000000	10.135600
2248.000000	10.233400
2247.000000	10.345000
2246.000000	10.481200
2245.000000	10.566700
2244.000000	10.671400
2243.000000	10.757800
2242.000000	10.830100
2241.000000	10.906300
2240.000000	10.984700
2239.000000	11.071200
2238.000000	11.135100
2237.000000	11.164000
2236.000000	11.235200
2235.000000	11.315000
2234.000000	11.357200
2233.000000	11.403900
2232.000000	11.439400
2231.000000	11.448600
2230.000000	11.498700
2229.000000	11.513700
2228.000000	11.550300
2227.000000	11.575300
2226.000000	11.567700
2225.000000	11.578100
2224.000000	11.563900
2223.000000	11.581800
2222.000000	11.575500
2221.000000	11.578500
2220.000000	11.552700
2219.000000	11.521400
2218.000000	11.517700
2217.000000	11.530300
2216.000000	11.511400
2215.000000	11.500400
2214.000000	11.481700
2213.000000	11.465500
2212.000000	11.475100
2211.000000	11.460000
2210.000000	11.419700
2209.000000	11.414600
2208.000000	11.418600
2207.000000	11.401800
2206.000000	11.394700
2205.000000	11.377200
2204.000000	11.373800
2203.000000	11.356200
2202.000000	11.361700
2201.000000	11.366000
2200.000000	11.359100
2199.000000	11.347300
2198.000000	11.321300
2197.000000	11.342900
2196.000000	11.302800
2195.000000	11.317400
2194.000000	11.304900
2193.000000	11.304300
2192.000000	11.300100
2191.000000	11.286600
2190.000000	11.285600
2189.000000	11.278200
2188.000000	11.282800
2187.000000	11.283600
2186.000000	11.250000
2185.000000	11.247600
2184.000000	11.241400
2183.000000	11.212000
2182.000000	11.230600
2181.000000	11.225200
2180.000000	11.208600
2179.000000	11.202900
2178.000000	11.189400
2177.000000	11.186200
2176.000000	11.187900
2175.000000	11.195400
2174.000000	11.194400
2173.000000	11.208100
2172.000000	11.193200
2171.000000	11.180700
2170.000000	11.213200
2169.000000	11.225800
2168.000000	11.226700
2167.000000	11.229500
2166.000000	11.247200
2165.000000	11.253800
2164.000000	11.265200
2163.000000	11.288800
2162.000000	11.290400
2161.000000	11.313300
2160.000000	11.301900
2159.000000	11.326500
2158.000000	11.342000
2157.000000	11.349400
2156.000000	11.388000
2155.000000	11.421600
2154.000000	11.412500
2153.000000	11.442200
2152.000000	11.457900
2151.000000	11.477800
2150.000000	11.515200
2149.000000	11.537900
2148.000000	11.557200
2147.000000	11.572500
2146.000000	11.575500
2145.000000	11.597900
2144.000000	11.623400
2143.000000	11.640200
2142.000000	11.642800
2141.000000	11.643100
2140.000000	11.659700
2139.000000	11.666500
2138.000000	11.701500
2137.000000	11.711900
2136.000000	11.715200
2135.000000	11.704600
2134.000000	11.712100
2133.000000	11.729000
2132.000000	11.716000
2131.000000	11.708400
2130.000000	11.708700
2129.000000	11.704100
2128.000000	11.697300
2127.000000	11.689000
2126.000000	11.683100
2125.000000	11.662300
2124.000000	11.645400
2123.000000	11.638200
2122.000000	11.611800
2121.000000	11.590500
2120.000000	11.581600
2119.000000	11.568500
2118.000000	11.546400
2117.000000	11.508200
2116.000000	11.479600
2115.000000	11.459000
2114.000000	11.445400
2113.000000	11.431500
2112.000000	11.420800
2111.000000	11.384300
2110.000000	11.352000
2109.000000	11.324300
2108.000000	11.295100
2107.000000	11.272500
2106.000000	11.244000
2105.000000	11.217300
2104.000000	11.200400
2103.000000	11.187700
2102.000000	11.164200
2101.000000	11.131200
2100.000000	11.106300
2099.000000	11.093100
2098.000000	11.060300
2097.000000	11.030100
2096.000000	11.019300
2095.000000	11.006900
2094.000000	10.983900
2093.000000	10.973200
2092.000000	10.955500
2091.000000	10.935300
2090.000000	10.934800
2089.000000	10.913300
2088.000000	10.900500
2087.000000	10.888900
2086.000000	10.868600
2085.000000	10.856200
2084.000000	10.843700
2083.000000	10.826100
2082.000000	10.808900
2081.000000	10.793000
2080.000000	10.781400
2079.000000	10.767000
2078.000000	10.746400
2077.000000	10.716900
2076.000000	10.705900
2075.000000	10.706400
2074.000000	10.679500
2073.000000	10.663200
2072.000000	10.671500
2071.000000	10.650600
2070.000000	10.625300
2069.000000	10.621000
2068.000000	10.619400
2067.000000	10.596900
2066.000000	10.585700
2065.000000	10.576000
2064.000000	10.571100
2063.000000	10.567600
2062.000000	10.556000
2061.000000	10.540500
2060.000000	10.530300
2059.000000	10.546900
2058.000000	10.567400
2057.000000	10.568300
2056.000000	10.588200
2055.000000	10.614400
2054.000000	10.655800
2053.000000	10.685400
2052.000000	10.724700
2051.000000	10.772900
2050.000000	10.827900
2049.000000	10.892200
2048.000000	10.941300
2047.000000	10.991400
2046.000000	11.067800
2045.000000	11.155700
2044.000000	11.231700
2043.000000	11.336000
2042.000000	11.425700
2041.000000	11.506800
2040.000000	11.580800
2039.000000	11.652900
2038.000000	11.745000
2037.000000	11.845200
2036.000000	11.911200
2035.000000	11.982300
2034.000000	12.058000
2033.000000	12.122500
2032.000000	12.198500
2031.000000	12.253400
2030.000000	12.322200
2029.000000	12.367400
2028.000000	12.413200
2027.000000	12.475700
2026.000000	12.517600
2025.000000	12.567000
2024.000000	12.608100
2023.000000	12.647500
2022.000000	12.713900
2021.000000	12.725200
2020.000000	12.762500
2019.000000	12.821000
2018.000000	12.848400
2017.000000	12.863800
2016.000000	12.919600
2015.000000	12.937700
2014.000000	12.960900
2013.000000	12.969800
2012.000000	13.011500
2011.000000	13.007400
2010.000000	13.016700
2009.000000	13.031400
2008.000000	13.018800
2007.000000	13.033900
2006.000000	13.036900
2005.000000	13.036000
2004.000000	13.036400
2003.000000	13.010200
2002.000000	13.015300
2001.000000	13.001700
2000.000000	12.987200
1999.000000	12.968100
1998.000000	12.955400
1997.000000	12.914100
1996.000000	12.901100
1995.000000	12.864500
1994.000000	12.833900
1993.000000	12.805000
1992.000000	12.760600
1991.000000	12.726500
1990.000000	12.685100
1989.000000	12.644400
1988.000000	12.611900
1987.000000	12.571400
1986.000000	12.521300
1985.000000	12.472000
1984.000000	12.442600
1983.000000	12.415100
1982.000000	12.359500
1981.000000	12.306400
1980.000000	12.256300
1979.000000	12.219400
1978.000000	12.183400
1977.000000	12.130500
1976.000000	12.076100
1975.000000	12.037800
1974.000000	12.010700
1973.000000	11.970100
1972.000000	11.913600
1971.000000	11.886900
1970.000000	11.863200
1969.000000	11.794500
1968.000000	11.757900
1967.000000	11.730200
1966.000000	11.694600
1965.000000	11.646200
1964.000000	11.611200
1963.000000	11.591500
1962.000000	11.550300
1961.000000	11.511400
1960.000000	11.477800
1959.000000	11.438800
1958.000000	11.398100
1957.000000	11.369600
1956.000000	11.338900
1955.000000	11.296400
1954.000000	11.249900
1953.000000	11.227900
1952.000000	11.194300
1951.000000	11.162900
1950.000000	11.149600
1949.000000	11.102500
1948.000000	11.089500
1947.000000	11.076100
1946.000000	11.040900
1945.000000	11.042700
1944.000000	11.004900
1943.000000	11.001200
1942.000000	11.020500
1941.000000	11.000300
1940.000000	11.015400
1939.000000	11.010200
1938.000000	11.000700
1937.000000	11.020300
1936.000000	11.041700
1935.000000	11.062600
1934.000000	11.077800
1933.000000	11.136200
1932.000000	11.171300
1931.000000	11.222700
1930.000000	11.265300
1929.000000	11.310100
1928.000000	11.380800
1927.000000	11.457500
1926.000000	11.502700
1925.000000	11.573900
1924.000000	11.668800
1923.000000	11.758000
1922.000000	11.822300
1921.000000	11.929500
1920.000000	12.038700
1919.000000	12.122900
1918.000000	12.245500
1917.000000	12.362000
1916.000000	12.471600
1915.000000	12.605700
1914.000000	12.739400
1913.000000	12.866600
1912.000000	13.010900
1911.000000	13.131200
1910.000000	13.265700
1909.000000	13.412500
1908.000000	13.585400
1907.000000	13.760800
1906.000000	13.920000
1905.000000	14.083300
1904.000000	14.243500
1903.000000	14.411000
1902.000000	14.607500
1901.000000	14.771900
1900.000000	14.954900
1899.000000	15.128000
1898.000000	15.328700
1897.000000	15.499100
1896.000000	15.671600
1895.000000	15.874100
1894.000000	16.069700
1893.000000	16.287100
1892.000000	16.502100
1891.000000	16.697900
1890.000000	16.893600
1889.000000	17.114500
1888.000000	17.378300
1887.000000	17.648000
1886.000000	17.930500
1885.000000	18.264400
1884.000000	18.624800
1883.000000	19.009200
1882.000000	19.403100
1881.000000	19.832700
1880.000000	20.247100
1879.000000	20.652300
1878.000000	21.042200
1877.000000	21.414300
1876.000000	21.752700
1875.000000	22.090100
1874.000000	22.396100
1873.000000	22.671900
1872.000000	22.923700
1871.000000	23.127000
1870.000000	23.278000
1869.000000	23.433500
1868.000000	23.533800
1867.000000	23.610800
1866.000000	23.690400
1865.000000	23.769600
1864.000000	23.835600
1863.000000	23.887400
1862.000000	23.959300
1861.000000	23.996300
1860.000000	24.017900
1859.000000	24.022100
1858.000000	24.001800
1857.000000	23.977200
1856.000000	23.964900
1855.000000	23.932600
1854.000000	23.864600
1853.000000	23.784300
1852.000000	23.734300
1851.000000	23.703500
1850.000000	23.678800
1849.000000	23.632500
1848.000000	23.546800
1847.000000	23.417200
1846.000000	23.298700
1845.000000	23.263300
1844.000000	23.258100
1843.000000	23.262100
1842.000000	23.232300
1841.000000	23.175500
1840.000000	23.116200
1839.000000	23.077400
1838.000000	23.037100
1837.000000	22.959600
1836.000000	22.870800
1835.000000	22.788000
1834.000000	22.702700
1833.000000	22.643900
1832.000000	22.586100
1831.000000	22.505900
1830.000000	22.429700
1829.000000	22.351000
1828.000000	22.249700
1827.000000	22.156900
1826.000000	22.073600
1825.000000	21.998400
1824.000000	21.962400
1823.000000	21.961600
1822.000000	21.959400
1821.000000	21.916400
1820.000000	21.867500
1819.000000	21.824600
1818.000000	21.809300
1817.000000	21.809800
1816.000000	21.799500
1815.000000	21.778900
1814.000000	21.758100
1813.000000	21.750000
1812.000000	21.752400
1811.000000	21.726300
1810.000000	21.665600
1809.000000	21.639800
1808.000000	21.621000
1807.000000	21.587900
1806.000000	21.548100
1805.000000	21.488700
1804.000000	21.449300
1803.000000	21.412200
1802.000000	21.370700
1801.000000	21.307300
1800.000000	21.243400
1799.000000	21.200100
1798.000000	21.163500
1797.000000	21.134800
1796.000000	21.095700
1795.000000	21.044800
1794.000000	20.991400
1793.000000	20.956200
1792.000000	20.903800
1791.000000	20.839500
1790.000000	20.797100
1789.000000	20.743600
1788.000000	20.680200
1787.000000	20.606900
1786.000000	20.537900
1785.000000	20.465400
1784.000000	20.386900
1783.000000	20.316800
1782.000000	20.242200
1781.000000	20.174000
1780.000000	20.094400
1779.000000	19.998500
1778.000000	19.915600
1777.000000	19.821200
1776.000000	19.724600
1775.000000	19.617300
1774.000000	19.499100
1773.000000	19.376900
1772.000000	19.248200
1771.000000	19.121200
1770.000000	19.017200
1769.000000	18.891500
1768.000000	18.783200
1767.000000	18.679700
1766.000000	18.601800
1765.000000	18.555500
1764.000000	18.520000
1763.000000	18.494800
1762.000000	18.532400
1761.000000	18.570000
1760.000000	18.627800
1759.000000	18.696600
1758.000000	18.769100
1757.000000	18.817800
1756.000000	18.866300
1755.000000	18.897100
1754.000000	18.903800
1753.000000	18.923500
1752.000000	18.906100
1751.000000	18.865600
1750.000000	18.818800
1749.000000	18.768000
1748.000000	18.697700
1747.000000	18.605900
1746.000000	18.503900
1745.000000	18.381000
1744.000000	18.241800
1743.000000	18.063300
1742.000000	17.886600
1741.000000	17.678500
1740.000000	17.470300
1739.000000	17.281800
1738.000000	17.084100
1737.000000	16.924300
1736.000000	16.831500
1735.000000	16.756300
1734.000000	16.758100
1733.000000	16.769600
1732.000000	16.798500
1731.000000	16.907900
1730.000000	17.002200
1729.000000	17.117500
1728.000000	17.214300
1727.000000	17.322700
1726.000000	17.425400
1725.000000	17.503500
1724.000000	17.549400
1723.000000	17.566400
1722.000000	17.580300
1721.000000	17.581000
1720.000000	17.609700
1719.000000	17.609400
1718.000000	17.620300
1717.000000	17.675300
1716.000000	17.733600
1715.000000	17.786900
1714.000000	17.826300
1713.000000	17.857100
1712.000000	17.891300
1711.000000	17.933600
1710.000000	17.923000
1709.000000	17.910400
1708.000000	17.892900
1707.000000	17.878200
1706.000000	17.832400
1705.000000	17.783700
1704.000000	17.727300
1703.000000	17.644400
1702.000000	17.535500
1701.000000	17.415700
1700.000000	17.281300
1699.000000	17.131100
1698.000000	17.015700
1697.000000	16.918300
1696.000000	16.870500
1695.000000	16.888200
1694.000000	16.964200
1693.000000	17.062000
1692.000000	17.202500
1691.000000	17.349200
1690.000000	17.494200
1689.000000	17.583300
1688.000000	17.649500
1687.000000	17.661400
1686.000000	17.665800
1685.000000	17.678300
1684.000000	17.768000
1683.000000	17.979700
1682.000000	18.293800
1681.000000	18.734700
1680.000000	19.183700
1679.000000	19.703400
1678.000000	20.200800
1677.000000	20.691600
1676.000000	21.123100
1675.000000	21.471900
1674.000000	21.805900
1673.000000	22.081400
1672.000000	22.347000
1671.000000	22.540600
1670.000000	22.721700
1669.000000	22.863800
1668.000000	22.992400
1667.000000	23.125400
1666.000000	23.215400
1665.000000	23.291600
1664.000000	23.350900
1663.000000	23.414300
1662.000000	23.453300
1661.000000	23.493000
1660.000000	23.527300
1659.000000	23.551300
1658.000000	23.560700
1657.000000	23.573300
1656.000000	23.574100
1655.000000	23.562700
1654.000000	23.536100
1653.000000	23.522600
1652.000000	23.497300
1651.000000	23.470000
1650.000000	23.424000
1649.000000	23.376600
1648.000000	23.328500
1647.000000	23.272300
1646.000000	23.215700
1645.000000	23.175000
1644.000000	23.104800
1643.000000	23.041800
1642.000000	22.982800
1641.000000	22.922100
1640.000000	22.858300
1639.000000	22.795200
1638.000000	22.716700
1637.000000	22.641700
1636.000000	22.567900
1635.000000	22.506100
1634.000000	22.438600
1633.000000	22.350500
1632.000000	22.278500
1631.000000	22.188400
1630.000000	22.114900
1629.000000	22.040100
1628.000000	21.961400
1627.000000	21.885600
1626.000000	21.794600
1625.000000	21.720700
1624.000000	21.657200
1623.000000	21.555900
1622.000000	21.492400
1621.000000	21.415500
1620.000000	21.332500
1619.000000	21.261100
1618.000000	21.176500
1617.000000	21.108100
1616.000000	21.041900
1615.000000	20.973600
1614.000000	20.888200
1613.000000	20.841600
