PE UV       SUBTECH     SPECTRUM    ASCII       PEDS        4.00        
   -1
CICIMAUCR0097-1.Sample.ASC
24/04/17
14:59:50.00
24/04/17
14:59:50.00
Vinicio Soto Monge
C. kalinini
250,000000
1
Lambda 1050
1050L1511233
PerkinElmer UV WinLab 6.3.2.0749 / 2.02.05 Lambda 900 UV/VIS/NIR, Aug  7 2015 09:38:08

0
0
3350/servo 860,8/2
0
0
UV/VIS
1
1
1
DoubleDePol,CommonBeamDepol,RBeamAtt,SBeamAtt,60mm sphere, WB InGaAs Detector
0
0
0
0
Program
Program
3350/servo 860,8/2
3350/0,2 860,8/0,2
3350/0,2 860,8/0,2
0
15.00
 
 
 
0
 
860,8
319,2
860,8
Front
100
on
S:100 R:100
0
0
0
0
 
0
 
 
 
0
 
 
0
0
0
0
0
 
 
 
 
0
0


0
0
#HDR
-1
-1
#GR
nm
%R
1.0
0.0
2500,000000
-1,000000
2251
8
80,515100
4,474700
#DATA
2500.000000	5.843300
2499.000000	5.667700
2498.000000	5.722100
2497.000000	5.566500
2496.000000	5.662600
2495.000000	5.494300
2494.000000	5.669400
2493.000000	5.566900
2492.000000	5.520500
2491.000000	5.562900
2490.000000	5.585200
2489.000000	5.494100
2488.000000	5.515500
2487.000000	5.483100
2486.000000	5.554500
2485.000000	5.492300
2484.000000	5.499600
2483.000000	5.481500
2482.000000	5.459300
2481.000000	5.468700
2480.000000	5.484700
2479.000000	5.436900
2478.000000	5.440400
2477.000000	5.453200
2476.000000	5.444000
2475.000000	5.460800
2474.000000	5.456100
2473.000000	5.446000
2472.000000	5.474200
2471.000000	5.454700
2470.000000	5.453900
2469.000000	5.483000
2468.000000	5.399800
2467.000000	5.475100
2466.000000	5.453100
2465.000000	5.454800
2464.000000	5.460300
2463.000000	5.476800
2462.000000	5.477500
2461.000000	5.479000
2460.000000	5.498300
2459.000000	5.491300
2458.000000	5.514100
2457.000000	5.539600
2456.000000	5.577900
2455.000000	5.596500
2454.000000	5.579400
2453.000000	5.625900
2452.000000	5.652100
2451.000000	5.653300
2450.000000	5.718000
2449.000000	5.752400
2448.000000	5.757500
2447.000000	5.795600
2446.000000	5.821300
2445.000000	5.844400
2444.000000	5.877600
2443.000000	5.907200
2442.000000	5.922600
2441.000000	5.946500
2440.000000	5.965600
2439.000000	5.971400
2438.000000	6.014100
2437.000000	6.046300
2436.000000	6.057500
2435.000000	6.076000
2434.000000	6.093300
2433.000000	6.107600
2432.000000	6.128200
2431.000000	6.149300
2430.000000	6.164400
2429.000000	6.164100
2428.000000	6.175300
2427.000000	6.194800
2426.000000	6.207200
2425.000000	6.217600
2424.000000	6.214000
2423.000000	6.226900
2422.000000	6.230400
2421.000000	6.218300
2420.000000	6.228200
2419.000000	6.223000
2418.000000	6.223700
2417.000000	6.212800
2416.000000	6.228400
2415.000000	6.242100
2414.000000	6.241100
2413.000000	6.240400
2412.000000	6.242000
2411.000000	6.247100
2410.000000	6.256700
2409.000000	6.262700
2408.000000	6.258900
2407.000000	6.282200
2406.000000	6.280500
2405.000000	6.272700
2404.000000	6.279300
2403.000000	6.284400
2402.000000	6.306400
2401.000000	6.311800
2400.000000	6.308300
2399.000000	6.318600
2398.000000	6.337000
2397.000000	6.343800
2396.000000	6.352900
2395.000000	6.360800
2394.000000	6.375800
2393.000000	6.382500
2392.000000	6.386900
2391.000000	6.398000
2390.000000	6.407300
2389.000000	6.418500
2388.000000	6.423700
2387.000000	6.417600
2386.000000	6.419500
2385.000000	6.433300
2384.000000	6.428900
2383.000000	6.405100
2382.000000	6.402200
2381.000000	6.420700
2380.000000	6.418700
2379.000000	6.391900
2378.000000	6.372300
2377.000000	6.371800
2376.000000	6.367800
2375.000000	6.361100
2374.000000	6.345300
2373.000000	6.317600
2372.000000	6.304900
2371.000000	6.308900
2370.000000	6.307500
2369.000000	6.289900
2368.000000	6.247000
2367.000000	6.213400
2366.000000	6.188300
2365.000000	6.164200
2364.000000	6.127600
2363.000000	6.087900
2362.000000	6.064000
2361.000000	6.031000
2360.000000	5.995300
2359.000000	5.972100
2358.000000	5.938600
2357.000000	5.922900
2356.000000	5.904700
2355.000000	5.886300
2354.000000	5.876400
2353.000000	5.869100
2352.000000	5.877600
2351.000000	5.878100
2350.000000	5.886700
2349.000000	5.909900
2348.000000	5.924100
2347.000000	5.937300
2346.000000	5.970200
2345.000000	5.991100
2344.000000	6.020900
2343.000000	6.048700
2342.000000	6.061400
2341.000000	6.071800
2340.000000	6.099900
2339.000000	6.116900
2338.000000	6.117100
2337.000000	6.114500
2336.000000	6.111300
2335.000000	6.101600
2334.000000	6.086700
2333.000000	6.069400
2332.000000	6.061500
2331.000000	6.040700
2330.000000	6.003400
2329.000000	5.968100
2328.000000	5.949100
2327.000000	5.923300
2326.000000	5.897400
2325.000000	5.858900
2324.000000	5.798400
2323.000000	5.773700
2322.000000	5.731800
2321.000000	5.677100
2320.000000	5.645400
2319.000000	5.592600
2318.000000	5.544900
2317.000000	5.501400
2316.000000	5.467800
2315.000000	5.407200
2314.000000	5.371300
2313.000000	5.335700
2312.000000	5.295900
2311.000000	5.268300
2310.000000	5.240000
2309.000000	5.209400
2308.000000	5.202600
2307.000000	5.208100
2306.000000	5.199700
2305.000000	5.201700
2304.000000	5.211800
2303.000000	5.221900
2302.000000	5.250700
2301.000000	5.275400
2300.000000	5.329200
2299.000000	5.360100
2298.000000	5.393200
2297.000000	5.437800
2296.000000	5.473100
2295.000000	5.485200
2294.000000	5.515100
2293.000000	5.545100
2292.000000	5.554600
2291.000000	5.587900
2290.000000	5.587100
2289.000000	5.589100
2288.000000	5.592900
2287.000000	5.576600
2286.000000	5.542200
2285.000000	5.547100
2284.000000	5.557000
2283.000000	5.527800
2282.000000	5.498300
2281.000000	5.496200
2280.000000	5.472500
2279.000000	5.439000
2278.000000	5.417800
2277.000000	5.415000
2276.000000	5.394900
2275.000000	5.373200
2274.000000	5.369400
2273.000000	5.364600
2272.000000	5.352600
2271.000000	5.371200
2270.000000	5.388700
2269.000000	5.408300
2268.000000	5.431600
2267.000000	5.463800
2266.000000	5.483500
2265.000000	5.535700
2264.000000	5.579300
2263.000000	5.652700
2262.000000	5.716300
2261.000000	5.792400
2260.000000	5.887000
2259.000000	5.996500
2258.000000	6.087200
2257.000000	6.199700
2256.000000	6.315700
2255.000000	6.421600
2254.000000	6.525400
2253.000000	6.647600
2252.000000	6.754700
2251.000000	6.849500
2250.000000	6.971700
2249.000000	7.046000
2248.000000	7.137400
2247.000000	7.229400
2246.000000	7.319800
2245.000000	7.426500
2244.000000	7.474000
2243.000000	7.547000
2242.000000	7.609200
2241.000000	7.683400
2240.000000	7.741700
2239.000000	7.816200
2238.000000	7.870100
2237.000000	7.929000
2236.000000	7.973300
2235.000000	8.002200
2234.000000	8.088100
2233.000000	8.120400
2232.000000	8.154000
2231.000000	8.194400
2230.000000	8.219300
2229.000000	8.258500
2228.000000	8.292900
2227.000000	8.311500
2226.000000	8.326000
2225.000000	8.350900
2224.000000	8.382300
2223.000000	8.391200
2222.000000	8.389800
2221.000000	8.398200
2220.000000	8.403000
2219.000000	8.403900
2218.000000	8.420400
2217.000000	8.433100
2216.000000	8.430900
2215.000000	8.413800
2214.000000	8.426400
2213.000000	8.414800
2212.000000	8.423300
2211.000000	8.432100
2210.000000	8.425900
2209.000000	8.429900
2208.000000	8.432200
2207.000000	8.415100
2206.000000	8.426900
2205.000000	8.423600
2204.000000	8.440500
2203.000000	8.438800
2202.000000	8.431000
2201.000000	8.411800
2200.000000	8.421000
2199.000000	8.415300
2198.000000	8.416500
2197.000000	8.429900
2196.000000	8.422900
2195.000000	8.422200
2194.000000	8.423100
2193.000000	8.415500
2192.000000	8.422000
2191.000000	8.421900
2190.000000	8.440700
2189.000000	8.424200
2188.000000	8.412800
2187.000000	8.399800
2186.000000	8.397400
2185.000000	8.384100
2184.000000	8.387000
2183.000000	8.382400
2182.000000	8.373000
2181.000000	8.366300
2180.000000	8.390300
2179.000000	8.366600
2178.000000	8.377700
2177.000000	8.380600
2176.000000	8.371400
2175.000000	8.374700
2174.000000	8.390100
2173.000000	8.388600
2172.000000	8.396100
2171.000000	8.419800
2170.000000	8.422300
2169.000000	8.433600
2168.000000	8.423700
2167.000000	8.435700
2166.000000	8.459500
2165.000000	8.471900
2164.000000	8.483200
2163.000000	8.475200
2162.000000	8.508300
2161.000000	8.515700
2160.000000	8.517200
2159.000000	8.539700
2158.000000	8.554700
2157.000000	8.571500
2156.000000	8.562500
2155.000000	8.577000
2154.000000	8.586500
2153.000000	8.593600
2152.000000	8.602800
2151.000000	8.615600
2150.000000	8.619000
2149.000000	8.615000
2148.000000	8.630600
2147.000000	8.638900
2146.000000	8.646600
2145.000000	8.645200
2144.000000	8.651300
2143.000000	8.664900
2142.000000	8.669900
2141.000000	8.665000
2140.000000	8.665900
2139.000000	8.663000
2138.000000	8.650600
2137.000000	8.644100
2136.000000	8.641200
2135.000000	8.636800
2134.000000	8.630000
2133.000000	8.619500
2132.000000	8.617100
2131.000000	8.618500
2130.000000	8.617300
2129.000000	8.583500
2128.000000	8.570400
2127.000000	8.552900
2126.000000	8.525400
2125.000000	8.520300
2124.000000	8.515900
2123.000000	8.497000
2122.000000	8.476200
2121.000000	8.444300
2120.000000	8.418900
2119.000000	8.395000
2118.000000	8.374900
2117.000000	8.362600
2116.000000	8.343000
2115.000000	8.312700
2114.000000	8.290100
2113.000000	8.269600
2112.000000	8.242600
2111.000000	8.226300
2110.000000	8.208100
2109.000000	8.187500
2108.000000	8.171800
2107.000000	8.149000
2106.000000	8.136300
2105.000000	8.108000
2104.000000	8.079200
2103.000000	8.068200
2102.000000	8.048700
2101.000000	8.036900
2100.000000	8.011100
2099.000000	7.996000
2098.000000	7.971300
2097.000000	7.948500
2096.000000	7.944800
2095.000000	7.932700
2094.000000	7.920600
2093.000000	7.899200
2092.000000	7.867500
2091.000000	7.857000
2090.000000	7.858300
2089.000000	7.846000
2088.000000	7.838400
2087.000000	7.833200
2086.000000	7.827800
2085.000000	7.819600
2084.000000	7.815900
2083.000000	7.801700
2082.000000	7.789700
2081.000000	7.772900
2080.000000	7.759600
2079.000000	7.758100
2078.000000	7.750000
2077.000000	7.733800
2076.000000	7.724400
2075.000000	7.720800
2074.000000	7.718500
2073.000000	7.724200
2072.000000	7.732100
2071.000000	7.722200
2070.000000	7.716100
2069.000000	7.711100
2068.000000	7.710600
2067.000000	7.713300
2066.000000	7.718900
2065.000000	7.710600
2064.000000	7.706200
2063.000000	7.720100
2062.000000	7.720400
2061.000000	7.715500
2060.000000	7.736100
2059.000000	7.754200
2058.000000	7.780000
2057.000000	7.791100
2056.000000	7.812900
2055.000000	7.825900
2054.000000	7.849100
2053.000000	7.900400
2052.000000	7.920300
2051.000000	7.958000
2050.000000	8.026100
2049.000000	8.072700
2048.000000	8.133500
2047.000000	8.187800
2046.000000	8.267600
2045.000000	8.323000
2044.000000	8.393900
2043.000000	8.466100
2042.000000	8.536900
2041.000000	8.606300
2040.000000	8.693300
2039.000000	8.754700
2038.000000	8.829200
2037.000000	8.888800
2036.000000	8.962900
2035.000000	9.035800
2034.000000	9.082700
2033.000000	9.165000
2032.000000	9.213400
2031.000000	9.275800
2030.000000	9.341300
2029.000000	9.383000
2028.000000	9.444900
2027.000000	9.500700
2026.000000	9.547600
2025.000000	9.612200
2024.000000	9.647100
2023.000000	9.706800
2022.000000	9.763900
2021.000000	9.790000
2020.000000	9.838800
2019.000000	9.858400
2018.000000	9.928000
2017.000000	9.979600
2016.000000	10.000900
2015.000000	10.031900
2014.000000	10.067900
2013.000000	10.112600
2012.000000	10.157500
2011.000000	10.165000
2010.000000	10.189900
2009.000000	10.215900
2008.000000	10.206100
2007.000000	10.240600
2006.000000	10.266100
2005.000000	10.265100
2004.000000	10.267500
2003.000000	10.257200
2002.000000	10.268300
2001.000000	10.263400
2000.000000	10.271400
1999.000000	10.259600
1998.000000	10.253500
1997.000000	10.245900
1996.000000	10.228000
1995.000000	10.204800
1994.000000	10.204000
1993.000000	10.155900
1992.000000	10.160200
1991.000000	10.128000
1990.000000	10.108900
1989.000000	10.091300
1988.000000	10.061100
1987.000000	10.015000
1986.000000	9.978300
1985.000000	9.958300
1984.000000	9.927200
1983.000000	9.876400
1982.000000	9.843200
1981.000000	9.808500
1980.000000	9.780200
1979.000000	9.722000
1978.000000	9.701300
1977.000000	9.648900
1976.000000	9.625100
1975.000000	9.590500
1974.000000	9.562100
1973.000000	9.520200
1972.000000	9.480100
1971.000000	9.428400
1970.000000	9.391900
1969.000000	9.376400
1968.000000	9.328200
1967.000000	9.320700
1966.000000	9.260500
1965.000000	9.221200
1964.000000	9.198400
1963.000000	9.155400
1962.000000	9.131100
1961.000000	9.098400
1960.000000	9.060900
1959.000000	9.018900
1958.000000	9.000600
1957.000000	8.955000
1956.000000	8.936800
1955.000000	8.902600
1954.000000	8.863700
1953.000000	8.842100
1952.000000	8.803000
1951.000000	8.779900
1950.000000	8.746700
1949.000000	8.734400
1948.000000	8.728500
1947.000000	8.692800
1946.000000	8.669600
1945.000000	8.654900
1944.000000	8.644300
1943.000000	8.620200
1942.000000	8.623800
1941.000000	8.626800
1940.000000	8.620500
1939.000000	8.623000
1938.000000	8.615400
1937.000000	8.610700
1936.000000	8.628300
1935.000000	8.642200
1934.000000	8.694600
1933.000000	8.710400
1932.000000	8.757800
1931.000000	8.800100
1930.000000	8.851400
1929.000000	8.897500
1928.000000	8.938100
1927.000000	8.993300
1926.000000	9.045600
1925.000000	9.121200
1924.000000	9.196400
1923.000000	9.274200
1922.000000	9.368900
1921.000000	9.437100
1920.000000	9.549400
1919.000000	9.601200
1918.000000	9.710200
1917.000000	9.835300
1916.000000	9.932700
1915.000000	10.037400
1914.000000	10.187200
1913.000000	10.303600
1912.000000	10.386000
1911.000000	10.513400
1910.000000	10.648600
1909.000000	10.774200
1908.000000	10.927500
1907.000000	11.067300
1906.000000	11.202800
1905.000000	11.334200
1904.000000	11.478300
1903.000000	11.632900
1902.000000	11.781900
1901.000000	11.936200
1900.000000	12.093500
1899.000000	12.247400
1898.000000	12.397400
1897.000000	12.565100
1896.000000	12.713200
1895.000000	12.872800
1894.000000	13.037500
1893.000000	13.212600
1892.000000	13.386100
1891.000000	13.545700
1890.000000	13.715600
1889.000000	13.875400
1888.000000	14.051000
1887.000000	14.258000
1886.000000	14.489700
1885.000000	14.730600
1884.000000	15.016500
1883.000000	15.348600
1882.000000	15.698300
1881.000000	16.059100
1880.000000	16.431800
1879.000000	16.774000
1878.000000	17.121200
1877.000000	17.447600
1876.000000	17.738300
1875.000000	17.992800
1874.000000	18.245000
1873.000000	18.472000
1872.000000	18.674700
1871.000000	18.864000
1870.000000	19.006700
1869.000000	19.113500
1868.000000	19.220800
1867.000000	19.302200
1866.000000	19.365700
1865.000000	19.432900
1864.000000	19.499300
1863.000000	19.534400
1862.000000	19.570600
1861.000000	19.610300
1860.000000	19.587300
1859.000000	19.554100
1858.000000	19.527500
1857.000000	19.501100
1856.000000	19.445600
1855.000000	19.395700
1854.000000	19.346500
1853.000000	19.275100
1852.000000	19.202500
1851.000000	19.145400
1850.000000	19.108100
1849.000000	19.063500
1848.000000	18.963700
1847.000000	18.838400
1846.000000	18.733400
1845.000000	18.663300
1844.000000	18.638700
1843.000000	18.631300
1842.000000	18.627700
1841.000000	18.583600
1840.000000	18.521400
1839.000000	18.473900
1838.000000	18.435100
1837.000000	18.378400
1836.000000	18.303400
1835.000000	18.233100
1834.000000	18.167700
1833.000000	18.100100
1832.000000	18.046800
1831.000000	18.001000
1830.000000	17.914000
1829.000000	17.815700
1828.000000	17.730500
1827.000000	17.645800
1826.000000	17.577100
1825.000000	17.514600
1824.000000	17.468900
1823.000000	17.462800
1822.000000	17.470600
1821.000000	17.436700
1820.000000	17.386800
1819.000000	17.343200
1818.000000	17.327100
1817.000000	17.329500
1816.000000	17.337200
1815.000000	17.349300
1814.000000	17.348900
1813.000000	17.339800
1812.000000	17.325400
1811.000000	17.303800
1810.000000	17.261000
1809.000000	17.240500
1808.000000	17.207000
1807.000000	17.173600
1806.000000	17.163300
1805.000000	17.110500
1804.000000	17.052300
1803.000000	17.015600
1802.000000	16.982700
1801.000000	16.933300
1800.000000	16.883200
1799.000000	16.827400
1798.000000	16.793600
1797.000000	16.773500
1796.000000	16.734100
1795.000000	16.699100
1794.000000	16.633800
1793.000000	16.597600
1792.000000	16.549300
1791.000000	16.491500
1790.000000	16.426400
1789.000000	16.374600
1788.000000	16.304100
1787.000000	16.246000
1786.000000	16.193000
1785.000000	16.105300
1784.000000	15.999900
1783.000000	15.932100
1782.000000	15.860500
1781.000000	15.761600
1780.000000	15.680700
1779.000000	15.605600
1778.000000	15.523600
1777.000000	15.420700
1776.000000	15.310000
1775.000000	15.197400
1774.000000	15.077100
1773.000000	14.955200
1772.000000	14.809800
1771.000000	14.669100
1770.000000	14.552600
1769.000000	14.427300
1768.000000	14.301400
1767.000000	14.179600
1766.000000	14.097400
1765.000000	14.019100
1764.000000	13.985800
1763.000000	13.969300
1762.000000	13.977500
1761.000000	14.023800
1760.000000	14.075700
1759.000000	14.141300
1758.000000	14.214300
1757.000000	14.283800
1756.000000	14.334600
1755.000000	14.383200
1754.000000	14.393800
1753.000000	14.397900
1752.000000	14.379800
1751.000000	14.348000
1750.000000	14.304100
1749.000000	14.244700
1748.000000	14.172400
1747.000000	14.084100
1746.000000	13.992200
1745.000000	13.871900
1744.000000	13.714400
1743.000000	13.527200
1742.000000	13.330600
1741.000000	13.104400
1740.000000	12.882200
1739.000000	12.648400
1738.000000	12.448300
1737.000000	12.283300
1736.000000	12.147900
1735.000000	12.046800
1734.000000	12.014000
1733.000000	12.011400
1732.000000	12.040200
1731.000000	12.147100
1730.000000	12.248300
1729.000000	12.362600
1728.000000	12.469700
1727.000000	12.567200
1726.000000	12.684000
1725.000000	12.748600
1724.000000	12.811800
1723.000000	12.840000
1722.000000	12.841000
1721.000000	12.854700
1720.000000	12.851000
1719.000000	12.850900
1718.000000	12.840300
1717.000000	12.852000
1716.000000	12.900100
1715.000000	12.924700
1714.000000	12.987700
1713.000000	13.053700
1712.000000	13.050100
1711.000000	13.088800
1710.000000	13.082000
1709.000000	13.093100
1708.000000	13.094200
1707.000000	13.068900
1706.000000	13.039700
1705.000000	12.999600
1704.000000	12.967700
1703.000000	12.902800
1702.000000	12.842300
1701.000000	12.734900
1700.000000	12.591300
1699.000000	12.456600
1698.000000	12.350400
1697.000000	12.265400
1696.000000	12.239000
1695.000000	12.240700
1694.000000	12.294000
1693.000000	12.417600
1692.000000	12.562400
1691.000000	12.749000
1690.000000	12.910100
1689.000000	13.033200
1688.000000	13.115800
1687.000000	13.134500
1686.000000	13.113700
1685.000000	13.113500
1684.000000	13.162000
1683.000000	13.277900
1682.000000	13.558400
1681.000000	13.962400
1680.000000	14.437200
1679.000000	14.996200
1678.000000	15.537400
1677.000000	16.064000
1676.000000	16.549200
1675.000000	16.957200
1674.000000	17.325800
1673.000000	17.619000
1672.000000	17.878000
1671.000000	18.104600
1670.000000	18.298600
1669.000000	18.449000
1668.000000	18.602700
1667.000000	18.757800
1666.000000	18.846300
1665.000000	18.938100
1664.000000	18.996700
1663.000000	19.077800
1662.000000	19.102900
1661.000000	19.150100
1660.000000	19.204000
1659.000000	19.234800
1658.000000	19.239700
1657.000000	19.258200
1656.000000	19.265300
1655.000000	19.261400
1654.000000	19.265200
1653.000000	19.269000
1652.000000	19.233800
1651.000000	19.194100
1650.000000	19.166600
1649.000000	19.149300
1648.000000	19.112900
1647.000000	19.057800
1646.000000	19.006800
1645.000000	18.955800
1644.000000	18.918500
1643.000000	18.856300
1642.000000	18.798500
1641.000000	18.724800
1640.000000	18.649100
1639.000000	18.593600
1638.000000	18.532600
1637.000000	18.462100
1636.000000	18.396000
1635.000000	18.335700
1634.000000	18.253500
1633.000000	18.185600
1632.000000	18.120600
1631.000000	18.072200
1630.000000	18.037800
1629.000000	17.972800
1628.000000	17.929400
1627.000000	17.840900
1626.000000	17.764400
1625.000000	17.679400
1624.000000	17.602900
1623.000000	17.531200
1622.000000	17.463400
1621.000000	17.401600
1620.000000	17.320600
1619.000000	17.242200
1618.000000	17.180300
1617.000000	17.102500
1616.000000	17.041000
1615.000000	16.962400
1614.000000	16.893700
1613.000000	16.842100
1612.000000	16.771200
1611.000000	16.717700
1610.000000	16.659800
1609.000000	16.593000
1608.000000	16.533700
1607.000000	16.468900
1606.000000	16.422000
1605.000000	16.378300
1604.000000	16.328900
1603.000000	16.272800
1602.000000	16.215400
1601.000000	16.162200
1600.000000	16.096300
1599.000000	16.051200
