PE UV       SUBTECH     SPECTRUM    ASCII       PEDS        4.00        
   -1
CICIMAUCR0113-4.Sample.ASC
24/04/18
17:16:39.00
24/04/18
17:16:39.00
Vinicio Soto Monge
C. kalinini
250,000000
1
Lambda 1050
1050L1511233
PerkinElmer UV WinLab 6.3.2.0749 / 2.02.05 Lambda 900 UV/VIS/NIR, Aug  7 2015 09:38:08

0
0
3350/servo 860,8/2
0
0
UV/VIS
1
1
1
DoubleDePol,CommonBeamDepol,RBeamAtt,SBeamAtt,60mm sphere, WB InGaAs Detector
0
0
0
0
Program
Program
3350/servo 860,8/2
3350/0,2 860,8/0,2
3350/0,2 860,8/0,2
0
15.00
 
 
 
0
 
860,8
319,2
860,8
Front
100
on
S:100 R:100
0
0
0
0
 
0
 
 
 
0
 
 
0
0
0
0
0
 
 
 
 
0
0


0
0
#HDR
-1
-1
#GR
nm
%R
1.0
0.0
2500,000000
-1,000000
2251
8
46,046400
2,843400
#DATA
2500.000000	5.348500
2499.000000	5.247100
2498.000000	5.238800
2497.000000	5.185300
2496.000000	5.158900
2495.000000	5.169400
2494.000000	5.089700
2493.000000	5.076500
2492.000000	5.031400
2491.000000	5.060900
2490.000000	4.977000
2489.000000	5.057200
2488.000000	5.085200
2487.000000	5.038300
2486.000000	5.035300
2485.000000	5.024700
2484.000000	5.061900
2483.000000	5.069900
2482.000000	5.037100
2481.000000	5.037400
2480.000000	5.057700
2479.000000	4.990100
2478.000000	4.970700
2477.000000	4.994100
2476.000000	4.997200
2475.000000	4.996900
2474.000000	4.980500
2473.000000	4.965800
2472.000000	4.977500
2471.000000	4.952300
2470.000000	4.998500
2469.000000	4.965500
2468.000000	4.994100
2467.000000	4.995000
2466.000000	5.013300
2465.000000	5.035400
2464.000000	5.035000
2463.000000	5.057000
2462.000000	5.083500
2461.000000	5.112800
2460.000000	5.135900
2459.000000	5.158900
2458.000000	5.201200
2457.000000	5.232900
2456.000000	5.245600
2455.000000	5.274600
2454.000000	5.321300
2453.000000	5.382400
2452.000000	5.412100
2451.000000	5.456100
2450.000000	5.504800
2449.000000	5.543900
2448.000000	5.605600
2447.000000	5.620300
2446.000000	5.660900
2445.000000	5.737000
2444.000000	5.784900
2443.000000	5.822300
2442.000000	5.877900
2441.000000	5.896600
2440.000000	5.935100
2439.000000	5.959500
2438.000000	6.024100
2437.000000	6.054900
2436.000000	6.104700
2435.000000	6.128900
2434.000000	6.175500
2433.000000	6.191700
2432.000000	6.209600
2431.000000	6.237700
2430.000000	6.282300
2429.000000	6.323700
2428.000000	6.332300
2427.000000	6.352900
2426.000000	6.382400
2425.000000	6.399100
2424.000000	6.413800
2423.000000	6.432500
2422.000000	6.447300
2421.000000	6.462800
2420.000000	6.492300
2419.000000	6.497500
2418.000000	6.521600
2417.000000	6.550800
2416.000000	6.577600
2415.000000	6.600500
2414.000000	6.626800
2413.000000	6.638400
2412.000000	6.659600
2411.000000	6.675100
2410.000000	6.701900
2409.000000	6.713800
2408.000000	6.709500
2407.000000	6.729300
2406.000000	6.756100
2405.000000	6.765000
2404.000000	6.775500
2403.000000	6.794700
2402.000000	6.813300
2401.000000	6.836700
2400.000000	6.836800
2399.000000	6.849800
2398.000000	6.874700
2397.000000	6.903200
2396.000000	6.917200
2395.000000	6.919200
2394.000000	6.936600
2393.000000	6.941400
2392.000000	6.947600
2391.000000	6.960200
2390.000000	6.973600
2389.000000	6.974600
2388.000000	6.972400
2387.000000	6.980800
2386.000000	6.991800
2385.000000	6.987000
2384.000000	6.991900
2383.000000	6.967400
2382.000000	6.961600
2381.000000	6.966500
2380.000000	6.956100
2379.000000	6.948500
2378.000000	6.924900
2377.000000	6.914600
2376.000000	6.923400
2375.000000	6.910300
2374.000000	6.887900
2373.000000	6.865000
2372.000000	6.847100
2371.000000	6.833900
2370.000000	6.811100
2369.000000	6.786500
2368.000000	6.761800
2367.000000	6.732300
2366.000000	6.707300
2365.000000	6.668200
2364.000000	6.644100
2363.000000	6.621600
2362.000000	6.574400
2361.000000	6.538000
2360.000000	6.520300
2359.000000	6.497000
2358.000000	6.482400
2357.000000	6.461300
2356.000000	6.435100
2355.000000	6.407600
2354.000000	6.390000
2353.000000	6.401700
2352.000000	6.419000
2351.000000	6.411000
2350.000000	6.430700
2349.000000	6.468200
2348.000000	6.486100
2347.000000	6.507700
2346.000000	6.540700
2345.000000	6.560300
2344.000000	6.576900
2343.000000	6.605500
2342.000000	6.635700
2341.000000	6.650000
2340.000000	6.648500
2339.000000	6.651200
2338.000000	6.666600
2337.000000	6.657900
2336.000000	6.645900
2335.000000	6.651900
2334.000000	6.635700
2333.000000	6.611900
2332.000000	6.601500
2331.000000	6.576100
2330.000000	6.560100
2329.000000	6.520400
2328.000000	6.499400
2327.000000	6.478800
2326.000000	6.428100
2325.000000	6.386700
2324.000000	6.335700
2323.000000	6.287100
2322.000000	6.247000
2321.000000	6.194900
2320.000000	6.138200
2319.000000	6.069000
2318.000000	5.987800
2317.000000	5.930400
2316.000000	5.857300
2315.000000	5.802900
2314.000000	5.734600
2313.000000	5.671000
2312.000000	5.608200
2311.000000	5.574900
2310.000000	5.550200
2309.000000	5.526700
2308.000000	5.517900
2307.000000	5.513900
2306.000000	5.526100
2305.000000	5.544800
2304.000000	5.562200
2303.000000	5.597500
2302.000000	5.644800
2301.000000	5.692400
2300.000000	5.748900
2299.000000	5.810800
2298.000000	5.845400
2297.000000	5.906500
2296.000000	5.954200
2295.000000	6.006100
2294.000000	6.031600
2293.000000	6.076800
2292.000000	6.103500
2291.000000	6.126800
2290.000000	6.128400
2289.000000	6.122100
2288.000000	6.128600
2287.000000	6.132600
2286.000000	6.133800
2285.000000	6.121500
2284.000000	6.103400
2283.000000	6.079000
2282.000000	6.055500
2281.000000	6.033200
2280.000000	6.008600
2279.000000	5.978200
2278.000000	5.958100
2277.000000	5.939600
2276.000000	5.923700
2275.000000	5.899000
2274.000000	5.923200
2273.000000	5.922200
2272.000000	5.933400
2271.000000	5.941300
2270.000000	5.988600
2269.000000	6.016200
2268.000000	6.073200
2267.000000	6.134500
2266.000000	6.213100
2265.000000	6.309500
2264.000000	6.397400
2263.000000	6.513500
2262.000000	6.658200
2261.000000	6.792900
2260.000000	6.919000
2259.000000	7.094700
2258.000000	7.248700
2257.000000	7.423500
2256.000000	7.586900
2255.000000	7.739900
2254.000000	7.900000
2253.000000	8.057300
2252.000000	8.221900
2251.000000	8.358900
2250.000000	8.481500
2249.000000	8.612700
2248.000000	8.734700
2247.000000	8.863000
2246.000000	8.966600
2245.000000	9.048800
2244.000000	9.150200
2243.000000	9.212800
2242.000000	9.310700
2241.000000	9.398000
2240.000000	9.459300
2239.000000	9.501700
2238.000000	9.551400
2237.000000	9.627500
2236.000000	9.665000
2235.000000	9.704200
2234.000000	9.726400
2233.000000	9.748600
2232.000000	9.758000
2231.000000	9.786600
2230.000000	9.770800
2229.000000	9.758300
2228.000000	9.776000
2227.000000	9.769100
2226.000000	9.758400
2225.000000	9.743900
2224.000000	9.739800
2223.000000	9.728000
2222.000000	9.707100
2221.000000	9.682200
2220.000000	9.629800
2219.000000	9.576700
2218.000000	9.558200
2217.000000	9.514000
2216.000000	9.481300
2215.000000	9.447400
2214.000000	9.424800
2213.000000	9.398200
2212.000000	9.366300
2211.000000	9.344300
2210.000000	9.325000
2209.000000	9.314300
2208.000000	9.292000
2207.000000	9.289300
2206.000000	9.249700
2205.000000	9.273500
2204.000000	9.262200
2203.000000	9.225400
2202.000000	9.216200
2201.000000	9.225200
2200.000000	9.216400
2199.000000	9.208200
2198.000000	9.206400
2197.000000	9.189300
2196.000000	9.198200
2195.000000	9.156700
2194.000000	9.149700
2193.000000	9.148600
2192.000000	9.118600
2191.000000	9.108300
2190.000000	9.086800
2189.000000	9.082800
2188.000000	9.065800
2187.000000	9.047700
2186.000000	9.047500
2185.000000	9.044200
2184.000000	9.031200
2183.000000	9.025100
2182.000000	9.025400
2181.000000	8.989100
2180.000000	8.977800
2179.000000	8.964800
2178.000000	8.957800
2177.000000	8.947200
2176.000000	8.931000
2175.000000	8.938000
2174.000000	8.922800
2173.000000	8.931400
2172.000000	8.927300
2171.000000	8.933200
2170.000000	8.951900
2169.000000	8.921500
2168.000000	8.940800
2167.000000	8.959500
2166.000000	8.989400
2165.000000	8.965100
2164.000000	8.999000
2163.000000	9.025000
2162.000000	9.026600
2161.000000	9.054100
2160.000000	9.087300
2159.000000	9.114900
2158.000000	9.178000
2157.000000	9.206800
2156.000000	9.230100
2155.000000	9.268000
2154.000000	9.336100
2153.000000	9.372300
2152.000000	9.411500
2151.000000	9.475400
2150.000000	9.543700
2149.000000	9.576900
2148.000000	9.619400
2147.000000	9.686500
2146.000000	9.706500
2145.000000	9.761500
2144.000000	9.838000
2143.000000	9.862900
2142.000000	9.879800
2141.000000	9.932000
2140.000000	9.987900
2139.000000	10.038900
2138.000000	10.083500
2137.000000	10.135000
2136.000000	10.164700
2135.000000	10.205300
2134.000000	10.250700
2133.000000	10.294500
2132.000000	10.336800
2131.000000	10.371600
2130.000000	10.400700
2129.000000	10.446700
2128.000000	10.470100
2127.000000	10.501000
2126.000000	10.528000
2125.000000	10.551300
2124.000000	10.571100
2123.000000	10.589300
2122.000000	10.598400
2121.000000	10.603100
2120.000000	10.631400
2119.000000	10.646000
2118.000000	10.655000
2117.000000	10.658700
2116.000000	10.665600
2115.000000	10.684100
2114.000000	10.709300
2113.000000	10.710900
2112.000000	10.690200
2111.000000	10.671300
2110.000000	10.667400
2109.000000	10.683100
2108.000000	10.680300
2107.000000	10.666400
2106.000000	10.651400
2105.000000	10.658300
2104.000000	10.669300
2103.000000	10.664000
2102.000000	10.652100
2101.000000	10.651100
2100.000000	10.652300
2099.000000	10.636400
2098.000000	10.632700
2097.000000	10.628400
2096.000000	10.623500
2095.000000	10.648400
2094.000000	10.650500
2093.000000	10.624600
2092.000000	10.630100
2091.000000	10.619400
2090.000000	10.624700
2089.000000	10.651000
2088.000000	10.640000
2087.000000	10.626400
2086.000000	10.623200
2085.000000	10.625100
2084.000000	10.616900
2083.000000	10.601000
2082.000000	10.584900
2081.000000	10.585300
2080.000000	10.575900
2079.000000	10.562100
2078.000000	10.552500
2077.000000	10.509100
2076.000000	10.456000
2075.000000	10.436000
2074.000000	10.412100
2073.000000	10.370000
2072.000000	10.337300
2071.000000	10.286600
2070.000000	10.249400
2069.000000	10.221800
2068.000000	10.184200
2067.000000	10.139700
2066.000000	10.110100
2065.000000	10.063300
2064.000000	10.017300
2063.000000	9.990600
2062.000000	9.963500
2061.000000	9.943000
2060.000000	9.914200
2059.000000	9.892200
2058.000000	9.894800
2057.000000	9.889300
2056.000000	9.877000
2055.000000	9.891400
2054.000000	9.937800
2053.000000	9.982900
2052.000000	10.020900
2051.000000	10.075400
2050.000000	10.145800
2049.000000	10.245200
2048.000000	10.330900
2047.000000	10.415800
2046.000000	10.524000
2045.000000	10.623900
2044.000000	10.740800
2043.000000	10.867100
2042.000000	10.991300
2041.000000	11.113100
2040.000000	11.217200
2039.000000	11.340200
2038.000000	11.450400
2037.000000	11.539100
2036.000000	11.638400
2035.000000	11.736500
2034.000000	11.821900
2033.000000	11.898000
2032.000000	12.007300
2031.000000	12.105900
2030.000000	12.162500
2029.000000	12.243600
2028.000000	12.316000
2027.000000	12.382800
2026.000000	12.463900
2025.000000	12.520400
2024.000000	12.597100
2023.000000	12.665800
2022.000000	12.712200
2021.000000	12.753600
2020.000000	12.798700
2019.000000	12.864400
2018.000000	12.929800
2017.000000	12.953600
2016.000000	12.988600
2015.000000	13.033000
2014.000000	13.082300
2013.000000	13.132700
2012.000000	13.131300
2011.000000	13.161200
2010.000000	13.172900
2009.000000	13.186700
2008.000000	13.205500
2007.000000	13.209700
2006.000000	13.192600
2005.000000	13.203700
2004.000000	13.214900
2003.000000	13.196700
2002.000000	13.210200
2001.000000	13.212700
2000.000000	13.192500
1999.000000	13.189400
1998.000000	13.161600
1997.000000	13.143900
1996.000000	13.124600
1995.000000	13.097200
1994.000000	13.039600
1993.000000	13.030600
1992.000000	12.975400
1991.000000	12.925800
1990.000000	12.895300
1989.000000	12.840900
1988.000000	12.775300
1987.000000	12.752600
1986.000000	12.704500
1985.000000	12.653200
1984.000000	12.636800
1983.000000	12.561400
1982.000000	12.495700
1981.000000	12.463300
1980.000000	12.377200
1979.000000	12.318600
1978.000000	12.284600
1977.000000	12.229500
1976.000000	12.167800
1975.000000	12.095900
1974.000000	12.076600
1973.000000	12.001300
1972.000000	11.936600
1971.000000	11.894200
1970.000000	11.865800
1969.000000	11.796600
1968.000000	11.739900
1967.000000	11.716200
1966.000000	11.649800
1965.000000	11.619300
1964.000000	11.552400
1963.000000	11.512100
1962.000000	11.472700
1961.000000	11.414300
1960.000000	11.352700
1959.000000	11.301000
1958.000000	11.252400
1957.000000	11.201300
1956.000000	11.139400
1955.000000	11.093200
1954.000000	11.052900
1953.000000	10.999300
1952.000000	10.943100
1951.000000	10.901200
1950.000000	10.841000
1949.000000	10.794000
1948.000000	10.753100
1947.000000	10.692800
1946.000000	10.662100
1945.000000	10.671900
1944.000000	10.636400
1943.000000	10.606700
1942.000000	10.539700
1941.000000	10.518700
1940.000000	10.488600
1939.000000	10.488500
1938.000000	10.537700
1937.000000	10.580200
1936.000000	10.587100
1935.000000	10.591400
1934.000000	10.597300
1933.000000	10.617400
1932.000000	10.656800
1931.000000	10.694600
1930.000000	10.694700
1929.000000	10.784100
1928.000000	10.881600
1927.000000	10.999000
1926.000000	11.098800
1925.000000	11.208500
1924.000000	11.264000
1923.000000	11.301300
1922.000000	11.412500
1921.000000	11.594800
1920.000000	11.823500
1919.000000	12.018400
1918.000000	12.172500
1917.000000	12.260200
1916.000000	12.323400
1915.000000	12.375500
1914.000000	12.574500
1913.000000	12.904800
1912.000000	13.196400
1911.000000	13.428400
1910.000000	13.610200
1909.000000	13.672200
1908.000000	13.763100
1907.000000	13.951700
1906.000000	14.227500
1905.000000	14.610800
1904.000000	14.959100
1903.000000	15.226500
1902.000000	15.444300
1901.000000	15.628400
1900.000000	15.966900
1899.000000	16.427400
1898.000000	16.806600
1897.000000	17.139100
1896.000000	17.335300
1895.000000	17.443200
1894.000000	17.634300
1893.000000	17.894600
1892.000000	18.225700
1891.000000	18.635900
1890.000000	18.991100
1889.000000	19.284900
1888.000000	19.566200
1887.000000	19.787700
1886.000000	20.036700
1885.000000	20.333000
1884.000000	20.742500
1883.000000	21.124400
1882.000000	21.444500
1881.000000	21.752100
1880.000000	21.959800
1879.000000	22.139100
1878.000000	22.345000
1877.000000	22.525200
1876.000000	22.683700
1875.000000	22.844100
1874.000000	23.010300
1873.000000	23.223500
1872.000000	23.430700
1871.000000	23.640100
1870.000000	23.978600
1869.000000	24.241800
1868.000000	24.444200
1867.000000	24.604100
1866.000000	24.637500
1865.000000	24.644300
1864.000000	24.626600
1863.000000	24.547200
1862.000000	24.500600
1861.000000	24.506800
1860.000000	24.550800
1859.000000	24.631100
1858.000000	24.726500
1857.000000	24.770700
1856.000000	24.714300
1855.000000	24.688600
1854.000000	24.773000
1853.000000	24.810500
1852.000000	24.774700
1851.000000	24.670400
1850.000000	24.452800
1849.000000	24.298600
1848.000000	24.447600
1847.000000	24.753100
1846.000000	24.868600
1845.000000	24.731000
1844.000000	24.458400
1843.000000	24.225000
1842.000000	24.240300
1841.000000	24.400100
1840.000000	24.454500
1839.000000	24.383800
1838.000000	24.261200
1837.000000	24.261700
1836.000000	24.378600
1835.000000	24.484700
1834.000000	24.434100
1833.000000	24.248800
1832.000000	24.114600
1831.000000	24.057000
1830.000000	24.087300
1829.000000	24.083800
1828.000000	24.020500
1827.000000	23.992600
1826.000000	24.040400
1825.000000	24.048900
1824.000000	23.962500
1823.000000	23.777000
1822.000000	23.703200
1821.000000	23.806500
1820.000000	23.953000
1819.000000	23.995500
1818.000000	23.912400
1817.000000	23.808700
1816.000000	23.806800
1815.000000	23.858400
1814.000000	23.858000
1813.000000	23.820100
1812.000000	23.778600
1811.000000	23.808800
1810.000000	23.818400
1809.000000	23.770500
1808.000000	23.705000
1807.000000	23.675800
1806.000000	23.691900
1805.000000	23.696200
1804.000000	23.660200
1803.000000	23.580900
1802.000000	23.546100
1801.000000	23.571000
1800.000000	23.595600
1799.000000	23.562500
1798.000000	23.507800
1797.000000	23.472200
1796.000000	23.453000
1795.000000	23.440400
1794.000000	23.421000
1793.000000	23.397700
1792.000000	23.371000
1791.000000	23.344700
1790.000000	23.338900
1789.000000	23.292500
1788.000000	23.238700
1787.000000	23.227100
1786.000000	23.195900
1785.000000	23.161700
1784.000000	23.119300
1783.000000	23.080900
1782.000000	23.048500
1781.000000	23.004100
1780.000000	22.970000
1779.000000	22.915000
1778.000000	22.871200
1777.000000	22.811500
1776.000000	22.749400
1775.000000	22.684900
1774.000000	22.595800
1773.000000	22.521500
1772.000000	22.432100
1771.000000	22.342600
1770.000000	22.268700
1769.000000	22.197000
1768.000000	22.121200
1767.000000	22.026900
1766.000000	21.964700
1765.000000	21.925900
1764.000000	21.898700
1763.000000	21.880900
1762.000000	21.896900
1761.000000	21.910300
1760.000000	21.910200
1759.000000	21.934600
1758.000000	21.965100
1757.000000	22.002100
1756.000000	22.029500
1755.000000	22.041300
1754.000000	22.036400
1753.000000	22.023600
1752.000000	22.003700
1751.000000	21.994800
1750.000000	21.938700
1749.000000	21.914700
1748.000000	21.836700
1747.000000	21.760800
1746.000000	21.691500
1745.000000	21.594900
1744.000000	21.481200
1743.000000	21.356200
1742.000000	21.241100
1741.000000	21.073800
1740.000000	20.928500
1739.000000	20.757400
1738.000000	20.619600
1737.000000	20.478300
1736.000000	20.382300
1735.000000	20.293100
1734.000000	20.241900
1733.000000	20.241100
1732.000000	20.249200
1731.000000	20.276600
1730.000000	20.315000
1729.000000	20.355600
1728.000000	20.393200
1727.000000	20.436700
1726.000000	20.452100
1725.000000	20.487800
1724.000000	20.488100
1723.000000	20.523900
1722.000000	20.544100
1721.000000	20.591200
1720.000000	20.626600
1719.000000	20.700300
1718.000000	20.789600
1717.000000	20.876400
1716.000000	20.957600
1715.000000	21.051400
1714.000000	21.145100
1713.000000	21.251000
1712.000000	21.290500
1711.000000	21.365800
1710.000000	21.387600
1709.000000	21.412300
1708.000000	21.435300
1707.000000	21.452800
1706.000000	21.436900
1705.000000	21.440400
1704.000000	21.413800
1703.000000	21.374200
1702.000000	21.298100
1701.000000	21.193000
1700.000000	21.130500
1699.000000	21.026200
1698.000000	20.947500
1697.000000	20.859600
1696.000000	20.813500
1695.000000	20.791300
1694.000000	20.822700
1693.000000	20.859500
1692.000000	20.926900
1691.000000	21.008100
1690.000000	21.071900
1689.000000	21.125400
1688.000000	21.205500
1687.000000	21.227000
1686.000000	21.269800
1685.000000	21.352300
1684.000000	21.457500
1683.000000	21.661500
1682.000000	21.895800
1681.000000	22.212400
1680.000000	22.567500
1679.000000	22.944000
1678.000000	23.275700
1677.000000	23.609500
1676.000000	23.913400
1675.000000	24.174200
1674.000000	24.423000
1673.000000	24.638000
1672.000000	24.823800
1671.000000	25.011600
1670.000000	25.174600
1669.000000	25.323300
1668.000000	25.480100
1667.000000	25.676600
1666.000000	25.789300
1665.000000	25.893500
1664.000000	26.012600
1663.000000	26.085900
1662.000000	26.173400
1661.000000	26.235800
1660.000000	26.331800
1659.000000	26.400700
1658.000000	26.454300
1657.000000	26.512900
1656.000000	26.559300
1655.000000	26.582000
1654.000000	26.570400
1653.000000	26.577600
1652.000000	26.609100
1651.000000	26.629400
1650.000000	26.621900
1649.000000	26.596000
1648.000000	26.575700
1647.000000	26.549400
1646.000000	26.527200
1645.000000	26.519200
1644.000000	26.501300
1643.000000	26.484800
1642.000000	26.480800
1641.000000	26.452200
1640.000000	26.448800
1639.000000	26.405600
1638.000000	26.357700
1637.000000	26.338600
1636.000000	26.305300
1635.000000	26.286900
1634.000000	26.234500
1633.000000	26.190800
1632.000000	26.147500
1631.000000	26.096500
1630.000000	26.046600
1629.000000	26.020800
1628.000000	25.992000
1627.000000	25.943200
1626.000000	25.895900
1625.000000	25.823800
1624.000000	25.760400
1623.000000	25.699400
1622.000000	25.676500
1621.000000	25.633700
1620.000000	25.603700
1619.000000	25.542500
1618.000000	25.492200
1617.000000	25.464000
1616.000000	25.438100
1615.000000	25.388100
1614.000000	25.352500
1613.000000	25.316000
1612.000000	25.264900
1611.000000	25.209900
1610.000000	25.158700
1609.000000	25.105100
1608.000000	25.050000
1607.000000	24.992600
