PE UV       SUBTECH     SPECTRUM    ASCII       PEDS        4.00        
   -1
CICIMAUCR0019-6.Sample.ASC
24/04/25
16:41:35.00
24/04/25
16:41:35.00
Vinicio Soto Monge
C. cupreomarginata
250,000000
1
Lambda 1050
1050L1511233
PerkinElmer UV WinLab 6.3.2.0749 / 2.02.05 Lambda 900 UV/VIS/NIR, Aug  7 2015 09:38:08

0
0
3350/servo 860,8/2
0
0
UV/VIS
1
1
1
DoubleDePol,CommonBeamDepol,RBeamAtt,SBeamAtt,60mm sphere, WB InGaAs Detector
0
0
0
0
Program
Program
3350/servo 860,8/2
3350/0,2 860,8/0,2
3350/0,2 860,8/0,2
0
15.00
 
 
 
0
 
860,8
319,2
860,8
Front
100
on
S:100 R:100
0
0
0
0
 
0
 
 
 
0
 
 
0
0
0
0
0
 
 
 
 
0
0


0
0
#HDR
-1
-1
#GR
nm
%R
1.0
0.0
2500,000000
-1,000000
2251
8
72,684700
5,566800
#DATA
2500.000000	9.795600
2499.000000	9.728300
2498.000000	9.673800
2497.000000	9.773000
2496.000000	9.621900
2495.000000	9.744100
2494.000000	9.705900
2493.000000	9.679000
2492.000000	9.562300
2491.000000	9.559100
2490.000000	9.632200
2489.000000	9.563200
2488.000000	9.548000
2487.000000	9.516600
2486.000000	9.523800
2485.000000	9.487200
2484.000000	9.491400
2483.000000	9.519600
2482.000000	9.500000
2481.000000	9.479900
2480.000000	9.525100
2479.000000	9.520400
2478.000000	9.497600
2477.000000	9.530600
2476.000000	9.511800
2475.000000	9.491300
2474.000000	9.525900
2473.000000	9.529500
2472.000000	9.544200
2471.000000	9.556300
2470.000000	9.555500
2469.000000	9.630000
2468.000000	9.618500
2467.000000	9.564800
2466.000000	9.623400
2465.000000	9.590600
2464.000000	9.648400
2463.000000	9.703400
2462.000000	9.719900
2461.000000	9.793600
2460.000000	9.837500
2459.000000	9.859600
2458.000000	9.911300
2457.000000	10.004900
2456.000000	10.056900
2455.000000	10.150300
2454.000000	10.203000
2453.000000	10.287900
2452.000000	10.392300
2451.000000	10.470300
2450.000000	10.543100
2449.000000	10.636700
2448.000000	10.742400
2447.000000	10.843100
2446.000000	10.901500
2445.000000	10.970000
2444.000000	11.054000
2443.000000	11.135000
2442.000000	11.215100
2441.000000	11.283800
2440.000000	11.390900
2439.000000	11.459700
2438.000000	11.539000
2437.000000	11.600400
2436.000000	11.688300
2435.000000	11.766400
2434.000000	11.827300
2433.000000	11.879300
2432.000000	11.946900
2431.000000	12.002200
2430.000000	12.064500
2429.000000	12.125800
2428.000000	12.170300
2427.000000	12.213100
2426.000000	12.275300
2425.000000	12.299800
2424.000000	12.329900
2423.000000	12.388400
2422.000000	12.421700
2421.000000	12.457300
2420.000000	12.477800
2419.000000	12.506800
2418.000000	12.558200
2417.000000	12.588100
2416.000000	12.628100
2415.000000	12.672800
2414.000000	12.683500
2413.000000	12.715300
2412.000000	12.752300
2411.000000	12.819300
2410.000000	12.898500
2409.000000	12.976900
2408.000000	13.068300
2407.000000	13.131100
2406.000000	13.139100
2405.000000	13.168300
2404.000000	13.205900
2403.000000	13.245100
2402.000000	13.299700
2401.000000	13.363400
2400.000000	13.379200
2399.000000	13.436800
2398.000000	13.500100
2397.000000	13.526400
2396.000000	13.575500
2395.000000	13.622200
2394.000000	13.655100
2393.000000	13.705100
2392.000000	13.717500
2391.000000	13.737400
2390.000000	13.777100
2389.000000	13.830400
2388.000000	13.858100
2387.000000	13.860800
2386.000000	13.859800
2385.000000	13.855900
2384.000000	13.868400
2383.000000	13.881000
2382.000000	13.883400
2381.000000	13.890700
2380.000000	13.886200
2379.000000	13.844300
2378.000000	13.852800
2377.000000	13.865800
2376.000000	13.826700
2375.000000	13.801400
2374.000000	13.799300
2373.000000	13.785700
2372.000000	13.739600
2371.000000	13.705600
2370.000000	13.681000
2369.000000	13.634300
2368.000000	13.575400
2367.000000	13.533100
2366.000000	13.489500
2365.000000	13.426100
2364.000000	13.374700
2363.000000	13.306900
2362.000000	13.226100
2361.000000	13.158500
2360.000000	13.105600
2359.000000	13.058400
2358.000000	12.995500
2357.000000	12.957500
2356.000000	12.930300
2355.000000	12.892700
2354.000000	12.868600
2353.000000	12.862100
2352.000000	12.879500
2351.000000	12.896800
2350.000000	12.922900
2349.000000	12.979100
2348.000000	13.038000
2347.000000	13.105500
2346.000000	13.171000
2345.000000	13.222400
2344.000000	13.257700
2343.000000	13.321800
2342.000000	13.406200
2341.000000	13.444100
2340.000000	13.455900
2339.000000	13.480100
2338.000000	13.514500
2337.000000	13.521000
2336.000000	13.540300
2335.000000	13.532300
2334.000000	13.498400
2333.000000	13.469500
2332.000000	13.468600
2331.000000	13.444000
2330.000000	13.364600
2329.000000	13.295400
2328.000000	13.248100
2327.000000	13.192400
2326.000000	13.113900
2325.000000	13.034100
2324.000000	12.937000
2323.000000	12.842100
2322.000000	12.755600
2321.000000	12.658400
2320.000000	12.515700
2319.000000	12.368100
2318.000000	12.238400
2317.000000	12.125000
2316.000000	12.013400
2315.000000	11.891600
2314.000000	11.763800
2313.000000	11.655000
2312.000000	11.559100
2311.000000	11.484300
2310.000000	11.385800
2309.000000	11.324200
2308.000000	11.293700
2307.000000	11.277900
2306.000000	11.294300
2305.000000	11.335100
2304.000000	11.372000
2303.000000	11.432200
2302.000000	11.521500
2301.000000	11.620800
2300.000000	11.734600
2299.000000	11.844300
2298.000000	11.950300
2297.000000	12.046400
2296.000000	12.157400
2295.000000	12.268900
2294.000000	12.352600
2293.000000	12.414000
2292.000000	12.502600
2291.000000	12.540100
2290.000000	12.584300
2289.000000	12.581800
2288.000000	12.599900
2287.000000	12.610000
2286.000000	12.587000
2285.000000	12.562800
2284.000000	12.520600
2283.000000	12.461200
2282.000000	12.406300
2281.000000	12.364600
2280.000000	12.329500
2279.000000	12.278100
2278.000000	12.214800
2277.000000	12.198100
2276.000000	12.146900
2275.000000	12.108500
2274.000000	12.077900
2273.000000	12.085000
2272.000000	12.098200
2271.000000	12.131300
2270.000000	12.185700
2269.000000	12.248500
2268.000000	12.336300
2267.000000	12.450300
2266.000000	12.589200
2265.000000	12.748700
2264.000000	12.959300
2263.000000	13.168700
2262.000000	13.387800
2261.000000	13.656500
2260.000000	13.947600
2259.000000	14.242400
2258.000000	14.527900
2257.000000	14.851800
2256.000000	15.157000
2255.000000	15.491800
2254.000000	15.795900
2253.000000	16.108500
2252.000000	16.398600
2251.000000	16.718800
2250.000000	16.978700
2249.000000	17.211300
2248.000000	17.443800
2247.000000	17.658800
2246.000000	17.896900
2245.000000	18.081700
2244.000000	18.260700
2243.000000	18.433700
2242.000000	18.599800
2241.000000	18.723800
2240.000000	18.858100
2239.000000	18.971600
2238.000000	19.098000
2237.000000	19.241500
2236.000000	19.322600
2235.000000	19.400500
2234.000000	19.447400
2233.000000	19.534900
2232.000000	19.575900
2231.000000	19.658200
2230.000000	19.679400
2229.000000	19.711300
2228.000000	19.729800
2227.000000	19.704800
2226.000000	19.729200
2225.000000	19.712700
2224.000000	19.731500
2223.000000	19.738600
2222.000000	19.690900
2221.000000	19.641700
2220.000000	19.595100
2219.000000	19.604900
2218.000000	19.555900
2217.000000	19.488700
2216.000000	19.450200
2215.000000	19.415700
2214.000000	19.372300
2213.000000	19.335200
2212.000000	19.289800
2211.000000	19.254900
2210.000000	19.225200
2209.000000	19.192000
2208.000000	19.181200
2207.000000	19.119700
2206.000000	19.110700
2205.000000	19.099300
2204.000000	19.088800
2203.000000	19.029000
2202.000000	19.010300
2201.000000	18.979600
2200.000000	18.973800
2199.000000	18.959100
2198.000000	18.945700
2197.000000	18.940200
2196.000000	18.913900
2195.000000	18.906900
2194.000000	18.876200
2193.000000	18.860100
2192.000000	18.849600
2191.000000	18.817200
2190.000000	18.812800
2189.000000	18.783400
2188.000000	18.765000
2187.000000	18.751600
2186.000000	18.722500
2185.000000	18.704600
2184.000000	18.682400
2183.000000	18.661400
2182.000000	18.626000
2181.000000	18.606100
2180.000000	18.585600
2179.000000	18.578500
2178.000000	18.548100
2177.000000	18.528400
2176.000000	18.520600
2175.000000	18.515100
2174.000000	18.520200
2173.000000	18.528400
2172.000000	18.521000
2171.000000	18.508900
2170.000000	18.523200
2169.000000	18.550600
2168.000000	18.571400
2167.000000	18.585500
2166.000000	18.616000
2165.000000	18.650400
2164.000000	18.651700
2163.000000	18.668000
2162.000000	18.693300
2161.000000	18.739200
2160.000000	18.780700
2159.000000	18.821000
2158.000000	18.846400
2157.000000	18.913900
2156.000000	18.970200
2155.000000	19.024000
2154.000000	19.073000
2153.000000	19.155800
2152.000000	19.211700
2151.000000	19.255100
2150.000000	19.321400
2149.000000	19.366600
2148.000000	19.416200
2147.000000	19.488000
2146.000000	19.549400
2145.000000	19.596600
2144.000000	19.644600
2143.000000	19.684800
2142.000000	19.745000
2141.000000	19.787200
2140.000000	19.831100
2139.000000	19.887700
2138.000000	19.943500
2137.000000	19.978500
2136.000000	20.011000
2135.000000	20.045700
2134.000000	20.093000
2133.000000	20.124500
2132.000000	20.147200
2131.000000	20.182700
2130.000000	20.187600
2129.000000	20.202600
2128.000000	20.237000
2127.000000	20.237200
2126.000000	20.244600
2125.000000	20.257100
2124.000000	20.250600
2123.000000	20.251500
2122.000000	20.251600
2121.000000	20.245300
2120.000000	20.237600
2119.000000	20.219800
2118.000000	20.213500
2117.000000	20.198500
2116.000000	20.177700
2115.000000	20.163900
2114.000000	20.127900
2113.000000	20.108700
2112.000000	20.082300
2111.000000	20.045900
2110.000000	20.030800
2109.000000	20.005100
2108.000000	19.980200
2107.000000	19.951800
2106.000000	19.916400
2105.000000	19.888100
2104.000000	19.864700
2103.000000	19.843600
2102.000000	19.823700
2101.000000	19.791600
2100.000000	19.767400
2099.000000	19.759000
2098.000000	19.728000
2097.000000	19.701200
2096.000000	19.681100
2095.000000	19.666600
2094.000000	19.649700
2093.000000	19.636500
2092.000000	19.642800
2091.000000	19.637900
2090.000000	19.611100
2089.000000	19.588000
2088.000000	19.583300
2087.000000	19.585200
2086.000000	19.558300
2085.000000	19.538700
2084.000000	19.523700
2083.000000	19.493900
2082.000000	19.477700
2081.000000	19.469400
2080.000000	19.422900
2079.000000	19.386000
2078.000000	19.370600
2077.000000	19.330100
2076.000000	19.300600
2075.000000	19.267900
2074.000000	19.235200
2073.000000	19.195400
2072.000000	19.135200
2071.000000	19.092800
2070.000000	19.070500
2069.000000	19.028200
2068.000000	18.961200
2067.000000	18.911400
2066.000000	18.877600
2065.000000	18.842800
2064.000000	18.827100
2063.000000	18.791100
2062.000000	18.742000
2061.000000	18.725400
2060.000000	18.720200
2059.000000	18.699800
2058.000000	18.704000
2057.000000	18.728000
2056.000000	18.758900
2055.000000	18.778900
2054.000000	18.845600
2053.000000	18.922200
2052.000000	18.997100
2051.000000	19.102700
2050.000000	19.224300
2049.000000	19.372000
2048.000000	19.498600
2047.000000	19.639600
2046.000000	19.811300
2045.000000	19.970800
2044.000000	20.136700
2043.000000	20.316800
2042.000000	20.480400
2041.000000	20.673900
2040.000000	20.841900
2039.000000	20.997200
2038.000000	21.188700
2037.000000	21.332300
2036.000000	21.496700
2035.000000	21.641400
2034.000000	21.778200
2033.000000	21.918300
2032.000000	22.048400
2031.000000	22.173400
2030.000000	22.308200
2029.000000	22.404700
2028.000000	22.492300
2027.000000	22.619100
2026.000000	22.726400
2025.000000	22.805400
2024.000000	22.910700
2023.000000	22.967900
2022.000000	23.066800
2021.000000	23.148500
2020.000000	23.209400
2019.000000	23.269800
2018.000000	23.323500
2017.000000	23.411000
2016.000000	23.472700
2015.000000	23.519500
2014.000000	23.561100
2013.000000	23.591800
2012.000000	23.627200
2011.000000	23.664600
2010.000000	23.661500
2009.000000	23.663500
2008.000000	23.662100
2007.000000	23.676800
2006.000000	23.669200
2005.000000	23.665800
2004.000000	23.649900
2003.000000	23.614600
2002.000000	23.580700
2001.000000	23.527400
2000.000000	23.504800
1999.000000	23.481800
1998.000000	23.422100
1997.000000	23.358000
1996.000000	23.297900
1995.000000	23.227400
1994.000000	23.171200
1993.000000	23.104400
1992.000000	23.014300
1991.000000	22.932000
1990.000000	22.854100
1989.000000	22.757400
1988.000000	22.674100
1987.000000	22.579100
1986.000000	22.477300
1985.000000	22.371700
1984.000000	22.277700
1983.000000	22.185100
1982.000000	22.097300
1981.000000	21.968800
1980.000000	21.872700
1979.000000	21.780300
1978.000000	21.679700
1977.000000	21.577400
1976.000000	21.475600
1975.000000	21.363200
1974.000000	21.267500
1973.000000	21.166200
1972.000000	21.077200
1971.000000	20.976800
1970.000000	20.909800
1969.000000	20.787400
1968.000000	20.701900
1967.000000	20.588700
1966.000000	20.512800
1965.000000	20.424000
1964.000000	20.336400
1963.000000	20.242100
1962.000000	20.139400
1961.000000	20.038700
1960.000000	19.947200
1959.000000	19.855000
1958.000000	19.763300
1957.000000	19.663300
1956.000000	19.575000
1955.000000	19.484900
1954.000000	19.401800
1953.000000	19.329500
1952.000000	19.231900
1951.000000	19.151300
1950.000000	19.065500
1949.000000	19.008400
1948.000000	18.932500
1947.000000	18.877700
1946.000000	18.798900
1945.000000	18.732800
1944.000000	18.708100
1943.000000	18.673400
1942.000000	18.623200
1941.000000	18.616700
1940.000000	18.596400
1939.000000	18.588700
1938.000000	18.614900
1937.000000	18.601300
1936.000000	18.616800
1935.000000	18.653400
1934.000000	18.692400
1933.000000	18.735600
1932.000000	18.818000
1931.000000	18.900500
1930.000000	18.989000
1929.000000	19.078600
1928.000000	19.194400
1927.000000	19.312300
1926.000000	19.454500
1925.000000	19.608100
1924.000000	19.737300
1923.000000	19.904700
1922.000000	20.085700
1921.000000	20.321600
1920.000000	20.547200
1919.000000	20.736200
1918.000000	20.966000
1917.000000	21.182400
1916.000000	21.416000
1915.000000	21.659200
1914.000000	21.962700
1913.000000	22.253600
1912.000000	22.552400
1911.000000	22.836000
1910.000000	23.122900
1909.000000	23.377500
1908.000000	23.676500
1907.000000	24.019700
1906.000000	24.402000
1905.000000	24.797900
1904.000000	25.140100
1903.000000	25.488300
1902.000000	25.867800
1901.000000	26.237000
1900.000000	26.642000
1899.000000	27.064300
1898.000000	27.480400
1897.000000	27.870000
1896.000000	28.210700
1895.000000	28.544400
1894.000000	28.933600
1893.000000	29.334900
1892.000000	29.760100
1891.000000	30.190300
1890.000000	30.600000
1889.000000	31.013500
1888.000000	31.435300
1887.000000	31.860700
1886.000000	32.348100
1885.000000	32.878000
1884.000000	33.459200
1883.000000	34.031800
1882.000000	34.592600
1881.000000	35.161800
1880.000000	35.671900
1879.000000	36.176900
1878.000000	36.684400
1877.000000	37.158100
1876.000000	37.568700
1875.000000	37.966500
1874.000000	38.370400
1873.000000	38.721500
1872.000000	39.044200
1871.000000	39.337100
1870.000000	39.587700
1869.000000	39.835200
1868.000000	39.993200
1867.000000	40.121000
1866.000000	40.204900
1865.000000	40.285600
1864.000000	40.355500
1863.000000	40.410000
1862.000000	40.470900
1861.000000	40.532400
1860.000000	40.603300
1859.000000	40.636100
1858.000000	40.646100
1857.000000	40.638200
1856.000000	40.599300
1855.000000	40.573200
1854.000000	40.561000
1853.000000	40.488600
1852.000000	40.426300
1851.000000	40.380200
1850.000000	40.310300
1849.000000	40.266100
1848.000000	40.241900
1847.000000	40.180500
1846.000000	40.074300
1845.000000	39.973800
1844.000000	39.906600
1843.000000	39.883100
1842.000000	39.885000
1841.000000	39.850100
1840.000000	39.786800
1839.000000	39.717600
1838.000000	39.667100
1837.000000	39.620400
1836.000000	39.547400
1835.000000	39.452100
1834.000000	39.333300
1833.000000	39.220500
1832.000000	39.148800
1831.000000	39.071200
1830.000000	38.983200
1829.000000	38.893700
1828.000000	38.784600
1827.000000	38.704200
1826.000000	38.633600
1825.000000	38.548400
1824.000000	38.482400
1823.000000	38.460800
1822.000000	38.462200
1821.000000	38.457000
1820.000000	38.427300
1819.000000	38.368800
1818.000000	38.332800
1817.000000	38.326400
1816.000000	38.338600
1815.000000	38.321500
1814.000000	38.295800
1813.000000	38.277600
1812.000000	38.257400
1811.000000	38.220600
1810.000000	38.162500
1809.000000	38.114600
1808.000000	38.077200
1807.000000	38.039200
1806.000000	37.980200
1805.000000	37.915300
1804.000000	37.858300
1803.000000	37.812400
1802.000000	37.752400
1801.000000	37.691600
1800.000000	37.627800
1799.000000	37.558100
1798.000000	37.510800
1797.000000	37.474800
1796.000000	37.418900
1795.000000	37.352600
1794.000000	37.305100
1793.000000	37.241800
1792.000000	37.179000
1791.000000	37.130400
1790.000000	37.048500
1789.000000	36.986700
1788.000000	36.921400
1787.000000	36.838000
1786.000000	36.766500
1785.000000	36.683600
1784.000000	36.581200
1783.000000	36.484300
1782.000000	36.403200
1781.000000	36.323600
1780.000000	36.218600
1779.000000	36.114600
1778.000000	36.000000
1777.000000	35.887300
1776.000000	35.754300
1775.000000	35.602800
1774.000000	35.447500
1773.000000	35.295800
1772.000000	35.126700
1771.000000	34.949500
1770.000000	34.809800
1769.000000	34.651900
1768.000000	34.524600
1767.000000	34.410000
1766.000000	34.314700
1765.000000	34.221400
1764.000000	34.164500
1763.000000	34.147200
1762.000000	34.176000
1761.000000	34.201200
1760.000000	34.264200
1759.000000	34.343100
1758.000000	34.409900
1757.000000	34.461400
1756.000000	34.511900
1755.000000	34.544800
1754.000000	34.549600
1753.000000	34.541300
1752.000000	34.538700
1751.000000	34.475200
1750.000000	34.398600
1749.000000	34.313100
1748.000000	34.205500
1747.000000	34.073700
1746.000000	33.917500
1745.000000	33.742600
1744.000000	33.536000
1743.000000	33.299700
1742.000000	33.012400
1741.000000	32.739600
1740.000000	32.457000
1739.000000	32.196100
1738.000000	31.945800
1737.000000	31.726600
1736.000000	31.561700
1735.000000	31.431100
1734.000000	31.378100
1733.000000	31.395800
1732.000000	31.440400
1731.000000	31.537300
1730.000000	31.672400
1729.000000	31.781100
1728.000000	31.920200
1727.000000	32.033600
1726.000000	32.138300
1725.000000	32.203300
1724.000000	32.265500
1723.000000	32.328100
1722.000000	32.357700
1721.000000	32.384500
1720.000000	32.434400
1719.000000	32.493800
1718.000000	32.548300
1717.000000	32.639500
1716.000000	32.737700
1715.000000	32.841500
1714.000000	32.932700
1713.000000	33.030400
1712.000000	33.078100
1711.000000	33.147500
1710.000000	33.148700
1709.000000	33.166800
1708.000000	33.154200
1707.000000	33.109700
1706.000000	33.089900
1705.000000	33.035100
1704.000000	32.922500
1703.000000	32.835800
1702.000000	32.676400
1701.000000	32.508200
1700.000000	32.314200
1699.000000	32.130900
1698.000000	31.959900
1697.000000	31.838600
1696.000000	31.756800
1695.000000	31.755300
1694.000000	31.824700
1693.000000	31.967700
1692.000000	32.133500
1691.000000	32.318300
1690.000000	32.491700
1689.000000	32.609000
1688.000000	32.688700
1687.000000	32.743300
1686.000000	32.759200
1685.000000	32.863600
1684.000000	33.024400
1683.000000	33.316100
1682.000000	33.766700
1681.000000	34.349800
1680.000000	34.998300
1679.000000	35.654800
1678.000000	36.291600
1677.000000	36.917600
1676.000000	37.411200
1675.000000	37.865900
1674.000000	38.300900
1673.000000	38.633300
1672.000000	38.932100
1671.000000	39.178800
1670.000000	39.440100
1669.000000	39.656700
1668.000000	39.842800
1667.000000	40.009800
1666.000000	40.134200
1665.000000	40.256200
1664.000000	40.366900
1663.000000	40.449500
1662.000000	40.551700
1661.000000	40.621900
1660.000000	40.665100
1659.000000	40.707300
1658.000000	40.753000
1657.000000	40.771500
1656.000000	40.792900
1655.000000	40.795000
1654.000000	40.778600
1653.000000	40.768400
1652.000000	40.749600
1651.000000	40.735200
1650.000000	40.681700
1649.000000	40.644200
1648.000000	40.588800
1647.000000	40.551300
1646.000000	40.467900
1645.000000	40.410900
1644.000000	40.351100
1643.000000	40.285700
1642.000000	40.216400
1641.000000	40.158100
1640.000000	40.090400
1639.000000	40.026500
1638.000000	39.952500
1637.000000	39.856700
1636.000000	39.777300
1635.000000	39.697500
1634.000000	39.615700
1633.000000	39.525500
1632.000000	39.440800
1631.000000	39.332100
1630.000000	39.243100
1629.000000	39.138200
1628.000000	39.048000
1627.000000	38.942600
1626.000000	38.855600
1625.000000	38.760400
1624.000000	38.653000
1623.000000	38.553800
