PE UV       SUBTECH     SPECTRUM    ASCII       PEDS        4.00        
   -1
CICIMAUCR0013-4.Sample.ASC
24/04/23
10:18:00.00
24/04/23
10:18:00.00
Vinicio Soto Monge
C. resplendens
250,000000
1
Lambda 1050
1050L1511233
PerkinElmer UV WinLab 6.3.2.0749 / 2.02.05 Lambda 900 UV/VIS/NIR, Aug  7 2015 09:38:08

0
0
3350/servo 860,8/2
0
0
UV/VIS
1
1
1
DoubleDePol,CommonBeamDepol,RBeamAtt,SBeamAtt,60mm sphere, WB InGaAs Detector
0
0
0
0
Program
Program
3350/servo 860,8/2
3350/0,2 860,8/0,2
3350/0,2 860,8/0,2
0
15.00
 
 
 
0
 
860,8
319,2
860,8
Front
100
on
S:100 R:100
0
0
0
0
 
0
 
 
 
0
 
 
0
0
0
0
0
 
 
 
 
0
0


0
0
#HDR
-1
-1
#GR
nm
%R
1.0
0.0
2500,000000
-1,000000
2251
8
89,980400
5,750600
#DATA
2500.000000	7.525600
2499.000000	7.574800
2498.000000	7.630700
2497.000000	7.565700
2496.000000	7.491600
2495.000000	7.545900
2494.000000	7.404700
2493.000000	7.456200
2492.000000	7.427100
2491.000000	7.474100
2490.000000	7.500800
2489.000000	7.405300
2488.000000	7.371700
2487.000000	7.370400
2486.000000	7.387000
2485.000000	7.323200
2484.000000	7.334100
2483.000000	7.317700
2482.000000	7.363500
2481.000000	7.311900
2480.000000	7.391100
2479.000000	7.343800
2478.000000	7.353300
2477.000000	7.319400
2476.000000	7.302700
2475.000000	7.319900
2474.000000	7.306100
2473.000000	7.351000
2472.000000	7.310400
2471.000000	7.287800
2470.000000	7.295000
2469.000000	7.339700
2468.000000	7.341600
2467.000000	7.351300
2466.000000	7.354300
2465.000000	7.355400
2464.000000	7.353500
2463.000000	7.379900
2462.000000	7.404400
2461.000000	7.436700
2460.000000	7.485600
2459.000000	7.512800
2458.000000	7.520100
2457.000000	7.570700
2456.000000	7.603300
2455.000000	7.636200
2454.000000	7.693700
2453.000000	7.739800
2452.000000	7.798600
2451.000000	7.827500
2450.000000	7.886400
2449.000000	7.937900
2448.000000	7.990500
2447.000000	8.041600
2446.000000	8.112000
2445.000000	8.162000
2444.000000	8.211800
2443.000000	8.270000
2442.000000	8.313200
2441.000000	8.379900
2440.000000	8.410600
2439.000000	8.474500
2438.000000	8.507000
2437.000000	8.576900
2436.000000	8.594500
2435.000000	8.639700
2434.000000	8.670300
2433.000000	8.706600
2432.000000	8.742900
2431.000000	8.785500
2430.000000	8.805100
2429.000000	8.829300
2428.000000	8.861700
2427.000000	8.891100
2426.000000	8.930400
2425.000000	8.939800
2424.000000	8.984700
2423.000000	9.078900
2422.000000	9.155800
2421.000000	9.211100
2420.000000	9.251400
2419.000000	9.288200
2418.000000	9.292700
2417.000000	9.318700
2416.000000	9.337400
2415.000000	9.370100
2414.000000	9.396000
2413.000000	9.443400
2412.000000	9.451100
2411.000000	9.490500
2410.000000	9.526400
2409.000000	9.557000
2408.000000	9.574700
2407.000000	9.593800
2406.000000	9.632100
2405.000000	9.656700
2404.000000	9.686700
2403.000000	9.697800
2402.000000	9.724600
2401.000000	9.762900
2400.000000	9.783300
2399.000000	9.815400
2398.000000	9.843300
2397.000000	9.852200
2396.000000	9.878200
2395.000000	9.911000
2394.000000	9.939500
2393.000000	9.989200
2392.000000	9.998000
2391.000000	9.998000
2390.000000	10.034600
2389.000000	10.059100
2388.000000	10.056600
2387.000000	10.081600
2386.000000	10.100000
2385.000000	10.104200
2384.000000	10.109400
2383.000000	10.114400
2382.000000	10.114900
2381.000000	10.091500
2380.000000	10.090500
2379.000000	10.090500
2378.000000	10.069100
2377.000000	10.056900
2376.000000	10.043900
2375.000000	10.026200
2374.000000	10.004000
2373.000000	9.978800
2372.000000	9.968500
2371.000000	9.948700
2370.000000	9.915700
2369.000000	9.875300
2368.000000	9.841300
2367.000000	9.810000
2366.000000	9.751900
2365.000000	9.709000
2364.000000	9.675000
2363.000000	9.608100
2362.000000	9.539400
2361.000000	9.495900
2360.000000	9.449800
2359.000000	9.393000
2358.000000	9.327100
2357.000000	9.293800
2356.000000	9.268800
2355.000000	9.236900
2354.000000	9.213800
2353.000000	9.201300
2352.000000	9.218800
2351.000000	9.222600
2350.000000	9.244100
2349.000000	9.271300
2348.000000	9.301300
2347.000000	9.349200
2346.000000	9.386700
2345.000000	9.443700
2344.000000	9.477600
2343.000000	9.516600
2342.000000	9.558400
2341.000000	9.584400
2340.000000	9.612200
2339.000000	9.629400
2338.000000	9.651200
2337.000000	9.666700
2336.000000	9.641100
2335.000000	9.641900
2334.000000	9.629600
2333.000000	9.599300
2332.000000	9.577500
2331.000000	9.515600
2330.000000	9.472800
2329.000000	9.432500
2328.000000	9.370500
2327.000000	9.305700
2326.000000	9.241400
2325.000000	9.186100
2324.000000	9.119200
2323.000000	9.038900
2322.000000	8.960900
2321.000000	8.876100
2320.000000	8.785800
2319.000000	8.699400
2318.000000	8.604300
2317.000000	8.513100
2316.000000	8.422800
2315.000000	8.335900
2314.000000	8.244300
2313.000000	8.192200
2312.000000	8.110900
2311.000000	8.043900
2310.000000	7.992700
2309.000000	7.951900
2308.000000	7.926900
2307.000000	7.917200
2306.000000	7.916800
2305.000000	7.922300
2304.000000	7.963400
2303.000000	7.999800
2302.000000	8.069600
2301.000000	8.131700
2300.000000	8.193800
2299.000000	8.256600
2298.000000	8.335100
2297.000000	8.399800
2296.000000	8.491200
2295.000000	8.548300
2294.000000	8.616500
2293.000000	8.640900
2292.000000	8.703700
2291.000000	8.720400
2290.000000	8.735000
2289.000000	8.749600
2288.000000	8.740500
2287.000000	8.732600
2286.000000	8.714100
2285.000000	8.703100
2284.000000	8.674500
2283.000000	8.639400
2282.000000	8.583000
2281.000000	8.548200
2280.000000	8.510000
2279.000000	8.464700
2278.000000	8.422900
2277.000000	8.393300
2276.000000	8.375200
2275.000000	8.357400
2274.000000	8.342300
2273.000000	8.325700
2272.000000	8.302700
2271.000000	8.335000
2270.000000	8.358300
2269.000000	8.387100
2268.000000	8.444500
2267.000000	8.511300
2266.000000	8.587700
2265.000000	8.687600
2264.000000	8.809800
2263.000000	8.934600
2262.000000	9.067500
2261.000000	9.242400
2260.000000	9.431800
2259.000000	9.608200
2258.000000	9.796400
2257.000000	9.997300
2256.000000	10.222100
2255.000000	10.446800
2254.000000	10.597000
2253.000000	10.797400
2252.000000	10.994200
2251.000000	11.190800
2250.000000	11.378200
2249.000000	11.533300
2248.000000	11.680600
2247.000000	11.835600
2246.000000	11.987000
2245.000000	12.132600
2244.000000	12.238700
2243.000000	12.345600
2242.000000	12.450300
2241.000000	12.571300
2240.000000	12.655700
2239.000000	12.755200
2238.000000	12.837600
2237.000000	12.921300
2236.000000	12.984700
2235.000000	13.058600
2234.000000	13.125600
2233.000000	13.186600
2232.000000	13.236300
2231.000000	13.287600
2230.000000	13.332500
2229.000000	13.354800
2228.000000	13.384500
2227.000000	13.421200
2226.000000	13.431100
2225.000000	13.451300
2224.000000	13.462700
2223.000000	13.476600
2222.000000	13.490300
2221.000000	13.455700
2220.000000	13.466300
2219.000000	13.469300
2218.000000	13.466400
2217.000000	13.438800
2216.000000	13.427700
2215.000000	13.448700
2214.000000	13.419300
2213.000000	13.410200
2212.000000	13.415900
2211.000000	13.410400
2210.000000	13.386100
2209.000000	13.358400
2208.000000	13.383800
2207.000000	13.351700
2206.000000	13.374200
2205.000000	13.351400
2204.000000	13.337000
2203.000000	13.344900
2202.000000	13.341100
2201.000000	13.325300
2200.000000	13.327300
2199.000000	13.338200
2198.000000	13.338500
2197.000000	13.331200
2196.000000	13.329700
2195.000000	13.337600
2194.000000	13.319100
2193.000000	13.320300
2192.000000	13.317800
2191.000000	13.327100
2190.000000	13.308000
2189.000000	13.300100
2188.000000	13.297900
2187.000000	13.293500
2186.000000	13.277700
2185.000000	13.275700
2184.000000	13.268600
2183.000000	13.253600
2182.000000	13.248200
2181.000000	13.246100
2180.000000	13.243900
2179.000000	13.234800
2178.000000	13.241700
2177.000000	13.237000
2176.000000	13.223000
2175.000000	13.223400
2174.000000	13.232200
2173.000000	13.228300
2172.000000	13.240400
2171.000000	13.249400
2170.000000	13.259800
2169.000000	13.275200
2168.000000	13.298600
2167.000000	13.312400
2166.000000	13.321100
2165.000000	13.329700
2164.000000	13.338200
2163.000000	13.351400
2162.000000	13.369800
2161.000000	13.399500
2160.000000	13.419400
2159.000000	13.426800
2158.000000	13.432200
2157.000000	13.479300
2156.000000	13.517800
2155.000000	13.530400
2154.000000	13.548700
2153.000000	13.581800
2152.000000	13.611600
2151.000000	13.624900
2150.000000	13.647700
2149.000000	13.665800
2148.000000	13.688000
2147.000000	13.710900
2146.000000	13.746300
2145.000000	13.752900
2144.000000	13.779200
2143.000000	13.788000
2142.000000	13.804300
2141.000000	13.817100
2140.000000	13.834400
2139.000000	13.847200
2138.000000	13.868700
2137.000000	13.858700
2136.000000	13.871200
2135.000000	13.884800
2134.000000	13.891900
2133.000000	13.896600
2132.000000	13.901100
2131.000000	13.895100
2130.000000	13.890200
2129.000000	13.883100
2128.000000	13.880000
2127.000000	13.858600
2126.000000	13.858300
2125.000000	13.848700
2124.000000	13.822900
2123.000000	13.816000
2122.000000	13.795900
2121.000000	13.770800
2120.000000	13.758300
2119.000000	13.749900
2118.000000	13.725000
2117.000000	13.687200
2116.000000	13.651300
2115.000000	13.624000
2114.000000	13.610700
2113.000000	13.583300
2112.000000	13.565200
2111.000000	13.560300
2110.000000	13.522000
2109.000000	13.471000
2108.000000	13.441700
2107.000000	13.424000
2106.000000	13.400600
2105.000000	13.372300
2104.000000	13.356000
2103.000000	13.320200
2102.000000	13.280200
2101.000000	13.260700
2100.000000	13.242600
2099.000000	13.218700
2098.000000	13.198000
2097.000000	13.172000
2096.000000	13.138800
2095.000000	13.121900
2094.000000	13.109500
2093.000000	13.091800
2092.000000	13.061300
2091.000000	13.041700
2090.000000	13.030300
2089.000000	13.002200
2088.000000	12.986000
2087.000000	12.982600
2086.000000	12.978500
2085.000000	12.954300
2084.000000	12.929500
2083.000000	12.924400
2082.000000	12.907600
2081.000000	12.882600
2080.000000	12.859800
2079.000000	12.858200
2078.000000	12.847800
2077.000000	12.828900
2076.000000	12.806100
2075.000000	12.782400
2074.000000	12.762300
2073.000000	12.768500
2072.000000	12.756200
2071.000000	12.737600
2070.000000	12.718700
2069.000000	12.707500
2068.000000	12.688400
2067.000000	12.683800
2066.000000	12.693200
2065.000000	12.684000
2064.000000	12.659500
2063.000000	12.657600
2062.000000	12.650300
2061.000000	12.662800
2060.000000	12.680800
2059.000000	12.682000
2058.000000	12.691600
2057.000000	12.730000
2056.000000	12.758000
2055.000000	12.789400
2054.000000	12.826300
2053.000000	12.882400
2052.000000	12.932900
2051.000000	13.008300
2050.000000	13.072700
2049.000000	13.159700
2048.000000	13.247800
2047.000000	13.339900
2046.000000	13.431100
2045.000000	13.537100
2044.000000	13.624400
2043.000000	13.734900
2042.000000	13.823700
2041.000000	13.928700
2040.000000	14.037500
2039.000000	14.134700
2038.000000	14.232300
2037.000000	14.341600
2036.000000	14.423300
2035.000000	14.497400
2034.000000	14.592400
2033.000000	14.669100
2032.000000	14.751500
2031.000000	14.822000
2030.000000	14.885600
2029.000000	14.972000
2028.000000	15.027800
2027.000000	15.081200
2026.000000	15.155800
2025.000000	15.231900
2024.000000	15.265300
2023.000000	15.315100
2022.000000	15.365700
2021.000000	15.405500
2020.000000	15.463200
2019.000000	15.516900
2018.000000	15.541000
2017.000000	15.578500
2016.000000	15.622500
2015.000000	15.657700
2014.000000	15.678100
2013.000000	15.726000
2012.000000	15.723800
2011.000000	15.749500
2010.000000	15.767700
2009.000000	15.780900
2008.000000	15.786400
2007.000000	15.789100
2006.000000	15.784200
2005.000000	15.794100
2004.000000	15.771000
2003.000000	15.751100
2002.000000	15.742700
2001.000000	15.726800
2000.000000	15.716900
1999.000000	15.678400
1998.000000	15.653200
1997.000000	15.637200
1996.000000	15.611700
1995.000000	15.560600
1994.000000	15.535200
1993.000000	15.494300
1992.000000	15.451900
1991.000000	15.386600
1990.000000	15.343000
1989.000000	15.295900
1988.000000	15.233900
1987.000000	15.191100
1986.000000	15.140200
1985.000000	15.084400
1984.000000	15.024000
1983.000000	14.975700
1982.000000	14.911400
1981.000000	14.861700
1980.000000	14.791700
1979.000000	14.750900
1978.000000	14.694100
1977.000000	14.621800
1976.000000	14.552700
1975.000000	14.510900
1974.000000	14.457000
1973.000000	14.396000
1972.000000	14.347900
1971.000000	14.295200
1970.000000	14.244500
1969.000000	14.204000
1968.000000	14.147700
1967.000000	14.068400
1966.000000	14.045000
1965.000000	13.993700
1964.000000	13.956600
1963.000000	13.883400
1962.000000	13.848900
1961.000000	13.818500
1960.000000	13.760300
1959.000000	13.714200
1958.000000	13.660100
1957.000000	13.625600
1956.000000	13.580800
1955.000000	13.524300
1954.000000	13.476100
1953.000000	13.433200
1952.000000	13.402600
1951.000000	13.338800
1950.000000	13.326400
1949.000000	13.287800
1948.000000	13.257900
1947.000000	13.216200
1946.000000	13.178100
1945.000000	13.158200
1944.000000	13.145500
1943.000000	13.143500
1942.000000	13.159300
1941.000000	13.166400
1940.000000	13.160000
1939.000000	13.154000
1938.000000	13.156300
1937.000000	13.163400
1936.000000	13.175300
1935.000000	13.219300
1934.000000	13.272700
1933.000000	13.321400
1932.000000	13.384500
1931.000000	13.432800
1930.000000	13.493500
1929.000000	13.565000
1928.000000	13.653600
1927.000000	13.726700
1926.000000	13.803300
1925.000000	13.909200
1924.000000	14.034800
1923.000000	14.151500
1922.000000	14.266800
1921.000000	14.399700
1920.000000	14.532900
1919.000000	14.647000
1918.000000	14.785400
1917.000000	14.943700
1916.000000	15.104100
1915.000000	15.300100
1914.000000	15.475700
1913.000000	15.624000
1912.000000	15.800100
1911.000000	15.953400
1910.000000	16.130200
1909.000000	16.344700
1908.000000	16.525000
1907.000000	16.769900
1906.000000	16.987200
1905.000000	17.192000
1904.000000	17.399100
1903.000000	17.606600
1902.000000	17.819000
1901.000000	18.054700
1900.000000	18.284000
1899.000000	18.491000
1898.000000	18.713300
1897.000000	18.943000
1896.000000	19.172200
1895.000000	19.425500
1894.000000	19.669100
1893.000000	19.921300
1892.000000	20.179500
1891.000000	20.442000
1890.000000	20.679500
1889.000000	20.948500
1888.000000	21.250800
1887.000000	21.578700
1886.000000	21.917800
1885.000000	22.302200
1884.000000	22.744100
1883.000000	23.181900
1882.000000	23.636200
1881.000000	24.100600
1880.000000	24.570000
1879.000000	25.023800
1878.000000	25.459000
1877.000000	25.872000
1876.000000	26.245900
1875.000000	26.602100
1874.000000	26.922800
1873.000000	27.203800
1872.000000	27.469900
1871.000000	27.679200
1870.000000	27.839600
1869.000000	27.984100
1868.000000	28.095600
1867.000000	28.189200
1866.000000	28.276600
1865.000000	28.344400
1864.000000	28.411400
1863.000000	28.503400
1862.000000	28.578000
1861.000000	28.625700
1860.000000	28.637500
1859.000000	28.622000
1858.000000	28.603000
1857.000000	28.589000
1856.000000	28.562000
1855.000000	28.520800
1854.000000	28.463400
1853.000000	28.366400
1852.000000	28.304600
1851.000000	28.286000
1850.000000	28.287100
1849.000000	28.235200
1848.000000	28.107700
1847.000000	27.960000
1846.000000	27.862800
1845.000000	27.826200
1844.000000	27.832800
1843.000000	27.845500
1842.000000	27.810200
1841.000000	27.738900
1840.000000	27.679200
1839.000000	27.642200
1838.000000	27.612000
1837.000000	27.532200
1836.000000	27.416500
1835.000000	27.311000
1834.000000	27.238900
1833.000000	27.187500
1832.000000	27.121600
1831.000000	27.047700
1830.000000	26.954900
1829.000000	26.860900
1828.000000	26.761000
1827.000000	26.656800
1826.000000	26.570900
1825.000000	26.518700
1824.000000	26.498500
1823.000000	26.521800
1822.000000	26.516200
1821.000000	26.454300
1820.000000	26.372700
1819.000000	26.324200
1818.000000	26.329100
1817.000000	26.347200
1816.000000	26.353900
1815.000000	26.345200
1814.000000	26.340400
1813.000000	26.327200
1812.000000	26.300100
1811.000000	26.254100
1810.000000	26.213900
1809.000000	26.194100
1808.000000	26.166300
1807.000000	26.126200
1806.000000	26.062000
1805.000000	26.011100
1804.000000	25.977500
1803.000000	25.935400
1802.000000	25.892200
1801.000000	25.822300
1800.000000	25.756900
1799.000000	25.700900
1798.000000	25.661200
1797.000000	25.619800
1796.000000	25.575300
1795.000000	25.538200
1794.000000	25.466000
1793.000000	25.391300
1792.000000	25.347800
1791.000000	25.283900
1790.000000	25.210600
1789.000000	25.148700
1788.000000	25.082800
1787.000000	24.999800
1786.000000	24.914300
1785.000000	24.821400
1784.000000	24.736200
1783.000000	24.642300
1782.000000	24.563000
1781.000000	24.479400
1780.000000	24.365700
1779.000000	24.250300
1778.000000	24.155600
1777.000000	24.038700
1776.000000	23.920300
1775.000000	23.785300
1774.000000	23.648400
1773.000000	23.489300
1772.000000	23.347100
1771.000000	23.190600
1770.000000	23.052400
1769.000000	22.916700
1768.000000	22.785800
1767.000000	22.649900
1766.000000	22.558300
1765.000000	22.488900
1764.000000	22.437600
1763.000000	22.436300
1762.000000	22.441300
1761.000000	22.491000
1760.000000	22.559000
1759.000000	22.632000
1758.000000	22.720800
1757.000000	22.761300
1756.000000	22.796700
1755.000000	22.841300
1754.000000	22.840500
1753.000000	22.816600
1752.000000	22.800200
1751.000000	22.753600
1750.000000	22.675400
1749.000000	22.609600
1748.000000	22.508700
1747.000000	22.396000
1746.000000	22.256100
1745.000000	22.113800
1744.000000	21.920200
1743.000000	21.692300
1742.000000	21.444700
1741.000000	21.196400
1740.000000	20.934400
1739.000000	20.710400
1738.000000	20.475100
1737.000000	20.298300
1736.000000	20.150400
1735.000000	20.079100
1734.000000	20.053500
1733.000000	20.074300
1732.000000	20.133900
1731.000000	20.235900
1730.000000	20.373900
1729.000000	20.519200
1728.000000	20.615800
1727.000000	20.751200
1726.000000	20.870300
1725.000000	20.932700
1724.000000	20.987000
1723.000000	21.004500
1722.000000	21.015400
1721.000000	21.027600
1720.000000	21.012500
1719.000000	21.021600
1718.000000	21.049700
1717.000000	21.052300
1716.000000	21.106400
1715.000000	21.162000
1714.000000	21.193000
1713.000000	21.246600
1712.000000	21.293400
1711.000000	21.305300
1710.000000	21.307400
1709.000000	21.312900
1708.000000	21.267400
1707.000000	21.253500
1706.000000	21.192900
1705.000000	21.144900
1704.000000	21.054000
1703.000000	20.978000
1702.000000	20.868200
1701.000000	20.702200
1700.000000	20.546800
1699.000000	20.376700
1698.000000	20.242100
1697.000000	20.126000
1696.000000	20.075500
1695.000000	20.105300
1694.000000	20.192600
1693.000000	20.351800
1692.000000	20.516300
1691.000000	20.736500
1690.000000	20.887800
1689.000000	21.021600
1688.000000	21.068200
1687.000000	21.091000
1686.000000	21.090900
1685.000000	21.124700
1684.000000	21.238200
1683.000000	21.481100
1682.000000	21.859800
1681.000000	22.373200
1680.000000	22.965300
1679.000000	23.572700
1678.000000	24.215700
1677.000000	24.747500
1676.000000	25.255200
1675.000000	25.668000
1674.000000	26.043000
1673.000000	26.362500
1672.000000	26.627400
1671.000000	26.855100
1670.000000	27.069000
1669.000000	27.235000
1668.000000	27.393000
1667.000000	27.486300
1666.000000	27.595500
1665.000000	27.685500
1664.000000	27.769000
1663.000000	27.840200
1662.000000	27.896300
1661.000000	27.938500
1660.000000	27.985500
1659.000000	27.998000
1658.000000	28.029800
1657.000000	28.033100
1656.000000	28.021700
1655.000000	28.026300
1654.000000	28.013900
1653.000000	27.996700
1652.000000	27.966200
1651.000000	27.941000
1650.000000	27.921100
1649.000000	27.860900
1648.000000	27.823900
1647.000000	27.760500
1646.000000	27.708600
1645.000000	27.633800
1644.000000	27.576200
1643.000000	27.522500
1642.000000	27.425700
1641.000000	27.362200
1640.000000	27.281400
1639.000000	27.210900
1638.000000	27.142300
1637.000000	27.070900
1636.000000	26.982400
1635.000000	26.898800
1634.000000	26.809100
1633.000000	26.711300
1632.000000	26.633900
1631.000000	26.542700
1630.000000	26.447300
1629.000000	26.365500
1628.000000	26.262600
1627.000000	26.167700
1626.000000	26.067100
1625.000000	25.975700
1624.000000	25.873000
1623.000000	25.779400
1622.000000	25.691700
1621.000000	25.599800
1620.000000	25.502800
1619.000000	25.441000
1618.000000	25.342300
1617.000000	25.231000
1616.000000	25.155800
1615.000000	25.064500
1614.000000	24.983300
