PE UV       SUBTECH     SPECTRUM    ASCII       PEDS        4.00        
   -1
CICIMAUCR0014-5.Sample.ASC
24/04/23
11:16:56.00
24/04/23
11:16:56.00
Vinicio Soto Monge
C. cupreomarginata
250,000000
1
Lambda 1050
1050L1511233
PerkinElmer UV WinLab 6.3.2.0749 / 2.02.05 Lambda 900 UV/VIS/NIR, Aug  7 2015 09:38:08

0
0
3350/servo 860,8/2
0
0
UV/VIS
1
1
1
DoubleDePol,CommonBeamDepol,RBeamAtt,SBeamAtt,60mm sphere, WB InGaAs Detector
0
0
0
0
Program
Program
3350/servo 860,8/2
3350/0,2 860,8/0,2
3350/0,2 860,8/0,2
0
15.00
 
 
 
0
 
860,8
319,2
860,8
Front
100
on
S:100 R:100
0
0
0
0
 
0
 
 
 
0
 
 
0
0
0
0
0
 
 
 
 
0
0


0
0
#HDR
-1
-1
#GR
nm
%R
1.0
0.0
2500,000000
-1,000000
2251
8
75,082300
5,658100
#DATA
2500.000000	7.994600
2499.000000	8.007400
2498.000000	7.890200
2497.000000	7.918800
2496.000000	7.934700
2495.000000	7.993100
2494.000000	7.822200
2493.000000	7.854200
2492.000000	7.886000
2491.000000	7.819500
2490.000000	7.829400
2489.000000	7.817000
2488.000000	7.734500
2487.000000	7.801800
2486.000000	7.719100
2485.000000	7.821400
2484.000000	7.776000
2483.000000	7.821400
2482.000000	7.776500
2481.000000	7.830800
2480.000000	7.751200
2479.000000	7.796400
2478.000000	7.765400
2477.000000	7.812900
2476.000000	7.809000
2475.000000	7.822300
2474.000000	7.842400
2473.000000	7.850300
2472.000000	7.851700
2471.000000	7.836500
2470.000000	7.869800
2469.000000	7.904600
2468.000000	7.889300
2467.000000	7.898800
2466.000000	7.916200
2465.000000	7.957600
2464.000000	7.949200
2463.000000	8.028500
2462.000000	8.051900
2461.000000	8.073000
2460.000000	8.127500
2459.000000	8.106600
2458.000000	8.214200
2457.000000	8.257200
2456.000000	8.261100
2455.000000	8.334200
2454.000000	8.403500
2453.000000	8.445000
2452.000000	8.508900
2451.000000	8.583400
2450.000000	8.653600
2449.000000	8.710200
2448.000000	8.784500
2447.000000	8.828600
2446.000000	8.906700
2445.000000	8.992300
2444.000000	9.035900
2443.000000	9.109300
2442.000000	9.181500
2441.000000	9.235700
2440.000000	9.297700
2439.000000	9.359500
2438.000000	9.423900
2437.000000	9.472200
2436.000000	9.547600
2435.000000	9.606000
2434.000000	9.641900
2433.000000	9.706600
2432.000000	9.763500
2431.000000	9.806800
2430.000000	9.870200
2429.000000	9.912200
2428.000000	9.947000
2427.000000	9.990100
2426.000000	10.038600
2425.000000	10.085300
2424.000000	10.125100
2423.000000	10.149200
2422.000000	10.183900
2421.000000	10.228800
2420.000000	10.257300
2419.000000	10.290500
2418.000000	10.322200
2417.000000	10.346300
2416.000000	10.371000
2415.000000	10.405800
2414.000000	10.424200
2413.000000	10.447000
2412.000000	10.478800
2411.000000	10.522200
2410.000000	10.551600
2409.000000	10.581200
2408.000000	10.634200
2407.000000	10.644500
2406.000000	10.670700
2405.000000	10.696800
2404.000000	10.724200
2403.000000	10.763400
2402.000000	10.809400
2401.000000	10.832100
2400.000000	10.850500
2399.000000	10.888300
2398.000000	10.920600
2397.000000	10.956200
2396.000000	10.997500
2395.000000	11.035000
2394.000000	11.068000
2393.000000	11.098100
2392.000000	11.127700
2391.000000	11.170800
2390.000000	11.195600
2389.000000	11.220300
2388.000000	11.233600
2387.000000	11.248500
2386.000000	11.255300
2385.000000	11.281700
2384.000000	11.302900
2383.000000	11.307200
2382.000000	11.326800
2381.000000	11.321200
2380.000000	11.313700
2379.000000	11.323400
2378.000000	11.325700
2377.000000	11.322100
2376.000000	11.324600
2375.000000	11.320000
2374.000000	11.299700
2373.000000	11.288900
2372.000000	11.278700
2371.000000	11.275400
2370.000000	11.266900
2369.000000	11.255500
2368.000000	11.240300
2367.000000	11.195500
2366.000000	11.157400
2365.000000	11.142600
2364.000000	11.103000
2363.000000	11.046900
2362.000000	11.019400
2361.000000	10.984100
2360.000000	10.931400
2359.000000	10.888700
2358.000000	10.860600
2357.000000	10.830300
2356.000000	10.812300
2355.000000	10.791600
2354.000000	10.784700
2353.000000	10.786200
2352.000000	10.773900
2351.000000	10.789000
2350.000000	10.821400
2349.000000	10.853400
2348.000000	10.922100
2347.000000	10.972100
2346.000000	11.014500
2345.000000	11.060200
2344.000000	11.119100
2343.000000	11.173800
2342.000000	11.217200
2341.000000	11.269300
2340.000000	11.336400
2339.000000	11.373300
2338.000000	11.392200
2337.000000	11.408000
2336.000000	11.429600
2335.000000	11.426200
2334.000000	11.443100
2333.000000	11.432100
2332.000000	11.411200
2331.000000	11.401600
2330.000000	11.374800
2329.000000	11.348900
2328.000000	11.304700
2327.000000	11.245600
2326.000000	11.205900
2325.000000	11.163500
2324.000000	11.109000
2323.000000	11.043700
2322.000000	10.969600
2321.000000	10.887200
2320.000000	10.798200
2319.000000	10.716300
2318.000000	10.631600
2317.000000	10.544300
2316.000000	10.456800
2315.000000	10.375800
2314.000000	10.284200
2313.000000	10.198200
2312.000000	10.110800
2311.000000	10.038000
2310.000000	9.990300
2309.000000	9.938400
2308.000000	9.910700
2307.000000	9.896500
2306.000000	9.884300
2305.000000	9.905400
2304.000000	9.937800
2303.000000	9.970300
2302.000000	10.023700
2301.000000	10.122000
2300.000000	10.196900
2299.000000	10.266500
2298.000000	10.375100
2297.000000	10.468200
2296.000000	10.548100
2295.000000	10.660700
2294.000000	10.744100
2293.000000	10.794200
2292.000000	10.862000
2291.000000	10.922600
2290.000000	10.959700
2289.000000	10.995800
2288.000000	11.004000
2287.000000	10.993700
2286.000000	10.990400
2285.000000	10.968100
2284.000000	10.950600
2283.000000	10.920600
2282.000000	10.886400
2281.000000	10.834400
2280.000000	10.798100
2279.000000	10.744600
2278.000000	10.700100
2277.000000	10.666600
2276.000000	10.631700
2275.000000	10.603600
2274.000000	10.582300
2273.000000	10.563300
2272.000000	10.556900
2271.000000	10.553100
2270.000000	10.601500
2269.000000	10.617500
2268.000000	10.679600
2267.000000	10.759300
2266.000000	10.848500
2265.000000	10.954400
2264.000000	11.095600
2263.000000	11.279900
2262.000000	11.438100
2261.000000	11.636500
2260.000000	11.846900
2259.000000	12.102000
2258.000000	12.315500
2257.000000	12.563000
2256.000000	12.793900
2255.000000	13.070000
2254.000000	13.304900
2253.000000	13.523300
2252.000000	13.759700
2251.000000	13.974200
2250.000000	14.231600
2249.000000	14.395200
2248.000000	14.578700
2247.000000	14.750000
2246.000000	14.939500
2245.000000	15.072400
2244.000000	15.210700
2243.000000	15.327900
2242.000000	15.465100
2241.000000	15.593300
2240.000000	15.683700
2239.000000	15.780700
2238.000000	15.892800
2237.000000	15.936600
2236.000000	16.045700
2235.000000	16.096800
2234.000000	16.152300
2233.000000	16.186500
2232.000000	16.248100
2231.000000	16.290400
2230.000000	16.301400
2229.000000	16.360100
2228.000000	16.388000
2227.000000	16.393300
2226.000000	16.366000
2225.000000	16.377500
2224.000000	16.370800
2223.000000	16.368400
2222.000000	16.356600
2221.000000	16.327000
2220.000000	16.314200
2219.000000	16.302500
2218.000000	16.274800
2217.000000	16.266000
2216.000000	16.210800
2215.000000	16.194500
2214.000000	16.163700
2213.000000	16.125500
2212.000000	16.098000
2211.000000	16.073600
2210.000000	16.042200
2209.000000	16.019000
2208.000000	15.993800
2207.000000	15.990100
2206.000000	15.958000
2205.000000	15.957400
2204.000000	15.949400
2203.000000	15.930000
2202.000000	15.894400
2201.000000	15.878600
2200.000000	15.879700
2199.000000	15.870800
2198.000000	15.860500
2197.000000	15.822000
2196.000000	15.830500
2195.000000	15.833900
2194.000000	15.798700
2193.000000	15.778200
2192.000000	15.778200
2191.000000	15.763200
2190.000000	15.741400
2189.000000	15.741200
2188.000000	15.731600
2187.000000	15.707000
2186.000000	15.690600
2185.000000	15.680000
2184.000000	15.654200
2183.000000	15.622700
2182.000000	15.604400
2181.000000	15.589500
2180.000000	15.580200
2179.000000	15.566200
2178.000000	15.558100
2177.000000	15.538000
2176.000000	15.532100
2175.000000	15.525800
2174.000000	15.520600
2173.000000	15.510000
2172.000000	15.488200
2171.000000	15.496800
2170.000000	15.519800
2169.000000	15.534100
2168.000000	15.532200
2167.000000	15.543600
2166.000000	15.562300
2165.000000	15.579900
2164.000000	15.610600
2163.000000	15.606700
2162.000000	15.619500
2161.000000	15.645800
2160.000000	15.676400
2159.000000	15.698900
2158.000000	15.712400
2157.000000	15.751600
2156.000000	15.796300
2155.000000	15.818000
2154.000000	15.859600
2153.000000	15.903500
2152.000000	15.925700
2151.000000	15.946100
2150.000000	15.986700
2149.000000	16.038700
2148.000000	16.084000
2147.000000	16.104900
2146.000000	16.137700
2145.000000	16.173400
2144.000000	16.211300
2143.000000	16.249600
2142.000000	16.273500
2141.000000	16.292400
2140.000000	16.315400
2139.000000	16.343200
2138.000000	16.376800
2137.000000	16.403800
2136.000000	16.438200
2135.000000	16.446800
2134.000000	16.446200
2133.000000	16.472000
2132.000000	16.489300
2131.000000	16.508500
2130.000000	16.517600
2129.000000	16.514400
2128.000000	16.517000
2127.000000	16.529700
2126.000000	16.521200
2125.000000	16.507800
2124.000000	16.498600
2123.000000	16.489500
2122.000000	16.483700
2121.000000	16.465100
2120.000000	16.439900
2119.000000	16.422100
2118.000000	16.404900
2117.000000	16.392100
2116.000000	16.367100
2115.000000	16.337200
2114.000000	16.317400
2113.000000	16.298100
2112.000000	16.281900
2111.000000	16.250000
2110.000000	16.212100
2109.000000	16.193000
2108.000000	16.165500
2107.000000	16.138800
2106.000000	16.107800
2105.000000	16.072400
2104.000000	16.049100
2103.000000	16.017300
2102.000000	15.990900
2101.000000	15.963600
2100.000000	15.927000
2099.000000	15.891700
2098.000000	15.875200
2097.000000	15.871100
2096.000000	15.835100
2095.000000	15.796500
2094.000000	15.776200
2093.000000	15.746300
2092.000000	15.731500
2091.000000	15.726300
2090.000000	15.694200
2089.000000	15.668600
2088.000000	15.638000
2087.000000	15.601100
2086.000000	15.585200
2085.000000	15.565100
2084.000000	15.532100
2083.000000	15.503400
2082.000000	15.483600
2081.000000	15.447500
2080.000000	15.406200
2079.000000	15.373200
2078.000000	15.343800
2077.000000	15.313800
2076.000000	15.274800
2075.000000	15.236000
2074.000000	15.207100
2073.000000	15.158500
2072.000000	15.110100
2071.000000	15.064100
2070.000000	15.023400
2069.000000	14.993300
2068.000000	14.951900
2067.000000	14.914000
2066.000000	14.880500
2065.000000	14.852800
2064.000000	14.811900
2063.000000	14.774700
2062.000000	14.742300
2061.000000	14.720600
2060.000000	14.703500
2059.000000	14.669500
2058.000000	14.670500
2057.000000	14.672500
2056.000000	14.669800
2055.000000	14.666300
2054.000000	14.690400
2053.000000	14.721000
2052.000000	14.741800
2051.000000	14.798200
2050.000000	14.847600
2049.000000	14.905200
2048.000000	14.975200
2047.000000	15.038200
2046.000000	15.122600
2045.000000	15.214600
2044.000000	15.284600
2043.000000	15.380800
2042.000000	15.458300
2041.000000	15.544100
2040.000000	15.597800
2039.000000	15.685800
2038.000000	15.760000
2037.000000	15.828400
2036.000000	15.897500
2035.000000	15.966500
2034.000000	16.024000
2033.000000	16.081900
2032.000000	16.155900
2031.000000	16.196400
2030.000000	16.233100
2029.000000	16.256900
2028.000000	16.305800
2027.000000	16.335100
2026.000000	16.365100
2025.000000	16.394700
2024.000000	16.422800
2023.000000	16.451300
2022.000000	16.482200
2021.000000	16.476900
2020.000000	16.475900
2019.000000	16.511900
2018.000000	16.525400
2017.000000	16.517500
2016.000000	16.521900
2015.000000	16.523200
2014.000000	16.506900
2013.000000	16.515800
2012.000000	16.511100
2011.000000	16.478000
2010.000000	16.463400
2009.000000	16.433800
2008.000000	16.408500
2007.000000	16.392400
2006.000000	16.347400
2005.000000	16.301200
2004.000000	16.274700
2003.000000	16.221100
2002.000000	16.167800
2001.000000	16.134800
2000.000000	16.079900
1999.000000	16.009000
1998.000000	15.955800
1997.000000	15.907100
1996.000000	15.854500
1995.000000	15.777500
1994.000000	15.697900
1993.000000	15.620000
1992.000000	15.563100
1991.000000	15.484800
1990.000000	15.420700
1989.000000	15.333800
1988.000000	15.269100
1987.000000	15.180800
1986.000000	15.099300
1985.000000	15.023600
1984.000000	14.917300
1983.000000	14.850700
1982.000000	14.768000
1981.000000	14.699300
1980.000000	14.611000
1979.000000	14.508800
1978.000000	14.428700
1977.000000	14.343400
1976.000000	14.289000
1975.000000	14.185700
1974.000000	14.116800
1973.000000	14.007400
1972.000000	13.957000
1971.000000	13.881100
1970.000000	13.790000
1969.000000	13.728000
1968.000000	13.638300
1967.000000	13.560400
1966.000000	13.502000
1965.000000	13.419900
1964.000000	13.365900
1963.000000	13.295900
1962.000000	13.225200
1961.000000	13.140200
1960.000000	13.077100
1959.000000	13.026400
1958.000000	12.938600
1957.000000	12.871800
1956.000000	12.822800
1955.000000	12.754700
1954.000000	12.674600
1953.000000	12.603500
1952.000000	12.558600
1951.000000	12.517200
1950.000000	12.468200
1949.000000	12.423600
1948.000000	12.369900
1947.000000	12.330800
1946.000000	12.272200
1945.000000	12.233700
1944.000000	12.196000
1943.000000	12.167500
1942.000000	12.149300
1941.000000	12.152100
1940.000000	12.133400
1939.000000	12.125900
1938.000000	12.098200
1937.000000	12.098000
1936.000000	12.101700
1935.000000	12.121500
1934.000000	12.134500
1933.000000	12.184600
1932.000000	12.243500
1931.000000	12.292100
1930.000000	12.342600
1929.000000	12.392500
1928.000000	12.465800
1927.000000	12.529300
1926.000000	12.603300
1925.000000	12.724300
1924.000000	12.825800
1923.000000	12.952100
1922.000000	13.055800
1921.000000	13.196800
1920.000000	13.312300
1919.000000	13.442500
1918.000000	13.610000
1917.000000	13.779000
1916.000000	13.952400
1915.000000	14.131900
1914.000000	14.324500
1913.000000	14.491300
1912.000000	14.676700
1911.000000	14.888200
1910.000000	15.093200
1909.000000	15.325900
1908.000000	15.565200
1907.000000	15.809400
1906.000000	16.070200
1905.000000	16.350000
1904.000000	16.608100
1903.000000	16.881500
1902.000000	17.199800
1901.000000	17.503000
1900.000000	17.813500
1899.000000	18.138100
1898.000000	18.477600
1897.000000	18.848900
1896.000000	19.202100
1895.000000	19.567700
1894.000000	19.963900
1893.000000	20.364500
1892.000000	20.832900
1891.000000	21.264200
1890.000000	21.678000
1889.000000	22.150100
1888.000000	22.655700
1887.000000	23.144100
1886.000000	23.646200
1885.000000	24.206600
1884.000000	24.785100
1883.000000	25.387100
1882.000000	25.972800
1881.000000	26.566000
1880.000000	27.117700
1879.000000	27.655300
1878.000000	28.192200
1877.000000	28.702700
1876.000000	29.173300
1875.000000	29.628800
1874.000000	30.066100
1873.000000	30.491600
1872.000000	30.863800
1871.000000	31.191100
1870.000000	31.493900
1869.000000	31.794400
1868.000000	32.019300
1867.000000	32.214200
1866.000000	32.371700
1865.000000	32.519300
1864.000000	32.651100
1863.000000	32.792900
1862.000000	32.920500
1861.000000	33.033500
1860.000000	33.142900
1859.000000	33.227600
1858.000000	33.301100
1857.000000	33.357400
1856.000000	33.373100
1855.000000	33.405900
1854.000000	33.429600
1853.000000	33.397200
1852.000000	33.390000
1851.000000	33.391300
1850.000000	33.398300
1849.000000	33.391500
1848.000000	33.355800
1847.000000	33.310000
1846.000000	33.240800
1845.000000	33.174600
1844.000000	33.130300
1843.000000	33.134900
1842.000000	33.150300
1841.000000	33.132600
1840.000000	33.086600
1839.000000	33.050300
1838.000000	33.013900
1837.000000	32.960200
1836.000000	32.904700
1835.000000	32.839300
1834.000000	32.753100
1833.000000	32.680300
1832.000000	32.619900
1831.000000	32.554900
1830.000000	32.486100
1829.000000	32.410600
1828.000000	32.322400
1827.000000	32.250400
1826.000000	32.179100
1825.000000	32.118300
1824.000000	32.070900
1823.000000	32.041300
1822.000000	32.027300
1821.000000	32.009100
1820.000000	31.984400
1819.000000	31.944000
1818.000000	31.899800
1817.000000	31.882100
1816.000000	31.887700
1815.000000	31.872200
1814.000000	31.850600
1813.000000	31.835800
1812.000000	31.812200
1811.000000	31.765200
1810.000000	31.711400
1809.000000	31.673400
1808.000000	31.653700
1807.000000	31.621800
1806.000000	31.569500
1805.000000	31.505600
1804.000000	31.445900
1803.000000	31.408400
1802.000000	31.370800
1801.000000	31.326200
1800.000000	31.264400
1799.000000	31.200900
1798.000000	31.152400
1797.000000	31.109100
1796.000000	31.071200
1795.000000	31.014100
1794.000000	30.970900
1793.000000	30.923100
1792.000000	30.864600
1791.000000	30.811300
1790.000000	30.748600
1789.000000	30.697900
1788.000000	30.633200
1787.000000	30.581100
1786.000000	30.515100
1785.000000	30.440000
1784.000000	30.372400
1783.000000	30.312900
1782.000000	30.225800
1781.000000	30.149500
1780.000000	30.066600
1779.000000	30.000100
1778.000000	29.911300
1777.000000	29.810900
1776.000000	29.731000
1775.000000	29.629700
1774.000000	29.517000
1773.000000	29.393400
1772.000000	29.268800
1771.000000	29.160500
1770.000000	29.032100
1769.000000	28.919200
1768.000000	28.822300
1767.000000	28.722900
1766.000000	28.629900
1765.000000	28.572000
1764.000000	28.543200
1763.000000	28.515200
1762.000000	28.550600
1761.000000	28.579700
1760.000000	28.639100
1759.000000	28.703200
1758.000000	28.764000
1757.000000	28.809100
1756.000000	28.879500
1755.000000	28.913400
1754.000000	28.919600
1753.000000	28.924900
1752.000000	28.913500
1751.000000	28.897400
1750.000000	28.863500
1749.000000	28.802200
1748.000000	28.736500
1747.000000	28.650500
1746.000000	28.541100
1745.000000	28.427900
1744.000000	28.279700
1743.000000	28.122700
1742.000000	27.934200
1741.000000	27.724700
1740.000000	27.516200
1739.000000	27.324700
1738.000000	27.144000
1737.000000	26.951100
1736.000000	26.839600
1735.000000	26.777000
1734.000000	26.719100
1733.000000	26.720900
1732.000000	26.765900
1731.000000	26.850900
1730.000000	26.936700
1729.000000	27.058400
1728.000000	27.152100
1727.000000	27.265600
1726.000000	27.359500
1725.000000	27.448800
1724.000000	27.502800
1723.000000	27.552500
1722.000000	27.590900
1721.000000	27.631500
1720.000000	27.654600
1719.000000	27.719700
1718.000000	27.762500
1717.000000	27.824800
1716.000000	27.897500
1715.000000	27.970400
1714.000000	28.050300
1713.000000	28.107300
1712.000000	28.181900
1711.000000	28.214200
1710.000000	28.226800
1709.000000	28.239900
1708.000000	28.223300
1707.000000	28.199700
1706.000000	28.176300
1705.000000	28.110700
1704.000000	28.043700
1703.000000	27.952400
1702.000000	27.857600
1701.000000	27.707700
1700.000000	27.562100
1699.000000	27.415400
1698.000000	27.259300
1697.000000	27.159700
1696.000000	27.092700
1695.000000	27.064800
1694.000000	27.133700
1693.000000	27.231900
1692.000000	27.367200
1691.000000	27.516400
1690.000000	27.664200
1689.000000	27.805800
1688.000000	27.868400
1687.000000	27.912800
1686.000000	27.946000
1685.000000	27.997300
1684.000000	28.142500
1683.000000	28.349800
1682.000000	28.709200
1681.000000	29.117400
1680.000000	29.596300
1679.000000	30.122300
1678.000000	30.680700
1677.000000	31.140800
1676.000000	31.564900
1675.000000	31.958000
1674.000000	32.295600
1673.000000	32.590400
1672.000000	32.849100
1671.000000	33.085000
1670.000000	33.291300
1669.000000	33.447200
1668.000000	33.623000
1667.000000	33.773500
1666.000000	33.855600
1665.000000	33.958300
1664.000000	34.036500
1663.000000	34.115900
1662.000000	34.180900
1661.000000	34.246900
1660.000000	34.287900
1659.000000	34.336400
1658.000000	34.342200
1657.000000	34.349300
1656.000000	34.352100
1655.000000	34.354400
1654.000000	34.348500
1653.000000	34.349000
1652.000000	34.318600
1651.000000	34.309000
1650.000000	34.238500
1649.000000	34.204700
1648.000000	34.165000
1647.000000	34.112400
1646.000000	34.064400
1645.000000	33.991600
1644.000000	33.927000
1643.000000	33.885400
1642.000000	33.817800
1641.000000	33.756400
1640.000000	33.688600
1639.000000	33.614500
1638.000000	33.544200
1637.000000	33.476500
1636.000000	33.418600
1635.000000	33.333800
1634.000000	33.246900
1633.000000	33.174400
1632.000000	33.087700
1631.000000	33.001000
1630.000000	32.929200
1629.000000	32.823800
1628.000000	32.726100
1627.000000	32.632400
1626.000000	32.556800
1625.000000	32.474900
1624.000000	32.374800
1623.000000	32.287600
1622.000000	32.219300
1621.000000	32.122200
