PE UV       SUBTECH     SPECTRUM    ASCII       PEDS        4.00        
   -1
CICIMAUCR0018-2.Sample.ASC
24/04/12
14:49:23.00
24/04/12
14:49:23.00
Vinicio Soto Monge
C. cupreomarginata
250,000000
1
Lambda 1050
1050L1511233
PerkinElmer UV WinLab 6.3.2.0749 / 2.02.05 Lambda 900 UV/VIS/NIR, Aug  7 2015 09:38:08

0
0
3350/servo 860,8/2
0
0
UV/VIS
1
1
1
DoubleDePol,CommonBeamDepol,RBeamAtt,SBeamAtt,60mm sphere, WB InGaAs Detector
0
0
0
0
Program
Program
3350/servo 860,8/2
3350/0,2 860,8/0,2
3350/0,2 860,8/0,2
0
15.00
 
 
 
0
 
860,8
319,2
860,8
Front
100
on
S:100 R:100
0
0
0
0
 
0
 
 
 
0
 
 
0
0
0
0
0
 
 
 
 
0
0


0
0
#HDR
-1
-1
#GR
nm
%R
1.0
0.0
2500,000000
-1,000000
2251
8
47,780900
3,973400
#DATA
2500.000000	8.244200
2499.000000	8.155000
2498.000000	8.303000
2497.000000	8.137500
2496.000000	8.233900
2495.000000	8.172200
2494.000000	8.145700
2493.000000	8.166600
2492.000000	8.138300
2491.000000	8.115900
2490.000000	8.095300
2489.000000	8.088200
2488.000000	8.050800
2487.000000	8.009000
2486.000000	8.157100
2485.000000	8.102000
2484.000000	8.037200
2483.000000	8.084300
2482.000000	8.062400
2481.000000	8.078600
2480.000000	8.113800
2479.000000	8.055900
2478.000000	8.003500
2477.000000	8.085800
2476.000000	8.021800
2475.000000	8.064500
2474.000000	8.037400
2473.000000	8.049200
2472.000000	8.018000
2471.000000	8.030000
2470.000000	8.081800
2469.000000	8.075700
2468.000000	8.078600
2467.000000	8.087200
2466.000000	8.114800
2465.000000	8.138500
2464.000000	8.157100
2463.000000	8.196100
2462.000000	8.176100
2461.000000	8.207900
2460.000000	8.228000
2459.000000	8.289400
2458.000000	8.322400
2457.000000	8.345900
2456.000000	8.409800
2455.000000	8.456300
2454.000000	8.502800
2453.000000	8.539400
2452.000000	8.596300
2451.000000	8.649500
2450.000000	8.712900
2449.000000	8.770300
2448.000000	8.802400
2447.000000	8.842900
2446.000000	8.889500
2445.000000	8.962900
2444.000000	9.003800
2443.000000	9.036600
2442.000000	9.080800
2441.000000	9.144800
2440.000000	9.202900
2439.000000	9.268300
2438.000000	9.311400
2437.000000	9.352400
2436.000000	9.377800
2435.000000	9.416300
2434.000000	9.463300
2433.000000	9.506000
2432.000000	9.539300
2431.000000	9.574800
2430.000000	9.610200
2429.000000	9.629000
2428.000000	9.656100
2427.000000	9.691000
2426.000000	9.708400
2425.000000	9.775300
2424.000000	9.847600
2423.000000	9.924400
2422.000000	9.969000
2421.000000	10.013000
2420.000000	10.023500
2419.000000	10.045100
2418.000000	10.061900
2417.000000	10.101100
2416.000000	10.152200
2415.000000	10.188800
2414.000000	10.222500
2413.000000	10.264800
2412.000000	10.284300
2411.000000	10.306600
2410.000000	10.336000
2409.000000	10.360000
2408.000000	10.385800
2407.000000	10.416900
2406.000000	10.445800
2405.000000	10.475500
2404.000000	10.489600
2403.000000	10.515400
2402.000000	10.540400
2401.000000	10.560400
2400.000000	10.585300
2399.000000	10.614000
2398.000000	10.641200
2397.000000	10.659800
2396.000000	10.679600
2395.000000	10.703100
2394.000000	10.735800
2393.000000	10.761000
2392.000000	10.781400
2391.000000	10.788800
2390.000000	10.781400
2389.000000	10.798500
2388.000000	10.804900
2387.000000	10.810500
2386.000000	10.821900
2385.000000	10.830400
2384.000000	10.827100
2383.000000	10.812400
2382.000000	10.814700
2381.000000	10.824300
2380.000000	10.815400
2379.000000	10.805200
2378.000000	10.811200
2377.000000	10.801800
2376.000000	10.775000
2375.000000	10.753300
2374.000000	10.765000
2373.000000	10.758100
2372.000000	10.730400
2371.000000	10.706500
2370.000000	10.689400
2369.000000	10.673800
2368.000000	10.641600
2367.000000	10.614600
2366.000000	10.583500
2365.000000	10.536000
2364.000000	10.499000
2363.000000	10.465000
2362.000000	10.417300
2361.000000	10.387000
2360.000000	10.357100
2359.000000	10.319500
2358.000000	10.286200
2357.000000	10.262400
2356.000000	10.234500
2355.000000	10.226400
2354.000000	10.231300
2353.000000	10.223100
2352.000000	10.230200
2351.000000	10.250400
2350.000000	10.270100
2349.000000	10.298800
2348.000000	10.322600
2347.000000	10.366100
2346.000000	10.387600
2345.000000	10.419300
2344.000000	10.472900
2343.000000	10.510400
2342.000000	10.512300
2341.000000	10.527300
2340.000000	10.549400
2339.000000	10.569100
2338.000000	10.594700
2337.000000	10.588600
2336.000000	10.583300
2335.000000	10.572900
2334.000000	10.555100
2333.000000	10.530700
2332.000000	10.502500
2331.000000	10.477000
2330.000000	10.449300
2329.000000	10.414000
2328.000000	10.396900
2327.000000	10.364200
2326.000000	10.301800
2325.000000	10.251200
2324.000000	10.215100
2323.000000	10.155900
2322.000000	10.086400
2321.000000	10.038800
2320.000000	9.973000
2319.000000	9.896500
2318.000000	9.825800
2317.000000	9.749300
2316.000000	9.657400
2315.000000	9.586800
2314.000000	9.525200
2313.000000	9.477500
2312.000000	9.418800
2311.000000	9.354100
2310.000000	9.323700
2309.000000	9.297200
2308.000000	9.269300
2307.000000	9.264500
2306.000000	9.261300
2305.000000	9.273600
2304.000000	9.322500
2303.000000	9.371200
2302.000000	9.407800
2301.000000	9.460000
2300.000000	9.548700
2299.000000	9.610600
2298.000000	9.658200
2297.000000	9.725000
2296.000000	9.768700
2295.000000	9.818300
2294.000000	9.865400
2293.000000	9.908500
2292.000000	9.954300
2291.000000	9.966700
2290.000000	9.981300
2289.000000	9.990100
2288.000000	9.986300
2287.000000	9.968900
2286.000000	9.965900
2285.000000	9.947000
2284.000000	9.915400
2283.000000	9.879300
2282.000000	9.850100
2281.000000	9.824800
2280.000000	9.776600
2279.000000	9.741300
2278.000000	9.714800
2277.000000	9.689100
2276.000000	9.662600
2275.000000	9.631700
2274.000000	9.619400
2273.000000	9.618100
2272.000000	9.613600
2271.000000	9.639500
2270.000000	9.667800
2269.000000	9.696100
2268.000000	9.744700
2267.000000	9.813500
2266.000000	9.904000
2265.000000	10.011100
2264.000000	10.116700
2263.000000	10.238800
2262.000000	10.394700
2261.000000	10.541800
2260.000000	10.705200
2259.000000	10.878800
2258.000000	11.050600
2257.000000	11.239400
2256.000000	11.421900
2255.000000	11.580800
2254.000000	11.773100
2253.000000	11.946600
2252.000000	12.115700
2251.000000	12.262400
2250.000000	12.413600
2249.000000	12.560900
2248.000000	12.694300
2247.000000	12.843200
2246.000000	12.956000
2245.000000	13.092200
2244.000000	13.173800
2243.000000	13.243100
2242.000000	13.323400
2241.000000	13.413200
2240.000000	13.493300
2239.000000	13.592000
2238.000000	13.635000
2237.000000	13.695200
2236.000000	13.730800
2235.000000	13.777600
2234.000000	13.829900
2233.000000	13.877400
2232.000000	13.890400
2231.000000	13.907700
2230.000000	13.946300
2229.000000	13.962900
2228.000000	13.940000
2227.000000	13.953900
2226.000000	13.966400
2225.000000	13.957200
2224.000000	13.945100
2223.000000	13.921400
2222.000000	13.932600
2221.000000	13.892700
2220.000000	13.863200
2219.000000	13.860000
2218.000000	13.827300
2217.000000	13.806100
2216.000000	13.773200
2215.000000	13.760100
2214.000000	13.749300
2213.000000	13.709200
2212.000000	13.697400
2211.000000	13.654700
2210.000000	13.662800
2209.000000	13.640600
2208.000000	13.636700
2207.000000	13.599000
2206.000000	13.586100
2205.000000	13.569300
2204.000000	13.584200
2203.000000	13.572700
2202.000000	13.543800
2201.000000	13.539200
2200.000000	13.522700
2199.000000	13.514800
2198.000000	13.502900
2197.000000	13.477400
2196.000000	13.476800
2195.000000	13.484000
2194.000000	13.471300
2193.000000	13.463600
2192.000000	13.440700
2191.000000	13.433800
2190.000000	13.402500
2189.000000	13.393100
2188.000000	13.384100
2187.000000	13.395000
2186.000000	13.361100
2185.000000	13.352800
2184.000000	13.354100
2183.000000	13.334300
2182.000000	13.333400
2181.000000	13.308700
2180.000000	13.307700
2179.000000	13.298200
2178.000000	13.287500
2177.000000	13.298600
2176.000000	13.255700
2175.000000	13.262600
2174.000000	13.283500
2173.000000	13.274300
2172.000000	13.265500
2171.000000	13.287600
2170.000000	13.311000
2169.000000	13.309900
2168.000000	13.322300
2167.000000	13.343300
2166.000000	13.373500
2165.000000	13.385500
2164.000000	13.388500
2163.000000	13.410200
2162.000000	13.442500
2161.000000	13.472900
2160.000000	13.502400
2159.000000	13.529800
2158.000000	13.554000
2157.000000	13.602100
2156.000000	13.646400
2155.000000	13.679000
2154.000000	13.716800
2153.000000	13.765800
2152.000000	13.818800
2151.000000	13.853300
2150.000000	13.897700
2149.000000	13.933600
2148.000000	13.982000
2147.000000	14.030200
2146.000000	14.057500
2145.000000	14.084600
2144.000000	14.126300
2143.000000	14.178300
2142.000000	14.216000
2141.000000	14.233500
2140.000000	14.273000
2139.000000	14.312600
2138.000000	14.334100
2137.000000	14.356800
2136.000000	14.401400
2135.000000	14.432500
2134.000000	14.455100
2133.000000	14.474000
2132.000000	14.502200
2131.000000	14.537600
2130.000000	14.551000
2129.000000	14.545600
2128.000000	14.570900
2127.000000	14.596300
2126.000000	14.587300
2125.000000	14.601200
2124.000000	14.609800
2123.000000	14.617300
2122.000000	14.604200
2121.000000	14.593300
2120.000000	14.590200
2119.000000	14.599400
2118.000000	14.601000
2117.000000	14.590900
2116.000000	14.576400
2115.000000	14.559800
2114.000000	14.554700
2113.000000	14.539200
2112.000000	14.518200
2111.000000	14.497200
2110.000000	14.490900
2109.000000	14.491600
2108.000000	14.475200
2107.000000	14.447800
2106.000000	14.435700
2105.000000	14.419200
2104.000000	14.391600
2103.000000	14.376800
2102.000000	14.360800
2101.000000	14.346800
2100.000000	14.337500
2099.000000	14.322200
2098.000000	14.306200
2097.000000	14.294300
2096.000000	14.303100
2095.000000	14.302900
2094.000000	14.291700
2093.000000	14.271100
2092.000000	14.246100
2091.000000	14.227700
2090.000000	14.225200
2089.000000	14.234700
2088.000000	14.219300
2087.000000	14.205400
2086.000000	14.197700
2085.000000	14.181800
2084.000000	14.174100
2083.000000	14.167300
2082.000000	14.148300
2081.000000	14.120300
2080.000000	14.095700
2079.000000	14.067500
2078.000000	14.065300
2077.000000	14.049500
2076.000000	14.021300
2075.000000	13.984400
2074.000000	13.948200
2073.000000	13.924900
2072.000000	13.899100
2071.000000	13.869300
2070.000000	13.835600
2069.000000	13.812600
2068.000000	13.779900
2067.000000	13.744300
2066.000000	13.711700
2065.000000	13.684400
2064.000000	13.642000
2063.000000	13.627200
2062.000000	13.604200
2061.000000	13.594800
2060.000000	13.576000
2059.000000	13.564100
2058.000000	13.565400
2057.000000	13.575100
2056.000000	13.580300
2055.000000	13.600200
2054.000000	13.633400
2053.000000	13.650900
2052.000000	13.695600
2051.000000	13.760300
2050.000000	13.811600
2049.000000	13.889800
2048.000000	13.969700
2047.000000	14.037700
2046.000000	14.115900
2045.000000	14.211000
2044.000000	14.302300
2043.000000	14.398800
2042.000000	14.489600
2041.000000	14.580900
2040.000000	14.688400
2039.000000	14.789000
2038.000000	14.865100
2037.000000	14.945900
2036.000000	15.037400
2035.000000	15.120000
2034.000000	15.175500
2033.000000	15.228300
2032.000000	15.291700
2031.000000	15.365100
2030.000000	15.436000
2029.000000	15.508400
2028.000000	15.567600
2027.000000	15.612700
2026.000000	15.647400
2025.000000	15.683700
2024.000000	15.738900
2023.000000	15.778900
2022.000000	15.825100
2021.000000	15.858600
2020.000000	15.907000
2019.000000	15.937100
2018.000000	15.939400
2017.000000	15.982700
2016.000000	16.012100
2015.000000	16.030000
2014.000000	16.033400
2013.000000	16.063200
2012.000000	16.075700
2011.000000	16.066400
2010.000000	16.068000
2009.000000	16.056700
2008.000000	16.046800
2007.000000	16.038100
2006.000000	16.050000
2005.000000	16.017300
2004.000000	16.000200
2003.000000	15.977300
2002.000000	15.953500
2001.000000	15.895000
2000.000000	15.894800
1999.000000	15.874600
1998.000000	15.825800
1997.000000	15.786800
1996.000000	15.745900
1995.000000	15.686700
1994.000000	15.655700
1993.000000	15.595900
1992.000000	15.531700
1991.000000	15.468100
1990.000000	15.424000
1989.000000	15.339300
1988.000000	15.284400
1987.000000	15.253700
1986.000000	15.188100
1985.000000	15.121900
1984.000000	15.048300
1983.000000	14.971300
1982.000000	14.906000
1981.000000	14.868300
1980.000000	14.781200
1979.000000	14.721900
1978.000000	14.649300
1977.000000	14.551400
1976.000000	14.483600
1975.000000	14.428800
1974.000000	14.373600
1973.000000	14.303100
1972.000000	14.232100
1971.000000	14.188500
1970.000000	14.103800
1969.000000	14.045400
1968.000000	13.998200
1967.000000	13.918400
1966.000000	13.849800
1965.000000	13.782700
1964.000000	13.728900
1963.000000	13.669700
1962.000000	13.621900
1961.000000	13.563800
1960.000000	13.482100
1959.000000	13.441700
1958.000000	13.388700
1957.000000	13.311000
1956.000000	13.235100
1955.000000	13.193600
1954.000000	13.123900
1953.000000	13.065300
1952.000000	13.021000
1951.000000	12.951000
1950.000000	12.907400
1949.000000	12.866100
1948.000000	12.806500
1947.000000	12.761700
1946.000000	12.715600
1945.000000	12.684900
1944.000000	12.652700
1943.000000	12.630900
1942.000000	12.590300
1941.000000	12.548500
1940.000000	12.538500
1939.000000	12.569900
1938.000000	12.574000
1937.000000	12.585400
1936.000000	12.591000
1935.000000	12.599500
1934.000000	12.603600
1933.000000	12.633500
1932.000000	12.658200
1931.000000	12.704500
1930.000000	12.737600
1929.000000	12.808000
1928.000000	12.891000
1927.000000	12.984600
1926.000000	13.082100
1925.000000	13.199700
1924.000000	13.265000
1923.000000	13.297500
1922.000000	13.416700
1921.000000	13.597300
1920.000000	13.810900
1919.000000	13.975500
1918.000000	14.099600
1917.000000	14.192600
1916.000000	14.286200
1915.000000	14.395500
1914.000000	14.605500
1913.000000	14.893300
1912.000000	15.152700
1911.000000	15.382100
1910.000000	15.546800
1909.000000	15.613900
1908.000000	15.740800
1907.000000	15.944800
1906.000000	16.209400
1905.000000	16.579000
1904.000000	16.897000
1903.000000	17.104700
1902.000000	17.316400
1901.000000	17.515200
1900.000000	17.821500
1899.000000	18.216600
1898.000000	18.581400
1897.000000	18.885700
1896.000000	19.080200
1895.000000	19.217600
1894.000000	19.440900
1893.000000	19.697500
1892.000000	20.048100
1891.000000	20.443200
1890.000000	20.786400
1889.000000	21.090300
1888.000000	21.386000
1887.000000	21.621600
1886.000000	21.897600
1885.000000	22.255400
1884.000000	22.676900
1883.000000	23.092200
1882.000000	23.474500
1881.000000	23.805000
1880.000000	24.099500
1879.000000	24.355800
1878.000000	24.624600
1877.000000	24.878500
1876.000000	25.130300
1875.000000	25.378600
1874.000000	25.586800
1873.000000	25.858100
1872.000000	26.176300
1871.000000	26.434200
1870.000000	26.739800
1869.000000	26.991100
1868.000000	27.191600
1867.000000	27.305500
1866.000000	27.305000
1865.000000	27.338000
1864.000000	27.317100
1863.000000	27.258500
1862.000000	27.230900
1861.000000	27.269800
1860.000000	27.343700
1859.000000	27.443400
1858.000000	27.557400
1857.000000	27.574800
1856.000000	27.493400
1855.000000	27.448100
1854.000000	27.528000
1853.000000	27.559600
1852.000000	27.535800
1851.000000	27.442400
1850.000000	27.238600
1849.000000	27.155900
1848.000000	27.313500
1847.000000	27.547600
1846.000000	27.623400
1845.000000	27.473100
1844.000000	27.235100
1843.000000	27.054800
1842.000000	27.082900
1841.000000	27.224400
1840.000000	27.258800
1839.000000	27.196400
1838.000000	27.104600
1837.000000	27.111100
1836.000000	27.208900
1835.000000	27.255500
1834.000000	27.177000
1833.000000	26.992100
1832.000000	26.859800
1831.000000	26.812700
1830.000000	26.829500
1829.000000	26.806700
1828.000000	26.727000
1827.000000	26.708700
1826.000000	26.742300
1825.000000	26.715400
1824.000000	26.602900
1823.000000	26.435300
1822.000000	26.368400
1821.000000	26.476000
1820.000000	26.604000
1819.000000	26.613200
1818.000000	26.543400
1817.000000	26.461100
1816.000000	26.453400
1815.000000	26.482800
1814.000000	26.475500
1813.000000	26.444300
1812.000000	26.435300
1811.000000	26.467300
1810.000000	26.451600
1809.000000	26.384600
1808.000000	26.330900
1807.000000	26.293200
1806.000000	26.285000
1805.000000	26.279300
1804.000000	26.236200
1803.000000	26.182700
1802.000000	26.158600
1801.000000	26.156800
1800.000000	26.132400
1799.000000	26.091800
1798.000000	26.046700
1797.000000	26.012200
1796.000000	25.993500
1795.000000	25.977400
1794.000000	25.942900
1793.000000	25.889600
1792.000000	25.858300
1791.000000	25.823400
1790.000000	25.796300
1789.000000	25.754400
1788.000000	25.718900
1787.000000	25.694300
1786.000000	25.658200
1785.000000	25.609800
1784.000000	25.563300
1783.000000	25.513900
1782.000000	25.446000
1781.000000	25.403300
1780.000000	25.341000
1779.000000	25.296100
1778.000000	25.224900
1777.000000	25.168300
1776.000000	25.097600
1775.000000	25.014500
1774.000000	24.938600
1773.000000	24.839600
1772.000000	24.742500
1771.000000	24.634200
1770.000000	24.538000
1769.000000	24.445500
1768.000000	24.352700
1767.000000	24.269900
1766.000000	24.188700
1765.000000	24.140400
1764.000000	24.106800
1763.000000	24.070000
1762.000000	24.072300
1761.000000	24.121600
1760.000000	24.146800
1759.000000	24.180100
1758.000000	24.234800
1757.000000	24.251700
1756.000000	24.254900
1755.000000	24.294900
1754.000000	24.306700
1753.000000	24.303800
1752.000000	24.262400
1751.000000	24.237200
1750.000000	24.196200
1749.000000	24.155000
1748.000000	24.111500
1747.000000	24.010400
1746.000000	23.943000
1745.000000	23.834300
1744.000000	23.714900
1743.000000	23.567200
1742.000000	23.411400
1741.000000	23.244900
1740.000000	23.073900
1739.000000	22.910000
1738.000000	22.742300
1737.000000	22.610800
1736.000000	22.494200
1735.000000	22.417600
1734.000000	22.371000
1733.000000	22.355300
1732.000000	22.358000
1731.000000	22.409800
1730.000000	22.473000
1729.000000	22.550600
1728.000000	22.633000
1727.000000	22.713300
1726.000000	22.754400
1725.000000	22.821200
1724.000000	22.864600
1723.000000	22.891100
1722.000000	22.904300
1721.000000	22.928000
1720.000000	22.975100
1719.000000	22.995000
1718.000000	23.050900
1717.000000	23.101300
1716.000000	23.154700
1715.000000	23.234800
1714.000000	23.306000
1713.000000	23.369300
1712.000000	23.411500
1711.000000	23.447500
1710.000000	23.462300
1709.000000	23.467000
1708.000000	23.478600
1707.000000	23.451500
1706.000000	23.430200
1705.000000	23.376200
1704.000000	23.326200
1703.000000	23.266300
1702.000000	23.203000
1701.000000	23.109200
1700.000000	23.019800
1699.000000	22.886000
1698.000000	22.803500
1697.000000	22.711900
1696.000000	22.638400
1695.000000	22.614200
1694.000000	22.634300
1693.000000	22.698700
1692.000000	22.803700
1691.000000	22.919000
1690.000000	23.029200
1689.000000	23.143100
1688.000000	23.200200
1687.000000	23.234800
1686.000000	23.265600
1685.000000	23.289400
1684.000000	23.383700
1683.000000	23.528500
1682.000000	23.777500
1681.000000	24.077900
1680.000000	24.462400
1679.000000	24.906200
1678.000000	25.280700
1677.000000	25.653400
1676.000000	25.989600
1675.000000	26.287400
1674.000000	26.517400
1673.000000	26.753300
1672.000000	26.983000
1671.000000	27.141700
1670.000000	27.299500
1669.000000	27.418200
1668.000000	27.553000
1667.000000	27.682300
1666.000000	27.744900
1665.000000	27.828100
1664.000000	27.921200
1663.000000	27.978300
1662.000000	28.047100
1661.000000	28.083800
1660.000000	28.120800
1659.000000	28.163100
1658.000000	28.199900
1657.000000	28.230800
1656.000000	28.257200
1655.000000	28.253700
1654.000000	28.256500
1653.000000	28.251900
1652.000000	28.255700
1651.000000	28.238600
1650.000000	28.227300
1649.000000	28.223200
1648.000000	28.192600
1647.000000	28.159100
1646.000000	28.119800
1645.000000	28.086200
1644.000000	28.043100
1643.000000	28.030300
1642.000000	27.995700
1641.000000	27.962900
1640.000000	27.932300
1639.000000	27.879600
1638.000000	27.832900
1637.000000	27.791400
1636.000000	27.743500
1635.000000	27.697300
1634.000000	27.664800
1633.000000	27.604800
1632.000000	27.568800
1631.000000	27.521900
1630.000000	27.469200
1629.000000	27.421200
1628.000000	27.353500
1627.000000	27.315600
1626.000000	27.240200
1625.000000	27.182100
1624.000000	27.120900
1623.000000	27.070200
1622.000000	27.005800
1621.000000	26.950600
1620.000000	26.912700
1619.000000	26.883300
1618.000000	26.822500
