PE UV       SUBTECH     SPECTRUM    ASCII       PEDS        4.00        
   -1
CICIMAUCR0014-2.Sample.ASC
24/04/12
11:08:00.00
24/04/12
11:08:00.00
Vinicio Soto Monge
C. cupreomarginata
250,000000
1
Lambda 1050
1050L1511233
PerkinElmer UV WinLab 6.3.2.0749 / 2.02.05 Lambda 900 UV/VIS/NIR, Aug  7 2015 09:38:08

0
0
3350/servo 860,8/2
0
0
UV/VIS
1
1
1
DoubleDePol,CommonBeamDepol,RBeamAtt,SBeamAtt,60mm sphere, WB InGaAs Detector
0
0
0
0
Program
Program
3350/servo 860,8/2
3350/0,2 860,8/0,2
3350/0,2 860,8/0,2
0
15.00
 
 
 
0
 
860,8
319,2
860,8
Front
100
on
S:100 R:100
0
0
0
0
 
0
 
 
 
0
 
 
0
0
0
0
0
 
 
 
 
0
0


0
0
#HDR
-1
-1
#GR
nm
%R
1.0
0.0
2500,000000
-1,000000
2251
8
42,998300
3,080100
#DATA
2500.000000	9.289500
2499.000000	9.215500
2498.000000	9.345300
2497.000000	9.222500
2496.000000	9.190500
2495.000000	9.220000
2494.000000	9.178500
2493.000000	9.226100
2492.000000	9.123300
2491.000000	9.094700
2490.000000	9.090400
2489.000000	9.141600
2488.000000	9.052900
2487.000000	9.084800
2486.000000	9.088400
2485.000000	9.046800
2484.000000	9.076700
2483.000000	9.089000
2482.000000	9.122400
2481.000000	9.134800
2480.000000	9.024000
2479.000000	9.103100
2478.000000	9.104100
2477.000000	9.129900
2476.000000	9.138000
2475.000000	9.158900
2474.000000	9.122400
2473.000000	9.121200
2472.000000	9.151600
2471.000000	9.168600
2470.000000	9.209800
2469.000000	9.214100
2468.000000	9.246100
2467.000000	9.306800
2466.000000	9.321300
2465.000000	9.333700
2464.000000	9.378100
2463.000000	9.434000
2462.000000	9.498200
2461.000000	9.538500
2460.000000	9.614300
2459.000000	9.674800
2458.000000	9.742500
2457.000000	9.803100
2456.000000	9.859600
2455.000000	9.957300
2454.000000	10.036900
2453.000000	10.119900
2452.000000	10.175200
2451.000000	10.243500
2450.000000	10.322000
2449.000000	10.402300
2448.000000	10.460200
2447.000000	10.555000
2446.000000	10.653300
2445.000000	10.707400
2444.000000	10.762800
2443.000000	10.841400
2442.000000	10.899900
2441.000000	10.974900
2440.000000	11.071900
2439.000000	11.117800
2438.000000	11.184200
2437.000000	11.257400
2436.000000	11.306200
2435.000000	11.388700
2434.000000	11.443000
2433.000000	11.515200
2432.000000	11.580000
2431.000000	11.623000
2430.000000	11.673100
2429.000000	11.705800
2428.000000	11.613800
2427.000000	11.492400
2426.000000	11.404400
2425.000000	11.342700
2424.000000	11.339800
2423.000000	11.393500
2422.000000	11.427800
2421.000000	11.449300
2420.000000	11.476400
2419.000000	11.452500
2418.000000	11.432800
2417.000000	11.459600
2416.000000	11.482000
2415.000000	11.443900
2414.000000	11.426000
2413.000000	11.456200
2412.000000	11.469400
2411.000000	11.473400
2410.000000	11.470000
2409.000000	11.448700
2408.000000	11.467600
2407.000000	11.474100
2406.000000	11.468000
2405.000000	11.483800
2404.000000	11.463300
2403.000000	11.477800
2402.000000	11.484800
2401.000000	11.462400
2400.000000	11.481100
2399.000000	11.494500
2398.000000	11.487600
2397.000000	11.505000
2396.000000	11.493800
2395.000000	11.492300
2394.000000	11.509200
2393.000000	11.501900
2392.000000	11.471700
2391.000000	11.481000
2390.000000	11.498100
2389.000000	11.479800
2388.000000	11.439900
2387.000000	11.433700
2386.000000	11.425000
2385.000000	11.397900
2384.000000	11.388300
2383.000000	11.374700
2382.000000	11.342900
2381.000000	11.308700
2380.000000	11.297500
2379.000000	11.279400
2378.000000	11.243600
2377.000000	11.207100
2376.000000	11.194200
2375.000000	11.151100
2374.000000	11.101100
2373.000000	11.083200
2372.000000	11.057700
2371.000000	11.013900
2370.000000	10.964500
2369.000000	10.913000
2368.000000	10.862900
2367.000000	10.802100
2366.000000	10.749500
2365.000000	10.696500
2364.000000	10.637000
2363.000000	10.573400
2362.000000	10.511900
2361.000000	10.454200
2360.000000	10.401300
2359.000000	10.342800
2358.000000	10.296400
2357.000000	10.265600
2356.000000	10.235900
2355.000000	10.195200
2354.000000	10.169600
2353.000000	10.154700
2352.000000	10.161700
2351.000000	10.149000
2350.000000	10.142000
2349.000000	10.179900
2348.000000	10.179000
2347.000000	10.186700
2346.000000	10.228800
2345.000000	10.250900
2344.000000	10.239200
2343.000000	10.245400
2342.000000	10.260400
2341.000000	10.247700
2340.000000	10.258200
2339.000000	10.223000
2338.000000	10.189800
2337.000000	10.173100
2336.000000	10.138500
2335.000000	10.101500
2334.000000	10.080100
2333.000000	10.029300
2332.000000	9.953300
2331.000000	9.897300
2330.000000	9.876400
2329.000000	9.847600
2328.000000	9.766500
2327.000000	9.682600
2326.000000	9.609600
2325.000000	9.573100
2324.000000	9.524600
2323.000000	9.458600
2322.000000	9.392000
2321.000000	9.293500
2320.000000	9.177600
2319.000000	9.101200
2318.000000	9.041700
2317.000000	8.971400
2316.000000	8.883600
2315.000000	8.790800
2314.000000	8.729600
2313.000000	8.636500
2312.000000	8.568100
2311.000000	8.521500
2310.000000	8.488500
2309.000000	8.476900
2308.000000	8.432000
2307.000000	8.425500
2306.000000	8.434900
2305.000000	8.452500
2304.000000	8.481800
2303.000000	8.526100
2302.000000	8.595100
2301.000000	8.633500
2300.000000	8.688600
2299.000000	8.725800
2298.000000	8.784700
2297.000000	8.867000
2296.000000	8.929700
2295.000000	8.932300
2294.000000	8.971100
2293.000000	9.013700
2292.000000	9.012800
2291.000000	9.022700
2290.000000	8.979100
2289.000000	8.976600
2288.000000	8.968200
2287.000000	8.958400
2286.000000	8.947800
2285.000000	8.880700
2284.000000	8.848100
2283.000000	8.795800
2282.000000	8.743400
2281.000000	8.695000
2280.000000	8.668100
2279.000000	8.642800
2278.000000	8.579600
2277.000000	8.540200
2276.000000	8.499800
2275.000000	8.508300
2274.000000	8.480800
2273.000000	8.443500
2272.000000	8.437600
2271.000000	8.492300
2270.000000	8.482800
2269.000000	8.537100
2268.000000	8.587700
2267.000000	8.669200
2266.000000	8.759000
2265.000000	8.853700
2264.000000	8.961000
2263.000000	9.116500
2262.000000	9.271600
2261.000000	9.423700
2260.000000	9.585700
2259.000000	9.779300
2258.000000	9.958600
2257.000000	10.139100
2256.000000	10.306300
2255.000000	10.497100
2254.000000	10.679700
2253.000000	10.872000
2252.000000	11.006000
2251.000000	11.178400
2250.000000	11.345600
2249.000000	11.470700
2248.000000	11.594000
2247.000000	11.721100
2246.000000	11.849800
2245.000000	11.969000
2244.000000	12.058900
2243.000000	12.170100
2242.000000	12.261300
2241.000000	12.335600
2240.000000	12.387300
2239.000000	12.441100
2238.000000	12.552700
2237.000000	12.614500
2236.000000	12.642800
2235.000000	12.726600
2234.000000	12.752600
2233.000000	12.782400
2232.000000	12.816200
2231.000000	12.847600
2230.000000	12.870600
2229.000000	12.919000
2228.000000	12.914700
2227.000000	12.932600
2226.000000	12.935000
2225.000000	12.930400
2224.000000	12.883000
2223.000000	12.896500
2222.000000	12.884200
2221.000000	12.880400
2220.000000	12.866400
2219.000000	12.812400
2218.000000	12.821800
2217.000000	12.786800
2216.000000	12.753700
2215.000000	12.729400
2214.000000	12.708900
2213.000000	12.688600
2212.000000	12.652100
2211.000000	12.638200
2210.000000	12.627900
2209.000000	12.613200
2208.000000	12.590700
2207.000000	12.568400
2206.000000	12.555400
2205.000000	12.534200
2204.000000	12.522600
2203.000000	12.527700
2202.000000	12.465000
2201.000000	12.462300
2200.000000	12.448400
2199.000000	12.439800
2198.000000	12.419700
2197.000000	12.388400
2196.000000	12.355400
2195.000000	12.358700
2194.000000	12.342900
2193.000000	12.316600
2192.000000	12.302600
2191.000000	12.285300
2190.000000	12.264300
2189.000000	12.241800
2188.000000	12.244300
2187.000000	12.227900
2186.000000	12.222500
2185.000000	12.202400
2184.000000	12.179700
2183.000000	12.181400
2182.000000	12.171600
2181.000000	12.152400
2180.000000	12.139800
2179.000000	12.118000
2178.000000	12.118600
2177.000000	12.104500
2176.000000	12.130800
2175.000000	12.144400
2174.000000	12.143500
2173.000000	12.144700
2172.000000	12.145400
2171.000000	12.135700
2170.000000	12.142800
2169.000000	12.187500
2168.000000	12.205900
2167.000000	12.203400
2166.000000	12.218200
2165.000000	12.238500
2164.000000	12.266100
2163.000000	12.288900
2162.000000	12.311400
2161.000000	12.339300
2160.000000	12.385600
2159.000000	12.411100
2158.000000	12.435600
2157.000000	12.454700
2156.000000	12.495300
2155.000000	12.550000
2154.000000	12.573200
2153.000000	12.611800
2152.000000	12.654400
2151.000000	12.658300
2150.000000	12.693000
2149.000000	12.721300
2148.000000	12.744500
2147.000000	12.779000
2146.000000	12.819900
2145.000000	12.830900
2144.000000	12.864200
2143.000000	12.898300
2142.000000	12.910400
2141.000000	12.953000
2140.000000	12.973300
2139.000000	12.994200
2138.000000	13.008800
2137.000000	13.016500
2136.000000	13.040500
2135.000000	13.057100
2134.000000	13.064200
2133.000000	13.073900
2132.000000	13.070000
2131.000000	13.070800
2130.000000	13.065200
2129.000000	13.065400
2128.000000	13.058900
2127.000000	13.022000
2126.000000	13.019400
2125.000000	13.000600
2124.000000	12.955800
2123.000000	12.938000
2122.000000	12.915100
2121.000000	12.896600
2120.000000	12.897200
2119.000000	12.887300
2118.000000	12.846200
2117.000000	12.808800
2116.000000	12.780500
2115.000000	12.755800
2114.000000	12.746500
2113.000000	12.725300
2112.000000	12.696500
2111.000000	12.668700
2110.000000	12.646400
2109.000000	12.631900
2108.000000	12.600600
2107.000000	12.563500
2106.000000	12.540300
2105.000000	12.524500
2104.000000	12.499600
2103.000000	12.466500
2102.000000	12.442400
2101.000000	12.444700
2100.000000	12.419300
2099.000000	12.387600
2098.000000	12.378000
2097.000000	12.355200
2096.000000	12.338900
2095.000000	12.337400
2094.000000	12.316600
2093.000000	12.299400
2092.000000	12.293300
2091.000000	12.282100
2090.000000	12.281300
2089.000000	12.274900
2088.000000	12.276000
2087.000000	12.278400
2086.000000	12.282100
2085.000000	12.259100
2084.000000	12.231900
2083.000000	12.228300
2082.000000	12.208800
2081.000000	12.188900
2080.000000	12.186200
2079.000000	12.170200
2078.000000	12.157900
2077.000000	12.147400
2076.000000	12.116600
2075.000000	12.078500
2074.000000	12.056100
2073.000000	12.043200
2072.000000	12.005800
2071.000000	11.988000
2070.000000	11.960900
2069.000000	11.929500
2068.000000	11.913900
2067.000000	11.882200
2066.000000	11.854200
2065.000000	11.833300
2064.000000	11.792400
2063.000000	11.775300
2062.000000	11.771400
2061.000000	11.752500
2060.000000	11.756300
2059.000000	11.772700
2058.000000	11.765100
2057.000000	11.757300
2056.000000	11.781200
2055.000000	11.823400
2054.000000	11.830100
2053.000000	11.858800
2052.000000	11.901500
2051.000000	11.958900
2050.000000	12.045000
2049.000000	12.137300
2048.000000	12.210200
2047.000000	12.293500
2046.000000	12.389200
2045.000000	12.485100
2044.000000	12.593700
2043.000000	12.702700
2042.000000	12.796600
2041.000000	12.887600
2040.000000	12.991800
2039.000000	13.100000
2038.000000	13.212500
2037.000000	13.307200
2036.000000	13.402900
2035.000000	13.488500
2034.000000	13.570500
2033.000000	13.663400
2032.000000	13.743400
2031.000000	13.810300
2030.000000	13.882300
2029.000000	13.970000
2028.000000	14.038800
2027.000000	14.086200
2026.000000	14.155300
2025.000000	14.215600
2024.000000	14.246000
2023.000000	14.314000
2022.000000	14.368900
2021.000000	14.430200
2020.000000	14.478600
2019.000000	14.526500
2018.000000	14.553400
2017.000000	14.582000
2016.000000	14.642700
2015.000000	14.670000
2014.000000	14.693600
2013.000000	14.712900
2012.000000	14.737700
2011.000000	14.741700
2010.000000	14.741800
2009.000000	14.778500
2008.000000	14.764200
2007.000000	14.772800
2006.000000	14.792700
2005.000000	14.796500
2004.000000	14.772900
2003.000000	14.754200
2002.000000	14.743600
2001.000000	14.725500
2000.000000	14.702800
1999.000000	14.682100
1998.000000	14.653600
1997.000000	14.623500
1996.000000	14.569900
1995.000000	14.523200
1994.000000	14.503500
1993.000000	14.458200
1992.000000	14.403700
1991.000000	14.374300
1990.000000	14.328500
1989.000000	14.283700
1988.000000	14.204600
1987.000000	14.174100
1986.000000	14.106400
1985.000000	14.054600
1984.000000	13.983800
1983.000000	13.910800
1982.000000	13.866600
1981.000000	13.812000
1980.000000	13.751000
1979.000000	13.683900
1978.000000	13.621900
1977.000000	13.569600
1976.000000	13.489700
1975.000000	13.433600
1974.000000	13.375500
1973.000000	13.318200
1972.000000	13.263400
1971.000000	13.191100
1970.000000	13.153300
1969.000000	13.094100
1968.000000	13.031700
1967.000000	12.946100
1966.000000	12.919900
1965.000000	12.847400
1964.000000	12.785800
1963.000000	12.752200
1962.000000	12.689200
1961.000000	12.630700
1960.000000	12.567100
1959.000000	12.521700
1958.000000	12.474100
1957.000000	12.410000
1956.000000	12.353100
1955.000000	12.279600
1954.000000	12.233500
1953.000000	12.198700
1952.000000	12.121900
1951.000000	12.067200
1950.000000	11.994700
1949.000000	11.959500
1948.000000	11.901500
1947.000000	11.841600
1946.000000	11.828600
1945.000000	11.808400
1944.000000	11.763900
1943.000000	11.746600
1942.000000	11.733600
1941.000000	11.686500
1940.000000	11.686200
1939.000000	11.693300
1938.000000	11.734200
1937.000000	11.739400
1936.000000	11.742000
1935.000000	11.744700
1934.000000	11.743800
1933.000000	11.776200
1932.000000	11.787700
1931.000000	11.829900
1930.000000	11.894400
1929.000000	11.995100
1928.000000	12.068500
1927.000000	12.161600
1926.000000	12.253600
1925.000000	12.344800
1924.000000	12.399500
1923.000000	12.454600
1922.000000	12.585100
1921.000000	12.776800
1920.000000	12.981900
1919.000000	13.142500
1918.000000	13.249400
1917.000000	13.311700
1916.000000	13.366700
1915.000000	13.493400
1914.000000	13.730100
1913.000000	14.022000
1912.000000	14.278000
1911.000000	14.462600
1910.000000	14.585000
1909.000000	14.653200
1908.000000	14.749300
1907.000000	14.989900
1906.000000	15.290600
1905.000000	15.667000
1904.000000	15.978700
1903.000000	16.159500
1902.000000	16.332000
1901.000000	16.527300
1900.000000	16.840400
1899.000000	17.211200
1898.000000	17.545900
1897.000000	17.795900
1896.000000	17.922400
1895.000000	18.044000
1894.000000	18.225900
1893.000000	18.504500
1892.000000	18.860000
1891.000000	19.237600
1890.000000	19.556300
1889.000000	19.800300
1888.000000	20.039500
1887.000000	20.238900
1886.000000	20.485500
1885.000000	20.825000
1884.000000	21.247200
1883.000000	21.597800
1882.000000	21.914000
1881.000000	22.218400
1880.000000	22.447400
1879.000000	22.678500
1878.000000	22.922400
1877.000000	23.172600
1876.000000	23.408100
1875.000000	23.671000
1874.000000	23.883000
1873.000000	24.148100
1872.000000	24.440000
1871.000000	24.693000
1870.000000	24.940500
1869.000000	25.105300
1868.000000	25.187800
1867.000000	25.206900
1866.000000	25.170600
1865.000000	25.103200
1864.000000	25.015400
1863.000000	24.924400
1862.000000	24.894900
1861.000000	24.941500
1860.000000	25.028800
1859.000000	25.146400
1858.000000	25.230300
1857.000000	25.157400
1856.000000	25.041200
1855.000000	25.042300
1854.000000	25.089100
1853.000000	25.088500
1852.000000	25.038800
1851.000000	24.885900
1850.000000	24.671200
1849.000000	24.630800
1848.000000	24.825000
1847.000000	25.057300
1846.000000	25.079800
1845.000000	24.836000
1844.000000	24.525800
1843.000000	24.345200
1842.000000	24.405000
1841.000000	24.570500
1840.000000	24.607400
1839.000000	24.546500
1838.000000	24.465200
1837.000000	24.469600
1836.000000	24.521500
1835.000000	24.504300
1834.000000	24.352600
1833.000000	24.142400
1832.000000	23.993600
1831.000000	23.963900
1830.000000	24.004500
1829.000000	23.980700
1828.000000	23.891800
1827.000000	23.843600
1826.000000	23.837700
1825.000000	23.784500
1824.000000	23.656700
1823.000000	23.504600
1822.000000	23.473800
1821.000000	23.599400
1820.000000	23.718100
1819.000000	23.707000
1818.000000	23.589700
1817.000000	23.487400
1816.000000	23.479200
1815.000000	23.486900
1814.000000	23.460500
1813.000000	23.428200
1812.000000	23.427500
1811.000000	23.450900
1810.000000	23.434300
1809.000000	23.367800
1808.000000	23.293600
1807.000000	23.275500
1806.000000	23.259400
1805.000000	23.240400
1804.000000	23.195500
1803.000000	23.135700
1802.000000	23.115300
1801.000000	23.130200
1800.000000	23.109900
1799.000000	23.057200
1798.000000	23.003200
1797.000000	22.952000
1796.000000	22.940000
1795.000000	22.916100
1794.000000	22.876300
1793.000000	22.835300
1792.000000	22.797000
1791.000000	22.755600
1790.000000	22.723100
1789.000000	22.697600
1788.000000	22.667900
1787.000000	22.610400
1786.000000	22.581800
1785.000000	22.522600
1784.000000	22.471500
1783.000000	22.423500
1782.000000	22.364600
1781.000000	22.316400
1780.000000	22.267200
1779.000000	22.212900
1778.000000	22.135600
1777.000000	22.062800
1776.000000	21.990100
1775.000000	21.908300
1774.000000	21.801800
1773.000000	21.681900
1772.000000	21.587800
1771.000000	21.493300
1770.000000	21.400100
1769.000000	21.312400
1768.000000	21.209500
1767.000000	21.122300
1766.000000	21.051000
1765.000000	20.996600
1764.000000	20.965800
1763.000000	20.939500
1762.000000	20.954700
1761.000000	20.970700
1760.000000	21.008100
1759.000000	21.025500
1758.000000	21.065100
1757.000000	21.105400
1756.000000	21.107200
1755.000000	21.120900
1754.000000	21.118200
1753.000000	21.105800
1752.000000	21.071100
1751.000000	21.017900
1750.000000	20.981200
1749.000000	20.929200
1748.000000	20.866500
1747.000000	20.798500
1746.000000	20.692400
1745.000000	20.587000
1744.000000	20.452900
1743.000000	20.297900
1742.000000	20.139600
1741.000000	19.969300
1740.000000	19.751500
1739.000000	19.592100
1738.000000	19.425800
1737.000000	19.287100
1736.000000	19.168200
1735.000000	19.098100
1734.000000	19.053700
1733.000000	19.043000
1732.000000	19.067800
1731.000000	19.123100
1730.000000	19.167000
1729.000000	19.234600
1728.000000	19.295300
1727.000000	19.364300
1726.000000	19.405400
1725.000000	19.455100
1724.000000	19.487500
1723.000000	19.501000
1722.000000	19.524700
1721.000000	19.528900
1720.000000	19.555000
1719.000000	19.598200
1718.000000	19.646700
1717.000000	19.691000
1716.000000	19.749400
1715.000000	19.847300
1714.000000	19.911400
1713.000000	19.959800
1712.000000	20.038000
1711.000000	20.083200
1710.000000	20.130800
1709.000000	20.125200
1708.000000	20.119300
1707.000000	20.119800
1706.000000	20.117900
1705.000000	20.091300
1704.000000	20.048700
1703.000000	19.995900
1702.000000	19.908900
1701.000000	19.825700
1700.000000	19.713800
1699.000000	19.606500
1698.000000	19.503300
1697.000000	19.425000
1696.000000	19.379600
1695.000000	19.385900
1694.000000	19.421400
1693.000000	19.493000
1692.000000	19.594300
1691.000000	19.716500
1690.000000	19.763000
1689.000000	19.842200
1688.000000	19.877900
1687.000000	19.878400
1686.000000	19.885600
1685.000000	19.932400
1684.000000	20.029300
1683.000000	20.214600
1682.000000	20.501700
1681.000000	20.842600
1680.000000	21.256300
1679.000000	21.670200
1678.000000	22.062700
1677.000000	22.451600
1676.000000	22.762200
1675.000000	23.030400
1674.000000	23.286000
1673.000000	23.507400
1672.000000	23.693000
1671.000000	23.857900
1670.000000	23.996600
1669.000000	24.143600
1668.000000	24.276100
1667.000000	24.463800
1666.000000	24.583200
1665.000000	24.675600
1664.000000	24.754800
1663.000000	24.864500
1662.000000	24.947600
1661.000000	25.025500
1660.000000	25.079400
1659.000000	25.127100
1658.000000	25.171900
1657.000000	25.226400
1656.000000	25.258400
1655.000000	25.270800
1654.000000	25.272400
1653.000000	25.295200
1652.000000	25.273600
1651.000000	25.244000
1650.000000	25.247700
1649.000000	25.236400
1648.000000	25.212000
1647.000000	25.181800
1646.000000	25.144200
1645.000000	25.115700
1644.000000	25.072300
1643.000000	25.047100
1642.000000	25.021800
1641.000000	24.982600
1640.000000	24.923800
1639.000000	24.858200
1638.000000	24.814000
1637.000000	24.778800
1636.000000	24.726900
1635.000000	24.689600
1634.000000	24.635400
1633.000000	24.589700
1632.000000	24.535300
1631.000000	24.496000
1630.000000	24.439500
1629.000000	24.359300
1628.000000	24.293500
1627.000000	24.250600
1626.000000	24.183500
1625.000000	24.111500
1624.000000	24.056200
1623.000000	23.988700
1622.000000	23.942500
1621.000000	23.890500
1620.000000	23.824600
1619.000000	23.773800
