PE UV       SUBTECH     SPECTRUM    ASCII       PEDS        4.00        
   -1
CICIMAUCR0141-3.Sample.ASC
24/04/22
09:38:58.00
24/04/22
09:38:58.00
Vinicio Soto Monge
C. kalinini
250,000000
1
Lambda 1050
1050L1511233
PerkinElmer UV WinLab 6.3.2.0749 / 2.02.05 Lambda 900 UV/VIS/NIR, Aug  7 2015 09:38:08

0
0
3350/servo 860,8/2
0
0
UV/VIS
1
1
1
DoubleDePol,CommonBeamDepol,RBeamAtt,SBeamAtt,60mm sphere, WB InGaAs Detector
0
0
0
0
Program
Program
3350/servo 860,8/2
3350/0,2 860,8/0,2
3350/0,2 860,8/0,2
0
15.00
 
 
 
0
 
860,8
319,2
860,8
Front
100
on
S:100 R:100
0
0
0
0
 
0
 
 
 
0
 
 
0
0
0
0
0
 
 
 
 
0
0


0
0
#HDR
-1
-1
#GR
nm
%R
1.0
0.0
2500,000000
-1,000000
2251
8
96,279600
5,742600
#DATA
2500.000000	12.051200
2499.000000	11.974600
2498.000000	11.892500
2497.000000	11.960500
2496.000000	11.872900
2495.000000	11.834700
2494.000000	11.867200
2493.000000	11.860800
2492.000000	11.815700
2491.000000	11.816800
2490.000000	11.825700
2489.000000	11.832900
2488.000000	11.846600
2487.000000	11.786900
2486.000000	11.786200
2485.000000	11.845800
2484.000000	11.799400
2483.000000	11.850700
2482.000000	11.848500
2481.000000	11.875100
2480.000000	11.856500
2479.000000	11.942700
2478.000000	11.952300
2477.000000	11.955100
2476.000000	11.974500
2475.000000	12.000600
2474.000000	12.016400
2473.000000	12.099700
2472.000000	12.103500
2471.000000	12.199800
2470.000000	12.206600
2469.000000	12.217700
2468.000000	12.269600
2467.000000	12.354200
2466.000000	12.364700
2465.000000	12.431000
2464.000000	12.492400
2463.000000	12.540000
2462.000000	12.608000
2461.000000	12.671600
2460.000000	12.751200
2459.000000	12.813100
2458.000000	12.873600
2457.000000	12.971600
2456.000000	13.030200
2455.000000	13.102500
2454.000000	13.193600
2453.000000	13.307000
2452.000000	13.359500
2451.000000	13.469400
2450.000000	13.547700
2449.000000	13.670500
2448.000000	13.778700
2447.000000	13.884300
2446.000000	13.979800
2445.000000	14.082000
2444.000000	14.205700
2443.000000	14.312400
2442.000000	14.431300
2441.000000	14.541300
2440.000000	14.638600
2439.000000	14.759000
2438.000000	14.867600
2437.000000	14.961200
2436.000000	15.082900
2435.000000	15.199700
2434.000000	15.292300
2433.000000	15.376200
2432.000000	15.480600
2431.000000	15.580900
2430.000000	15.679200
2429.000000	15.771300
2428.000000	15.869200
2427.000000	15.960500
2426.000000	16.049000
2425.000000	16.129200
2424.000000	16.203000
2423.000000	16.252900
2422.000000	16.313600
2421.000000	16.377300
2420.000000	16.436100
2419.000000	16.488500
2418.000000	16.572900
2417.000000	16.630300
2416.000000	16.684100
2415.000000	16.729800
2414.000000	16.756800
2413.000000	16.799900
2412.000000	16.837800
2411.000000	16.855900
2410.000000	16.893700
2409.000000	16.934800
2408.000000	16.959000
2407.000000	16.968800
2406.000000	17.011000
2405.000000	17.039700
2404.000000	17.039600
2403.000000	17.051500
2402.000000	17.059500
2401.000000	17.091300
2400.000000	17.109200
2399.000000	17.114600
2398.000000	17.126500
2397.000000	17.127100
2396.000000	17.130300
2395.000000	17.151100
2394.000000	17.150100
2393.000000	17.161700
2392.000000	17.173900
2391.000000	17.174400
2390.000000	17.162000
2389.000000	17.156500
2388.000000	17.162900
2387.000000	17.167300
2386.000000	17.156900
2385.000000	17.140800
2384.000000	17.132800
2383.000000	17.106500
2382.000000	17.083100
2381.000000	17.075000
2380.000000	17.049100
2379.000000	17.020900
2378.000000	17.019000
2377.000000	16.996700
2376.000000	16.952500
2375.000000	16.929800
2374.000000	16.926100
2373.000000	16.906900
2372.000000	16.875100
2371.000000	16.848200
2370.000000	16.829200
2369.000000	16.801900
2368.000000	16.784400
2367.000000	16.785400
2366.000000	16.779000
2365.000000	16.756600
2364.000000	16.736500
2363.000000	16.729800
2362.000000	16.720900
2361.000000	16.687400
2360.000000	16.669100
2359.000000	16.671600
2358.000000	16.655500
2357.000000	16.628800
2356.000000	16.598500
2355.000000	16.575600
2354.000000	16.558600
2353.000000	16.520100
2352.000000	16.486300
2351.000000	16.471400
2350.000000	16.449200
2349.000000	16.408000
2348.000000	16.365700
2347.000000	16.346100
2346.000000	16.321400
2345.000000	16.285500
2344.000000	16.266600
2343.000000	16.252200
2342.000000	16.224300
2341.000000	16.209600
2340.000000	16.187000
2339.000000	16.162300
2338.000000	16.140000
2337.000000	16.125000
2336.000000	16.116300
2335.000000	16.120100
2334.000000	16.112600
2333.000000	16.107900
2332.000000	16.109700
2331.000000	16.122200
2330.000000	16.117800
2329.000000	16.130600
2328.000000	16.151400
2327.000000	16.163300
2326.000000	16.193600
2325.000000	16.199400
2324.000000	16.218900
2323.000000	16.237000
2322.000000	16.227000
2321.000000	16.216100
2320.000000	16.221300
2319.000000	16.222600
2318.000000	16.202100
2317.000000	16.195400
2316.000000	16.158200
2315.000000	16.128300
2314.000000	16.088200
2313.000000	16.037300
2312.000000	16.012200
2311.000000	15.985700
2310.000000	15.952700
2309.000000	15.896100
2308.000000	15.843200
2307.000000	15.828200
2306.000000	15.796400
2305.000000	15.751300
2304.000000	15.746100
2303.000000	15.725900
2302.000000	15.716000
2301.000000	15.692800
2300.000000	15.692700
2299.000000	15.684900
2298.000000	15.690300
2297.000000	15.708300
2296.000000	15.712400
2295.000000	15.731000
2294.000000	15.728100
2293.000000	15.766900
2292.000000	15.779400
2291.000000	15.804800
2290.000000	15.826300
2289.000000	15.839800
2288.000000	15.884300
2287.000000	15.902300
2286.000000	15.943600
2285.000000	15.966000
2284.000000	15.996500
2283.000000	16.033200
2282.000000	16.068500
2281.000000	16.111300
2280.000000	16.143000
2279.000000	16.145800
2278.000000	16.182900
2277.000000	16.191100
2276.000000	16.214300
2275.000000	16.240500
2274.000000	16.246400
2273.000000	16.260600
2272.000000	16.296400
2271.000000	16.314900
2270.000000	16.340600
2269.000000	16.384100
2268.000000	16.392800
2267.000000	16.444900
2266.000000	16.508300
2265.000000	16.578300
2264.000000	16.641500
2263.000000	16.724400
2262.000000	16.833000
2261.000000	16.936800
2260.000000	17.067900
2259.000000	17.197200
2258.000000	17.304300
2257.000000	17.445000
2256.000000	17.612200
2255.000000	17.752600
2254.000000	17.915900
2253.000000	18.044800
2252.000000	18.220700
2251.000000	18.366000
2250.000000	18.520700
2249.000000	18.682800
2248.000000	18.804600
2247.000000	18.926700
2246.000000	19.051300
2245.000000	19.154300
2244.000000	19.244000
2243.000000	19.344600
2242.000000	19.427400
2241.000000	19.483500
2240.000000	19.547100
2239.000000	19.588100
2238.000000	19.602000
2237.000000	19.648200
2236.000000	19.662200
2235.000000	19.670900
2234.000000	19.678800
2233.000000	19.676000
2232.000000	19.628500
2231.000000	19.602200
2230.000000	19.544100
2229.000000	19.544800
2228.000000	19.464200
2227.000000	19.425200
2226.000000	19.379000
2225.000000	19.295100
2224.000000	19.218700
2223.000000	19.150400
2222.000000	19.065500
2221.000000	18.991300
2220.000000	18.914000
2219.000000	18.825500
2218.000000	18.754500
2217.000000	18.643400
2216.000000	18.554700
2215.000000	18.470700
2214.000000	18.387100
2213.000000	18.316400
2212.000000	18.234800
2211.000000	18.160800
2210.000000	18.094000
2209.000000	18.008600
2208.000000	17.927200
2207.000000	17.878900
2206.000000	17.829700
2205.000000	17.773900
2204.000000	17.702200
2203.000000	17.637000
2202.000000	17.587200
2201.000000	17.539400
2200.000000	17.452600
2199.000000	17.423100
2198.000000	17.386600
2197.000000	17.342000
2196.000000	17.309800
2195.000000	17.259800
2194.000000	17.219300
2193.000000	17.171200
2192.000000	17.151600
2191.000000	17.102200
2190.000000	17.070800
2189.000000	17.059800
2188.000000	17.028100
2187.000000	16.996600
2186.000000	16.963100
2185.000000	16.947200
2184.000000	16.899400
2183.000000	16.863000
2182.000000	16.855500
2181.000000	16.805400
2180.000000	16.784100
2179.000000	16.774700
2178.000000	16.766000
2177.000000	16.744100
2176.000000	16.722700
2175.000000	16.718400
2174.000000	16.708800
2173.000000	16.715300
2172.000000	16.708500
2171.000000	16.723100
2170.000000	16.727800
2169.000000	16.757100
2168.000000	16.781800
2167.000000	16.798400
2166.000000	16.835200
2165.000000	16.874600
2164.000000	16.919700
2163.000000	16.936200
2162.000000	16.999200
2161.000000	17.064800
2160.000000	17.115300
2159.000000	17.167300
2158.000000	17.243400
2157.000000	17.332100
2156.000000	17.415800
2155.000000	17.505500
2154.000000	17.602800
2153.000000	17.702000
2152.000000	17.796100
2151.000000	17.913300
2150.000000	18.022900
2149.000000	18.110900
2148.000000	18.213500
2147.000000	18.307600
2146.000000	18.411200
2145.000000	18.520000
2144.000000	18.620900
2143.000000	18.710100
2142.000000	18.814000
2141.000000	18.912100
2140.000000	19.007300
2139.000000	19.094900
2138.000000	19.180100
2137.000000	19.274700
2136.000000	19.371700
2135.000000	19.452900
2134.000000	19.528900
2133.000000	19.596900
2132.000000	19.650900
2131.000000	19.716600
2130.000000	19.792000
2129.000000	19.861600
2128.000000	19.908300
2127.000000	19.948300
2126.000000	20.001500
2125.000000	20.057800
2124.000000	20.116400
2123.000000	20.153100
2122.000000	20.180700
2121.000000	20.219100
2120.000000	20.255700
2119.000000	20.284900
2118.000000	20.290500
2117.000000	20.304500
2116.000000	20.337900
2115.000000	20.357800
2114.000000	20.360800
2113.000000	20.380400
2112.000000	20.393900
2111.000000	20.387300
2110.000000	20.384600
2109.000000	20.384600
2108.000000	20.381200
2107.000000	20.382000
2106.000000	20.387100
2105.000000	20.398300
2104.000000	20.392300
2103.000000	20.387900
2102.000000	20.407400
2101.000000	20.406300
2100.000000	20.394800
2099.000000	20.408700
2098.000000	20.410500
2097.000000	20.410800
2096.000000	20.428400
2095.000000	20.441000
2094.000000	20.464600
2093.000000	20.483900
2092.000000	20.506500
2091.000000	20.521300
2090.000000	20.544400
2089.000000	20.574200
2088.000000	20.582600
2087.000000	20.594000
2086.000000	20.605800
2085.000000	20.608000
2084.000000	20.604900
2083.000000	20.583700
2082.000000	20.564300
2081.000000	20.550200
2080.000000	20.499600
2079.000000	20.449600
2078.000000	20.401700
2077.000000	20.343700
2076.000000	20.277800
2075.000000	20.195300
2074.000000	20.115100
2073.000000	20.033000
2072.000000	19.944300
2071.000000	19.844500
2070.000000	19.738200
2069.000000	19.627900
2068.000000	19.496600
2067.000000	19.372000
2066.000000	19.254300
2065.000000	19.132700
2064.000000	19.024900
2063.000000	18.910600
2062.000000	18.790900
2061.000000	18.679300
2060.000000	18.591500
2059.000000	18.494600
2058.000000	18.409600
2057.000000	18.362200
2056.000000	18.321200
2055.000000	18.269500
2054.000000	18.256600
2053.000000	18.274000
2052.000000	18.291900
2051.000000	18.335300
2050.000000	18.398500
2049.000000	18.478900
2048.000000	18.565700
2047.000000	18.679900
2046.000000	18.796100
2045.000000	18.923500
2044.000000	19.066900
2043.000000	19.192000
2042.000000	19.327300
2041.000000	19.473100
2040.000000	19.600000
2039.000000	19.725600
2038.000000	19.860000
2037.000000	19.990300
2036.000000	20.105900
2035.000000	20.228700
2034.000000	20.341900
2033.000000	20.446000
2032.000000	20.528900
2031.000000	20.615600
2030.000000	20.728300
2029.000000	20.820700
2028.000000	20.893700
2027.000000	20.974500
2026.000000	21.069000
2025.000000	21.132200
2024.000000	21.195500
2023.000000	21.254600
2022.000000	21.320700
2021.000000	21.376700
2020.000000	21.443100
2019.000000	21.499100
2018.000000	21.525200
2017.000000	21.567800
2016.000000	21.608100
2015.000000	21.636300
2014.000000	21.667400
2013.000000	21.685900
2012.000000	21.690900
2011.000000	21.707600
2010.000000	21.692700
2009.000000	21.689900
2008.000000	21.682100
2007.000000	21.652500
2006.000000	21.636000
2005.000000	21.609800
2004.000000	21.571000
2003.000000	21.509500
2002.000000	21.475800
2001.000000	21.438300
2000.000000	21.351800
1999.000000	21.313200
1998.000000	21.234800
1997.000000	21.156500
1996.000000	21.096100
1995.000000	21.011700
1994.000000	20.927600
1993.000000	20.849800
1992.000000	20.754600
1991.000000	20.668300
1990.000000	20.585400
1989.000000	20.485600
1988.000000	20.387300
1987.000000	20.291500
1986.000000	20.184500
1985.000000	20.078400
1984.000000	19.987500
1983.000000	19.882800
1982.000000	19.778300
1981.000000	19.691700
1980.000000	19.582800
1979.000000	19.478100
1978.000000	19.380300
1977.000000	19.280200
1976.000000	19.182900
1975.000000	19.085400
1974.000000	18.993300
1973.000000	18.927300
1972.000000	18.826600
1971.000000	18.727800
1970.000000	18.647800
1969.000000	18.552900
1968.000000	18.456800
1967.000000	18.379600
1966.000000	18.295000
1965.000000	18.200800
1964.000000	18.117000
1963.000000	18.008600
1962.000000	17.940100
1961.000000	17.834900
1960.000000	17.733900
1959.000000	17.660100
1958.000000	17.575100
1957.000000	17.475600
1956.000000	17.384200
1955.000000	17.287400
1954.000000	17.213700
1953.000000	17.112400
1952.000000	17.029700
1951.000000	16.944000
1950.000000	16.875500
1949.000000	16.804500
1948.000000	16.723300
1947.000000	16.668000
1946.000000	16.611900
1945.000000	16.541900
1944.000000	16.492100
1943.000000	16.458000
1942.000000	16.425400
1941.000000	16.397800
1940.000000	16.383300
1939.000000	16.361000
1938.000000	16.324300
1937.000000	16.305000
1936.000000	16.312700
1935.000000	16.341000
1934.000000	16.345200
1933.000000	16.389200
1932.000000	16.435900
1931.000000	16.493200
1930.000000	16.569800
1929.000000	16.611200
1928.000000	16.713500
1927.000000	16.796300
1926.000000	16.882800
1925.000000	16.997800
1924.000000	17.112100
1923.000000	17.262900
1922.000000	17.440900
1921.000000	17.605700
1920.000000	17.776300
1919.000000	17.949500
1918.000000	18.128000
1917.000000	18.318500
1916.000000	18.559700
1915.000000	18.820300
1914.000000	19.108500
1913.000000	19.431100
1912.000000	19.730100
1911.000000	20.016000
1910.000000	20.297100
1909.000000	20.602300
1908.000000	21.019100
1907.000000	21.450400
1906.000000	21.957100
1905.000000	22.448300
1904.000000	22.905900
1903.000000	23.393100
1902.000000	23.901400
1901.000000	24.463000
1900.000000	25.063700
1899.000000	25.665100
1898.000000	26.278700
1897.000000	26.826700
1896.000000	27.342300
1895.000000	27.924000
1894.000000	28.533500
1893.000000	29.188500
1892.000000	29.857300
1891.000000	30.453500
1890.000000	31.021700
1889.000000	31.616400
1888.000000	32.134800
1887.000000	32.640200
1886.000000	33.143800
1885.000000	33.676300
1884.000000	34.140600
1883.000000	34.600300
1882.000000	34.985400
1881.000000	35.337900
1880.000000	35.685400
1879.000000	36.038100
1878.000000	36.370300
1877.000000	36.676200
1876.000000	36.982400
1875.000000	37.288800
1874.000000	37.555600
1873.000000	37.805300
1872.000000	38.037700
1871.000000	38.223000
1870.000000	38.371800
1869.000000	38.528300
1868.000000	38.639100
1867.000000	38.709400
1866.000000	38.783100
1865.000000	38.879800
1864.000000	38.978800
1863.000000	39.086700
1862.000000	39.188100
1861.000000	39.298900
1860.000000	39.400200
1859.000000	39.460100
1858.000000	39.513700
1857.000000	39.557600
1856.000000	39.603600
1855.000000	39.659000
1854.000000	39.667900
1853.000000	39.674300
1852.000000	39.705400
1851.000000	39.726300
1850.000000	39.769400
1849.000000	39.804800
1848.000000	39.794300
1847.000000	39.731200
1846.000000	39.667600
1845.000000	39.642300
1844.000000	39.645200
1843.000000	39.693500
1842.000000	39.692800
1841.000000	39.645000
1840.000000	39.605400
1839.000000	39.569800
1838.000000	39.533800
1837.000000	39.480600
1836.000000	39.421900
1835.000000	39.355500
1834.000000	39.286800
1833.000000	39.252200
1832.000000	39.243600
1831.000000	39.225900
1830.000000	39.198400
1829.000000	39.161300
1828.000000	39.126400
1827.000000	39.106200
1826.000000	39.076400
1825.000000	39.063300
1824.000000	39.090800
1823.000000	39.165200
1822.000000	39.211400
1821.000000	39.204600
1820.000000	39.180500
1819.000000	39.149500
1818.000000	39.139100
1817.000000	39.154800
1816.000000	39.157800
1815.000000	39.133500
1814.000000	39.127800
1813.000000	39.121000
1812.000000	39.092700
1811.000000	39.049400
1810.000000	39.016800
1809.000000	39.005600
1808.000000	38.989000
1807.000000	38.971500
1806.000000	38.939700
1805.000000	38.912500
1804.000000	38.912600
1803.000000	38.916800
1802.000000	38.908800
1801.000000	38.870900
1800.000000	38.829900
1799.000000	38.809300
1798.000000	38.794800
1797.000000	38.782100
1796.000000	38.768600
1795.000000	38.741900
1794.000000	38.727700
1793.000000	38.716900
1792.000000	38.704000
1791.000000	38.708700
1790.000000	38.701100
1789.000000	38.700300
1788.000000	38.714500
1787.000000	38.724600
1786.000000	38.728200
1785.000000	38.730700
1784.000000	38.728700
1783.000000	38.716500
1782.000000	38.714600
1781.000000	38.690800
1780.000000	38.674700
1779.000000	38.655700
1778.000000	38.623200
1777.000000	38.593700
1776.000000	38.553600
1775.000000	38.497000
1774.000000	38.447900
1773.000000	38.406600
1772.000000	38.365800
1771.000000	38.313800
1770.000000	38.274600
1769.000000	38.236200
1768.000000	38.190600
1767.000000	38.146600
1766.000000	38.138400
1765.000000	38.115300
1764.000000	38.089200
1763.000000	38.083200
1762.000000	38.083900
1761.000000	38.100700
1760.000000	38.119700
1759.000000	38.121600
1758.000000	38.146200
1757.000000	38.148500
1756.000000	38.155300
1755.000000	38.170900
1754.000000	38.202600
1753.000000	38.183800
1752.000000	38.185600
1751.000000	38.185400
1750.000000	38.150900
1749.000000	38.108900
1748.000000	38.072500
1747.000000	37.993000
1746.000000	37.925000
1745.000000	37.843900
1744.000000	37.747100
1743.000000	37.632000
1742.000000	37.536700
1741.000000	37.419700
1740.000000	37.337800
1739.000000	37.243700
1738.000000	37.134200
1737.000000	37.056800
1736.000000	36.987700
1735.000000	36.901300
1734.000000	36.826900
1733.000000	36.715400
1732.000000	36.641200
1731.000000	36.572000
1730.000000	36.486500
1729.000000	36.418300
1728.000000	36.353200
1727.000000	36.309600
1726.000000	36.249600
1725.000000	36.229000
1724.000000	36.243800
1723.000000	36.326900
1722.000000	36.455900
1721.000000	36.625600
1720.000000	36.860200
1719.000000	37.115500
1718.000000	37.391700
1717.000000	37.685000
1716.000000	37.954400
1715.000000	38.204400
1714.000000	38.446000
1713.000000	38.639200
1712.000000	38.855300
1711.000000	39.028200
1710.000000	39.179100
1709.000000	39.318300
1708.000000	39.440300
1707.000000	39.541900
1706.000000	39.649500
1705.000000	39.692700
1704.000000	39.766300
1703.000000	39.811200
1702.000000	39.816100
1701.000000	39.846500
1700.000000	39.842600
1699.000000	39.848200
1698.000000	39.847100
1697.000000	39.804100
1696.000000	39.746900
1695.000000	39.667400
1694.000000	39.549800
1693.000000	39.441300
1692.000000	39.298400
1691.000000	39.167900
1690.000000	39.086400
1689.000000	39.065600
1688.000000	39.068500
1687.000000	39.149900
1686.000000	39.290300
1685.000000	39.460000
1684.000000	39.709700
1683.000000	39.948900
1682.000000	40.210300
1681.000000	40.452300
1680.000000	40.682800
1679.000000	40.889500
1678.000000	41.079800
1677.000000	41.258700
1676.000000	41.428000
1675.000000	41.601300
1674.000000	41.783300
1673.000000	41.938700
1672.000000	42.140000
1671.000000	42.346600
1670.000000	42.515300
1669.000000	42.718000
1668.000000	42.900600
1667.000000	43.094400
1666.000000	43.254400
1665.000000	43.415900
1664.000000	43.586700
1663.000000	43.732400
1662.000000	43.893300
1661.000000	44.025000
1660.000000	44.158300
1659.000000	44.266300
1658.000000	44.364200
1657.000000	44.458600
1656.000000	44.530200
1655.000000	44.581700
1654.000000	44.625400
1653.000000	44.687200
1652.000000	44.723800
1651.000000	44.742200
1650.000000	44.763500
1649.000000	44.773100
1648.000000	44.788400
1647.000000	44.800700
1646.000000	44.796800
1645.000000	44.792400
1644.000000	44.787100
1643.000000	44.788100
1642.000000	44.798000
1641.000000	44.798800
1640.000000	44.797100
1639.000000	44.798400
1638.000000	44.786000
1637.000000	44.779700
1636.000000	44.765200
1635.000000	44.744800
1634.000000	44.710000
1633.000000	44.685600
1632.000000	44.645700
1631.000000	44.613400
1630.000000	44.571900
1629.000000	44.539700
1628.000000	44.499100
1627.000000	44.461200
1626.000000	44.414100
1625.000000	44.375000
1624.000000	44.339400
