PE UV       SUBTECH     SPECTRUM    ASCII       PEDS        4.00        
   -1
CICIMAUCR0113-6.Sample.ASC
24/04/25
11:40:20.00
24/04/25
11:40:20.00
Vinicio Soto Monge
C. kalinini
250,000000
1
Lambda 1050
1050L1511233
PerkinElmer UV WinLab 6.3.2.0749 / 2.02.05 Lambda 900 UV/VIS/NIR, Aug  7 2015 09:38:08

0
0
3350/servo 860,8/2
0
0
UV/VIS
1
1
1
DoubleDePol,CommonBeamDepol,RBeamAtt,SBeamAtt,60mm sphere, WB InGaAs Detector
0
0
0
0
Program
Program
3350/servo 860,8/2
3350/0,2 860,8/0,2
3350/0,2 860,8/0,2
0
15.00
 
 
 
0
 
860,8
319,2
860,8
Front
100
on
S:100 R:100
0
0
0
0
 
0
 
 
 
0
 
 
0
0
0
0
0
 
 
 
 
0
0


0
0
#HDR
-1
-1
#GR
nm
%R
1.0
0.0
2500,000000
-1,000000
2251
8
101,774400
5,807200
#DATA
2500.000000	6.385400
2499.000000	6.311900
2498.000000	6.251600
2497.000000	6.241300
2496.000000	6.155600
2495.000000	6.172600
2494.000000	6.168100
2493.000000	6.198900
2492.000000	6.102800
2491.000000	6.133100
2490.000000	6.091800
2489.000000	6.079100
2488.000000	6.022100
2487.000000	6.042300
2486.000000	6.060800
2485.000000	6.104700
2484.000000	6.072000
2483.000000	6.073300
2482.000000	6.082800
2481.000000	6.072600
2480.000000	6.037900
2479.000000	6.071200
2478.000000	6.032100
2477.000000	6.033500
2476.000000	6.029900
2475.000000	5.969900
2474.000000	6.032000
2473.000000	6.100400
2472.000000	6.054500
2471.000000	6.007400
2470.000000	6.008600
2469.000000	6.084800
2468.000000	6.070900
2467.000000	6.079500
2466.000000	6.045600
2465.000000	6.119700
2464.000000	6.136200
2463.000000	6.122500
2462.000000	6.126800
2461.000000	6.171200
2460.000000	6.178700
2459.000000	6.200900
2458.000000	6.246700
2457.000000	6.267000
2456.000000	6.291600
2455.000000	6.348700
2454.000000	6.376200
2453.000000	6.420100
2452.000000	6.436800
2451.000000	6.487800
2450.000000	6.528400
2449.000000	6.571000
2448.000000	6.597900
2447.000000	6.664000
2446.000000	6.711700
2445.000000	6.740000
2444.000000	6.790800
2443.000000	6.826400
2442.000000	6.863100
2441.000000	6.902700
2440.000000	6.930900
2439.000000	6.997600
2438.000000	7.014200
2437.000000	7.059600
2436.000000	7.117600
2435.000000	7.137300
2434.000000	7.186300
2433.000000	7.205600
2432.000000	7.217400
2431.000000	7.249300
2430.000000	7.287100
2429.000000	7.320100
2428.000000	7.346400
2427.000000	7.362000
2426.000000	7.396800
2425.000000	7.426400
2424.000000	7.453700
2423.000000	7.455700
2422.000000	7.468600
2421.000000	7.486000
2420.000000	7.512200
2419.000000	7.533400
2418.000000	7.540600
2417.000000	7.550500
2416.000000	7.574300
2415.000000	7.587600
2414.000000	7.615500
2413.000000	7.636800
2412.000000	7.642700
2411.000000	7.656700
2410.000000	7.665500
2409.000000	7.658700
2408.000000	7.642000
2407.000000	7.634200
2406.000000	7.636800
2405.000000	7.650700
2404.000000	7.668000
2403.000000	7.694600
2402.000000	7.707800
2401.000000	7.724600
2400.000000	7.732400
2399.000000	7.743600
2398.000000	7.751200
2397.000000	7.755100
2396.000000	7.771300
2395.000000	7.791700
2394.000000	7.813400
2393.000000	7.817300
2392.000000	7.814500
2391.000000	7.825000
2390.000000	7.837900
2389.000000	7.850400
2388.000000	7.858600
2387.000000	7.855900
2386.000000	7.860000
2385.000000	7.853200
2384.000000	7.850900
2383.000000	7.847100
2382.000000	7.859400
2381.000000	7.853700
2380.000000	7.831600
2379.000000	7.831200
2378.000000	7.826300
2377.000000	7.808200
2376.000000	7.799500
2375.000000	7.791000
2374.000000	7.778100
2373.000000	7.755100
2372.000000	7.750000
2371.000000	7.744800
2370.000000	7.707100
2369.000000	7.688000
2368.000000	7.666700
2367.000000	7.633100
2366.000000	7.596500
2365.000000	7.571100
2364.000000	7.535300
2363.000000	7.506300
2362.000000	7.477700
2361.000000	7.441900
2360.000000	7.415200
2359.000000	7.390400
2358.000000	7.357600
2357.000000	7.326300
2356.000000	7.308700
2355.000000	7.291500
2354.000000	7.278600
2353.000000	7.273700
2352.000000	7.269000
2351.000000	7.280700
2350.000000	7.288900
2349.000000	7.305700
2348.000000	7.334300
2347.000000	7.358300
2346.000000	7.378200
2345.000000	7.392400
2344.000000	7.433100
2343.000000	7.466600
2342.000000	7.472500
2341.000000	7.492900
2340.000000	7.516600
2339.000000	7.524000
2338.000000	7.536100
2337.000000	7.544700
2336.000000	7.534600
2335.000000	7.528500
2334.000000	7.536400
2333.000000	7.523200
2332.000000	7.496500
2331.000000	7.470000
2330.000000	7.462600
2329.000000	7.441200
2328.000000	7.422500
2327.000000	7.403700
2326.000000	7.379000
2325.000000	7.329100
2324.000000	7.289900
2323.000000	7.263700
2322.000000	7.215100
2321.000000	7.170500
2320.000000	7.118200
2319.000000	7.052300
2318.000000	6.993700
2317.000000	6.969900
2316.000000	6.923100
2315.000000	6.866500
2314.000000	6.818800
2313.000000	6.769300
2312.000000	6.716600
2311.000000	6.677900
2310.000000	6.653200
2309.000000	6.639400
2308.000000	6.625800
2307.000000	6.612200
2306.000000	6.601800
2305.000000	6.627000
2304.000000	6.643300
2303.000000	6.661600
2302.000000	6.719400
2301.000000	6.755500
2300.000000	6.818400
2299.000000	6.855300
2298.000000	6.888700
2297.000000	6.939600
2296.000000	7.005000
2295.000000	7.054700
2294.000000	7.084800
2293.000000	7.126200
2292.000000	7.173300
2291.000000	7.178500
2290.000000	7.210900
2289.000000	7.211500
2288.000000	7.221600
2287.000000	7.216300
2286.000000	7.222200
2285.000000	7.219900
2284.000000	7.207300
2283.000000	7.183000
2282.000000	7.153200
2281.000000	7.162800
2280.000000	7.135200
2279.000000	7.115000
2278.000000	7.102400
2277.000000	7.090200
2276.000000	7.074000
2275.000000	7.070100
2274.000000	7.065800
2273.000000	7.061900
2272.000000	7.065100
2271.000000	7.089100
2270.000000	7.100900
2269.000000	7.135900
2268.000000	7.156200
2267.000000	7.216600
2266.000000	7.271300
2265.000000	7.334300
2264.000000	7.430100
2263.000000	7.508900
2262.000000	7.620700
2261.000000	7.733100
2260.000000	7.859000
2259.000000	8.000000
2258.000000	8.137000
2257.000000	8.299400
2256.000000	8.428000
2255.000000	8.581800
2254.000000	8.707700
2253.000000	8.854300
2252.000000	9.031700
2251.000000	9.141300
2250.000000	9.283300
2249.000000	9.427500
2248.000000	9.522600
2247.000000	9.649200
2246.000000	9.729200
2245.000000	9.852800
2244.000000	9.956400
2243.000000	10.017400
2242.000000	10.092800
2241.000000	10.193000
2240.000000	10.264200
2239.000000	10.338000
2238.000000	10.378200
2237.000000	10.442100
2236.000000	10.479800
2235.000000	10.553700
2234.000000	10.575700
2233.000000	10.619200
2232.000000	10.648100
2231.000000	10.687400
2230.000000	10.687200
2229.000000	10.735400
2228.000000	10.745200
2227.000000	10.765200
2226.000000	10.762500
2225.000000	10.735200
2224.000000	10.752400
2223.000000	10.755500
2222.000000	10.755000
2221.000000	10.721300
2220.000000	10.730300
2219.000000	10.702800
2218.000000	10.701300
2217.000000	10.674500
2216.000000	10.658500
2215.000000	10.638900
2214.000000	10.624100
2213.000000	10.626900
2212.000000	10.588900
2211.000000	10.578100
2210.000000	10.550100
2209.000000	10.552100
2208.000000	10.536900
2207.000000	10.540300
2206.000000	10.520600
2205.000000	10.501400
2204.000000	10.491100
2203.000000	10.495700
2202.000000	10.471700
2201.000000	10.442600
2200.000000	10.463700
2199.000000	10.458600
2198.000000	10.461700
2197.000000	10.459100
2196.000000	10.441100
2195.000000	10.459100
2194.000000	10.454600
2193.000000	10.438100
2192.000000	10.422700
2191.000000	10.432400
2190.000000	10.425400
2189.000000	10.416000
2188.000000	10.418500
2187.000000	10.416200
2186.000000	10.397800
2185.000000	10.371900
2184.000000	10.373300
2183.000000	10.365100
2182.000000	10.344300
2181.000000	10.342900
2180.000000	10.342700
2179.000000	10.352200
2178.000000	10.339900
2177.000000	10.316700
2176.000000	10.314800
2175.000000	10.321100
2174.000000	10.336600
2173.000000	10.336000
2172.000000	10.323000
2171.000000	10.332400
2170.000000	10.345000
2169.000000	10.356900
2168.000000	10.355400
2167.000000	10.366200
2166.000000	10.379000
2165.000000	10.396700
2164.000000	10.405000
2163.000000	10.406800
2162.000000	10.428100
2161.000000	10.454600
2160.000000	10.473900
2159.000000	10.490100
2158.000000	10.503600
2157.000000	10.534200
2156.000000	10.561100
2155.000000	10.596400
2154.000000	10.621300
2153.000000	10.656100
2152.000000	10.663000
2151.000000	10.694400
2150.000000	10.728400
2149.000000	10.766100
2148.000000	10.783200
2147.000000	10.817900
2146.000000	10.861000
2145.000000	10.886000
2144.000000	10.914300
2143.000000	10.937300
2142.000000	10.980400
2141.000000	10.999100
2140.000000	11.005000
2139.000000	11.015500
2138.000000	11.041900
2137.000000	11.078500
2136.000000	11.113700
2135.000000	11.108200
2134.000000	11.125400
2133.000000	11.152800
2132.000000	11.183400
2131.000000	11.199500
2130.000000	11.199000
2129.000000	11.214100
2128.000000	11.236700
2127.000000	11.223200
2126.000000	11.233700
2125.000000	11.252800
2124.000000	11.260500
2123.000000	11.256600
2122.000000	11.251000
2121.000000	11.271300
2120.000000	11.270900
2119.000000	11.268900
2118.000000	11.268900
2117.000000	11.269100
2116.000000	11.264700
2115.000000	11.248700
2114.000000	11.242100
2113.000000	11.232300
2112.000000	11.221900
2111.000000	11.228600
2110.000000	11.216700
2109.000000	11.194200
2108.000000	11.185800
2107.000000	11.181400
2106.000000	11.172100
2105.000000	11.171300
2104.000000	11.171800
2103.000000	11.153000
2102.000000	11.152400
2101.000000	11.149600
2100.000000	11.129800
2099.000000	11.129900
2098.000000	11.123800
2097.000000	11.108200
2096.000000	11.108600
2095.000000	11.112100
2094.000000	11.102500
2093.000000	11.095200
2092.000000	11.096100
2091.000000	11.089700
2090.000000	11.081300
2089.000000	11.095100
2088.000000	11.109700
2087.000000	11.104100
2086.000000	11.088700
2085.000000	11.084100
2084.000000	11.090400
2083.000000	11.080100
2082.000000	11.064400
2081.000000	11.066300
2080.000000	11.054400
2079.000000	11.038400
2078.000000	11.039200
2077.000000	11.031100
2076.000000	11.025300
2075.000000	11.011900
2074.000000	11.002000
2073.000000	10.980900
2072.000000	10.966600
2071.000000	10.943800
2070.000000	10.932400
2069.000000	10.945400
2068.000000	10.934900
2067.000000	10.914300
2066.000000	10.887000
2065.000000	10.875000
2064.000000	10.863100
2063.000000	10.865200
2062.000000	10.860200
2061.000000	10.843600
2060.000000	10.837900
2059.000000	10.845300
2058.000000	10.871400
2057.000000	10.872900
2056.000000	10.880400
2055.000000	10.907800
2054.000000	10.941000
2053.000000	10.979100
2052.000000	11.024400
2051.000000	11.097700
2050.000000	11.143600
2049.000000	11.202900
2048.000000	11.291700
2047.000000	11.358900
2046.000000	11.445000
2045.000000	11.529600
2044.000000	11.619000
2043.000000	11.708900
2042.000000	11.809600
2041.000000	11.890300
2040.000000	11.978000
2039.000000	12.077400
2038.000000	12.160500
2037.000000	12.256200
2036.000000	12.318400
2035.000000	12.405400
2034.000000	12.483000
2033.000000	12.561500
2032.000000	12.631400
2031.000000	12.685300
2030.000000	12.745100
2029.000000	12.802800
2028.000000	12.858100
2027.000000	12.904900
2026.000000	12.971400
2025.000000	13.044200
2024.000000	13.082500
2023.000000	13.110200
2022.000000	13.152100
2021.000000	13.205800
2020.000000	13.260800
2019.000000	13.291000
2018.000000	13.322900
2017.000000	13.347300
2016.000000	13.404200
2015.000000	13.426700
2014.000000	13.461500
2013.000000	13.473600
2012.000000	13.495800
2011.000000	13.511900
2010.000000	13.525300
2009.000000	13.551500
2008.000000	13.551700
2007.000000	13.564400
2006.000000	13.541800
2005.000000	13.548600
2004.000000	13.554900
2003.000000	13.531500
2002.000000	13.526200
2001.000000	13.516300
2000.000000	13.510200
1999.000000	13.481200
1998.000000	13.478200
1997.000000	13.459500
1996.000000	13.411900
1995.000000	13.386000
1994.000000	13.345400
1993.000000	13.309100
1992.000000	13.269300
1991.000000	13.239800
1990.000000	13.214300
1989.000000	13.175500
1988.000000	13.134900
1987.000000	13.092800
1986.000000	13.036300
1985.000000	13.002200
1984.000000	12.949700
1983.000000	12.920700
1982.000000	12.871300
1981.000000	12.833200
1980.000000	12.765500
1979.000000	12.726900
1978.000000	12.669300
1977.000000	12.639700
1976.000000	12.573800
1975.000000	12.542500
1974.000000	12.506200
1973.000000	12.460100
1972.000000	12.411200
1971.000000	12.376800
1970.000000	12.347300
1969.000000	12.317200
1968.000000	12.274200
1967.000000	12.231900
1966.000000	12.187100
1965.000000	12.144400
1964.000000	12.135700
1963.000000	12.090300
1962.000000	12.055200
1961.000000	12.007800
1960.000000	11.991100
1959.000000	11.937300
1958.000000	11.909000
1957.000000	11.871400
1956.000000	11.827700
1955.000000	11.793100
1954.000000	11.771100
1953.000000	11.729600
1952.000000	11.706200
1951.000000	11.683300
1950.000000	11.637600
1949.000000	11.612100
1948.000000	11.575500
1947.000000	11.552300
1946.000000	11.549900
1945.000000	11.528600
1944.000000	11.531000
1943.000000	11.535200
1942.000000	11.524500
1941.000000	11.521400
1940.000000	11.546600
1939.000000	11.538100
1938.000000	11.534900
1937.000000	11.558700
1936.000000	11.573200
1935.000000	11.635400
1934.000000	11.656400
1933.000000	11.700000
1932.000000	11.767700
1931.000000	11.812600
1930.000000	11.850200
1929.000000	11.920200
1928.000000	11.986300
1927.000000	12.054300
1926.000000	12.139000
1925.000000	12.242700
1924.000000	12.330800
1923.000000	12.422700
1922.000000	12.530200
1921.000000	12.656300
1920.000000	12.757700
1919.000000	12.883400
1918.000000	13.029600
1917.000000	13.147300
1916.000000	13.282800
1915.000000	13.438500
1914.000000	13.586700
1913.000000	13.748200
1912.000000	13.916200
1911.000000	14.061000
1910.000000	14.240900
1909.000000	14.427100
1908.000000	14.601600
1907.000000	14.801300
1906.000000	14.983600
1905.000000	15.172500
1904.000000	15.384900
1903.000000	15.582100
1902.000000	15.786300
1901.000000	16.000900
1900.000000	16.208600
1899.000000	16.408600
1898.000000	16.604500
1897.000000	16.852700
1896.000000	17.064600
1895.000000	17.291400
1894.000000	17.493300
1893.000000	17.718500
1892.000000	17.960000
1891.000000	18.175300
1890.000000	18.399300
1889.000000	18.631800
1888.000000	18.879000
1887.000000	19.146400
1886.000000	19.457900
1885.000000	19.789400
1884.000000	20.131300
1883.000000	20.496200
1882.000000	20.884200
1881.000000	21.280600
1880.000000	21.656500
1879.000000	22.022700
1878.000000	22.386500
1877.000000	22.689000
1876.000000	22.986000
1875.000000	23.273700
1874.000000	23.530600
1873.000000	23.756800
1872.000000	23.955000
1871.000000	24.107200
1870.000000	24.229500
1869.000000	24.360700
1868.000000	24.457700
1867.000000	24.516100
1866.000000	24.575300
1865.000000	24.634600
1864.000000	24.695600
1863.000000	24.759300
1862.000000	24.789300
1861.000000	24.809900
1860.000000	24.807200
1859.000000	24.763500
1858.000000	24.738800
1857.000000	24.716400
1856.000000	24.680600
1855.000000	24.633100
1854.000000	24.557600
1853.000000	24.476000
1852.000000	24.417400
1851.000000	24.399900
1850.000000	24.392200
1849.000000	24.318900
1848.000000	24.177300
1847.000000	24.046100
1846.000000	23.946600
1845.000000	23.911600
1844.000000	23.913000
1843.000000	23.936400
1842.000000	23.910700
1841.000000	23.822300
1840.000000	23.753300
1839.000000	23.706800
1838.000000	23.649700
1837.000000	23.578700
1836.000000	23.499100
1835.000000	23.410900
1834.000000	23.328400
1833.000000	23.265700
1832.000000	23.229500
1831.000000	23.160200
1830.000000	23.072400
1829.000000	22.979000
1828.000000	22.885800
1827.000000	22.816000
1826.000000	22.744000
1825.000000	22.693100
1824.000000	22.684400
1823.000000	22.706500
1822.000000	22.692700
1821.000000	22.640100
1820.000000	22.592000
1819.000000	22.571800
1818.000000	22.570600
1817.000000	22.576100
1816.000000	22.581800
1815.000000	22.575000
1814.000000	22.562400
1813.000000	22.559500
1812.000000	22.555900
1811.000000	22.514200
1810.000000	22.470400
1809.000000	22.456800
1808.000000	22.438100
1807.000000	22.409800
1806.000000	22.357700
1805.000000	22.318100
1804.000000	22.281100
1803.000000	22.241000
1802.000000	22.210100
1801.000000	22.160700
1800.000000	22.121000
1799.000000	22.075100
1798.000000	22.036900
1797.000000	21.999500
1796.000000	21.974000
1795.000000	21.939200
1794.000000	21.894900
1793.000000	21.849900
1792.000000	21.795700
1791.000000	21.764000
1790.000000	21.701600
1789.000000	21.657200
1788.000000	21.599900
1787.000000	21.534800
1786.000000	21.468600
1785.000000	21.406000
1784.000000	21.329900
1783.000000	21.255500
1782.000000	21.181200
1781.000000	21.119600
1780.000000	21.064500
1779.000000	20.987300
1778.000000	20.887900
1777.000000	20.801900
1776.000000	20.704100
1775.000000	20.584500
1774.000000	20.460600
1773.000000	20.333100
1772.000000	20.216400
1771.000000	20.094000
1770.000000	19.966800
1769.000000	19.847300
1768.000000	19.734600
1767.000000	19.657800
1766.000000	19.575100
1765.000000	19.509100
1764.000000	19.474800
1763.000000	19.477700
1762.000000	19.485000
1761.000000	19.528600
1760.000000	19.571800
1759.000000	19.640700
1758.000000	19.687200
1757.000000	19.725900
1756.000000	19.745500
1755.000000	19.766000
1754.000000	19.778600
1753.000000	19.746600
1752.000000	19.714200
1751.000000	19.681500
1750.000000	19.632400
1749.000000	19.562700
1748.000000	19.480700
1747.000000	19.360600
1746.000000	19.228900
1745.000000	19.085500
1744.000000	18.918000
1743.000000	18.726800
1742.000000	18.518300
1741.000000	18.316200
1740.000000	18.097400
1739.000000	17.877600
1738.000000	17.705700
1737.000000	17.554200
1736.000000	17.458100
1735.000000	17.391700
1734.000000	17.360000
1733.000000	17.361200
1732.000000	17.407300
1731.000000	17.467900
1730.000000	17.571700
1729.000000	17.631500
1728.000000	17.728100
1727.000000	17.796200
1726.000000	17.878100
1725.000000	17.905300
1724.000000	17.938100
1723.000000	17.961500
1722.000000	17.958700
1721.000000	17.974300
1720.000000	17.973200
1719.000000	18.005400
1718.000000	18.031700
1717.000000	18.076500
1716.000000	18.123600
1715.000000	18.178400
1714.000000	18.228700
1713.000000	18.265700
1712.000000	18.305100
1711.000000	18.335800
1710.000000	18.318100
1709.000000	18.344800
1708.000000	18.313900
1707.000000	18.278600
1706.000000	18.265000
1705.000000	18.211000
1704.000000	18.149200
1703.000000	18.067500
1702.000000	17.955100
1701.000000	17.847400
1700.000000	17.717100
1699.000000	17.597800
1698.000000	17.474500
1697.000000	17.394900
1696.000000	17.356700
1695.000000	17.374800
1694.000000	17.467900
1693.000000	17.583600
1692.000000	17.708100
1691.000000	17.848200
1690.000000	17.988500
1689.000000	18.068000
1688.000000	18.110600
1687.000000	18.139400
1686.000000	18.163600
1685.000000	18.211800
1684.000000	18.343600
1683.000000	18.571900
1682.000000	18.916300
1681.000000	19.395600
1680.000000	19.878700
1679.000000	20.400500
1678.000000	20.899800
1677.000000	21.377700
1676.000000	21.811000
1675.000000	22.183800
1674.000000	22.508300
1673.000000	22.805200
1672.000000	23.039200
1671.000000	23.246000
1670.000000	23.452500
1669.000000	23.624800
1668.000000	23.797000
1667.000000	23.918600
1666.000000	24.039500
1665.000000	24.149200
1664.000000	24.225700
1663.000000	24.318500
1662.000000	24.384200
1661.000000	24.446600
1660.000000	24.489900
1659.000000	24.559000
1658.000000	24.615900
1657.000000	24.647100
1656.000000	24.666400
1655.000000	24.668100
1654.000000	24.687000
1653.000000	24.677500
1652.000000	24.667800
1651.000000	24.665800
1650.000000	24.634700
1649.000000	24.620400
1648.000000	24.591100
1647.000000	24.542900
1646.000000	24.490400
1645.000000	24.453300
1644.000000	24.416000
1643.000000	24.368500
1642.000000	24.303800
1641.000000	24.261700
1640.000000	24.196300
1639.000000	24.144300
1638.000000	24.072700
1637.000000	24.024200
1636.000000	23.944700
1635.000000	23.880400
1634.000000	23.809900
1633.000000	23.737900
1632.000000	23.675400
1631.000000	23.602700
1630.000000	23.517100
1629.000000	23.444000
1628.000000	23.359200
1627.000000	23.273100
1626.000000	23.193800
1625.000000	23.117900
1624.000000	23.024900
1623.000000	22.947100
1622.000000	22.872800
1621.000000	22.786700
1620.000000	22.698200
1619.000000	22.621700
1618.000000	22.555300
1617.000000	22.473400
1616.000000	22.389900
1615.000000	22.322300
1614.000000	22.258900
1613.000000	22.182100
