PE UV       SUBTECH     SPECTRUM    ASCII       PEDS        4.00        
   -1
CICIMAUCR0008-5.Sample.ASC
24/04/25
10:02:58.00
24/04/25
10:02:58.00
Vinicio Soto Monge
C. kalinini
250,000000
1
Lambda 1050
1050L1511233
PerkinElmer UV WinLab 6.3.2.0749 / 2.02.05 Lambda 900 UV/VIS/NIR, Aug  7 2015 09:38:08

0
0
3350/servo 860,8/2
0
0
UV/VIS
1
1
1
DoubleDePol,CommonBeamDepol,RBeamAtt,SBeamAtt,60mm sphere, WB InGaAs Detector
0
0
0
0
Program
Program
3350/servo 860,8/2
3350/0,2 860,8/0,2
3350/0,2 860,8/0,2
0
15.00
 
 
 
0
 
860,8
319,2
860,8
Front
100
on
S:100 R:100
0
0
0
0
 
0
 
 
 
0
 
 
0
0
0
0
0
 
 
 
 
0
0


0
0
#HDR
-1
-1
#GR
nm
%R
1.0
0.0
2500,000000
-1,000000
2251
8
95,184700
4,916500
#DATA
2500.000000	5.800100
2499.000000	5.891700
2498.000000	5.875200
2497.000000	5.779300
2496.000000	5.753400
2495.000000	5.677500
2494.000000	5.850900
2493.000000	5.820600
2492.000000	5.781800
2491.000000	5.749200
2490.000000	5.690200
2489.000000	5.746300
2488.000000	5.759800
2487.000000	5.722400
2486.000000	5.660800
2485.000000	5.683000
2484.000000	5.697500
2483.000000	5.659500
2482.000000	5.646000
2481.000000	5.595400
2480.000000	5.649700
2479.000000	5.593700
2478.000000	5.664400
2477.000000	5.664600
2476.000000	5.659600
2475.000000	5.632400
2474.000000	5.666700
2473.000000	5.657300
2472.000000	5.669300
2471.000000	5.587600
2470.000000	5.666600
2469.000000	5.664800
2468.000000	5.660200
2467.000000	5.675500
2466.000000	5.684100
2465.000000	5.708500
2464.000000	5.697200
2463.000000	5.699100
2462.000000	5.709900
2461.000000	5.718000
2460.000000	5.741300
2459.000000	5.803300
2458.000000	5.813100
2457.000000	5.850200
2456.000000	5.867300
2455.000000	5.904400
2454.000000	5.953100
2453.000000	5.966600
2452.000000	5.988300
2451.000000	6.052500
2450.000000	6.086500
2449.000000	6.133900
2448.000000	6.162700
2447.000000	6.216300
2446.000000	6.259700
2445.000000	6.295600
2444.000000	6.342500
2443.000000	6.380000
2442.000000	6.396300
2441.000000	6.441800
2440.000000	6.484400
2439.000000	6.512400
2438.000000	6.551100
2437.000000	6.596200
2436.000000	6.641200
2435.000000	6.654100
2434.000000	6.681400
2433.000000	6.723300
2432.000000	6.742300
2431.000000	6.766000
2430.000000	6.813600
2429.000000	6.825000
2428.000000	6.834700
2427.000000	6.857300
2426.000000	6.904700
2425.000000	6.924200
2424.000000	6.950900
2423.000000	6.955400
2422.000000	6.955600
2421.000000	6.975100
2420.000000	6.998800
2419.000000	7.002100
2418.000000	7.025900
2417.000000	7.034700
2416.000000	7.056300
2415.000000	7.056200
2414.000000	7.078700
2413.000000	7.089200
2412.000000	7.107300
2411.000000	7.140800
2410.000000	7.178400
2409.000000	7.223600
2408.000000	7.247000
2407.000000	7.263400
2406.000000	7.276600
2405.000000	7.288100
2404.000000	7.313100
2403.000000	7.339900
2402.000000	7.359500
2401.000000	7.375800
2400.000000	7.407000
2399.000000	7.425900
2398.000000	7.454100
2397.000000	7.460700
2396.000000	7.482700
2395.000000	7.496000
2394.000000	7.516000
2393.000000	7.538600
2392.000000	7.551200
2391.000000	7.571900
2390.000000	7.586900
2389.000000	7.585300
2388.000000	7.594000
2387.000000	7.601800
2386.000000	7.598700
2385.000000	7.610200
2384.000000	7.626700
2383.000000	7.622900
2382.000000	7.621000
2381.000000	7.612100
2380.000000	7.603300
2379.000000	7.592600
2378.000000	7.595400
2377.000000	7.593700
2376.000000	7.579700
2375.000000	7.562900
2374.000000	7.540300
2373.000000	7.526700
2372.000000	7.520400
2371.000000	7.504100
2370.000000	7.474600
2369.000000	7.440600
2368.000000	7.427900
2367.000000	7.403900
2366.000000	7.364300
2365.000000	7.316400
2364.000000	7.278500
2363.000000	7.256700
2362.000000	7.209700
2361.000000	7.178600
2360.000000	7.147500
2359.000000	7.103500
2358.000000	7.087600
2357.000000	7.069700
2356.000000	7.049900
2355.000000	7.030200
2354.000000	7.009300
2353.000000	7.006800
2352.000000	7.019200
2351.000000	7.035200
2350.000000	7.066800
2349.000000	7.081000
2348.000000	7.100300
2347.000000	7.142000
2346.000000	7.181000
2345.000000	7.199300
2344.000000	7.232000
2343.000000	7.257100
2342.000000	7.285300
2341.000000	7.301700
2340.000000	7.330000
2339.000000	7.358300
2338.000000	7.377000
2337.000000	7.364500
2336.000000	7.356100
2335.000000	7.357500
2334.000000	7.359500
2333.000000	7.335600
2332.000000	7.311500
2331.000000	7.305800
2330.000000	7.283000
2329.000000	7.254600
2328.000000	7.220400
2327.000000	7.181400
2326.000000	7.146700
2325.000000	7.115400
2324.000000	7.076000
2323.000000	7.006500
2322.000000	6.972200
2321.000000	6.933100
2320.000000	6.874900
2319.000000	6.818300
2318.000000	6.753100
2317.000000	6.698700
2316.000000	6.645100
2315.000000	6.592600
2314.000000	6.553700
2313.000000	6.510000
2312.000000	6.475700
2311.000000	6.431700
2310.000000	6.396900
2309.000000	6.378400
2308.000000	6.371000
2307.000000	6.358600
2306.000000	6.379900
2305.000000	6.392300
2304.000000	6.432500
2303.000000	6.475500
2302.000000	6.511500
2301.000000	6.572100
2300.000000	6.631000
2299.000000	6.675600
2298.000000	6.747000
2297.000000	6.797800
2296.000000	6.867200
2295.000000	6.906500
2294.000000	6.938700
2293.000000	6.970600
2292.000000	7.011800
2291.000000	7.046400
2290.000000	7.062000
2289.000000	7.065500
2288.000000	7.072000
2287.000000	7.071100
2286.000000	7.059100
2285.000000	7.038300
2284.000000	7.033800
2283.000000	7.020200
2282.000000	6.975800
2281.000000	6.985000
2280.000000	6.967000
2279.000000	6.934600
2278.000000	6.917500
2277.000000	6.887200
2276.000000	6.887400
2275.000000	6.884600
2274.000000	6.878200
2273.000000	6.864300
2272.000000	6.866300
2271.000000	6.889300
2270.000000	6.909700
2269.000000	6.941100
2268.000000	6.990500
2267.000000	7.048800
2266.000000	7.124800
2265.000000	7.189200
2264.000000	7.302600
2263.000000	7.395700
2262.000000	7.515500
2261.000000	7.621800
2260.000000	7.799500
2259.000000	7.943000
2258.000000	8.109000
2257.000000	8.253200
2256.000000	8.406700
2255.000000	8.582200
2254.000000	8.746200
2253.000000	8.898600
2252.000000	9.028700
2251.000000	9.193000
2250.000000	9.336500
2249.000000	9.446500
2248.000000	9.584500
2247.000000	9.708000
2246.000000	9.801300
2245.000000	9.883400
2244.000000	10.002600
2243.000000	10.090800
2242.000000	10.177700
2241.000000	10.249400
2240.000000	10.312800
2239.000000	10.389600
2238.000000	10.449200
2237.000000	10.524000
2236.000000	10.536300
2235.000000	10.600500
2234.000000	10.640900
2233.000000	10.664000
2232.000000	10.720700
2231.000000	10.762400
2230.000000	10.759600
2229.000000	10.759500
2228.000000	10.791100
2227.000000	10.806200
2226.000000	10.811800
2225.000000	10.811700
2224.000000	10.783600
2223.000000	10.786500
2222.000000	10.780700
2221.000000	10.769800
2220.000000	10.745000
2219.000000	10.741500
2218.000000	10.706500
2217.000000	10.688100
2216.000000	10.660700
2215.000000	10.651800
2214.000000	10.631700
2213.000000	10.609300
2212.000000	10.591200
2211.000000	10.574100
2210.000000	10.558300
2209.000000	10.523700
2208.000000	10.525200
2207.000000	10.502900
2206.000000	10.498400
2205.000000	10.491200
2204.000000	10.478000
2203.000000	10.447000
2202.000000	10.443200
2201.000000	10.433600
2200.000000	10.428900
2199.000000	10.435500
2198.000000	10.416900
2197.000000	10.410000
2196.000000	10.406300
2195.000000	10.398000
2194.000000	10.379100
2193.000000	10.376900
2192.000000	10.378600
2191.000000	10.343700
2190.000000	10.336100
2189.000000	10.339700
2188.000000	10.336200
2187.000000	10.324800
2186.000000	10.308900
2185.000000	10.303100
2184.000000	10.287100
2183.000000	10.280200
2182.000000	10.277900
2181.000000	10.262300
2180.000000	10.268500
2179.000000	10.265100
2178.000000	10.255300
2177.000000	10.257200
2176.000000	10.264500
2175.000000	10.251600
2174.000000	10.249500
2173.000000	10.251800
2172.000000	10.256600
2171.000000	10.257600
2170.000000	10.262000
2169.000000	10.271800
2168.000000	10.288700
2167.000000	10.302300
2166.000000	10.304700
2165.000000	10.317900
2164.000000	10.325400
2163.000000	10.355800
2162.000000	10.381200
2161.000000	10.380900
2160.000000	10.411800
2159.000000	10.430600
2158.000000	10.453500
2157.000000	10.475700
2156.000000	10.508400
2155.000000	10.529700
2154.000000	10.565900
2153.000000	10.607800
2152.000000	10.637800
2151.000000	10.660300
2150.000000	10.685900
2149.000000	10.709200
2148.000000	10.752400
2147.000000	10.783800
2146.000000	10.805200
2145.000000	10.838100
2144.000000	10.845500
2143.000000	10.875500
2142.000000	10.919200
2141.000000	10.944000
2140.000000	10.962000
2139.000000	11.004000
2138.000000	11.013700
2137.000000	11.036300
2136.000000	11.072200
2135.000000	11.088000
2134.000000	11.097100
2133.000000	11.118600
2132.000000	11.138500
2131.000000	11.148100
2130.000000	11.171600
2129.000000	11.192900
2128.000000	11.187900
2127.000000	11.187200
2126.000000	11.186000
2125.000000	11.199900
2124.000000	11.211600
2123.000000	11.209500
2122.000000	11.211300
2121.000000	11.217100
2120.000000	11.203200
2119.000000	11.187200
2118.000000	11.196500
2117.000000	11.195000
2116.000000	11.186400
2115.000000	11.169800
2114.000000	11.150400
2113.000000	11.149700
2112.000000	11.145900
2111.000000	11.129000
2110.000000	11.113100
2109.000000	11.104600
2108.000000	11.089800
2107.000000	11.086400
2106.000000	11.087500
2105.000000	11.067500
2104.000000	11.049300
2103.000000	11.051300
2102.000000	11.033800
2101.000000	11.016500
2100.000000	11.009900
2099.000000	11.004800
2098.000000	10.996600
2097.000000	10.987400
2096.000000	10.971600
2095.000000	10.963400
2094.000000	10.961900
2093.000000	10.957800
2092.000000	10.950300
2091.000000	10.948700
2090.000000	10.947200
2089.000000	10.936200
2088.000000	10.930900
2087.000000	10.925800
2086.000000	10.931300
2085.000000	10.919500
2084.000000	10.905500
2083.000000	10.889800
2082.000000	10.877800
2081.000000	10.886900
2080.000000	10.877800
2079.000000	10.854000
2078.000000	10.839000
2077.000000	10.825300
2076.000000	10.810000
2075.000000	10.804200
2074.000000	10.781900
2073.000000	10.768700
2072.000000	10.761300
2071.000000	10.752000
2070.000000	10.731700
2069.000000	10.708500
2068.000000	10.686700
2067.000000	10.680500
2066.000000	10.668000
2065.000000	10.645400
2064.000000	10.631600
2063.000000	10.611700
2062.000000	10.618100
2061.000000	10.609100
2060.000000	10.601200
2059.000000	10.600100
2058.000000	10.610900
2057.000000	10.616400
2056.000000	10.642700
2055.000000	10.664700
2054.000000	10.698300
2053.000000	10.749900
2052.000000	10.807100
2051.000000	10.854300
2050.000000	10.923100
2049.000000	11.007200
2048.000000	11.066800
2047.000000	11.168900
2046.000000	11.258300
2045.000000	11.338800
2044.000000	11.430800
2043.000000	11.530800
2042.000000	11.612900
2041.000000	11.721500
2040.000000	11.815300
2039.000000	11.901500
2038.000000	11.994200
2037.000000	12.082200
2036.000000	12.149200
2035.000000	12.255700
2034.000000	12.319200
2033.000000	12.386400
2032.000000	12.460800
2031.000000	12.538300
2030.000000	12.590200
2029.000000	12.644400
2028.000000	12.710300
2027.000000	12.765500
2026.000000	12.830900
2025.000000	12.859200
2024.000000	12.900100
2023.000000	12.966800
2022.000000	12.998700
2021.000000	13.047900
2020.000000	13.088100
2019.000000	13.127700
2018.000000	13.148200
2017.000000	13.188400
2016.000000	13.214800
2015.000000	13.250800
2014.000000	13.265300
2013.000000	13.280600
2012.000000	13.316300
2011.000000	13.312400
2010.000000	13.328300
2009.000000	13.346200
2008.000000	13.340200
2007.000000	13.329000
2006.000000	13.341300
2005.000000	13.331600
2004.000000	13.327500
2003.000000	13.298000
2002.000000	13.286700
2001.000000	13.265200
2000.000000	13.242200
1999.000000	13.241000
1998.000000	13.217600
1997.000000	13.181600
1996.000000	13.135700
1995.000000	13.111700
1994.000000	13.082200
1993.000000	13.038300
1992.000000	12.988800
1991.000000	12.944900
1990.000000	12.904400
1989.000000	12.859100
1988.000000	12.808500
1987.000000	12.771500
1986.000000	12.715700
1985.000000	12.665600
1984.000000	12.615900
1983.000000	12.562700
1982.000000	12.502700
1981.000000	12.467600
1980.000000	12.402500
1979.000000	12.344500
1978.000000	12.300900
1977.000000	12.243500
1976.000000	12.192200
1975.000000	12.139100
1974.000000	12.102900
1973.000000	12.063100
1972.000000	12.009300
1971.000000	11.973200
1970.000000	11.945600
1969.000000	11.848300
1968.000000	11.852900
1967.000000	11.801400
1966.000000	11.761000
1965.000000	11.720900
1964.000000	11.671600
1963.000000	11.634600
1962.000000	11.601300
1961.000000	11.556500
1960.000000	11.505500
1959.000000	11.481200
1958.000000	11.431300
1957.000000	11.398300
1956.000000	11.374700
1955.000000	11.328600
1954.000000	11.290600
1953.000000	11.245800
1952.000000	11.216100
1951.000000	11.195100
1950.000000	11.174100
1949.000000	11.154400
1948.000000	11.126100
1947.000000	11.099500
1946.000000	11.096000
1945.000000	11.066700
1944.000000	11.076200
1943.000000	11.046900
1942.000000	11.062500
1941.000000	11.064500
1940.000000	11.061500
1939.000000	11.088900
1938.000000	11.113000
1937.000000	11.101600
1936.000000	11.140400
1935.000000	11.197000
1934.000000	11.224100
1933.000000	11.278500
1932.000000	11.335300
1931.000000	11.404800
1930.000000	11.478000
1929.000000	11.553800
1928.000000	11.614800
1927.000000	11.696800
1926.000000	11.795800
1925.000000	11.915600
1924.000000	12.019400
1923.000000	12.131600
1922.000000	12.242400
1921.000000	12.363700
1920.000000	12.499800
1919.000000	12.626100
1918.000000	12.788900
1917.000000	12.931100
1916.000000	13.092100
1915.000000	13.247500
1914.000000	13.420400
1913.000000	13.583700
1912.000000	13.744300
1911.000000	13.918500
1910.000000	14.111400
1909.000000	14.301900
1908.000000	14.497400
1907.000000	14.710600
1906.000000	14.919400
1905.000000	15.131400
1904.000000	15.342200
1903.000000	15.544500
1902.000000	15.767900
1901.000000	16.008800
1900.000000	16.225300
1899.000000	16.442600
1898.000000	16.683200
1897.000000	16.915700
1896.000000	17.133500
1895.000000	17.368200
1894.000000	17.610500
1893.000000	17.853900
1892.000000	18.093400
1891.000000	18.326400
1890.000000	18.541700
1889.000000	18.814800
1888.000000	19.088000
1887.000000	19.372200
1886.000000	19.679600
1885.000000	20.050100
1884.000000	20.425900
1883.000000	20.786700
1882.000000	21.196200
1881.000000	21.583800
1880.000000	21.944800
1879.000000	22.308900
1878.000000	22.665600
1877.000000	22.952000
1876.000000	23.236600
1875.000000	23.507700
1874.000000	23.743400
1873.000000	23.950000
1872.000000	24.124100
1871.000000	24.261200
1870.000000	24.389200
1869.000000	24.509400
1868.000000	24.592800
1867.000000	24.651700
1866.000000	24.719200
1865.000000	24.770100
1864.000000	24.821300
1863.000000	24.877300
1862.000000	24.920800
1861.000000	24.925000
1860.000000	24.902800
1859.000000	24.877100
1858.000000	24.871500
1857.000000	24.846000
1856.000000	24.793200
1855.000000	24.741900
1854.000000	24.664200
1853.000000	24.593900
1852.000000	24.565500
1851.000000	24.538000
1850.000000	24.502300
1849.000000	24.428600
1848.000000	24.295600
1847.000000	24.171000
1846.000000	24.099700
1845.000000	24.084000
1844.000000	24.079200
1843.000000	24.072600
1842.000000	24.015400
1841.000000	23.930400
1840.000000	23.868300
1839.000000	23.819100
1838.000000	23.774700
1837.000000	23.708200
1836.000000	23.621000
1835.000000	23.533800
1834.000000	23.469600
1833.000000	23.417900
1832.000000	23.359400
1831.000000	23.274100
1830.000000	23.194100
1829.000000	23.112900
1828.000000	23.025200
1827.000000	22.946600
1826.000000	22.882500
1825.000000	22.856800
1824.000000	22.854700
1823.000000	22.869600
1822.000000	22.852300
1821.000000	22.793200
1820.000000	22.739900
1819.000000	22.719900
1818.000000	22.730000
1817.000000	22.736100
1816.000000	22.735000
1815.000000	22.734500
1814.000000	22.731600
1813.000000	22.718500
1812.000000	22.702900
1811.000000	22.681200
1810.000000	22.647000
1809.000000	22.621500
1808.000000	22.612000
1807.000000	22.571600
1806.000000	22.522700
1805.000000	22.497100
1804.000000	22.466300
1803.000000	22.437300
1802.000000	22.409800
1801.000000	22.358900
1800.000000	22.322700
1799.000000	22.278500
1798.000000	22.249700
1797.000000	22.232100
1796.000000	22.205600
1795.000000	22.160100
1794.000000	22.120800
1793.000000	22.088900
1792.000000	22.052600
1791.000000	22.016800
1790.000000	21.962100
1789.000000	21.917300
1788.000000	21.855100
1787.000000	21.780800
1786.000000	21.722700
1785.000000	21.674000
1784.000000	21.592300
1783.000000	21.534200
1782.000000	21.473200
1781.000000	21.391000
1780.000000	21.318400
1779.000000	21.239300
1778.000000	21.143300
1777.000000	21.045700
1776.000000	20.933800
1775.000000	20.812600
1774.000000	20.688700
1773.000000	20.560100
1772.000000	20.449400
1771.000000	20.317200
1770.000000	20.187900
1769.000000	20.093000
1768.000000	19.972900
1767.000000	19.880800
1766.000000	19.825600
1765.000000	19.774700
1764.000000	19.740000
1763.000000	19.734000
1762.000000	19.758700
1761.000000	19.826600
1760.000000	19.866000
1759.000000	19.918900
1758.000000	19.974600
1757.000000	20.015300
1756.000000	20.026000
1755.000000	20.042700
1754.000000	20.034700
1753.000000	20.014200
1752.000000	19.981000
1751.000000	19.931800
1750.000000	19.865500
1749.000000	19.799300
1748.000000	19.689700
1747.000000	19.574200
1746.000000	19.444500
1745.000000	19.283100
1744.000000	19.105300
1743.000000	18.911000
1742.000000	18.682800
1741.000000	18.439600
1740.000000	18.240700
1739.000000	18.035300
1738.000000	17.819700
1737.000000	17.676500
1736.000000	17.578900
1735.000000	17.521000
1734.000000	17.495200
1733.000000	17.526500
1732.000000	17.575900
1731.000000	17.649900
1730.000000	17.733000
1729.000000	17.836400
1728.000000	17.934600
1727.000000	18.023300
1726.000000	18.083100
1725.000000	18.124000
1724.000000	18.142700
1723.000000	18.159300
1722.000000	18.178400
1721.000000	18.176500
1720.000000	18.179100
1719.000000	18.194000
1718.000000	18.228100
1717.000000	18.255200
1716.000000	18.319800
1715.000000	18.361500
1714.000000	18.414300
1713.000000	18.457000
1712.000000	18.502300
1711.000000	18.505800
1710.000000	18.497100
1709.000000	18.480700
1708.000000	18.460500
1707.000000	18.428600
1706.000000	18.401900
1705.000000	18.337700
1704.000000	18.279300
1703.000000	18.174500
1702.000000	18.066100
1701.000000	17.931100
1700.000000	17.769000
1699.000000	17.644700
1698.000000	17.511000
1697.000000	17.464100
1696.000000	17.429600
1695.000000	17.478300
1694.000000	17.556800
1693.000000	17.709500
1692.000000	17.878000
1691.000000	18.004300
1690.000000	18.160900
1689.000000	18.254700
1688.000000	18.263900
1687.000000	18.306900
1686.000000	18.327400
1685.000000	18.415700
1684.000000	18.600500
1683.000000	18.857500
1682.000000	19.265300
1681.000000	19.761300
1680.000000	20.317000
1679.000000	20.855300
1678.000000	21.353400
1677.000000	21.817000
1676.000000	22.243400
1675.000000	22.627700
1674.000000	22.923000
1673.000000	23.200800
1672.000000	23.456700
1671.000000	23.677200
1670.000000	23.882000
1669.000000	24.029400
1668.000000	24.201400
1667.000000	24.335000
1666.000000	24.446400
1665.000000	24.548800
1664.000000	24.649800
1663.000000	24.716400
1662.000000	24.796400
1661.000000	24.850300
1660.000000	24.889100
1659.000000	24.952700
1658.000000	24.981900
1657.000000	25.037300
1656.000000	25.051300
1655.000000	25.065300
1654.000000	25.060400
1653.000000	25.049800
1652.000000	25.034900
1651.000000	25.017300
1650.000000	24.997100
1649.000000	24.974000
1648.000000	24.930900
1647.000000	24.896400
1646.000000	24.857300
1645.000000	24.806100
1644.000000	24.770600
1643.000000	24.719700
1642.000000	24.664100
1641.000000	24.618500
1640.000000	24.551600
1639.000000	24.489500
1638.000000	24.447300
1637.000000	24.395900
1636.000000	24.322100
1635.000000	24.256900
1634.000000	24.203300
1633.000000	24.120600
1632.000000	24.049600
1631.000000	23.983400
1630.000000	23.906700
1629.000000	23.814900
1628.000000	23.739800
1627.000000	23.668700
1626.000000	23.571200
1625.000000	23.488700
1624.000000	23.412800
1623.000000	23.319800
1622.000000	23.238700
1621.000000	23.164900
1620.000000	23.080800
1619.000000	22.984600
1618.000000	22.915300
1617.000000	22.835700
1616.000000	22.771400
1615.000000	22.693600
1614.000000	22.608200
1613.000000	22.549400
