PE UV       SUBTECH     SPECTRUM    ASCII       PEDS        4.00        
   -1
CICIMAUCR0020-6.Sample.ASC
24/04/25
16:11:31.00
24/04/25
16:11:31.00
Vinicio Soto Monge
C. resplendens
250,000000
1
Lambda 1050
1050L1511233
PerkinElmer UV WinLab 6.3.2.0749 / 2.02.05 Lambda 900 UV/VIS/NIR, Aug  7 2015 09:38:08

0
0
3350/servo 860,8/2
0
0
UV/VIS
1
1
1
DoubleDePol,CommonBeamDepol,RBeamAtt,SBeamAtt,60mm sphere, WB InGaAs Detector
0
0
0
0
Program
Program
3350/servo 860,8/2
3350/0,2 860,8/0,2
3350/0,2 860,8/0,2
0
15.00
 
 
 
0
 
860,8
319,2
860,8
Front
100
on
S:100 R:100
0
0
0
0
 
0
 
 
 
0
 
 
0
0
0
0
0
 
 
 
 
0
0


0
0
#HDR
-1
-1
#GR
nm
%R
1.0
0.0
2500,000000
-1,000000
2251
8
83,086600
5,660700
#DATA
2500.000000	7.676800
2499.000000	7.599900
2498.000000	7.684500
2497.000000	7.516000
2496.000000	7.481600
2495.000000	7.572500
2494.000000	7.426700
2493.000000	7.508300
2492.000000	7.477700
2491.000000	7.459000
2490.000000	7.448500
2489.000000	7.434900
2488.000000	7.448600
2487.000000	7.432100
2486.000000	7.463300
2485.000000	7.461500
2484.000000	7.387900
2483.000000	7.377500
2482.000000	7.397800
2481.000000	7.412700
2480.000000	7.370800
2479.000000	7.339600
2478.000000	7.391300
2477.000000	7.344800
2476.000000	7.338600
2475.000000	7.354600
2474.000000	7.326100
2473.000000	7.311700
2472.000000	7.323200
2471.000000	7.270300
2470.000000	7.325200
2469.000000	7.326900
2468.000000	7.333600
2467.000000	7.309100
2466.000000	7.319000
2465.000000	7.327900
2464.000000	7.359700
2463.000000	7.336600
2462.000000	7.389700
2461.000000	7.402200
2460.000000	7.442400
2459.000000	7.495900
2458.000000	7.526400
2457.000000	7.573200
2456.000000	7.592800
2455.000000	7.628300
2454.000000	7.686000
2453.000000	7.738500
2452.000000	7.776100
2451.000000	7.828100
2450.000000	7.902500
2449.000000	7.940000
2448.000000	8.004700
2447.000000	8.058600
2446.000000	8.113000
2445.000000	8.154600
2444.000000	8.194000
2443.000000	8.248400
2442.000000	8.308600
2441.000000	8.340800
2440.000000	8.402500
2439.000000	8.437500
2438.000000	8.471700
2437.000000	8.528900
2436.000000	8.563700
2435.000000	8.602400
2434.000000	8.643300
2433.000000	8.673500
2432.000000	8.691400
2431.000000	8.728000
2430.000000	8.748000
2429.000000	8.779800
2428.000000	8.820800
2427.000000	8.837200
2426.000000	8.857800
2425.000000	8.883700
2424.000000	8.890600
2423.000000	8.901200
2422.000000	8.928400
2421.000000	8.942200
2420.000000	8.953200
2419.000000	8.985300
2418.000000	8.995100
2417.000000	8.983800
2416.000000	9.022300
2415.000000	9.047700
2414.000000	9.061800
2413.000000	9.090900
2412.000000	9.106200
2411.000000	9.134700
2410.000000	9.192700
2409.000000	9.274900
2408.000000	9.336100
2407.000000	9.371600
2406.000000	9.399900
2405.000000	9.428300
2404.000000	9.441000
2403.000000	9.465100
2402.000000	9.524100
2401.000000	9.570700
2400.000000	9.592000
2399.000000	9.615800
2398.000000	9.652100
2397.000000	9.706000
2396.000000	9.741000
2395.000000	9.760600
2394.000000	9.789300
2393.000000	9.824900
2392.000000	9.863600
2391.000000	9.873400
2390.000000	9.890700
2389.000000	9.911000
2388.000000	9.933600
2387.000000	9.958100
2386.000000	9.969900
2385.000000	9.967200
2384.000000	9.977400
2383.000000	9.995300
2382.000000	9.998000
2381.000000	10.005400
2380.000000	10.004100
2379.000000	9.987200
2378.000000	9.982900
2377.000000	9.986600
2376.000000	9.974000
2375.000000	9.959200
2374.000000	9.965100
2373.000000	9.950300
2372.000000	9.913100
2371.000000	9.873200
2370.000000	9.847100
2369.000000	9.834700
2368.000000	9.794700
2367.000000	9.753800
2366.000000	9.724700
2365.000000	9.669100
2364.000000	9.594500
2363.000000	9.549300
2362.000000	9.511300
2361.000000	9.450900
2360.000000	9.412700
2359.000000	9.377200
2358.000000	9.320900
2357.000000	9.285800
2356.000000	9.272400
2355.000000	9.259000
2354.000000	9.261600
2353.000000	9.262100
2352.000000	9.293300
2351.000000	9.321300
2350.000000	9.345300
2349.000000	9.420200
2348.000000	9.468500
2347.000000	9.511800
2346.000000	9.583600
2345.000000	9.646200
2344.000000	9.690000
2343.000000	9.754200
2342.000000	9.808700
2341.000000	9.856000
2340.000000	9.885100
2339.000000	9.902000
2338.000000	9.933700
2337.000000	9.947900
2336.000000	9.930500
2335.000000	9.923000
2334.000000	9.926100
2333.000000	9.920300
2332.000000	9.870700
2331.000000	9.813800
2330.000000	9.784200
2329.000000	9.761400
2328.000000	9.714100
2327.000000	9.654700
2326.000000	9.576300
2325.000000	9.496700
2324.000000	9.449500
2323.000000	9.383200
2322.000000	9.281900
2321.000000	9.187100
2320.000000	9.097200
2319.000000	8.996100
2318.000000	8.914100
2317.000000	8.811600
2316.000000	8.713400
2315.000000	8.615400
2314.000000	8.539200
2313.000000	8.464300
2312.000000	8.393800
2311.000000	8.341400
2310.000000	8.297000
2309.000000	8.256400
2308.000000	8.249300
2307.000000	8.252700
2306.000000	8.273400
2305.000000	8.305200
2304.000000	8.365200
2303.000000	8.410200
2302.000000	8.495800
2301.000000	8.589100
2300.000000	8.681900
2299.000000	8.761700
2298.000000	8.887900
2297.000000	8.972100
2296.000000	9.048800
2295.000000	9.093900
2294.000000	9.197900
2293.000000	9.260900
2292.000000	9.326000
2291.000000	9.357100
2290.000000	9.351700
2289.000000	9.366100
2288.000000	9.358400
2287.000000	9.353200
2286.000000	9.323100
2285.000000	9.292800
2284.000000	9.283000
2283.000000	9.246700
2282.000000	9.199300
2281.000000	9.141900
2280.000000	9.127800
2279.000000	9.079200
2278.000000	9.030800
2277.000000	9.009300
2276.000000	8.985700
2275.000000	8.967100
2274.000000	8.957900
2273.000000	8.948800
2272.000000	8.988300
2271.000000	9.009400
2270.000000	9.035700
2269.000000	9.095300
2268.000000	9.171500
2267.000000	9.251500
2266.000000	9.355700
2265.000000	9.491200
2264.000000	9.639400
2263.000000	9.841000
2262.000000	10.024000
2261.000000	10.232300
2260.000000	10.440200
2259.000000	10.683800
2258.000000	10.905900
2257.000000	11.163700
2256.000000	11.413100
2255.000000	11.679000
2254.000000	11.901800
2253.000000	12.099900
2252.000000	12.342100
2251.000000	12.533100
2250.000000	12.777900
2249.000000	12.961000
2248.000000	13.155400
2247.000000	13.313200
2246.000000	13.479400
2245.000000	13.641900
2244.000000	13.775800
2243.000000	13.886300
2242.000000	14.031100
2241.000000	14.142900
2240.000000	14.234500
2239.000000	14.354000
2238.000000	14.443700
2237.000000	14.554100
2236.000000	14.631100
2235.000000	14.704200
2234.000000	14.784700
2233.000000	14.822900
2232.000000	14.874500
2231.000000	14.946800
2230.000000	14.963700
2229.000000	14.998200
2228.000000	15.018300
2227.000000	15.030000
2226.000000	15.045800
2225.000000	15.088300
2224.000000	15.080200
2223.000000	15.101800
2222.000000	15.067300
2221.000000	15.077400
2220.000000	15.059000
2219.000000	15.026700
2218.000000	15.019800
2217.000000	15.005800
2216.000000	14.990700
2215.000000	14.985200
2214.000000	14.967700
2213.000000	14.932100
2212.000000	14.911700
2211.000000	14.878900
2210.000000	14.875000
2209.000000	14.846400
2208.000000	14.843100
2207.000000	14.847100
2206.000000	14.831500
2205.000000	14.814500
2204.000000	14.808700
2203.000000	14.796700
2202.000000	14.788000
2201.000000	14.770200
2200.000000	14.765600
2199.000000	14.747900
2198.000000	14.775700
2197.000000	14.765900
2196.000000	14.757900
2195.000000	14.725200
2194.000000	14.703500
2193.000000	14.697500
2192.000000	14.706500
2191.000000	14.683300
2190.000000	14.663900
2189.000000	14.663300
2188.000000	14.640100
2187.000000	14.632200
2186.000000	14.619900
2185.000000	14.568700
2184.000000	14.565700
2183.000000	14.552700
2182.000000	14.518300
2181.000000	14.486200
2180.000000	14.470500
2179.000000	14.465200
2178.000000	14.459600
2177.000000	14.459100
2176.000000	14.428700
2175.000000	14.433400
2174.000000	14.432100
2173.000000	14.407400
2172.000000	14.407100
2171.000000	14.401600
2170.000000	14.416900
2169.000000	14.423400
2168.000000	14.422400
2167.000000	14.426200
2166.000000	14.430800
2165.000000	14.447000
2164.000000	14.463300
2163.000000	14.482100
2162.000000	14.483600
2161.000000	14.505000
2160.000000	14.521900
2159.000000	14.545600
2158.000000	14.550400
2157.000000	14.585200
2156.000000	14.607300
2155.000000	14.648100
2154.000000	14.686000
2153.000000	14.718600
2152.000000	14.757500
2151.000000	14.780900
2150.000000	14.783800
2149.000000	14.814000
2148.000000	14.836800
2147.000000	14.879800
2146.000000	14.901300
2145.000000	14.934000
2144.000000	14.966300
2143.000000	14.985700
2142.000000	15.018700
2141.000000	15.055900
2140.000000	15.071400
2139.000000	15.096200
2138.000000	15.137700
2137.000000	15.146400
2136.000000	15.169900
2135.000000	15.172800
2134.000000	15.181900
2133.000000	15.199100
2132.000000	15.229800
2131.000000	15.247100
2130.000000	15.254600
2129.000000	15.249800
2128.000000	15.262500
2127.000000	15.271700
2126.000000	15.276100
2125.000000	15.277700
2124.000000	15.263000
2123.000000	15.263900
2122.000000	15.274900
2121.000000	15.246200
2120.000000	15.234800
2119.000000	15.255500
2118.000000	15.233900
2117.000000	15.194900
2116.000000	15.176300
2115.000000	15.158800
2114.000000	15.157400
2113.000000	15.142500
2112.000000	15.105000
2111.000000	15.084800
2110.000000	15.077900
2109.000000	15.066500
2108.000000	15.044200
2107.000000	15.008700
2106.000000	14.974000
2105.000000	14.965500
2104.000000	14.964000
2103.000000	14.946700
2102.000000	14.929000
2101.000000	14.911400
2100.000000	14.890800
2099.000000	14.873600
2098.000000	14.852300
2097.000000	14.838200
2096.000000	14.827700
2095.000000	14.811300
2094.000000	14.800600
2093.000000	14.793000
2092.000000	14.779200
2091.000000	14.760900
2090.000000	14.770800
2089.000000	14.781600
2088.000000	14.771200
2087.000000	14.751900
2086.000000	14.730100
2085.000000	14.715900
2084.000000	14.721500
2083.000000	14.717900
2082.000000	14.693100
2081.000000	14.678000
2080.000000	14.674500
2079.000000	14.657600
2078.000000	14.643100
2077.000000	14.625800
2076.000000	14.607300
2075.000000	14.599400
2074.000000	14.565000
2073.000000	14.562200
2072.000000	14.563700
2071.000000	14.546100
2070.000000	14.522000
2069.000000	14.518100
2068.000000	14.501600
2067.000000	14.505700
2066.000000	14.501000
2065.000000	14.481800
2064.000000	14.474000
2063.000000	14.473500
2062.000000	14.474000
2061.000000	14.485500
2060.000000	14.495100
2059.000000	14.496100
2058.000000	14.513000
2057.000000	14.563300
2056.000000	14.582600
2055.000000	14.624000
2054.000000	14.683000
2053.000000	14.749700
2052.000000	14.839800
2051.000000	14.913300
2050.000000	14.986600
2049.000000	15.088200
2048.000000	15.199900
2047.000000	15.305800
2046.000000	15.423900
2045.000000	15.549300
2044.000000	15.664000
2043.000000	15.795000
2042.000000	15.912300
2041.000000	16.022200
2040.000000	16.173600
2039.000000	16.301000
2038.000000	16.413800
2037.000000	16.516000
2036.000000	16.601700
2035.000000	16.726400
2034.000000	16.816800
2033.000000	16.926100
2032.000000	17.019400
2031.000000	17.121300
2030.000000	17.186800
2029.000000	17.259400
2028.000000	17.327100
2027.000000	17.411400
2026.000000	17.485200
2025.000000	17.554200
2024.000000	17.612000
2023.000000	17.672900
2022.000000	17.727400
2021.000000	17.788400
2020.000000	17.845000
2019.000000	17.876500
2018.000000	17.914600
2017.000000	17.963300
2016.000000	18.007700
2015.000000	18.035400
2014.000000	18.063300
2013.000000	18.091000
2012.000000	18.121900
2011.000000	18.148000
2010.000000	18.140000
2009.000000	18.140900
2008.000000	18.135900
2007.000000	18.131300
2006.000000	18.126800
2005.000000	18.118800
2004.000000	18.091100
2003.000000	18.100100
2002.000000	18.041900
2001.000000	17.994700
2000.000000	17.981600
1999.000000	17.958200
1998.000000	17.908900
1997.000000	17.887600
1996.000000	17.834100
1995.000000	17.774700
1994.000000	17.725600
1993.000000	17.672000
1992.000000	17.621400
1991.000000	17.535000
1990.000000	17.515500
1989.000000	17.424000
1988.000000	17.364800
1987.000000	17.302100
1986.000000	17.209900
1985.000000	17.158700
1984.000000	17.059000
1983.000000	16.977100
1982.000000	16.897000
1981.000000	16.825300
1980.000000	16.727300
1979.000000	16.655500
1978.000000	16.585500
1977.000000	16.526200
1976.000000	16.437400
1975.000000	16.380600
1974.000000	16.290100
1973.000000	16.221000
1972.000000	16.143700
1971.000000	16.057400
1970.000000	15.993700
1969.000000	15.917100
1968.000000	15.835800
1967.000000	15.768700
1966.000000	15.690100
1965.000000	15.641900
1964.000000	15.562900
1963.000000	15.497300
1962.000000	15.416600
1961.000000	15.377800
1960.000000	15.290000
1959.000000	15.212400
1958.000000	15.150400
1957.000000	15.078800
1956.000000	15.016200
1955.000000	14.955800
1954.000000	14.895100
1953.000000	14.819000
1952.000000	14.760700
1951.000000	14.704100
1950.000000	14.638100
1949.000000	14.590300
1948.000000	14.546400
1947.000000	14.491300
1946.000000	14.464600
1945.000000	14.431800
1944.000000	14.404800
1943.000000	14.360000
1942.000000	14.322000
1941.000000	14.305700
1940.000000	14.302000
1939.000000	14.310800
1938.000000	14.338100
1937.000000	14.341800
1936.000000	14.380900
1935.000000	14.390300
1934.000000	14.422800
1933.000000	14.471300
1932.000000	14.522900
1931.000000	14.580600
1930.000000	14.660700
1929.000000	14.740100
1928.000000	14.829600
1927.000000	14.941800
1926.000000	15.039900
1925.000000	15.164600
1924.000000	15.274500
1923.000000	15.382500
1922.000000	15.542100
1921.000000	15.729500
1920.000000	15.933200
1919.000000	16.085900
1918.000000	16.250600
1917.000000	16.402500
1916.000000	16.560900
1915.000000	16.738500
1914.000000	16.978500
1913.000000	17.235000
1912.000000	17.483300
1911.000000	17.690700
1910.000000	17.876700
1909.000000	18.042900
1908.000000	18.259500
1907.000000	18.513600
1906.000000	18.814200
1905.000000	19.107200
1904.000000	19.377100
1903.000000	19.640100
1902.000000	19.886100
1901.000000	20.141800
1900.000000	20.447000
1899.000000	20.806200
1898.000000	21.132800
1897.000000	21.419400
1896.000000	21.634400
1895.000000	21.852900
1894.000000	22.102700
1893.000000	22.400500
1892.000000	22.757900
1891.000000	23.085300
1890.000000	23.393000
1889.000000	23.686300
1888.000000	24.024700
1887.000000	24.338600
1886.000000	24.718700
1885.000000	25.154400
1884.000000	25.650100
1883.000000	26.135900
1882.000000	26.596400
1881.000000	27.076400
1880.000000	27.488400
1879.000000	27.902400
1878.000000	28.322200
1877.000000	28.696100
1876.000000	29.053200
1875.000000	29.390200
1874.000000	29.723000
1873.000000	30.032500
1872.000000	30.315400
1871.000000	30.628000
1870.000000	30.905600
1869.000000	31.156900
1868.000000	31.315800
1867.000000	31.429200
1866.000000	31.489600
1865.000000	31.558500
1864.000000	31.585100
1863.000000	31.610100
1862.000000	31.675100
1861.000000	31.736500
1860.000000	31.785200
1859.000000	31.848100
1858.000000	31.883500
1857.000000	31.864100
1856.000000	31.840800
1855.000000	31.853600
1854.000000	31.846900
1853.000000	31.789200
1852.000000	31.727200
1851.000000	31.649500
1850.000000	31.571900
1849.000000	31.557400
1848.000000	31.578600
1847.000000	31.588600
1846.000000	31.541200
1845.000000	31.418800
1844.000000	31.295700
1843.000000	31.258000
1842.000000	31.286100
1841.000000	31.300200
1840.000000	31.261200
1839.000000	31.200000
1838.000000	31.155200
1837.000000	31.133300
1836.000000	31.114500
1835.000000	31.053600
1834.000000	30.952800
1833.000000	30.844300
1832.000000	30.769300
1831.000000	30.718000
1830.000000	30.657400
1829.000000	30.578200
1828.000000	30.477500
1827.000000	30.420400
1826.000000	30.390500
1825.000000	30.315000
1824.000000	30.213700
1823.000000	30.169500
1822.000000	30.170400
1821.000000	30.187800
1820.000000	30.179200
1819.000000	30.138800
1818.000000	30.097400
1817.000000	30.079400
1816.000000	30.084300
1815.000000	30.068600
1814.000000	30.056700
1813.000000	30.047900
1812.000000	30.041700
1811.000000	30.015800
1810.000000	29.969000
1809.000000	29.917800
1808.000000	29.861000
1807.000000	29.830400
1806.000000	29.780400
1805.000000	29.723100
1804.000000	29.659300
1803.000000	29.600300
1802.000000	29.567600
1801.000000	29.526000
1800.000000	29.444300
1799.000000	29.383000
1798.000000	29.342100
1797.000000	29.283100
1796.000000	29.235300
1795.000000	29.196700
1794.000000	29.136700
1793.000000	29.071300
1792.000000	28.999300
1791.000000	28.943400
1790.000000	28.883700
1789.000000	28.816200
1788.000000	28.745300
1787.000000	28.667700
1786.000000	28.595400
1785.000000	28.510700
1784.000000	28.426100
1783.000000	28.352900
1782.000000	28.262600
1781.000000	28.152500
1780.000000	28.072100
1779.000000	27.983000
1778.000000	27.877900
1777.000000	27.761200
1776.000000	27.655700
1775.000000	27.525300
1774.000000	27.381200
1773.000000	27.243000
1772.000000	27.098500
1771.000000	26.943100
1770.000000	26.804100
1769.000000	26.674700
1768.000000	26.561100
1767.000000	26.431200
1766.000000	26.324600
1765.000000	26.260300
1764.000000	26.207800
1763.000000	26.196900
1762.000000	26.216700
1761.000000	26.243600
1760.000000	26.302100
1759.000000	26.357400
1758.000000	26.412600
1757.000000	26.478900
1756.000000	26.530600
1755.000000	26.553500
1754.000000	26.554600
1753.000000	26.548000
1752.000000	26.527500
1751.000000	26.484600
1750.000000	26.416900
1749.000000	26.352800
1748.000000	26.270500
1747.000000	26.173600
1746.000000	26.038200
1745.000000	25.870600
1744.000000	25.713600
1743.000000	25.518600
1742.000000	25.280300
1741.000000	25.034800
1740.000000	24.806600
1739.000000	24.567300
1738.000000	24.339700
1737.000000	24.161300
1736.000000	24.012400
1735.000000	23.941600
1734.000000	23.908000
1733.000000	23.929800
1732.000000	23.992600
1731.000000	24.088300
1730.000000	24.243000
1729.000000	24.355000
1728.000000	24.480900
1727.000000	24.601000
1726.000000	24.709400
1725.000000	24.796600
1724.000000	24.867000
1723.000000	24.914700
1722.000000	24.931100
1721.000000	24.954100
1720.000000	24.970000
1719.000000	25.017100
1718.000000	25.040000
1717.000000	25.111100
1716.000000	25.172300
1715.000000	25.249200
1714.000000	25.311500
1713.000000	25.390500
1712.000000	25.441100
1711.000000	25.474600
1710.000000	25.496200
1709.000000	25.507900
1708.000000	25.483900
1707.000000	25.465600
1706.000000	25.425300
1705.000000	25.369800
1704.000000	25.297100
1703.000000	25.229700
1702.000000	25.107000
1701.000000	24.965000
1700.000000	24.800600
1699.000000	24.652000
1698.000000	24.510900
1697.000000	24.387200
1696.000000	24.337200
1695.000000	24.378200
1694.000000	24.424600
1693.000000	24.562300
1692.000000	24.766700
1691.000000	24.957200
1690.000000	25.117600
1689.000000	25.241100
1688.000000	25.304900
1687.000000	25.342500
1686.000000	25.367700
1685.000000	25.424700
1684.000000	25.532000
1683.000000	25.795400
1682.000000	26.184300
1681.000000	26.677000
1680.000000	27.203900
1679.000000	27.788200
1678.000000	28.372100
1677.000000	28.877000
1676.000000	29.338200
1675.000000	29.736100
1674.000000	30.078200
1673.000000	30.401600
1672.000000	30.634100
1671.000000	30.850900
1670.000000	31.053000
1669.000000	31.220700
1668.000000	31.381500
1667.000000	31.516600
1666.000000	31.613300
1665.000000	31.710900
1664.000000	31.811200
1663.000000	31.889900
1662.000000	31.968600
1661.000000	32.012900
1660.000000	32.041200
1659.000000	32.068700
1658.000000	32.094400
1657.000000	32.108000
1656.000000	32.116200
1655.000000	32.130500
1654.000000	32.109900
1653.000000	32.102200
1652.000000	32.076200
1651.000000	32.063800
1650.000000	32.017000
1649.000000	31.966600
1648.000000	31.936300
1647.000000	31.898200
1646.000000	31.834400
1645.000000	31.798500
1644.000000	31.735600
1643.000000	31.668700
1642.000000	31.606200
1641.000000	31.542600
1640.000000	31.483600
1639.000000	31.416900
1638.000000	31.337700
1637.000000	31.258100
1636.000000	31.203300
1635.000000	31.121600
1634.000000	31.033100
1633.000000	30.963200
1632.000000	30.885300
1631.000000	30.789700
1630.000000	30.709600
1629.000000	30.610000
1628.000000	30.536200
1627.000000	30.450200
1626.000000	30.338700
1625.000000	30.237800
1624.000000	30.175800
1623.000000	30.107100
1622.000000	30.020500
1621.000000	29.926200
1620.000000	29.828900
1619.000000	29.762400
1618.000000	29.665800
1617.000000	29.591600
1616.000000	29.512900
1615.000000	29.430500
1614.000000	29.360700
