PE UV       SUBTECH     SPECTRUM    ASCII       PEDS        4.00        
   -1
CICIMAUCR0100-1.Sample.ASC
24/04/18
15:25:56.00
24/04/18
15:25:56.00
Vinicio Soto Monge
C. cupreomarginata
250,000000
1
Lambda 1050
1050L1511233
PerkinElmer UV WinLab 6.3.2.0749 / 2.02.05 Lambda 900 UV/VIS/NIR, Aug  7 2015 09:38:08

0
0
3350/servo 860,8/2
0
0
UV/VIS
1
1
1
DoubleDePol,CommonBeamDepol,RBeamAtt,SBeamAtt,60mm sphere, WB InGaAs Detector
0
0
0
0
Program
Program
3350/servo 860,8/2
3350/0,2 860,8/0,2
3350/0,2 860,8/0,2
0
15.00
 
 
 
0
 
860,8
319,2
860,8
Front
100
on
S:100 R:100
0
0
0
0
 
0
 
 
 
0
 
 
0
0
0
0
0
 
 
 
 
0
0


0
0
#HDR
-1
-1
#GR
nm
%R
1.0
0.0
2500,000000
-1,000000
2251
8
67,533200
4,656700
#DATA
2500.000000	9.357300
2499.000000	9.290500
2498.000000	9.220300
2497.000000	9.220300
2496.000000	9.243800
2495.000000	9.160200
2494.000000	9.231000
2493.000000	9.122000
2492.000000	9.131600
2491.000000	9.163400
2490.000000	9.125600
2489.000000	9.089800
2488.000000	9.100200
2487.000000	9.061200
2486.000000	9.079500
2485.000000	9.109900
2484.000000	9.033600
2483.000000	9.075900
2482.000000	9.085700
2481.000000	9.060200
2480.000000	9.077900
2479.000000	9.089500
2478.000000	9.044500
2477.000000	9.063800
2476.000000	9.087100
2475.000000	9.128000
2474.000000	9.064300
2473.000000	9.057600
2472.000000	9.074100
2471.000000	9.105000
2470.000000	9.137600
2469.000000	9.126100
2468.000000	9.128500
2467.000000	9.121100
2466.000000	9.171600
2465.000000	9.188400
2464.000000	9.245500
2463.000000	9.262400
2462.000000	9.282300
2461.000000	9.331800
2460.000000	9.371900
2459.000000	9.420400
2458.000000	9.504100
2457.000000	9.560000
2456.000000	9.609000
2455.000000	9.655800
2454.000000	9.730300
2453.000000	9.809000
2452.000000	9.891300
2451.000000	9.950300
2450.000000	10.055900
2449.000000	10.107900
2448.000000	10.170000
2447.000000	10.265800
2446.000000	10.353600
2445.000000	10.436100
2444.000000	10.495700
2443.000000	10.567600
2442.000000	10.647900
2441.000000	10.741900
2440.000000	10.818900
2439.000000	10.876700
2438.000000	10.955900
2437.000000	11.016800
2436.000000	11.078600
2435.000000	11.169600
2434.000000	11.218800
2433.000000	11.270400
2432.000000	11.342500
2431.000000	11.392900
2430.000000	11.439900
2429.000000	11.500600
2428.000000	11.560100
2427.000000	11.613600
2426.000000	11.628800
2425.000000	11.676500
2424.000000	11.741900
2423.000000	11.772000
2422.000000	11.808200
2421.000000	11.833500
2420.000000	11.861800
2419.000000	11.895300
2418.000000	11.922000
2417.000000	11.951400
2416.000000	11.976800
2415.000000	12.007800
2414.000000	12.042100
2413.000000	12.074700
2412.000000	12.092400
2411.000000	12.118800
2410.000000	12.138900
2409.000000	12.157000
2408.000000	12.176100
2407.000000	12.198900
2406.000000	12.222800
2405.000000	12.250900
2404.000000	12.289000
2403.000000	12.305900
2402.000000	12.312700
2401.000000	12.322200
2400.000000	12.354200
2399.000000	12.399800
2398.000000	12.417000
2397.000000	12.439100
2396.000000	12.472200
2395.000000	12.493000
2394.000000	12.516800
2393.000000	12.538100
2392.000000	12.565300
2391.000000	12.574900
2390.000000	12.596700
2389.000000	12.614400
2388.000000	12.624100
2387.000000	12.637300
2386.000000	12.640400
2385.000000	12.636000
2384.000000	12.641900
2383.000000	12.626700
2382.000000	12.626600
2381.000000	12.654300
2380.000000	12.639200
2379.000000	12.610600
2378.000000	12.608000
2377.000000	12.588100
2376.000000	12.562000
2375.000000	12.557500
2374.000000	12.541800
2373.000000	12.498800
2372.000000	12.468400
2371.000000	12.451200
2370.000000	12.417200
2369.000000	12.382200
2368.000000	12.342500
2367.000000	12.293200
2366.000000	12.237500
2365.000000	12.190600
2364.000000	12.146100
2363.000000	12.081800
2362.000000	12.011800
2361.000000	11.951900
2360.000000	11.906700
2359.000000	11.837700
2358.000000	11.760900
2357.000000	11.724300
2356.000000	11.677400
2355.000000	11.630800
2354.000000	11.605600
2353.000000	11.575800
2352.000000	11.552200
2351.000000	11.564000
2350.000000	11.567600
2349.000000	11.577600
2348.000000	11.605700
2347.000000	11.644500
2346.000000	11.684800
2345.000000	11.727900
2344.000000	11.776200
2343.000000	11.817300
2342.000000	11.858800
2341.000000	11.902200
2340.000000	11.946700
2339.000000	11.965400
2338.000000	11.988200
2337.000000	12.024100
2336.000000	12.022500
2335.000000	12.014800
2334.000000	12.019900
2333.000000	11.979000
2332.000000	11.949000
2331.000000	11.933200
2330.000000	11.894600
2329.000000	11.848400
2328.000000	11.794500
2327.000000	11.734400
2326.000000	11.684300
2325.000000	11.619600
2324.000000	11.538200
2323.000000	11.463300
2322.000000	11.383400
2321.000000	11.272700
2320.000000	11.174800
2319.000000	11.072200
2318.000000	10.953900
2317.000000	10.840700
2316.000000	10.736500
2315.000000	10.622200
2314.000000	10.507100
2313.000000	10.400300
2312.000000	10.302700
2311.000000	10.209500
2310.000000	10.122200
2309.000000	10.061300
2308.000000	9.999600
2307.000000	9.939800
2306.000000	9.934500
2305.000000	9.927100
2304.000000	9.933100
2303.000000	9.978600
2302.000000	10.024900
2301.000000	10.102400
2300.000000	10.162600
2299.000000	10.241000
2298.000000	10.347500
2297.000000	10.440200
2296.000000	10.534300
2295.000000	10.638400
2294.000000	10.723400
2293.000000	10.784300
2292.000000	10.852900
2291.000000	10.903600
2290.000000	10.952200
2289.000000	10.979300
2288.000000	10.990200
2287.000000	10.985300
2286.000000	10.978600
2285.000000	10.968200
2284.000000	10.927100
2283.000000	10.906200
2282.000000	10.880500
2281.000000	10.812700
2280.000000	10.774400
2279.000000	10.707800
2278.000000	10.667600
2277.000000	10.639400
2276.000000	10.589400
2275.000000	10.540100
2274.000000	10.522500
2273.000000	10.497600
2272.000000	10.493000
2271.000000	10.479800
2270.000000	10.499000
2269.000000	10.528100
2268.000000	10.581400
2267.000000	10.677500
2266.000000	10.783400
2265.000000	10.873300
2264.000000	11.017700
2263.000000	11.185800
2262.000000	11.353400
2261.000000	11.561700
2260.000000	11.772800
2259.000000	12.018500
2258.000000	12.285900
2257.000000	12.537100
2256.000000	12.794800
2255.000000	13.049700
2254.000000	13.326700
2253.000000	13.570300
2252.000000	13.814300
2251.000000	14.090000
2250.000000	14.299100
2249.000000	14.536700
2248.000000	14.741700
2247.000000	14.937800
2246.000000	15.118000
2245.000000	15.274800
2244.000000	15.433000
2243.000000	15.584500
2242.000000	15.724100
2241.000000	15.849000
2240.000000	15.950400
2239.000000	16.077900
2238.000000	16.143200
2237.000000	16.238100
2236.000000	16.337100
2235.000000	16.417800
2234.000000	16.475200
2233.000000	16.531300
2232.000000	16.574300
2231.000000	16.629200
2230.000000	16.654200
2229.000000	16.706200
2228.000000	16.723700
2227.000000	16.717800
2226.000000	16.713400
2225.000000	16.738000
2224.000000	16.726100
2223.000000	16.714200
2222.000000	16.689400
2221.000000	16.673300
2220.000000	16.663700
2219.000000	16.657300
2218.000000	16.617300
2217.000000	16.595200
2216.000000	16.557100
2215.000000	16.513500
2214.000000	16.496200
2213.000000	16.457200
2212.000000	16.421100
2211.000000	16.407200
2210.000000	16.364700
2209.000000	16.333800
2208.000000	16.303300
2207.000000	16.307300
2206.000000	16.284900
2205.000000	16.260500
2204.000000	16.259700
2203.000000	16.212600
2202.000000	16.206800
2201.000000	16.195900
2200.000000	16.170200
2199.000000	16.161500
2198.000000	16.134000
2197.000000	16.129500
2196.000000	16.120600
2195.000000	16.122200
2194.000000	16.120700
2193.000000	16.086300
2192.000000	16.074200
2191.000000	16.067700
2190.000000	16.056100
2189.000000	16.056600
2188.000000	16.037100
2187.000000	16.045700
2186.000000	16.018800
2185.000000	16.001400
2184.000000	15.981700
2183.000000	15.967800
2182.000000	15.944800
2181.000000	15.928600
2180.000000	15.936200
2179.000000	15.915700
2178.000000	15.901800
2177.000000	15.892300
2176.000000	15.896000
2175.000000	15.888000
2174.000000	15.894500
2173.000000	15.889900
2172.000000	15.897000
2171.000000	15.892000
2170.000000	15.911600
2169.000000	15.927900
2168.000000	15.937300
2167.000000	15.968800
2166.000000	16.001300
2165.000000	16.019500
2164.000000	16.032200
2163.000000	16.056600
2162.000000	16.081500
2161.000000	16.115300
2160.000000	16.143600
2159.000000	16.180300
2158.000000	16.214000
2157.000000	16.257000
2156.000000	16.297300
2155.000000	16.334500
2154.000000	16.395000
2153.000000	16.451100
2152.000000	16.492800
2151.000000	16.555100
2150.000000	16.606800
2149.000000	16.654200
2148.000000	16.705200
2147.000000	16.738700
2146.000000	16.788900
2145.000000	16.827400
2144.000000	16.884900
2143.000000	16.931100
2142.000000	16.952800
2141.000000	17.005000
2140.000000	17.066200
2139.000000	17.094500
2138.000000	17.120600
2137.000000	17.155400
2136.000000	17.184600
2135.000000	17.218700
2134.000000	17.246900
2133.000000	17.266600
2132.000000	17.287900
2131.000000	17.331100
2130.000000	17.334600
2129.000000	17.335900
2128.000000	17.362500
2127.000000	17.371800
2126.000000	17.379300
2125.000000	17.383800
2124.000000	17.377000
2123.000000	17.368800
2122.000000	17.370900
2121.000000	17.360900
2120.000000	17.342500
2119.000000	17.332600
2118.000000	17.303200
2117.000000	17.291200
2116.000000	17.280600
2115.000000	17.245400
2114.000000	17.219600
2113.000000	17.209600
2112.000000	17.203700
2111.000000	17.164700
2110.000000	17.121300
2109.000000	17.099900
2108.000000	17.078500
2107.000000	17.044200
2106.000000	17.019100
2105.000000	16.993200
2104.000000	16.971300
2103.000000	16.954600
2102.000000	16.919700
2101.000000	16.892800
2100.000000	16.857200
2099.000000	16.822900
2098.000000	16.816600
2097.000000	16.788100
2096.000000	16.750400
2095.000000	16.730200
2094.000000	16.709800
2093.000000	16.696200
2092.000000	16.688000
2091.000000	16.658900
2090.000000	16.629300
2089.000000	16.617500
2088.000000	16.613200
2087.000000	16.579700
2086.000000	16.546600
2085.000000	16.535500
2084.000000	16.514600
2083.000000	16.481000
2082.000000	16.448900
2081.000000	16.416900
2080.000000	16.399900
2079.000000	16.366200
2078.000000	16.319000
2077.000000	16.278300
2076.000000	16.244200
2075.000000	16.204500
2074.000000	16.163100
2073.000000	16.123900
2072.000000	16.079100
2071.000000	16.037000
2070.000000	15.993700
2069.000000	15.944900
2068.000000	15.895600
2067.000000	15.852300
2066.000000	15.803600
2065.000000	15.758300
2064.000000	15.726200
2063.000000	15.680600
2062.000000	15.666900
2061.000000	15.644000
2060.000000	15.605400
2059.000000	15.590500
2058.000000	15.577300
2057.000000	15.579100
2056.000000	15.573700
2055.000000	15.596600
2054.000000	15.631700
2053.000000	15.678900
2052.000000	15.725900
2051.000000	15.787100
2050.000000	15.866900
2049.000000	15.945500
2048.000000	16.036400
2047.000000	16.130700
2046.000000	16.242900
2045.000000	16.356500
2044.000000	16.484500
2043.000000	16.592000
2042.000000	16.718800
2041.000000	16.825800
2040.000000	16.935500
2039.000000	17.068800
2038.000000	17.197800
2037.000000	17.300100
2036.000000	17.413400
2035.000000	17.503700
2034.000000	17.588500
2033.000000	17.687800
2032.000000	17.763800
2031.000000	17.860500
2030.000000	17.951600
2029.000000	18.031100
2028.000000	18.075900
2027.000000	18.125400
2026.000000	18.193300
2025.000000	18.255500
2024.000000	18.317300
2023.000000	18.363900
2022.000000	18.423700
2021.000000	18.454000
2020.000000	18.505200
2019.000000	18.537700
2018.000000	18.582100
2017.000000	18.614000
2016.000000	18.626300
2015.000000	18.652200
2014.000000	18.656500
2013.000000	18.696600
2012.000000	18.705700
2011.000000	18.686800
2010.000000	18.680000
2009.000000	18.703100
2008.000000	18.680700
2007.000000	18.684500
2006.000000	18.663200
2005.000000	18.648600
2004.000000	18.613500
2003.000000	18.581100
2002.000000	18.525800
2001.000000	18.494200
2000.000000	18.472400
1999.000000	18.418300
1998.000000	18.373900
1997.000000	18.318300
1996.000000	18.245400
1995.000000	18.201900
1994.000000	18.139100
1993.000000	18.053900
1992.000000	17.992000
1991.000000	17.914300
1990.000000	17.839600
1989.000000	17.786300
1988.000000	17.690000
1987.000000	17.631800
1986.000000	17.539700
1985.000000	17.472500
1984.000000	17.352000
1983.000000	17.283100
1982.000000	17.181700
1981.000000	17.118300
1980.000000	17.031000
1979.000000	16.934700
1978.000000	16.850700
1977.000000	16.755900
1976.000000	16.678200
1975.000000	16.599900
1974.000000	16.506000
1973.000000	16.426800
1972.000000	16.348600
1971.000000	16.265400
1970.000000	16.197100
1969.000000	16.114400
1968.000000	16.033900
1967.000000	15.968200
1966.000000	15.904000
1965.000000	15.798200
1964.000000	15.737500
1963.000000	15.660500
1962.000000	15.591600
1961.000000	15.532600
1960.000000	15.441200
1959.000000	15.375400
1958.000000	15.295600
1957.000000	15.244500
1956.000000	15.155700
1955.000000	15.083200
1954.000000	15.014300
1953.000000	14.957500
1952.000000	14.864400
1951.000000	14.795400
1950.000000	14.734600
1949.000000	14.700500
1948.000000	14.648400
1947.000000	14.599900
1946.000000	14.526400
1945.000000	14.507800
1944.000000	14.462200
1943.000000	14.433700
1942.000000	14.411800
1941.000000	14.398600
1940.000000	14.387300
1939.000000	14.394800
1938.000000	14.381700
1937.000000	14.383100
1936.000000	14.399900
1935.000000	14.426300
1934.000000	14.447200
1933.000000	14.507300
1932.000000	14.547200
1931.000000	14.609500
1930.000000	14.679600
1929.000000	14.765600
1928.000000	14.863300
1927.000000	14.957700
1926.000000	15.036400
1925.000000	15.159100
1924.000000	15.305000
1923.000000	15.443200
1922.000000	15.574000
1921.000000	15.741500
1920.000000	15.902600
1919.000000	16.055300
1918.000000	16.235700
1917.000000	16.437100
1916.000000	16.630000
1915.000000	16.823000
1914.000000	17.042200
1913.000000	17.310600
1912.000000	17.538500
1911.000000	17.753400
1910.000000	18.016200
1909.000000	18.258800
1908.000000	18.512200
1907.000000	18.779200
1906.000000	19.102000
1905.000000	19.410700
1904.000000	19.726300
1903.000000	20.025500
1902.000000	20.353600
1901.000000	20.646200
1900.000000	21.008700
1899.000000	21.369400
1898.000000	21.688800
1897.000000	22.072300
1896.000000	22.411600
1895.000000	22.738500
1894.000000	23.094000
1893.000000	23.476400
1892.000000	23.873900
1891.000000	24.284000
1890.000000	24.681500
1889.000000	25.061900
1888.000000	25.491400
1887.000000	25.902200
1886.000000	26.343300
1885.000000	26.814900
1884.000000	27.360900
1883.000000	27.910800
1882.000000	28.418500
1881.000000	28.972400
1880.000000	29.511500
1879.000000	30.006700
1878.000000	30.487900
1877.000000	30.925700
1876.000000	31.343400
1875.000000	31.734900
1874.000000	32.106900
1873.000000	32.473100
1872.000000	32.786100
1871.000000	33.048700
1870.000000	33.273600
1869.000000	33.493100
1868.000000	33.702000
1867.000000	33.845300
1866.000000	33.944900
1865.000000	34.051300
1864.000000	34.154000
1863.000000	34.256700
1862.000000	34.336100
1861.000000	34.413100
1860.000000	34.501900
1859.000000	34.529500
1858.000000	34.557100
1857.000000	34.586500
1856.000000	34.595900
1855.000000	34.596200
1854.000000	34.579100
1853.000000	34.533800
1852.000000	34.488000
1851.000000	34.484100
1850.000000	34.489900
1849.000000	34.473100
1848.000000	34.423000
1847.000000	34.340800
1846.000000	34.228400
1845.000000	34.164300
1844.000000	34.156100
1843.000000	34.159600
1842.000000	34.173600
1841.000000	34.148300
1840.000000	34.094500
1839.000000	34.034100
1838.000000	33.980700
1837.000000	33.934400
1836.000000	33.861600
1835.000000	33.789500
1834.000000	33.708100
1833.000000	33.627000
1832.000000	33.569800
1831.000000	33.505300
1830.000000	33.431800
1829.000000	33.358100
1828.000000	33.270000
1827.000000	33.184500
1826.000000	33.112500
1825.000000	33.047400
1824.000000	33.000200
1823.000000	33.002800
1822.000000	33.034900
1821.000000	33.008900
1820.000000	32.932300
1819.000000	32.875500
1818.000000	32.850000
1817.000000	32.844900
1816.000000	32.845300
1815.000000	32.823200
1814.000000	32.805600
1813.000000	32.809100
1812.000000	32.792600
1811.000000	32.750200
1810.000000	32.691700
1809.000000	32.646900
1808.000000	32.628000
1807.000000	32.603300
1806.000000	32.546700
1805.000000	32.473800
1804.000000	32.421300
1803.000000	32.385400
1802.000000	32.354500
1801.000000	32.309600
1800.000000	32.238800
1799.000000	32.153800
1798.000000	32.116800
1797.000000	32.073300
1796.000000	32.031700
1795.000000	31.990800
1794.000000	31.938400
1793.000000	31.874400
1792.000000	31.817700
1791.000000	31.764900
1790.000000	31.704200
1789.000000	31.641300
1788.000000	31.573300
1787.000000	31.521200
1786.000000	31.458300
1785.000000	31.379200
1784.000000	31.289500
1783.000000	31.203300
1782.000000	31.137200
1781.000000	31.057600
1780.000000	30.956000
1779.000000	30.882000
1778.000000	30.775400
1777.000000	30.667500
1776.000000	30.565000
1775.000000	30.434100
1774.000000	30.303600
1773.000000	30.179600
1772.000000	30.030400
1771.000000	29.889600
1770.000000	29.755700
1769.000000	29.605600
1768.000000	29.482600
1767.000000	29.360000
1766.000000	29.257000
1765.000000	29.156600
1764.000000	29.108100
1763.000000	29.054900
1762.000000	29.062200
1761.000000	29.089000
1760.000000	29.134800
1759.000000	29.183200
1758.000000	29.234200
1757.000000	29.295700
1756.000000	29.335300
1755.000000	29.373100
1754.000000	29.382200
1753.000000	29.360500
1752.000000	29.341700
1751.000000	29.314600
1750.000000	29.274600
1749.000000	29.201200
1748.000000	29.102800
1747.000000	29.000500
1746.000000	28.888100
1745.000000	28.744100
1744.000000	28.597900
1743.000000	28.409100
1742.000000	28.194700
1741.000000	27.959900
1740.000000	27.726100
1739.000000	27.487600
1738.000000	27.264100
1737.000000	27.060500
1736.000000	26.886500
1735.000000	26.776200
1734.000000	26.714000
1733.000000	26.700400
1732.000000	26.732300
1731.000000	26.790500
1730.000000	26.872200
1729.000000	26.977700
1728.000000	27.081700
1727.000000	27.199300
1726.000000	27.299000
1725.000000	27.386100
1724.000000	27.469400
1723.000000	27.500600
1722.000000	27.535400
1721.000000	27.550900
1720.000000	27.599400
1719.000000	27.653000
1718.000000	27.698500
1717.000000	27.760100
1716.000000	27.823000
1715.000000	27.907200
1714.000000	28.004600
1713.000000	28.082400
1712.000000	28.155100
1711.000000	28.197900
1710.000000	28.215800
1709.000000	28.260800
1708.000000	28.224100
1707.000000	28.214300
1706.000000	28.181600
1705.000000	28.134500
1704.000000	28.068700
1703.000000	28.000200
1702.000000	27.881200
1701.000000	27.763500
1700.000000	27.615500
1699.000000	27.414900
1698.000000	27.288400
1697.000000	27.153200
1696.000000	27.059700
1695.000000	27.028200
1694.000000	27.073800
1693.000000	27.171300
1692.000000	27.316900
1691.000000	27.468200
1690.000000	27.643300
1689.000000	27.763100
1688.000000	27.872700
1687.000000	27.927700
1686.000000	27.965400
1685.000000	28.030500
1684.000000	28.134200
1683.000000	28.337800
1682.000000	28.651400
1681.000000	29.124000
1680.000000	29.620700
1679.000000	30.185400
1678.000000	30.751900
1677.000000	31.296600
1676.000000	31.769000
1675.000000	32.217500
1674.000000	32.599300
1673.000000	32.954600
1672.000000	33.220200
1671.000000	33.482500
1670.000000	33.703800
1669.000000	33.928900
1668.000000	34.105800
1667.000000	34.289800
1666.000000	34.442300
1665.000000	34.558600
1664.000000	34.665800
1663.000000	34.774900
1662.000000	34.853500
1661.000000	34.932000
1660.000000	34.993000
1659.000000	35.051100
1658.000000	35.094100
1657.000000	35.127700
1656.000000	35.154500
1655.000000	35.171600
1654.000000	35.180200
1653.000000	35.180400
1652.000000	35.162700
1651.000000	35.152800
1650.000000	35.124900
1649.000000	35.105600
1648.000000	35.073100
1647.000000	35.034600
1646.000000	34.979800
1645.000000	34.944500
1644.000000	34.882400
1643.000000	34.856100
1642.000000	34.805400
1641.000000	34.752000
1640.000000	34.692000
1639.000000	34.625000
1638.000000	34.560700
1637.000000	34.504900
1636.000000	34.437600
1635.000000	34.381900
1634.000000	34.323700
1633.000000	34.239200
1632.000000	34.158400
1631.000000	34.073700
1630.000000	34.001000
1629.000000	33.915200
1628.000000	33.813900
1627.000000	33.742300
1626.000000	33.674000
1625.000000	33.585500
1624.000000	33.499700
1623.000000	33.421400
1622.000000	33.331700
