PE UV       SUBTECH     SPECTRUM    ASCII       PEDS        4.00        
   -1
CICIMAUCR0012-1.Sample.ASC
24/04/11
15:46:55.00
24/04/11
15:46:55.00
Vinicio Soto Monge
C. cupreomarginata
250,000000
1
Lambda 1050
1050L1511233
PerkinElmer UV WinLab 6.3.2.0749 / 2.02.05 Lambda 900 UV/VIS/NIR, Aug  7 2015 09:38:08

0
0
3350/2 860,8/2
0
0
UV/VIS
1
1
1
DoubleDePol,CommonBeamDepol,RBeamAtt,SBeamAtt,60mm sphere, WB InGaAs Detector
0
0
0
0
Program
Program
3350/2 860,8/2
3350/0,2 860,8/0,2
3350/0,2 860,8/0,2
0
15.00
 
 
 
0
 
860,8
319,2
860,8
Front
100
on
S:100 R:100
0
0
0
0
 
0
 
 
 
0
 
 
0
0
0
0
0
 
 
 
 
0
0


0
0
#HDR
-1
-1
#GR
nm
%R
1.0
0.0
2400,000000
-1,000000
2151
8
43,719100
3,105100
#DATA
2400.000000	10.156001
2399.000000	10.867817
2398.000000	9.529797
2397.000000	8.998280
2396.000000	10.175665
2395.000000	10.881329
2394.000000	9.933049
2393.000000	9.658265
2392.000000	9.739440
2391.000000	10.890606
2390.000000	9.736717
2389.000000	9.862260
2388.000000	9.359684
2387.000000	10.554412
2386.000000	9.740851
2385.000000	10.162455
2384.000000	9.966728
2383.000000	10.319964
2382.000000	9.730364
2381.000000	9.574872
2380.000000	10.041449
2379.000000	9.741658
2378.000000	9.604720
2377.000000	9.010179
2376.000000	10.048105
2375.000000	9.553091
2374.000000	9.307147
2373.000000	9.394775
2372.000000	9.828580
2371.000000	10.162052
2370.000000	9.880310
2369.000000	9.785825
2368.000000	9.821723
2367.000000	9.841992
2366.000000	9.275686
2365.000000	10.132405
2364.000000	10.365543
2363.000000	8.573550
2362.000000	9.197939
2361.000000	8.926080
2360.000000	8.676909
2359.000000	9.401229
2358.000000	9.629022
2357.000000	8.862048
2356.000000	8.923963
2355.000000	9.613190
2354.000000	8.451738
2353.000000	8.456276
2352.000000	8.249860
2351.000000	8.317825
2350.000000	8.683161
2349.000000	9.113639
2348.000000	9.122210
2347.000000	8.808201
2346.000000	7.782073
2345.000000	8.758891
2344.000000	9.027120
2343.000000	8.961474
2342.000000	8.796806
2341.000000	8.793277
2340.000000	9.127958
2339.000000	8.843796
2338.000000	9.017238
2337.000000	8.554694
2336.000000	8.418966
2335.000000	8.768975
2334.000000	8.624877
2333.000000	8.842687
2332.000000	9.225267
2331.000000	8.981642
2330.000000	9.169906
2329.000000	8.462830
2328.000000	8.537955
2327.000000	8.526157
2326.000000	8.588172
2325.000000	8.688002
2324.000000	8.557013
2323.000000	8.785512
2322.000000	8.837948
2321.000000	8.244214
2320.000000	7.969934
2319.000000	7.848828
2318.000000	8.024790
2317.000000	8.118872
2316.000000	7.647757
2315.000000	7.510516
2314.000000	7.836021
2313.000000	7.744763
2312.000000	7.663891
2311.000000	8.130670
2310.000000	8.454965
2309.000000	7.973262
2308.000000	7.613673
2307.000000	7.831484
2306.000000	7.972959
2305.000000	7.929196
2304.000000	7.764225
2303.000000	8.015210
2302.000000	8.100822
2301.000000	7.794879
2300.000000	7.903079
2299.000000	7.620934
2298.000000	7.582514
2297.000000	8.131678
2296.000000	7.950573
2295.000000	7.803753
2294.000000	7.799215
2293.000000	7.604094
2292.000000	8.112217
2291.000000	8.343035
2290.000000	8.538862
2289.000000	8.065932
2288.000000	7.807686
2287.000000	7.931212
2286.000000	7.756662
2285.000000	7.549238
2284.000000	7.864054
2283.000000	7.964388
2282.000000	7.683252
2281.000000	8.108385
2280.000000	8.354530
2279.000000	7.985564
2278.000000	7.784392
2277.000000	7.877062
2276.000000	8.151846
2275.000000	7.932422
2274.000000	7.622850
2273.000000	7.619119
2272.000000	7.443459
2271.000000	7.607018
2270.000000	7.467357
2269.000000	7.633539
2268.000000	8.055646
2267.000000	7.708663
2266.000000	7.517171
2265.000000	7.747284
2264.000000	7.813534
2263.000000	7.861533
2262.000000	7.916994
2261.000000	7.995244
2260.000000	8.184013
2259.000000	8.356950
2258.000000	8.299775
2257.000000	8.364211
2256.000000	8.716539
2255.000000	8.676909
2254.000000	8.710085
2253.000000	8.828570
2252.000000	8.883022
2251.000000	9.051623
2250.000000	9.127655
2249.000000	9.406271
2248.000000	9.532318
2247.000000	9.330138
2246.000000	9.352020
2245.000000	9.402741
2244.000000	9.713827
2243.000000	9.892008
2242.000000	9.872142
2241.000000	9.746196
2240.000000	9.667542
2239.000000	9.767473
2238.000000	10.222050
2237.000000	10.319460
2236.000000	10.189480
2235.000000	10.191396
2234.000000	10.191194
2233.000000	10.569841
2232.000000	10.594748
2231.000000	10.391660
2230.000000	10.276705
2229.000000	9.950191
2228.000000	9.940410
2227.000000	10.094994
2226.000000	10.107398
2225.000000	10.055869
2224.000000	10.428062
2223.000000	10.332670
2222.000000	10.332266
2221.000000	10.396097
2220.000000	10.163766
2219.000000	10.139666
2218.000000	10.032576
2217.000000	9.950998
2216.000000	9.978426
2215.000000	10.172136
2214.000000	9.891604
2213.000000	9.917318
2212.000000	10.277007
2211.000000	10.409609
2210.000000	9.928208
2209.000000	9.954325
2208.000000	10.277713
2207.000000	10.694174
2206.000000	10.058390
2205.000000	9.938191
2204.000000	10.162354
2203.000000	9.902595
2202.000000	10.035500
2201.000000	10.182724
2200.000000	9.931839
2199.000000	10.145514
2198.000000	10.179093
2197.000000	9.921049
2196.000000	9.875067
2195.000000	10.308973
2194.000000	10.050928
2193.000000	9.959065
2192.000000	9.934057
2191.000000	10.148640
2190.000000	9.657156
2189.000000	9.847538
2188.000000	9.960981
2187.000000	10.100541
2186.000000	9.857319
2185.000000	9.699306
2184.000000	9.966527
2183.000000	10.128775
2182.000000	10.101448
2181.000000	10.174455
2180.000000	10.024609
2179.000000	9.535041
2178.000000	9.559343
2177.000000	9.818698
2176.000000	9.787842
2175.000000	9.981451
2174.000000	9.907537
2173.000000	9.764145
2172.000000	10.205815
2171.000000	9.780783
2170.000000	10.131498
2169.000000	10.346686
2168.000000	10.258352
2167.000000	9.918528
2166.000000	10.045785
2165.000000	9.709491
2164.000000	9.579309
2163.000000	10.123431
2162.000000	9.812245
2161.000000	10.129985
2160.000000	10.050525
2159.000000	9.205099
2158.000000	9.529999
2157.000000	9.676214
2156.000000	10.199967
2155.000000	10.015433
2154.000000	10.176673
2153.000000	9.976812
2152.000000	9.687407
2151.000000	9.793993
2150.000000	9.912881
2149.000000	9.942830
2148.000000	10.076440
2147.000000	10.369576
2146.000000	10.279326
2145.000000	10.156707
2144.000000	10.163363
2143.000000	10.298385
2142.000000	10.112439
2141.000000	9.904612
2140.000000	10.167497
2139.000000	10.607957
2138.000000	10.450650
2137.000000	9.960477
2136.000000	9.819303
2135.000000	9.927502
2134.000000	9.900579
2133.000000	10.159632
2132.000000	10.290015
2131.000000	10.136641
2130.000000	9.933553
2129.000000	10.438348
2128.000000	10.029147
2127.000000	9.801556
2126.000000	9.844009
2125.000000	9.771002
2124.000000	10.208639
2123.000000	9.916007
2122.000000	9.958964
2121.000000	9.696079
2120.000000	9.587880
2119.000000	9.704449
2118.000000	9.426640
2117.000000	9.657962
2116.000000	9.788346
2115.000000	9.899974
2114.000000	9.780682
2113.000000	9.685290
2112.000000	9.856815
2111.000000	9.641223
2110.000000	9.830698
2109.000000	9.440455
2108.000000	9.660383
2107.000000	9.573864
2106.000000	9.660584
2105.000000	9.602905
2104.000000	9.653526
2103.000000	9.814967
2102.000000	9.531411
2101.000000	9.400321
2100.000000	9.125538
2099.000000	9.279316
2098.000000	9.219418
2097.000000	9.093673
2096.000000	9.271047
2095.000000	9.311987
2094.000000	8.827965
2093.000000	9.367852
2092.000000	9.183520
2091.000000	9.119387
2090.000000	9.449934
2089.000000	9.327214
2088.000000	9.387212
2087.000000	9.217805
2086.000000	9.118882
2085.000000	9.305433
2084.000000	9.281030
2083.000000	9.291719
2082.000000	9.254510
2081.000000	9.176360
2080.000000	9.331449
2079.000000	9.123218
2078.000000	9.156394
2077.000000	9.054850
2076.000000	8.992734
2075.000000	9.264493
2074.000000	9.288189
2073.000000	9.119891
2072.000000	9.066043
2071.000000	9.231014
2070.000000	8.975592
2069.000000	9.164159
2068.000000	9.264493
2067.000000	9.158209
2066.000000	9.127655
2065.000000	9.124429
2064.000000	9.038010
2063.000000	9.128260
2062.000000	9.062716
2061.000000	9.032868
2060.000000	9.079858
2059.000000	9.217704
2058.000000	8.958046
2057.000000	8.912568
2056.000000	8.993541
2055.000000	9.004734
2054.000000	9.163150
2053.000000	9.088127
2052.000000	8.829679
2051.000000	9.155487
2050.000000	9.355045
2049.000000	9.299080
2048.000000	9.149537
2047.000000	9.154478
2046.000000	9.124025
2045.000000	9.432690
2044.000000	9.526066
2043.000000	9.374507
2042.000000	9.430371
2041.000000	9.681760
2040.000000	9.761221
2039.000000	9.824749
2038.000000	9.863874
2037.000000	9.932746
2036.000000	10.044777
2035.000000	10.023198
2034.000000	10.075533
2033.000000	10.105885
2032.000000	10.138556
2031.000000	10.142489
2030.000000	10.195631
2029.000000	10.276604
2028.000000	10.441070
2027.000000	10.450953
2026.000000	10.405676
2025.000000	10.397004
2024.000000	10.330955
2023.000000	10.412130
2022.000000	10.517002
2021.000000	10.471524
2020.000000	10.495523
2019.000000	10.596664
2018.000000	10.611890
2017.000000	10.667956
2016.000000	10.630243
2015.000000	10.588496
2014.000000	10.511556
2013.000000	10.642242
2012.000000	10.690947
2011.000000	10.635285
2010.000000	10.652729
2009.000000	10.619554
2008.000000	10.608058
2007.000000	10.644662
2006.000000	10.606445
2005.000000	10.574782
2004.000000	10.681065
2003.000000	10.625402
2002.000000	10.587386
2001.000000	10.541707
2000.000000	10.488767
1999.000000	10.483019
1998.000000	10.493809
1997.000000	10.521136
1996.000000	10.504699
1995.000000	10.415558
1994.000000	10.376433
1993.000000	10.328132
1992.000000	10.235260
1991.000000	10.273679
1990.000000	10.341342
1989.000000	10.353140
1988.000000	10.256638
1987.000000	10.193311
1986.000000	10.162657
1985.000000	10.207530
1984.000000	10.146825
1983.000000	10.005854
1982.000000	9.976106
1981.000000	9.956947
1980.000000	9.990728
1979.000000	9.883840
1978.000000	9.789959
1977.000000	9.831202
1976.000000	9.835740
1975.000000	9.731171
1974.000000	9.686701
1973.000000	9.648988
1972.000000	9.605123
1971.000000	9.552385
1970.000000	9.575679
1969.000000	9.575174
1968.000000	9.506000
1967.000000	9.417665
1966.000000	9.395582
1965.000000	9.359179
1964.000000	9.338104
1963.000000	9.307651
1962.000000	9.355650
1961.000000	9.282543
1960.000000	9.239586
1959.000000	9.180293
1958.000000	9.120899
1957.000000	9.146714
1956.000000	9.111925
1955.000000	9.120698
1954.000000	9.099622
1953.000000	9.002616
1952.000000	8.991927
1951.000000	8.991524
1950.000000	8.961979
1949.000000	8.866787
1948.000000	8.882619
1947.000000	8.898148
1946.000000	8.881711
1945.000000	8.743160
1944.000000	8.802957
1943.000000	8.779865
1942.000000	8.741143
1941.000000	8.802352
1940.000000	8.864468
1939.000000	8.869913
1938.000000	8.807293
1937.000000	8.791966
1936.000000	8.716942
1935.000000	8.781579
1934.000000	8.808806
1933.000000	8.755563
1932.000000	8.852670
1931.000000	8.999894
1930.000000	8.944634
1929.000000	8.963693
1928.000000	8.908232
1927.000000	9.076228
1926.000000	9.037506
1925.000000	9.037002
1924.000000	9.069068
1923.000000	9.115252
1922.000000	9.202881
1921.000000	9.464757
1920.000000	9.620753
1919.000000	9.450640
1918.000000	9.589897
1917.000000	9.616720
1916.000000	9.723306
1915.000000	9.726129
1914.000000	9.995568
1913.000000	10.184337
1912.000000	10.228403
1911.000000	10.253008
1910.000000	10.365543
1909.000000	10.444196
1908.000000	10.580227
1907.000000	10.649604
1906.000000	10.953428
1905.000000	11.219641
1904.000000	11.184751
1903.000000	11.308177
1902.000000	11.421014
1901.000000	11.700638
1900.000000	11.844836
1899.000000	12.155720
1898.000000	12.157434
1897.000000	12.220861
1896.000000	12.361127
1895.000000	12.524787
1894.000000	12.862897
1893.000000	13.040574
1892.000000	13.296601
1891.000000	13.247191
1890.000000	13.585200
1889.000000	13.831648
1888.000000	14.013560
1887.000000	14.149187
1886.000000	14.568169
1885.000000	14.652873
1884.000000	15.016495
1883.000000	15.509794
1882.000000	15.637758
1881.000000	16.117343
1880.000000	16.448294
1879.000000	16.756454
1878.000000	17.015911
1877.000000	17.423800
1876.000000	17.774616
1875.000000	17.954511
1874.000000	18.200757
1873.000000	18.624479
1872.000000	18.779870
1871.000000	19.147324
1870.000000	19.224767
1869.000000	19.377134
1868.000000	19.338916
1867.000000	19.612893
1866.000000	19.559550
1865.000000	19.619246
1864.000000	19.847240
1863.000000	19.821123
1862.000000	19.833627
1861.000000	19.959171
1860.000000	20.154595
1859.000000	20.115974
1858.000000	19.979137
1857.000000	20.035808
1856.000000	20.120915
1855.000000	20.011001
1854.000000	20.075437
1853.000000	20.116175
1852.000000	19.935776
1851.000000	19.894231
1850.000000	19.886870
1849.000000	19.824854
1848.000000	20.035203
1847.000000	19.989019
1846.000000	19.795611
1845.000000	19.535147
1844.000000	19.577499
1843.000000	19.596053
1842.000000	19.631649
1841.000000	19.582843
1840.000000	19.488862
1839.000000	19.475753
1838.000000	19.441972
1837.000000	19.507215
1836.000000	19.478879
1835.000000	19.321068
1834.000000	19.203491
1833.000000	19.148332
1832.000000	19.110215
1831.000000	19.069073
1830.000000	19.075225
1829.000000	18.925077
1828.000000	18.890389
1827.000000	18.820004
1826.000000	18.865179
1825.000000	18.688511
1824.000000	18.601790
1823.000000	18.593017
1822.000000	18.596345
1821.000000	18.601689
1820.000000	18.610966
1819.000000	18.447407
1818.000000	18.374300
1817.000000	18.436012
1816.000000	18.389829
1815.000000	18.480280
1814.000000	18.378938
1813.000000	18.351712
1812.000000	18.423408
1811.000000	18.352519
1810.000000	18.326603
1809.000000	18.293932
1808.000000	18.245933
1807.000000	18.220118
1806.000000	18.222337
1805.000000	18.160120
1804.000000	18.079147
1803.000000	18.026408
1802.000000	18.013602
1801.000000	17.985166
1800.000000	17.946545
1799.000000	17.860933
1798.000000	17.803960
1797.000000	17.755658
1796.000000	17.748297
1795.000000	17.689609
1794.000000	17.643325
1793.000000	17.637779
1792.000000	17.580704
1791.000000	17.521210
1790.000000	17.481076
1789.000000	17.405045
1788.000000	17.394961
1787.000000	17.348172
1786.000000	17.281316
1785.000000	17.210226
1784.000000	17.177554
1783.000000	17.153655
1782.000000	17.011776
1781.000000	16.980517
1780.000000	16.950164
1779.000000	16.850436
1778.000000	16.809294
1777.000000	16.685465
1776.000000	16.604290
1775.000000	16.545804
1774.000000	16.483284
1773.000000	16.404328
1772.000000	16.281608
1771.000000	16.112805
1770.000000	16.039496
1769.000000	15.979699
1768.000000	15.892273
1767.000000	15.805451
1766.000000	15.756646
1765.000000	15.679303
1764.000000	15.648951
1763.000000	15.642699
1762.000000	15.641892
1761.000000	15.680513
1760.000000	15.757654
1759.000000	15.803031
1758.000000	15.844879
1757.000000	15.901550
1756.000000	15.954792
1755.000000	15.984338
1754.000000	15.982119
1753.000000	16.009547
1752.000000	16.017614
1751.000000	15.998052
1750.000000	15.961145
1749.000000	15.924743
1748.000000	15.885012
1747.000000	15.834694
1746.000000	15.752511
1745.000000	15.643102
1744.000000	15.527945
1743.000000	15.402200
1742.000000	15.259817
1741.000000	15.075384
1740.000000	14.906783
1739.000000	14.736568
1738.000000	14.552942
1737.000000	14.408441
1736.000000	14.303267
1735.000000	14.260915
1734.000000	14.196480
1733.000000	14.151708
1732.000000	14.191236
1731.000000	14.246193
1730.000000	14.332914
1729.000000	14.409450
1728.000000	14.502422
1727.000000	14.587731
1726.000000	14.636739
1725.000000	14.728098
1724.000000	14.790113
1723.000000	14.808970
1722.000000	14.794348
1721.000000	14.780029
1720.000000	14.808567
1719.000000	14.832263
1718.000000	14.853339
1717.000000	14.855255
1716.000000	14.862212
1715.000000	14.939858
1714.000000	15.033032
1713.000000	15.060561
1712.000000	15.074678
1711.000000	15.075888
1710.000000	15.094745
1709.000000	15.077905
1708.000000	15.094039
1707.000000	15.074981
1706.000000	15.047653
1705.000000	15.019419
1704.000000	14.987957
1703.000000	14.940967
1702.000000	14.832163
1701.000000	14.786080
1700.000000	14.663763
1699.000000	14.533279
1698.000000	14.429617
1697.000000	14.305788
1696.000000	14.267974
1695.000000	14.269083
1694.000000	14.300545
1693.000000	14.398055
1692.000000	14.497985
1691.000000	14.627764
1690.000000	14.741207
1689.000000	14.841036
1688.000000	14.881170
1687.000000	14.918682
1686.000000	14.912531
1685.000000	14.893270
1684.000000	14.933707
1683.000000	15.055116
1682.000000	15.285026
1681.000000	15.623035
1680.000000	15.994522
1679.000000	16.407857
1678.000000	16.843377
1677.000000	17.223738
1676.000000	17.603695
1675.000000	17.953099
1674.000000	18.221933
1673.000000	18.479373
1672.000000	18.622764
1671.000000	18.829482
1670.000000	18.989109
1669.000000	19.128770
1668.000000	19.232229
1667.000000	19.368159
1666.000000	19.463955
1665.000000	19.537769
1664.000000	19.589700
1663.000000	19.657967
1662.000000	19.671581
1661.000000	19.723210
1660.000000	19.790065
1659.000000	19.820821
1658.000000	19.859946
1657.000000	19.824955
1656.000000	19.827476
1655.000000	19.828585
1654.000000	19.845930
1653.000000	19.826165
1652.000000	19.797527
1651.000000	19.790166
1650.000000	19.752957
1649.000000	19.731882
1648.000000	19.695378
1647.000000	19.639212
1646.000000	19.596355
1645.000000	19.545231
1644.000000	19.489971
1643.000000	19.472022
1642.000000	19.419385
1641.000000	19.397301
1640.000000	19.319858
1639.000000	19.264296
1638.000000	19.247456
1637.000000	19.140668
1636.000000	19.064132
1635.000000	19.024201
1634.000000	18.980235
1633.000000	18.898556
1632.000000	18.868305
1631.000000	18.843297
1630.000000	18.737115
1629.000000	18.630226
1628.000000	18.569320
1627.000000	18.507708
1626.000000	18.419172
1625.000000	18.376216
1624.000000	18.300385
1623.000000	18.233933
1622.000000	18.169498
1621.000000	18.091651
1620.000000	18.056660
1619.000000	17.937368
1618.000000	17.939688
1617.000000	17.815153
1616.000000	17.755759
1615.000000	17.713004
1614.000000	17.626082
1613.000000	17.587965
1612.000000	17.487328
1611.000000	17.420574
1610.000000	17.399700
1609.000000	17.315702
1608.000000	17.296240
1607.000000	17.197419
1606.000000	17.182495
1605.000000	17.129555
1604.000000	17.035171
1603.000000	16.991710
1602.000000	16.927274
1601.000000	16.893897
1600.000000	16.778235
1599.000000	16.779244
1598.000000	16.681229
1597.000000	16.612559
1596.000000	16.586845
1595.000000	16.548123
1594.000000	16.551451
1593.000000	16.478545
1592.000000	16.468159
1591.000000	16.427521
1590.000000	16.359959
1589.000000	16.338279
1588.000000	16.299255
1587.000000	16.249441
1586.000000	16.226248
1585.000000	16.199728
1584.000000	16.205677
1583.000000	16.170586
1582.000000	16.163829
1581.000000	16.138519
1580.000000	16.101512
1579.000000	16.098083
1578.000000	16.103327
1577.000000	16.109478
1576.000000	16.115125
1575.000000	16.106352
1574.000000	16.070958
1573.000000	16.098587
1572.000000	16.106352
1571.000000	16.115730
1570.000000	16.117141
1569.000000	16.144872
1568.000000	16.137410
1567.000000	16.171291
1566.000000	16.194484
1565.000000	16.193678
1564.000000	16.211929
1563.000000	16.231189
1562.000000	16.245710
1561.000000	16.256701
1560.000000	16.241676
1559.000000	16.259222
1558.000000	16.268701
1557.000000	16.299154
1556.000000	16.293810
1555.000000	16.262449
1554.000000	16.261239
1553.000000	16.271020
1552.000000	16.282919
1551.000000	16.263054
1550.000000	16.250651
1549.000000	16.266483
1548.000000	16.214047
1547.000000	16.229475
1546.000000	16.200635
1545.000000	16.183997
1544.000000	16.189745
1543.000000	16.185711
1542.000000	16.204064
1541.000000	16.188131
1540.000000	16.201140
1539.000000	16.170081
1538.000000	16.184400
1537.000000	16.185409
1536.000000	16.184804
1535.000000	16.133780
1534.000000	16.124603
1533.000000	16.149208
1532.000000	16.111394
1531.000000	16.099192
1530.000000	16.073277
1529.000000	16.072874
1528.000000	16.035059
1527.000000	15.997951
1526.000000	15.976069
1525.000000	15.950154
1524.000000	15.940070
1523.000000	15.915566
1522.000000	15.899634
1521.000000	15.879164
1520.000000	15.841551
1519.000000	15.807670
1518.000000	15.777418
1517.000000	15.746965
1516.000000	15.722865
1515.000000	15.702395
1514.000000	15.685252
1513.000000	15.650362
1512.000000	15.627775
1511.000000	15.580582
1510.000000	15.558196
1509.000000	15.538936
1508.000000	15.494467
