PE UV       SUBTECH     SPECTRUM    ASCII       PEDS        4.00        
   -1
CICIMAUCR0108-1.Sample.ASC
24/04/19
15:08:26.00
24/04/19
15:08:26.00
Vinicio Soto Monge
C. resplendens
250,000000
1
Lambda 1050
1050L1511233
PerkinElmer UV WinLab 6.3.2.0749 / 2.02.05 Lambda 900 UV/VIS/NIR, Aug  7 2015 09:38:08

0
0
3350/servo 860,8/2
0
0
UV/VIS
1
1
1
DoubleDePol,CommonBeamDepol,RBeamAtt,SBeamAtt,60mm sphere, WB InGaAs Detector
0
0
0
0
Program
Program
3350/servo 860,8/2
3350/0,2 860,8/0,2
3350/0,2 860,8/0,2
0
15.00
 
 
 
0
 
860,8
319,2
860,8
Front
100
on
S:100 R:100
0
0
0
0
 
0
 
 
 
0
 
 
0
0
0
0
0
 
 
 
 
0
0


0
0
#HDR
-1
-1
#GR
nm
%R
1.0
0.0
2500,000000
-1,000000
2251
8
90,129700
4,967600
#DATA
2500.000000	7.440700
2499.000000	7.400000
2498.000000	7.360500
2497.000000	7.306800
2496.000000	7.207400
2495.000000	7.240900
2494.000000	7.100100
2493.000000	7.218400
2492.000000	7.109600
2491.000000	7.152200
2490.000000	7.065800
2489.000000	7.002900
2488.000000	7.116200
2487.000000	7.087500
2486.000000	7.092600
2485.000000	7.023200
2484.000000	7.101800
2483.000000	7.021600
2482.000000	7.012200
2481.000000	7.029300
2480.000000	7.017000
2479.000000	6.992700
2478.000000	7.030300
2477.000000	6.992800
2476.000000	7.057300
2475.000000	7.023700
2474.000000	6.989400
2473.000000	7.026700
2472.000000	6.982100
2471.000000	7.020700
2470.000000	7.008100
2469.000000	6.985000
2468.000000	6.974200
2467.000000	6.976700
2466.000000	6.973000
2465.000000	7.054600
2464.000000	7.025400
2463.000000	7.068400
2462.000000	7.083000
2461.000000	7.092900
2460.000000	7.098900
2459.000000	7.146000
2458.000000	7.156600
2457.000000	7.199000
2456.000000	7.267100
2455.000000	7.309700
2454.000000	7.332900
2453.000000	7.376300
2452.000000	7.393100
2451.000000	7.474400
2450.000000	7.517600
2449.000000	7.565700
2448.000000	7.637300
2447.000000	7.672800
2446.000000	7.726200
2445.000000	7.783000
2444.000000	7.840800
2443.000000	7.894000
2442.000000	7.911300
2441.000000	7.941600
2440.000000	8.006400
2439.000000	8.050700
2438.000000	8.097200
2437.000000	8.144000
2436.000000	8.184100
2435.000000	8.224800
2434.000000	8.268000
2433.000000	8.298000
2432.000000	8.325600
2431.000000	8.366100
2430.000000	8.386100
2429.000000	8.411000
2428.000000	8.440300
2427.000000	8.460700
2426.000000	8.489000
2425.000000	8.508100
2424.000000	8.526700
2423.000000	8.564200
2422.000000	8.587700
2421.000000	8.623700
2420.000000	8.647000
2419.000000	8.651600
2418.000000	8.666800
2417.000000	8.680900
2416.000000	8.693900
2415.000000	8.732300
2414.000000	8.732600
2413.000000	8.732300
2412.000000	8.753000
2411.000000	8.771100
2410.000000	8.778600
2409.000000	8.796900
2408.000000	8.823400
2407.000000	8.837000
2406.000000	8.852900
2405.000000	8.851000
2404.000000	8.867800
2403.000000	8.887400
2402.000000	8.903100
2401.000000	8.922000
2400.000000	8.937800
2399.000000	8.949700
2398.000000	8.979000
2397.000000	8.986700
2396.000000	9.003900
2395.000000	9.010000
2394.000000	9.029900
2393.000000	9.057100
2392.000000	9.060000
2391.000000	9.070400
2390.000000	9.086900
2389.000000	9.094000
2388.000000	9.110800
2387.000000	9.127600
2386.000000	9.123100
2385.000000	9.120600
2384.000000	9.114000
2383.000000	9.117100
2382.000000	9.105500
2381.000000	9.091100
2380.000000	9.079400
2379.000000	9.075800
2378.000000	9.057100
2377.000000	9.040900
2376.000000	9.016500
2375.000000	9.003300
2374.000000	8.988000
2373.000000	8.954200
2372.000000	8.930700
2371.000000	8.906700
2370.000000	8.863400
2369.000000	8.836400
2368.000000	8.802400
2367.000000	8.740100
2366.000000	8.694700
2365.000000	8.651000
2364.000000	8.586800
2363.000000	8.531300
2362.000000	8.488700
2361.000000	8.423000
2360.000000	8.364400
2359.000000	8.310500
2358.000000	8.253100
2357.000000	8.222000
2356.000000	8.194700
2355.000000	8.162500
2354.000000	8.134100
2353.000000	8.118800
2352.000000	8.117600
2351.000000	8.118800
2350.000000	8.124800
2349.000000	8.166800
2348.000000	8.205000
2347.000000	8.234400
2346.000000	8.261000
2345.000000	8.300400
2344.000000	8.325600
2343.000000	8.361700
2342.000000	8.413400
2341.000000	8.453600
2340.000000	8.474300
2339.000000	8.478100
2338.000000	8.481100
2337.000000	8.492300
2336.000000	8.488800
2335.000000	8.462900
2334.000000	8.446800
2333.000000	8.427300
2332.000000	8.391900
2331.000000	8.353400
2330.000000	8.305300
2329.000000	8.261500
2328.000000	8.199500
2327.000000	8.144200
2326.000000	8.105000
2325.000000	8.035900
2324.000000	7.951100
2323.000000	7.873100
2322.000000	7.792600
2321.000000	7.714800
2320.000000	7.651900
2319.000000	7.581400
2318.000000	7.489200
2317.000000	7.391900
2316.000000	7.305600
2315.000000	7.222800
2314.000000	7.146900
2313.000000	7.063500
2312.000000	7.001900
2311.000000	6.931400
2310.000000	6.892600
2309.000000	6.849400
2308.000000	6.807400
2307.000000	6.801600
2306.000000	6.793300
2305.000000	6.793800
2304.000000	6.823600
2303.000000	6.866700
2302.000000	6.913400
2301.000000	6.960800
2300.000000	7.014200
2299.000000	7.091400
2298.000000	7.150700
2297.000000	7.223900
2296.000000	7.298000
2295.000000	7.365800
2294.000000	7.436100
2293.000000	7.457300
2292.000000	7.484400
2291.000000	7.533200
2290.000000	7.566500
2289.000000	7.548600
2288.000000	7.545800
2287.000000	7.552300
2286.000000	7.528000
2285.000000	7.489500
2284.000000	7.484400
2283.000000	7.453500
2282.000000	7.425400
2281.000000	7.372100
2280.000000	7.332400
2279.000000	7.297000
2278.000000	7.274100
2277.000000	7.223700
2276.000000	7.205500
2275.000000	7.172600
2274.000000	7.160000
2273.000000	7.135400
2272.000000	7.136300
2271.000000	7.140000
2270.000000	7.174000
2269.000000	7.196500
2268.000000	7.247000
2267.000000	7.304800
2266.000000	7.379600
2265.000000	7.473000
2264.000000	7.576400
2263.000000	7.695000
2262.000000	7.845100
2261.000000	8.004200
2260.000000	8.145600
2259.000000	8.337200
2258.000000	8.531700
2257.000000	8.728000
2256.000000	8.930300
2255.000000	9.110000
2254.000000	9.332200
2253.000000	9.531200
2252.000000	9.704600
2251.000000	9.883500
2250.000000	10.048500
2249.000000	10.217700
2248.000000	10.359100
2247.000000	10.505500
2246.000000	10.632300
2245.000000	10.745100
2244.000000	10.871500
2243.000000	10.985800
2242.000000	11.100000
2241.000000	11.179500
2240.000000	11.255100
2239.000000	11.365700
2238.000000	11.426600
2237.000000	11.507400
2236.000000	11.583500
2235.000000	11.652000
2234.000000	11.702900
2233.000000	11.741400
2232.000000	11.792200
2231.000000	11.826700
2230.000000	11.879400
2229.000000	11.907000
2228.000000	11.940200
2227.000000	11.982100
2226.000000	11.975000
2225.000000	12.007600
2224.000000	12.007400
2223.000000	12.010500
2222.000000	12.012800
2221.000000	12.033500
2220.000000	12.009500
2219.000000	12.022000
2218.000000	11.999000
2217.000000	11.997700
2216.000000	12.006300
2215.000000	12.004700
2214.000000	11.985900
2213.000000	11.973300
2212.000000	11.960800
2211.000000	11.946400
2210.000000	11.947800
2209.000000	11.937400
2208.000000	11.919500
2207.000000	11.924300
2206.000000	11.903600
2205.000000	11.889800
2204.000000	11.885400
2203.000000	11.889400
2202.000000	11.878300
2201.000000	11.880200
2200.000000	11.876400
2199.000000	11.855000
2198.000000	11.860500
2197.000000	11.840200
2196.000000	11.852900
2195.000000	11.866000
2194.000000	11.862400
2193.000000	11.853700
2192.000000	11.848700
2191.000000	11.850800
2190.000000	11.849500
2189.000000	11.840100
2188.000000	11.816500
2187.000000	11.814100
2186.000000	11.813200
2185.000000	11.794500
2184.000000	11.792600
2183.000000	11.769700
2182.000000	11.770800
2181.000000	11.765000
2180.000000	11.746600
2179.000000	11.726900
2178.000000	11.746000
2177.000000	11.738600
2176.000000	11.733500
2175.000000	11.731400
2174.000000	11.733400
2173.000000	11.739300
2172.000000	11.742000
2171.000000	11.734300
2170.000000	11.753900
2169.000000	11.769000
2168.000000	11.775600
2167.000000	11.800600
2166.000000	11.806800
2165.000000	11.817500
2164.000000	11.802600
2163.000000	11.828500
2162.000000	11.848800
2161.000000	11.874600
2160.000000	11.902100
2159.000000	11.897700
2158.000000	11.903000
2157.000000	11.936800
2156.000000	11.954500
2155.000000	11.965800
2154.000000	11.990300
2153.000000	12.008400
2152.000000	12.032300
2151.000000	12.053100
2150.000000	12.083300
2149.000000	12.118700
2148.000000	12.136300
2147.000000	12.160300
2146.000000	12.166300
2145.000000	12.177100
2144.000000	12.187700
2143.000000	12.202100
2142.000000	12.208300
2141.000000	12.228400
2140.000000	12.235200
2139.000000	12.247300
2138.000000	12.247800
2137.000000	12.253000
2136.000000	12.263500
2135.000000	12.265400
2134.000000	12.266000
2133.000000	12.281400
2132.000000	12.267200
2131.000000	12.271500
2130.000000	12.271600
2129.000000	12.263200
2128.000000	12.252900
2127.000000	12.244800
2126.000000	12.232700
2125.000000	12.234500
2124.000000	12.230800
2123.000000	12.205400
2122.000000	12.182200
2121.000000	12.161100
2120.000000	12.157800
2119.000000	12.130600
2118.000000	12.091100
2117.000000	12.059500
2116.000000	12.037200
2115.000000	12.005500
2114.000000	11.979900
2113.000000	11.966300
2112.000000	11.957300
2111.000000	11.936900
2110.000000	11.901500
2109.000000	11.871900
2108.000000	11.851200
2107.000000	11.834600
2106.000000	11.816200
2105.000000	11.779000
2104.000000	11.746200
2103.000000	11.724600
2102.000000	11.719000
2101.000000	11.691700
2100.000000	11.651100
2099.000000	11.641200
2098.000000	11.636900
2097.000000	11.604600
2096.000000	11.581400
2095.000000	11.557400
2094.000000	11.542300
2093.000000	11.553600
2092.000000	11.523800
2091.000000	11.501900
2090.000000	11.506200
2089.000000	11.486300
2088.000000	11.473200
2087.000000	11.456500
2086.000000	11.445900
2085.000000	11.444900
2084.000000	11.434100
2083.000000	11.415400
2082.000000	11.405600
2081.000000	11.389900
2080.000000	11.373400
2079.000000	11.366600
2078.000000	11.348200
2077.000000	11.349900
2076.000000	11.332800
2075.000000	11.323700
2074.000000	11.318700
2073.000000	11.301900
2072.000000	11.313200
2071.000000	11.303200
2070.000000	11.275300
2069.000000	11.259100
2068.000000	11.271100
2067.000000	11.262200
2066.000000	11.246400
2065.000000	11.255400
2064.000000	11.249700
2063.000000	11.246700
2062.000000	11.253300
2061.000000	11.256500
2060.000000	11.268800
2059.000000	11.275700
2058.000000	11.302700
2057.000000	11.338800
2056.000000	11.358900
2055.000000	11.388100
2054.000000	11.421500
2053.000000	11.477400
2052.000000	11.539300
2051.000000	11.603100
2050.000000	11.686200
2049.000000	11.756300
2048.000000	11.826200
2047.000000	11.923100
2046.000000	12.026300
2045.000000	12.108500
2044.000000	12.225900
2043.000000	12.318200
2042.000000	12.415100
2041.000000	12.544500
2040.000000	12.640500
2039.000000	12.740400
2038.000000	12.841600
2037.000000	12.922600
2036.000000	13.013100
2035.000000	13.117500
2034.000000	13.210300
2033.000000	13.298200
2032.000000	13.381400
2031.000000	13.462100
2030.000000	13.550700
2029.000000	13.631100
2028.000000	13.675700
2027.000000	13.727100
2026.000000	13.796500
2025.000000	13.876300
2024.000000	13.949600
2023.000000	13.989600
2022.000000	14.069700
2021.000000	14.107400
2020.000000	14.154500
2019.000000	14.223400
2018.000000	14.279100
2017.000000	14.312400
2016.000000	14.367900
2015.000000	14.392700
2014.000000	14.442700
2013.000000	14.476200
2012.000000	14.480600
2011.000000	14.522500
2010.000000	14.550500
2009.000000	14.570500
2008.000000	14.579800
2007.000000	14.588900
2006.000000	14.611700
2005.000000	14.611800
2004.000000	14.610600
2003.000000	14.610200
2002.000000	14.609700
2001.000000	14.611400
2000.000000	14.594600
1999.000000	14.593000
1998.000000	14.563500
1997.000000	14.546300
1996.000000	14.507800
1995.000000	14.497500
1994.000000	14.474700
1993.000000	14.425500
1992.000000	14.411800
1991.000000	14.379200
1990.000000	14.328000
1989.000000	14.293800
1988.000000	14.251500
1987.000000	14.207600
1986.000000	14.164800
1985.000000	14.111200
1984.000000	14.055200
1983.000000	13.990300
1982.000000	13.967300
1981.000000	13.893600
1980.000000	13.843900
1979.000000	13.794600
1978.000000	13.733800
1977.000000	13.690000
1976.000000	13.631900
1975.000000	13.576800
1974.000000	13.541100
1973.000000	13.498500
1972.000000	13.410200
1971.000000	13.371300
1970.000000	13.336900
1969.000000	13.287800
1968.000000	13.236800
1967.000000	13.178100
1966.000000	13.145600
1965.000000	13.068500
1964.000000	13.043100
1963.000000	12.978900
1962.000000	12.928300
1961.000000	12.879100
1960.000000	12.826400
1959.000000	12.802000
1958.000000	12.734600
1957.000000	12.700300
1956.000000	12.651600
1955.000000	12.602600
1954.000000	12.545100
1953.000000	12.485900
1952.000000	12.456500
1951.000000	12.420800
1950.000000	12.370600
1949.000000	12.335100
1948.000000	12.308900
1947.000000	12.246800
1946.000000	12.229300
1945.000000	12.194500
1944.000000	12.168800
1943.000000	12.163500
1942.000000	12.169700
1941.000000	12.146900
1940.000000	12.159800
1939.000000	12.144800
1938.000000	12.136100
1937.000000	12.147400
1936.000000	12.187800
1935.000000	12.189100
1934.000000	12.230200
1933.000000	12.269400
1932.000000	12.334100
1931.000000	12.388100
1930.000000	12.417600
1929.000000	12.489700
1928.000000	12.543900
1927.000000	12.629600
1926.000000	12.704400
1925.000000	12.789200
1924.000000	12.917400
1923.000000	13.022900
1922.000000	13.116200
1921.000000	13.213700
1920.000000	13.339600
1919.000000	13.436000
1918.000000	13.573600
1917.000000	13.749900
1916.000000	13.900800
1915.000000	14.034800
1914.000000	14.193400
1913.000000	14.350200
1912.000000	14.486800
1911.000000	14.641900
1910.000000	14.829000
1909.000000	15.014600
1908.000000	15.168400
1907.000000	15.358400
1906.000000	15.532200
1905.000000	15.703400
1904.000000	15.890500
1903.000000	16.074000
1902.000000	16.281500
1901.000000	16.478300
1900.000000	16.649900
1899.000000	16.820200
1898.000000	17.007200
1897.000000	17.223000
1896.000000	17.412900
1895.000000	17.619200
1894.000000	17.824300
1893.000000	17.995400
1892.000000	18.189900
1891.000000	18.382300
1890.000000	18.592800
1889.000000	18.787600
1888.000000	18.989600
1887.000000	19.252600
1886.000000	19.514900
1885.000000	19.787700
1884.000000	20.123900
1883.000000	20.464700
1882.000000	20.835600
1881.000000	21.201200
1880.000000	21.544600
1879.000000	21.905700
1878.000000	22.233600
1877.000000	22.527100
1876.000000	22.804000
1875.000000	23.063400
1874.000000	23.286300
1873.000000	23.500400
1872.000000	23.689900
1871.000000	23.838500
1870.000000	23.984500
1869.000000	24.114300
1868.000000	24.191300
1867.000000	24.263600
1866.000000	24.332900
1865.000000	24.399200
1864.000000	24.447800
1863.000000	24.471600
1862.000000	24.498800
1861.000000	24.513100
1860.000000	24.509700
1859.000000	24.494700
1858.000000	24.479800
1857.000000	24.461700
1856.000000	24.436000
1855.000000	24.397400
1854.000000	24.325500
1853.000000	24.237500
1852.000000	24.190100
1851.000000	24.168800
1850.000000	24.166400
1849.000000	24.115300
1848.000000	24.007500
1847.000000	23.911200
1846.000000	23.827900
1845.000000	23.782600
1844.000000	23.775900
1843.000000	23.791200
1842.000000	23.768300
1841.000000	23.714900
1840.000000	23.658000
1839.000000	23.612700
1838.000000	23.577300
1837.000000	23.524900
1836.000000	23.461900
1835.000000	23.400800
1834.000000	23.338800
1833.000000	23.283800
1832.000000	23.243600
1831.000000	23.180800
1830.000000	23.107700
1829.000000	23.034300
1828.000000	22.941900
1827.000000	22.875600
1826.000000	22.810700
1825.000000	22.759100
1824.000000	22.735500
1823.000000	22.740900
1822.000000	22.745800
1821.000000	22.705700
1820.000000	22.654000
1819.000000	22.615500
1818.000000	22.606000
1817.000000	22.608200
1816.000000	22.609400
1815.000000	22.601000
1814.000000	22.609400
1813.000000	22.603500
1812.000000	22.576400
1811.000000	22.539000
1810.000000	22.509200
1809.000000	22.486900
1808.000000	22.452500
1807.000000	22.419900
1806.000000	22.369800
1805.000000	22.317300
1804.000000	22.267500
1803.000000	22.235900
1802.000000	22.210100
1801.000000	22.160700
1800.000000	22.106800
1799.000000	22.055600
1798.000000	22.014600
1797.000000	21.980300
1796.000000	21.950500
1795.000000	21.897300
1794.000000	21.839300
1793.000000	21.805900
1792.000000	21.758000
1791.000000	21.702800
1790.000000	21.644500
1789.000000	21.587700
1788.000000	21.534200
1787.000000	21.467200
1786.000000	21.402500
1785.000000	21.311000
1784.000000	21.233400
1783.000000	21.155200
1782.000000	21.081100
1781.000000	21.027900
1780.000000	20.949500
1779.000000	20.869800
1778.000000	20.776100
1777.000000	20.688000
1776.000000	20.591100
1775.000000	20.482300
1774.000000	20.367100
1773.000000	20.254500
1772.000000	20.134200
1771.000000	20.010900
1770.000000	19.887600
1769.000000	19.772100
1768.000000	19.669300
1767.000000	19.591700
1766.000000	19.508400
1765.000000	19.456500
1764.000000	19.434500
1763.000000	19.411100
1762.000000	19.431600
1761.000000	19.478600
1760.000000	19.547300
1759.000000	19.616800
1758.000000	19.666200
1757.000000	19.714000
1756.000000	19.762100
1755.000000	19.787200
1754.000000	19.800800
1753.000000	19.810600
1752.000000	19.787200
1751.000000	19.752200
1750.000000	19.700100
1749.000000	19.649000
1748.000000	19.579500
1747.000000	19.506600
1746.000000	19.406400
1745.000000	19.266100
1744.000000	19.116600
1743.000000	18.950000
1742.000000	18.769700
1741.000000	18.562700
1740.000000	18.363000
1739.000000	18.162900
1738.000000	17.988200
1737.000000	17.827700
1736.000000	17.708300
1735.000000	17.653700
1734.000000	17.640600
1733.000000	17.657100
1732.000000	17.718200
1731.000000	17.811800
1730.000000	17.903000
1729.000000	18.011900
1728.000000	18.118100
1727.000000	18.207400
1726.000000	18.312700
1725.000000	18.364000
1724.000000	18.401500
1723.000000	18.435900
1722.000000	18.441900
1721.000000	18.436200
1720.000000	18.458200
1719.000000	18.471600
1718.000000	18.480100
1717.000000	18.511600
1716.000000	18.553400
1715.000000	18.594000
1714.000000	18.625800
1713.000000	18.664400
1712.000000	18.718100
1711.000000	18.734000
1710.000000	18.742400
1709.000000	18.721600
1708.000000	18.721800
1707.000000	18.669500
1706.000000	18.654300
1705.000000	18.629800
1704.000000	18.577700
1703.000000	18.505200
1702.000000	18.411300
1701.000000	18.290800
1700.000000	18.159500
1699.000000	18.026000
1698.000000	17.874500
1697.000000	17.792900
1696.000000	17.735400
1695.000000	17.764900
1694.000000	17.823300
1693.000000	17.926100
1692.000000	18.064400
1691.000000	18.198500
1690.000000	18.362200
1689.000000	18.446000
1688.000000	18.471200
1687.000000	18.477800
1686.000000	18.471800
1685.000000	18.483400
1684.000000	18.540200
1683.000000	18.721900
1682.000000	19.026600
1681.000000	19.404800
1680.000000	19.876900
1679.000000	20.353300
1678.000000	20.793100
1677.000000	21.195300
1676.000000	21.584500
1675.000000	21.929000
1674.000000	22.194000
1673.000000	22.425200
1672.000000	22.626100
1671.000000	22.793900
1670.000000	22.953600
1669.000000	23.073400
1668.000000	23.177800
1667.000000	23.260600
1666.000000	23.322200
1665.000000	23.398000
1664.000000	23.454500
1663.000000	23.484300
1662.000000	23.519700
1661.000000	23.569700
1660.000000	23.575000
1659.000000	23.590400
1658.000000	23.604300
1657.000000	23.597000
1656.000000	23.595000
1655.000000	23.579200
1654.000000	23.558600
1653.000000	23.543400
1652.000000	23.520900
1651.000000	23.496600
1650.000000	23.460900
1649.000000	23.428300
1648.000000	23.393600
1647.000000	23.343300
1646.000000	23.287800
1645.000000	23.245800
1644.000000	23.206100
1643.000000	23.140500
1642.000000	23.085700
1641.000000	23.018400
1640.000000	22.962000
1639.000000	22.906200
1638.000000	22.862400
1637.000000	22.786900
1636.000000	22.745400
1635.000000	22.673100
1634.000000	22.625100
1633.000000	22.550200
1632.000000	22.461400
1631.000000	22.400000
1630.000000	22.319600
1629.000000	22.282300
1628.000000	22.210800
1627.000000	22.136900
1626.000000	22.048500
1625.000000	21.981300
1624.000000	21.931000
1623.000000	21.864100
1622.000000	21.808100
1621.000000	21.725400
1620.000000	21.669300
1619.000000	21.599800
1618.000000	21.551300
1617.000000	21.478700
1616.000000	21.402100
1615.000000	21.354000
1614.000000	21.304400
1613.000000	21.245200
