PE UV       SUBTECH     SPECTRUM    ASCII       PEDS        4.00        
   -1
CICIMAUCR0006-2.Sample.ASC
24/04/12
10:39:35.00
24/04/12
10:39:35.00
Vinicio Soto Monge
C. kalinini
250,000000
1
Lambda 1050
1050L1511233
PerkinElmer UV WinLab 6.3.2.0749 / 2.02.05 Lambda 900 UV/VIS/NIR, Aug  7 2015 09:38:08

0
0
3350/servo 860,8/2
0
0
UV/VIS
1
1
1
DoubleDePol,CommonBeamDepol,RBeamAtt,SBeamAtt,60mm sphere, WB InGaAs Detector
0
0
0
0
Program
Program
3350/servo 860,8/2
3350/0,2 860,8/0,2
3350/0,2 860,8/0,2
0
15.00
 
 
 
0
 
860,8
319,2
860,8
Front
100
on
S:100 R:100
0
0
0
0
 
0
 
 
 
0
 
 
0
0
0
0
0
 
 
 
 
0
0


0
0
#HDR
-1
-1
#GR
nm
%R
1.0
0.0
2500,000000
-1,000000
2251
8
92,561500
5,026000
#DATA
2500.000000	8.814500
2499.000000	8.807200
2498.000000	8.738400
2497.000000	8.723300
2496.000000	8.767400
2495.000000	8.682300
2494.000000	8.618800
2493.000000	8.572000
2492.000000	8.648900
2491.000000	8.540600
2490.000000	8.581300
2489.000000	8.510300
2488.000000	8.582600
2487.000000	8.571300
2486.000000	8.566500
2485.000000	8.566900
2484.000000	8.499000
2483.000000	8.511200
2482.000000	8.438300
2481.000000	8.527500
2480.000000	8.515100
2479.000000	8.466100
2478.000000	8.485000
2477.000000	8.536300
2476.000000	8.430300
2475.000000	8.503900
2474.000000	8.519500
2473.000000	8.508400
2472.000000	8.499500
2471.000000	8.498000
2470.000000	8.496500
2469.000000	8.551000
2468.000000	8.577000
2467.000000	8.570600
2466.000000	8.631100
2465.000000	8.631700
2464.000000	8.655700
2463.000000	8.687500
2462.000000	8.736000
2461.000000	8.766900
2460.000000	8.816700
2459.000000	8.854000
2458.000000	8.903000
2457.000000	8.978900
2456.000000	9.028100
2455.000000	9.099000
2454.000000	9.149000
2453.000000	9.220600
2452.000000	9.292300
2451.000000	9.354600
2450.000000	9.436700
2449.000000	9.508000
2448.000000	9.576900
2447.000000	9.640500
2446.000000	9.690200
2445.000000	9.766200
2444.000000	9.871800
2443.000000	9.929700
2442.000000	9.983800
2441.000000	10.032600
2440.000000	10.108600
2439.000000	10.175600
2438.000000	10.231200
2437.000000	10.282300
2436.000000	10.354200
2435.000000	10.391100
2434.000000	10.450700
2433.000000	10.502600
2432.000000	10.571100
2431.000000	10.620600
2430.000000	10.655700
2429.000000	10.692100
2428.000000	10.684500
2427.000000	10.656200
2426.000000	10.621600
2425.000000	10.629000
2424.000000	10.629700
2423.000000	10.657900
2422.000000	10.679800
2421.000000	10.676000
2420.000000	10.711500
2419.000000	10.723700
2418.000000	10.732300
2417.000000	10.732000
2416.000000	10.756200
2415.000000	10.791500
2414.000000	10.786600
2413.000000	10.792800
2412.000000	10.817900
2411.000000	10.816800
2410.000000	10.824200
2409.000000	10.853100
2408.000000	10.873700
2407.000000	10.872300
2406.000000	10.861900
2405.000000	10.883800
2404.000000	10.906300
2403.000000	10.944600
2402.000000	10.960700
2401.000000	10.958000
2400.000000	10.972300
2399.000000	10.997300
2398.000000	11.010100
2397.000000	11.021400
2396.000000	11.034200
2395.000000	11.046000
2394.000000	11.052700
2393.000000	11.068700
2392.000000	11.073500
2391.000000	11.089700
2390.000000	11.093500
2389.000000	11.109000
2388.000000	11.115400
2387.000000	11.110300
2386.000000	11.110900
2385.000000	11.106300
2384.000000	11.088300
2383.000000	11.072000
2382.000000	11.059700
2381.000000	11.046800
2380.000000	11.021900
2379.000000	10.997000
2378.000000	10.984200
2377.000000	10.973500
2376.000000	10.939800
2375.000000	10.917000
2374.000000	10.906500
2373.000000	10.883000
2372.000000	10.853900
2371.000000	10.808300
2370.000000	10.768000
2369.000000	10.732400
2368.000000	10.688200
2367.000000	10.637400
2366.000000	10.586900
2365.000000	10.523500
2364.000000	10.456100
2363.000000	10.400700
2362.000000	10.347700
2361.000000	10.280700
2360.000000	10.208400
2359.000000	10.159200
2358.000000	10.105500
2357.000000	10.040100
2356.000000	10.005200
2355.000000	9.977100
2354.000000	9.963100
2353.000000	9.968500
2352.000000	9.966200
2351.000000	9.970200
2350.000000	9.995000
2349.000000	10.037100
2348.000000	10.076900
2347.000000	10.116700
2346.000000	10.148100
2345.000000	10.195700
2344.000000	10.245300
2343.000000	10.275600
2342.000000	10.300600
2341.000000	10.330800
2340.000000	10.349300
2339.000000	10.357200
2338.000000	10.359700
2337.000000	10.374600
2336.000000	10.361200
2335.000000	10.348400
2334.000000	10.314300
2333.000000	10.289800
2332.000000	10.256900
2331.000000	10.207800
2330.000000	10.160500
2329.000000	10.117800
2328.000000	10.057400
2327.000000	10.006900
2326.000000	9.932200
2325.000000	9.846000
2324.000000	9.773000
2323.000000	9.698600
2322.000000	9.612600
2321.000000	9.502300
2320.000000	9.396800
2319.000000	9.312900
2318.000000	9.200400
2317.000000	9.114800
2316.000000	9.017600
2315.000000	8.901400
2314.000000	8.797700
2313.000000	8.709900
2312.000000	8.620400
2311.000000	8.559500
2310.000000	8.510000
2309.000000	8.481900
2308.000000	8.441600
2307.000000	8.440400
2306.000000	8.451200
2305.000000	8.487300
2304.000000	8.539300
2303.000000	8.596200
2302.000000	8.665800
2301.000000	8.741400
2300.000000	8.819600
2299.000000	8.922700
2298.000000	9.011400
2297.000000	9.107800
2296.000000	9.186600
2295.000000	9.259000
2294.000000	9.334000
2293.000000	9.376800
2292.000000	9.426700
2291.000000	9.457000
2290.000000	9.468600
2289.000000	9.474900
2288.000000	9.479900
2287.000000	9.468200
2286.000000	9.451300
2285.000000	9.400900
2284.000000	9.386000
2283.000000	9.353800
2282.000000	9.307600
2281.000000	9.262400
2280.000000	9.231900
2279.000000	9.183400
2278.000000	9.168400
2277.000000	9.120200
2276.000000	9.076900
2275.000000	9.055500
2274.000000	9.056200
2273.000000	9.051900
2272.000000	9.065000
2271.000000	9.078600
2270.000000	9.130100
2269.000000	9.174800
2268.000000	9.230400
2267.000000	9.309300
2266.000000	9.430100
2265.000000	9.556000
2264.000000	9.715400
2263.000000	9.862200
2262.000000	10.059100
2261.000000	10.248400
2260.000000	10.441900
2259.000000	10.675600
2258.000000	10.889200
2257.000000	11.162500
2256.000000	11.372700
2255.000000	11.604400
2254.000000	11.824800
2253.000000	12.101300
2252.000000	12.270900
2251.000000	12.484100
2250.000000	12.679100
2249.000000	12.859800
2248.000000	13.050600
2247.000000	13.200100
2246.000000	13.366000
2245.000000	13.512600
2244.000000	13.610800
2243.000000	13.730600
2242.000000	13.885100
2241.000000	13.974300
2240.000000	14.071900
2239.000000	14.172600
2238.000000	14.261600
2237.000000	14.345100
2236.000000	14.426600
2235.000000	14.483100
2234.000000	14.571100
2233.000000	14.576300
2232.000000	14.637200
2231.000000	14.686300
2230.000000	14.700600
2229.000000	14.701200
2228.000000	14.740000
2227.000000	14.764300
2226.000000	14.770200
2225.000000	14.769900
2224.000000	14.760700
2223.000000	14.750900
2222.000000	14.742300
2221.000000	14.711200
2220.000000	14.695400
2219.000000	14.653900
2218.000000	14.627300
2217.000000	14.594300
2216.000000	14.607500
2215.000000	14.541900
2214.000000	14.536600
2213.000000	14.509100
2212.000000	14.483000
2211.000000	14.456800
2210.000000	14.436000
2209.000000	14.406300
2208.000000	14.402400
2207.000000	14.375600
2206.000000	14.359500
2205.000000	14.357900
2204.000000	14.335400
2203.000000	14.321300
2202.000000	14.290000
2201.000000	14.286600
2200.000000	14.296200
2199.000000	14.289400
2198.000000	14.261200
2197.000000	14.255700
2196.000000	14.245800
2195.000000	14.232000
2194.000000	14.205800
2193.000000	14.216500
2192.000000	14.198100
2191.000000	14.194200
2190.000000	14.180700
2189.000000	14.191600
2188.000000	14.161300
2187.000000	14.151700
2186.000000	14.108700
2185.000000	14.104300
2184.000000	14.087900
2183.000000	14.067000
2182.000000	14.061800
2181.000000	14.042300
2180.000000	14.020100
2179.000000	14.010400
2178.000000	14.021800
2177.000000	13.996600
2176.000000	13.988100
2175.000000	14.001800
2174.000000	13.976500
2173.000000	13.964800
2172.000000	13.972600
2171.000000	13.983700
2170.000000	13.996200
2169.000000	13.993300
2168.000000	13.997700
2167.000000	14.012800
2166.000000	14.032200
2165.000000	14.042500
2164.000000	14.053900
2163.000000	14.053700
2162.000000	14.090800
2161.000000	14.124700
2160.000000	14.150200
2159.000000	14.200200
2158.000000	14.226000
2157.000000	14.255400
2156.000000	14.299200
2155.000000	14.322200
2154.000000	14.357900
2153.000000	14.408200
2152.000000	14.451400
2151.000000	14.492100
2150.000000	14.537400
2149.000000	14.581100
2148.000000	14.621400
2147.000000	14.670700
2146.000000	14.710400
2145.000000	14.759500
2144.000000	14.798600
2143.000000	14.831300
2142.000000	14.867600
2141.000000	14.900700
2140.000000	14.929600
2139.000000	14.962300
2138.000000	14.997100
2137.000000	15.031000
2136.000000	15.069200
2135.000000	15.107800
2134.000000	15.145200
2133.000000	15.162000
2132.000000	15.179700
2131.000000	15.202100
2130.000000	15.214700
2129.000000	15.224700
2128.000000	15.240200
2127.000000	15.258100
2126.000000	15.264800
2125.000000	15.268900
2124.000000	15.276600
2123.000000	15.277600
2122.000000	15.283800
2121.000000	15.289400
2120.000000	15.279400
2119.000000	15.258800
2118.000000	15.256700
2117.000000	15.259200
2116.000000	15.236500
2115.000000	15.221800
2114.000000	15.226300
2113.000000	15.229000
2112.000000	15.202100
2111.000000	15.176900
2110.000000	15.161700
2109.000000	15.150900
2108.000000	15.139600
2107.000000	15.113300
2106.000000	15.094300
2105.000000	15.085000
2104.000000	15.073100
2103.000000	15.062900
2102.000000	15.050800
2101.000000	15.039600
2100.000000	15.024800
2099.000000	15.002400
2098.000000	14.988200
2097.000000	14.972000
2096.000000	14.973300
2095.000000	14.974400
2094.000000	14.952200
2093.000000	14.930900
2092.000000	14.917300
2091.000000	14.925700
2090.000000	14.923400
2089.000000	14.917800
2088.000000	14.931300
2087.000000	14.924200
2086.000000	14.898000
2085.000000	14.893300
2084.000000	14.898800
2083.000000	14.884300
2082.000000	14.862500
2081.000000	14.834400
2080.000000	14.817900
2079.000000	14.809300
2078.000000	14.796500
2077.000000	14.772500
2076.000000	14.758300
2075.000000	14.727400
2074.000000	14.699600
2073.000000	14.674000
2072.000000	14.656900
2071.000000	14.644100
2070.000000	14.611800
2069.000000	14.577600
2068.000000	14.556500
2067.000000	14.528700
2066.000000	14.510300
2065.000000	14.493800
2064.000000	14.468500
2063.000000	14.454100
2062.000000	14.438200
2061.000000	14.426600
2060.000000	14.414600
2059.000000	14.422200
2058.000000	14.444100
2057.000000	14.458000
2056.000000	14.469600
2055.000000	14.500700
2054.000000	14.528300
2053.000000	14.587200
2052.000000	14.660200
2051.000000	14.761000
2050.000000	14.859600
2049.000000	14.936700
2048.000000	15.026800
2047.000000	15.133100
2046.000000	15.256400
2045.000000	15.397600
2044.000000	15.533400
2043.000000	15.658500
2042.000000	15.781000
2041.000000	15.915000
2040.000000	16.026200
2039.000000	16.178600
2038.000000	16.303900
2037.000000	16.405500
2036.000000	16.516200
2035.000000	16.616500
2034.000000	16.717900
2033.000000	16.842900
2032.000000	16.928400
2031.000000	17.015100
2030.000000	17.109700
2029.000000	17.191900
2028.000000	17.271400
2027.000000	17.349900
2026.000000	17.401700
2025.000000	17.471000
2024.000000	17.529500
2023.000000	17.628300
2022.000000	17.667700
2021.000000	17.729800
2020.000000	17.775300
2019.000000	17.830800
2018.000000	17.886600
2017.000000	17.924200
2016.000000	17.949600
2015.000000	17.993200
2014.000000	18.037800
2013.000000	18.078800
2012.000000	18.101400
2011.000000	18.109100
2010.000000	18.141900
2009.000000	18.115700
2008.000000	18.136200
2007.000000	18.149600
2006.000000	18.154500
2005.000000	18.134000
2004.000000	18.106200
2003.000000	18.114900
2002.000000	18.094900
2001.000000	18.069000
2000.000000	18.044200
1999.000000	18.011700
1998.000000	17.991300
1997.000000	17.947100
1996.000000	17.893400
1995.000000	17.860700
1994.000000	17.821100
1993.000000	17.772000
1992.000000	17.702000
1991.000000	17.646300
1990.000000	17.573300
1989.000000	17.532700
1988.000000	17.477900
1987.000000	17.418200
1986.000000	17.334200
1985.000000	17.258000
1984.000000	17.196500
1983.000000	17.124000
1982.000000	17.041400
1981.000000	16.960900
1980.000000	16.907800
1979.000000	16.821300
1978.000000	16.749100
1977.000000	16.672700
1976.000000	16.602700
1975.000000	16.545600
1974.000000	16.478000
1973.000000	16.387000
1972.000000	16.316400
1971.000000	16.239500
1970.000000	16.166300
1969.000000	16.120700
1968.000000	16.050200
1967.000000	15.992800
1966.000000	15.932600
1965.000000	15.858100
1964.000000	15.789700
1963.000000	15.766600
1962.000000	15.665600
1961.000000	15.620400
1960.000000	15.528200
1959.000000	15.458000
1958.000000	15.391200
1957.000000	15.336900
1956.000000	15.261800
1955.000000	15.216200
1954.000000	15.144500
1953.000000	15.117700
1952.000000	15.041700
1951.000000	14.987400
1950.000000	14.923000
1949.000000	14.876300
1948.000000	14.826600
1947.000000	14.792900
1946.000000	14.757000
1945.000000	14.720200
1944.000000	14.701000
1943.000000	14.667600
1942.000000	14.641700
1941.000000	14.630600
1940.000000	14.614800
1939.000000	14.646000
1938.000000	14.649700
1937.000000	14.672700
1936.000000	14.694600
1935.000000	14.735500
1934.000000	14.756200
1933.000000	14.780700
1932.000000	14.833600
1931.000000	14.897400
1930.000000	14.975500
1929.000000	15.072200
1928.000000	15.176100
1927.000000	15.292000
1926.000000	15.418900
1925.000000	15.529600
1924.000000	15.632900
1923.000000	15.717800
1922.000000	15.885400
1921.000000	16.081600
1920.000000	16.286600
1919.000000	16.463100
1918.000000	16.636200
1917.000000	16.764900
1916.000000	16.879900
1915.000000	17.072800
1914.000000	17.338500
1913.000000	17.614100
1912.000000	17.879600
1911.000000	18.125900
1910.000000	18.279700
1909.000000	18.414100
1908.000000	18.592800
1907.000000	18.846400
1906.000000	19.168800
1905.000000	19.542800
1904.000000	19.838700
1903.000000	20.079200
1902.000000	20.309300
1901.000000	20.555000
1900.000000	20.892600
1899.000000	21.238000
1898.000000	21.560200
1897.000000	21.871700
1896.000000	22.075300
1895.000000	22.275700
1894.000000	22.535800
1893.000000	22.840100
1892.000000	23.173800
1891.000000	23.526200
1890.000000	23.830100
1889.000000	24.112200
1888.000000	24.431900
1887.000000	24.712200
1886.000000	25.047700
1885.000000	25.449800
1884.000000	25.917000
1883.000000	26.385200
1882.000000	26.837400
1881.000000	27.288100
1880.000000	27.692900
1879.000000	28.113200
1878.000000	28.486500
1877.000000	28.871600
1876.000000	29.218600
1875.000000	29.574000
1874.000000	29.861700
1873.000000	30.147900
1872.000000	30.439500
1871.000000	30.716600
1870.000000	30.978500
1869.000000	31.193600
1868.000000	31.344400
1867.000000	31.459500
1866.000000	31.501900
1865.000000	31.556000
1864.000000	31.604300
1863.000000	31.632000
1862.000000	31.666200
1861.000000	31.710600
1860.000000	31.766000
1859.000000	31.803400
1858.000000	31.810100
1857.000000	31.791900
1856.000000	31.740000
1855.000000	31.726300
1854.000000	31.728100
1853.000000	31.674000
1852.000000	31.606400
1851.000000	31.528500
1850.000000	31.440900
1849.000000	31.413300
1848.000000	31.430800
1847.000000	31.430800
1846.000000	31.344500
1845.000000	31.211500
1844.000000	31.089600
1843.000000	31.049300
1842.000000	31.077800
1841.000000	31.087900
1840.000000	31.034200
1839.000000	30.950100
1838.000000	30.894800
1837.000000	30.873500
1836.000000	30.853700
1835.000000	30.785900
1834.000000	30.678300
1833.000000	30.569600
1832.000000	30.474600
1831.000000	30.406100
1830.000000	30.347300
1829.000000	30.277000
1828.000000	30.186200
1827.000000	30.120700
1826.000000	30.064200
1825.000000	29.994000
1824.000000	29.920500
1823.000000	29.854900
1822.000000	29.860200
1821.000000	29.902400
1820.000000	29.909900
1819.000000	29.854200
1818.000000	29.794000
1817.000000	29.775600
1816.000000	29.776900
1815.000000	29.775800
1814.000000	29.759700
1813.000000	29.737200
1812.000000	29.726500
1811.000000	29.711800
1810.000000	29.676400
1809.000000	29.622400
1808.000000	29.577800
1807.000000	29.531600
1806.000000	29.498800
1805.000000	29.455300
1804.000000	29.389600
1803.000000	29.355700
1802.000000	29.311700
1801.000000	29.274500
1800.000000	29.222500
1799.000000	29.165600
1798.000000	29.119300
1797.000000	29.060600
1796.000000	29.019700
1795.000000	28.989900
1794.000000	28.938100
1793.000000	28.892500
1792.000000	28.836200
1791.000000	28.782100
1790.000000	28.735000
1789.000000	28.683200
1788.000000	28.615900
1787.000000	28.547700
1786.000000	28.466200
1785.000000	28.401800
1784.000000	28.331500
1783.000000	28.267200
1782.000000	28.172600
1781.000000	28.105700
1780.000000	28.030000
1779.000000	27.924800
1778.000000	27.826100
1777.000000	27.733400
1776.000000	27.625500
1775.000000	27.506900
1774.000000	27.366500
1773.000000	27.227100
1772.000000	27.109200
1771.000000	26.968300
1770.000000	26.825300
1769.000000	26.691400
1768.000000	26.567500
1767.000000	26.444600
1766.000000	26.367700
1765.000000	26.292100
1764.000000	26.247700
1763.000000	26.245400
1762.000000	26.256900
1761.000000	26.298400
1760.000000	26.349700
1759.000000	26.408800
1758.000000	26.501600
1757.000000	26.575500
1756.000000	26.622300
1755.000000	26.647200
1754.000000	26.660200
1753.000000	26.659900
1752.000000	26.645200
1751.000000	26.619900
1750.000000	26.557100
1749.000000	26.485400
1748.000000	26.409200
1747.000000	26.300900
1746.000000	26.179600
1745.000000	26.029800
1744.000000	25.859800
1743.000000	25.686300
1742.000000	25.452600
1741.000000	25.216300
1740.000000	24.948000
1739.000000	24.699800
1738.000000	24.469000
1737.000000	24.266700
1736.000000	24.141700
1735.000000	24.031000
1734.000000	23.968100
1733.000000	23.956200
1732.000000	23.999500
1731.000000	24.075000
1730.000000	24.163200
1729.000000	24.273200
1728.000000	24.380900
1727.000000	24.483800
1726.000000	24.577800
1725.000000	24.672000
1724.000000	24.717400
1723.000000	24.737200
1722.000000	24.758700
1721.000000	24.772000
1720.000000	24.812000
1719.000000	24.831400
1718.000000	24.906000
1717.000000	24.963800
1716.000000	25.025800
1715.000000	25.076700
1714.000000	25.166100
1713.000000	25.236900
1712.000000	25.286900
1711.000000	25.309700
1710.000000	25.355500
1709.000000	25.354200
1708.000000	25.319000
1707.000000	25.314700
1706.000000	25.300300
1705.000000	25.268400
1704.000000	25.191400
1703.000000	25.098300
1702.000000	25.011800
1701.000000	24.851400
1700.000000	24.717100
1699.000000	24.557300
1698.000000	24.409200
1697.000000	24.285500
1696.000000	24.220700
1695.000000	24.195100
1694.000000	24.273400
1693.000000	24.382600
1692.000000	24.533100
1691.000000	24.719400
1690.000000	24.897100
1689.000000	25.021100
1688.000000	25.087100
1687.000000	25.099500
1686.000000	25.123200
1685.000000	25.163500
1684.000000	25.286200
1683.000000	25.510900
1682.000000	25.876600
1681.000000	26.347200
1680.000000	26.891900
1679.000000	27.516300
1678.000000	28.083500
1677.000000	28.618600
1676.000000	29.111100
1675.000000	29.516800
1674.000000	29.886000
1673.000000	30.198900
1672.000000	30.487600
1671.000000	30.705300
1670.000000	30.915500
1669.000000	31.112400
1668.000000	31.264300
1667.000000	31.429100
1666.000000	31.559400
1665.000000	31.685900
1664.000000	31.774100
1663.000000	31.881900
1662.000000	31.944600
1661.000000	32.010300
1660.000000	32.070500
1659.000000	32.103900
1658.000000	32.145900
1657.000000	32.184600
1656.000000	32.206100
1655.000000	32.215600
1654.000000	32.227600
1653.000000	32.212300
1652.000000	32.206500
1651.000000	32.182300
1650.000000	32.170600
1649.000000	32.140300
1648.000000	32.096300
1647.000000	32.064900
1646.000000	32.026800
1645.000000	31.981200
1644.000000	31.924500
1643.000000	31.890500
1642.000000	31.843900
1641.000000	31.793500
1640.000000	31.725500
1639.000000	31.674200
1638.000000	31.617800
1637.000000	31.559300
1636.000000	31.473300
1635.000000	31.409700
1634.000000	31.350900
1633.000000	31.279300
1632.000000	31.215400
1631.000000	31.137900
1630.000000	31.058400
1629.000000	30.977300
1628.000000	30.899700
1627.000000	30.798000
1626.000000	30.718000
1625.000000	30.636000
1624.000000	30.564700
1623.000000	30.494700
1622.000000	30.421000
1621.000000	30.333500
1620.000000	30.255700
1619.000000	30.191200
1618.000000	30.105200
