PE UV       SUBTECH     SPECTRUM    ASCII       PEDS        4.00        
   -1
CICIMAUCR0158-5.Sample.ASC
24/04/25
13:52:02.00
24/04/25
13:52:02.00
Vinicio Soto Monge
C. cupreomarginata
250,000000
1
Lambda 1050
1050L1511233
PerkinElmer UV WinLab 6.3.2.0749 / 2.02.05 Lambda 900 UV/VIS/NIR, Aug  7 2015 09:38:08

0
0
3350/servo 860,8/2
0
0
UV/VIS
1
1
1
DoubleDePol,CommonBeamDepol,RBeamAtt,SBeamAtt,60mm sphere, WB InGaAs Detector
0
0
0
0
Program
Program
3350/servo 860,8/2
3350/0,2 860,8/0,2
3350/0,2 860,8/0,2
0
15.00
 
 
 
0
 
860,8
319,2
860,8
Front
100
on
S:100 R:100
0
0
0
0
 
0
 
 
 
0
 
 
0
0
0
0
0
 
 
 
 
0
0


0
0
#HDR
-1
-1
#GR
nm
%R
1.0
0.0
2500,000000
-1,000000
2251
8
68,614000
5,280700
#DATA
2500.000000	18.414251
2499.000000	18.293408
2498.000000	18.179456
2497.000000	18.387872
2496.000000	18.237798
2495.000000	18.262870
2494.000000	18.226510
2493.000000	18.289011
2492.000000	18.111727
2491.000000	18.206667
2490.000000	18.235422
2489.000000	18.109588
2488.000000	18.174347
2487.000000	18.150226
2486.000000	18.139650
2485.000000	18.147374
2484.000000	18.121589
2483.000000	18.112915
2482.000000	18.182546
2481.000000	18.154385
2480.000000	18.208330
2479.000000	18.179694
2478.000000	18.216885
2477.000000	18.294833
2476.000000	18.230431
2475.000000	18.259662
2474.000000	18.291982
2473.000000	18.291625
2472.000000	18.304102
2471.000000	18.396665
2470.000000	18.395001
2469.000000	18.469266
2468.000000	18.520835
2467.000000	18.505626
2466.000000	18.565156
2465.000000	18.623736
2464.000000	18.618270
2463.000000	18.692534
2462.000000	18.705961
2461.000000	18.773690
2460.000000	18.836785
2459.000000	18.868155
2458.000000	18.951450
2457.000000	19.047102
2456.000000	19.055539
2455.000000	19.126476
2454.000000	19.210365
2453.000000	19.301503
2452.000000	19.419019
2451.000000	19.507661
2450.000000	19.596303
2449.000000	19.680905
2448.000000	19.774062
2447.000000	19.877795
2446.000000	19.980933
2445.000000	20.065297
2444.000000	20.182695
2443.000000	20.251731
2442.000000	20.365801
2441.000000	20.467157
2440.000000	20.566850
2439.000000	20.663453
2438.000000	20.790831
2437.000000	20.890048
2436.000000	20.970610
2435.000000	21.056995
2434.000000	21.144686
2433.000000	21.229526
2432.000000	21.339556
2431.000000	21.423208
2430.000000	21.501393
2429.000000	21.593362
2428.000000	21.676182
2427.000000	21.758407
2426.000000	21.829345
2425.000000	21.901589
2424.000000	21.979300
2423.000000	22.058555
2422.000000	22.130442
2421.000000	22.193775
2420.000000	22.254731
2419.000000	22.319728
2418.000000	22.373792
2417.000000	22.428688
2416.000000	22.478000
2415.000000	22.541689
2414.000000	22.607398
2413.000000	22.655878
2412.000000	22.718141
2411.000000	22.766027
2410.000000	22.846589
2409.000000	22.920972
2408.000000	22.972066
2407.000000	23.013773
2406.000000	23.053698
2405.000000	23.081621
2404.000000	23.116436
2403.000000	23.135329
2402.000000	23.165273
2401.000000	23.220407
2400.000000	23.248211
2399.000000	23.276966
2398.000000	23.297523
2397.000000	23.324496
2396.000000	23.385571
2395.000000	23.416584
2394.000000	23.412425
2393.000000	23.440348
2392.000000	23.461736
2391.000000	23.479203
2390.000000	23.495839
2389.000000	23.506295
2388.000000	23.512117
2387.000000	23.511167
2386.000000	23.532555
2385.000000	23.551091
2384.000000	23.558934
2383.000000	23.566063
2382.000000	23.559528
2381.000000	23.563449
2380.000000	23.577826
2379.000000	23.558458
2378.000000	23.549190
2377.000000	23.547527
2376.000000	23.541110
2375.000000	23.531367
2374.000000	23.535050
2373.000000	23.546457
2372.000000	23.535763
2371.000000	23.516633
2370.000000	23.515088
2369.000000	23.508909
2368.000000	23.495601
2367.000000	23.494769
2366.000000	23.499760
2365.000000	23.499403
2364.000000	23.496076
2363.000000	23.488590
2362.000000	23.501067
2361.000000	23.519247
2360.000000	23.509266
2359.000000	23.488709
2358.000000	23.486689
2357.000000	23.490254
2356.000000	23.483362
2355.000000	23.480748
2354.000000	23.468390
2353.000000	23.446883
2352.000000	23.439873
2351.000000	23.431793
2350.000000	23.427515
2349.000000	23.421218
2348.000000	23.411355
2347.000000	23.419079
2346.000000	23.408860
2345.000000	23.415395
2344.000000	23.419792
2343.000000	23.407078
2342.000000	23.408622
2341.000000	23.411118
2340.000000	23.432268
2339.000000	23.441418
2338.000000	23.428822
2337.000000	23.427634
2336.000000	23.448072
2335.000000	23.486095
2334.000000	23.508315
2333.000000	23.510216
2332.000000	23.539447
2331.000000	23.568321
2330.000000	23.594937
2329.000000	23.616087
2328.000000	23.647813
2327.000000	23.704967
2326.000000	23.736693
2325.000000	23.755823
2324.000000	23.763785
2323.000000	23.774241
2322.000000	23.812146
2321.000000	23.827830
2320.000000	23.846961
2319.000000	23.840069
2318.000000	23.819156
2317.000000	23.818206
2316.000000	23.805254
2315.000000	23.806561
2314.000000	23.766517
2313.000000	23.745248
2312.000000	23.704729
2311.000000	23.663260
2310.000000	23.649001
2309.000000	23.609790
2308.000000	23.577232
2307.000000	23.543368
2306.000000	23.528396
2305.000000	23.506889
2304.000000	23.495601
2303.000000	23.485857
2302.000000	23.454132
2301.000000	23.435476
2300.000000	23.438328
2299.000000	23.436189
2298.000000	23.439041
2297.000000	23.449973
2296.000000	23.460786
2295.000000	23.457696
2294.000000	23.510216
2293.000000	23.520910
2292.000000	23.545269
2291.000000	23.560954
2290.000000	23.601591
2289.000000	23.632129
2288.000000	23.666468
2287.000000	23.722434
2286.000000	23.763309
2285.000000	23.798362
2284.000000	23.835316
2283.000000	23.905659
2282.000000	23.938454
2281.000000	23.983845
2280.000000	24.028760
2279.000000	24.094707
2278.000000	24.120967
2277.000000	24.163149
2276.000000	24.192498
2275.000000	24.230997
2274.000000	24.290765
2273.000000	24.304905
2272.000000	24.315005
2271.000000	24.377862
2270.000000	24.420044
2269.000000	24.467336
2268.000000	24.515459
2267.000000	24.586991
2266.000000	24.652462
2265.000000	24.716389
2264.000000	24.794812
2263.000000	24.896169
2262.000000	25.036380
2261.000000	25.124903
2260.000000	25.249430
2259.000000	25.367183
2258.000000	25.534605
2257.000000	25.670420
2256.000000	25.847823
2255.000000	26.000035
2254.000000	26.150821
2253.000000	26.339750
2252.000000	26.468792
2251.000000	26.626708
2250.000000	26.769414
2249.000000	26.962383
2248.000000	27.074433
2247.000000	27.177809
2246.000000	27.346419
2245.000000	27.480927
2244.000000	27.568143
2243.000000	27.666529
2242.000000	27.755646
2241.000000	27.820048
2240.000000	27.942436
2239.000000	27.987351
2238.000000	28.033573
2237.000000	28.052347
2236.000000	28.075399
2235.000000	28.138019
2234.000000	28.150257
2233.000000	28.130889
2232.000000	28.155248
2231.000000	28.109263
2230.000000	28.120076
2229.000000	28.092747
2228.000000	28.072310
2227.000000	27.996976
2226.000000	27.954437
2225.000000	27.911780
2224.000000	27.846664
2223.000000	27.771449
2222.000000	27.684946
2221.000000	27.634565
2220.000000	27.540933
2219.000000	27.491383
2218.000000	27.411891
2217.000000	27.321704
2216.000000	27.252668
2215.000000	27.164501
2214.000000	27.101644
2213.000000	27.019893
2212.000000	26.978662
2211.000000	26.882534
2210.000000	26.838094
2209.000000	26.769177
2208.000000	26.736144
2207.000000	26.643937
2206.000000	26.596527
2205.000000	26.551612
2204.000000	26.509667
2203.000000	26.489943
2202.000000	26.466772
2201.000000	26.397855
2200.000000	26.368862
2199.000000	26.308262
2198.000000	26.298756
2197.000000	26.275229
2196.000000	26.258832
2195.000000	26.220333
2194.000000	26.210471
2193.000000	26.200014
2192.000000	26.197044
2191.000000	26.151059
2190.000000	26.127651
2189.000000	26.110184
2188.000000	26.092836
2187.000000	26.078339
2186.000000	26.026889
2185.000000	26.005026
2184.000000	25.993381
2183.000000	25.983162
2182.000000	25.969616
2181.000000	25.940505
2180.000000	25.961774
2179.000000	25.946802
2178.000000	25.890124
2177.000000	25.883470
2176.000000	25.886678
2175.000000	25.906165
2174.000000	25.892975
2173.000000	25.876221
2172.000000	25.905571
2171.000000	25.928503
2170.000000	25.934088
2169.000000	25.955714
2168.000000	25.968547
2167.000000	26.026057
2166.000000	26.059447
2165.000000	26.079409
2164.000000	26.127413
2163.000000	26.202509
2162.000000	26.257406
2161.000000	26.324897
2160.000000	26.374090
2159.000000	26.459524
2158.000000	26.532719
2157.000000	26.625520
2156.000000	26.728064
2155.000000	26.805418
2154.000000	26.907368
2153.000000	27.025478
2152.000000	27.141568
2151.000000	27.258728
2150.000000	27.361866
2149.000000	27.474986
2148.000000	27.583234
2147.000000	27.701106
2146.000000	27.826465
2145.000000	27.925563
2144.000000	28.026681
2143.000000	28.134216
2142.000000	28.241751
2141.000000	28.343464
2140.000000	28.438879
2139.000000	28.534056
2138.000000	28.635769
2137.000000	28.736293
2136.000000	28.826123
2135.000000	28.920231
2134.000000	29.018617
2133.000000	29.101199
2132.000000	29.189722
2131.000000	29.261491
2130.000000	29.316031
2129.000000	29.400276
2128.000000	29.470382
2127.000000	29.535140
2126.000000	29.601444
2125.000000	29.662044
2124.000000	29.709810
2123.000000	29.756151
2122.000000	29.807839
2121.000000	29.840397
2120.000000	29.865825
2119.000000	29.922147
2118.000000	29.963973
2117.000000	29.973598
2116.000000	29.997362
2115.000000	30.015899
2114.000000	30.031464
2113.000000	30.071508
2112.000000	30.087787
2111.000000	30.087311
2110.000000	30.094678
2109.000000	30.099194
2108.000000	30.122008
2107.000000	30.129375
2106.000000	30.131276
2105.000000	30.123434
2104.000000	30.116185
2103.000000	30.132702
2102.000000	30.133415
2101.000000	30.136385
2100.000000	30.136266
2099.000000	30.146842
2098.000000	30.152070
2097.000000	30.139237
2096.000000	30.141257
2095.000000	30.169062
2094.000000	30.201857
2093.000000	30.211125
2092.000000	30.201025
2091.000000	30.189380
2090.000000	30.181419
2089.000000	30.206729
2088.000000	30.233820
2087.000000	30.219918
2086.000000	30.212551
2085.000000	30.206253
2084.000000	30.174171
2083.000000	30.155753
2082.000000	30.130919
2081.000000	30.081251
2080.000000	30.035742
2079.000000	29.993679
2078.000000	29.924880
2077.000000	29.852636
2076.000000	29.782768
2075.000000	29.704582
2074.000000	29.620931
2073.000000	29.521119
2072.000000	29.413941
2071.000000	29.314486
2070.000000	29.215744
2069.000000	29.103219
2068.000000	28.987723
2067.000000	28.858681
2066.000000	28.734986
2065.000000	28.628402
2064.000000	28.513975
2063.000000	28.416896
2062.000000	28.318392
2061.000000	28.210976
2060.000000	28.109501
2059.000000	28.039039
2058.000000	27.955269
2057.000000	27.893837
2056.000000	27.861636
2055.000000	27.851061
2054.000000	27.833713
2053.000000	27.860329
2052.000000	27.897758
2051.000000	27.942792
2050.000000	28.009214
2049.000000	28.115442
2048.000000	28.228087
2047.000000	28.322551
2046.000000	28.424976
2045.000000	28.542730
2044.000000	28.688526
2043.000000	28.860225
2042.000000	28.974296
2041.000000	29.090504
2040.000000	29.207189
2039.000000	29.358451
2038.000000	29.461351
2037.000000	29.570193
2036.000000	29.706008
2035.000000	29.836476
2034.000000	29.910621
2033.000000	29.995461
2032.000000	30.064854
2031.000000	30.175122
2030.000000	30.254258
2029.000000	30.338028
2028.000000	30.391261
2027.000000	30.454593
2026.000000	30.535037
2025.000000	30.579001
2024.000000	30.634254
2023.000000	30.665623
2022.000000	30.715054
2021.000000	30.759375
2020.000000	30.794071
2019.000000	30.814746
2018.000000	30.833045
2017.000000	30.846234
2016.000000	30.881644
2015.000000	30.898754
2014.000000	30.900536
2013.000000	30.889842
2012.000000	30.857641
2011.000000	30.842076
2010.000000	30.842313
2009.000000	30.782426
2008.000000	30.786229
2007.000000	30.743571
2006.000000	30.687843
2005.000000	30.645067
2004.000000	30.595874
2003.000000	30.536819
2002.000000	30.455901
2001.000000	30.393162
2000.000000	30.332562
1999.000000	30.259486
1998.000000	30.171795
1997.000000	30.093134
1996.000000	30.030157
1995.000000	29.908007
1994.000000	29.813305
1993.000000	29.715989
1992.000000	29.628535
1991.000000	29.530744
1990.000000	29.424991
1989.000000	29.325537
1988.000000	29.227864
1987.000000	29.093950
1986.000000	28.983801
1985.000000	28.879356
1984.000000	28.777168
1983.000000	28.660484
1982.000000	28.559959
1981.000000	28.455633
1980.000000	28.337166
1979.000000	28.206342
1978.000000	28.115918
1977.000000	27.984143
1976.000000	27.901204
1975.000000	27.801393
1974.000000	27.698017
1973.000000	27.571589
1972.000000	27.498513
1971.000000	27.383967
1970.000000	27.293424
1969.000000	27.232706
1968.000000	27.094039
1967.000000	26.990188
1966.000000	26.907130
1965.000000	26.815161
1964.000000	26.717013
1963.000000	26.618153
1962.000000	26.533313
1961.000000	26.412945
1960.000000	26.335116
1959.000000	26.229720
1958.000000	26.134899
1957.000000	26.054218
1956.000000	25.937415
1955.000000	25.862794
1954.000000	25.759181
1953.000000	25.638337
1952.000000	25.533654
1951.000000	25.451904
1950.000000	25.375857
1949.000000	25.280561
1948.000000	25.240993
1947.000000	25.129062
1946.000000	25.068462
1945.000000	24.988494
1944.000000	24.933360
1943.000000	24.900446
1942.000000	24.872998
1941.000000	24.811685
1940.000000	24.784356
1939.000000	24.760116
1938.000000	24.728984
1937.000000	24.730886
1936.000000	24.718172
1935.000000	24.735163
1934.000000	24.743837
1933.000000	24.766889
1932.000000	24.826538
1931.000000	24.884880
1930.000000	24.945242
1929.000000	25.016180
1928.000000	25.105891
1927.000000	25.214971
1926.000000	25.296721
1925.000000	25.427783
1924.000000	25.593779
1923.000000	25.740644
1922.000000	25.887747
1921.000000	26.091529
1920.000000	26.278437
1919.000000	26.472238
1918.000000	26.711310
1917.000000	26.927924
1916.000000	27.143469
1915.000000	27.409871
1914.000000	27.724871
1913.000000	28.068864
1912.000000	28.376378
1911.000000	28.694705
1910.000000	29.006853
1909.000000	29.315199
1908.000000	29.679986
1907.000000	30.098718
1906.000000	30.546919
1905.000000	31.035638
1904.000000	31.496434
1903.000000	31.959369
1902.000000	32.454861
1901.000000	32.967583
1900.000000	33.531398
1899.000000	34.084639
1898.000000	34.652494
1897.000000	35.236985
1896.000000	35.715129
1895.000000	36.216562
1894.000000	36.768139
1893.000000	37.335400
1892.000000	37.945438
1891.000000	38.525414
1890.000000	39.066177
1889.000000	39.577236
1888.000000	40.093522
1887.000000	40.565487
1886.000000	41.033175
1885.000000	41.512745
1884.000000	41.984235
1883.000000	42.376470
1882.000000	42.763358
1881.000000	43.149652
1880.000000	43.481406
1879.000000	43.809595
1878.000000	44.136596
1877.000000	44.420464
1876.000000	44.675221
1875.000000	44.953148
1874.000000	45.228937
1873.000000	45.483218
1872.000000	45.728350
1871.000000	45.933201
1870.000000	46.132467
1869.000000	46.345992
1868.000000	46.492739
1867.000000	46.594451
1866.000000	46.658616
1865.000000	46.760685
1864.000000	46.851703
1863.000000	46.927631
1862.000000	47.019006
1861.000000	47.123927
1860.000000	47.237760
1859.000000	47.310717
1858.000000	47.397220
1857.000000	47.468752
1856.000000	47.490140
1855.000000	47.537907
1854.000000	47.596368
1853.000000	47.590664
1852.000000	47.621796
1851.000000	47.681445
1850.000000	47.710200
1849.000000	47.724934
1848.000000	47.762007
1847.000000	47.765215
1846.000000	47.735391
1845.000000	47.721013
1844.000000	47.678474
1843.000000	47.703427
1842.000000	47.758205
1841.000000	47.759393
1840.000000	47.729925
1839.000000	47.682633
1838.000000	47.659344
1837.000000	47.656730
1836.000000	47.639857
1835.000000	47.604329
1834.000000	47.546106
1833.000000	47.507607
1832.000000	47.474812
1831.000000	47.460791
1830.000000	47.458176
1829.000000	47.433342
1828.000000	47.373931
1827.000000	47.352899
1826.000000	47.351592
1825.000000	47.322480
1824.000000	47.314638
1823.000000	47.343037
1822.000000	47.363118
1821.000000	47.383556
1820.000000	47.386288
1819.000000	47.338878
1818.000000	47.301092
1817.000000	47.301330
1816.000000	47.315113
1815.000000	47.289091
1814.000000	47.283269
1813.000000	47.271862
1812.000000	47.255464
1811.000000	47.230393
1810.000000	47.165040
1809.000000	47.155415
1808.000000	47.167298
1807.000000	47.158742
1806.000000	47.143533
1805.000000	47.097786
1804.000000	47.067130
1803.000000	47.061901
1802.000000	47.066298
1801.000000	47.042177
1800.000000	47.006768
1799.000000	46.975517
1798.000000	46.973141
1797.000000	46.975755
1796.000000	46.959951
1795.000000	46.942960
1794.000000	46.925017
1793.000000	46.913848
1792.000000	46.900659
1791.000000	46.878914
1790.000000	46.872497
1789.000000	46.871428
1788.000000	46.881409
1787.000000	46.889608
1786.000000	46.875943
1785.000000	46.884023
1784.000000	46.869289
1783.000000	46.867032
1782.000000	46.859902
1781.000000	46.836138
1780.000000	46.810353
1779.000000	46.800966
1778.000000	46.773755
1777.000000	46.755694
1776.000000	46.726226
1775.000000	46.691055
1774.000000	46.655527
1773.000000	46.632831
1772.000000	46.601700
1771.000000	46.550368
1770.000000	46.524227
1769.000000	46.503314
1768.000000	46.452696
1767.000000	46.422633
1766.000000	46.403146
1765.000000	46.370826
1764.000000	46.367856
1763.000000	46.334229
1762.000000	46.302028
1761.000000	46.294780
1760.000000	46.289551
1759.000000	46.285274
1758.000000	46.261984
1757.000000	46.262460
1756.000000	46.250934
1755.000000	46.253905
1754.000000	46.252479
1753.000000	46.249389
1752.000000	46.246419
1751.000000	46.212673
1750.000000	46.185106
1749.000000	46.143518
1748.000000	46.115713
1747.000000	46.085413
1746.000000	46.024814
1745.000000	45.983344
1744.000000	45.944846
1743.000000	45.897911
1742.000000	45.851332
1741.000000	45.792990
1740.000000	45.726092
1739.000000	45.684504
1738.000000	45.629608
1737.000000	45.596932
1736.000000	45.561879
1735.000000	45.527064
1734.000000	45.483693
1733.000000	45.452205
1732.000000	45.432481
1731.000000	45.400398
1730.000000	45.388872
1729.000000	45.367841
1728.000000	45.343601
1727.000000	45.319599
1726.000000	45.343601
1725.000000	45.333620
1724.000000	45.376277
1723.000000	45.418935
1722.000000	45.492843
1721.000000	45.621647
1720.000000	45.761858
1719.000000	45.905634
1718.000000	46.057371
1717.000000	46.245349
1716.000000	46.405879
1715.000000	46.602888
1714.000000	46.735970
1713.000000	46.851585
1712.000000	46.991083
1711.000000	47.114184
1710.000000	47.203657
1709.000000	47.293369
1708.000000	47.363593
1707.000000	47.439521
1706.000000	47.494180
1705.000000	47.521628
1704.000000	47.548007
1703.000000	47.562503
1702.000000	47.573554
1701.000000	47.569870
1700.000000	47.592447
1699.000000	47.591258
1698.000000	47.604923
1697.000000	47.575574
1696.000000	47.561077
1695.000000	47.522460
1694.000000	47.493467
1693.000000	47.452473
1692.000000	47.411479
1691.000000	47.382130
1690.000000	47.367633
1689.000000	47.358127
1688.000000	47.392348
1687.000000	47.491685
1686.000000	47.594585
1685.000000	47.710675
1684.000000	47.918022
1683.000000	48.071304
1682.000000	48.269738
1681.000000	48.445359
1680.000000	48.633456
1679.000000	48.769983
1678.000000	48.958555
1677.000000	49.102094
1676.000000	49.259653
1675.000000	49.412103
1674.000000	49.578337
1673.000000	49.685990
1672.000000	49.813725
1671.000000	49.957739
1670.000000	50.115298
1669.000000	50.236141
1668.000000	50.405464
1667.000000	50.560172
1666.000000	50.676618
1665.000000	50.781777
1664.000000	50.882658
1663.000000	50.985796
1662.000000	51.114006
1661.000000	51.183518
1660.000000	51.271209
1659.000000	51.335374
1658.000000	51.391458
1657.000000	51.487348
1656.000000	51.514678
1655.000000	51.535828
1654.000000	51.575634
1653.000000	51.591556
1652.000000	51.621975
1651.000000	51.633263
1650.000000	51.632431
1649.000000	51.623401
1648.000000	51.650255
1647.000000	51.642531
1646.000000	51.616034
1645.000000	51.616984
1644.000000	51.599280
1643.000000	51.579793
1642.000000	51.580981
1641.000000	51.564821
1640.000000	51.556860
1639.000000	51.560425
1638.000000	51.542839
1637.000000	51.538561
1636.000000	51.520500
1635.000000	51.489962
1634.000000	51.458831
1633.000000	51.452533
1632.000000	51.428293
1631.000000	51.379932
1630.000000	51.333472
1629.000000	51.307331
1628.000000	51.266456
1627.000000	51.223323
1626.000000	51.205738
1625.000000	51.167358
