PE UV       SUBTECH     SPECTRUM    ASCII       PEDS        4.00        
   -1
CICIMAUCR0006-3.Sample.ASC
24/04/12
11:24:13.00
24/04/12
11:24:13.00
Vinicio Soto Monge
C. kalinini
250,000000
1
Lambda 1050
1050L1511233
PerkinElmer UV WinLab 6.3.2.0749 / 2.02.05 Lambda 900 UV/VIS/NIR, Aug  7 2015 09:38:08

0
0
3350/servo 860,8/2
0
0
UV/VIS
1
1
1
DoubleDePol,CommonBeamDepol,RBeamAtt,SBeamAtt,60mm sphere, WB InGaAs Detector
0
0
0
0
Program
Program
3350/servo 860,8/2
3350/0,2 860,8/0,2
3350/0,2 860,8/0,2
0
15.00
 
 
 
0
 
860,8
319,2
860,8
Front
100
on
S:100 R:100
0
0
0
0
 
0
 
 
 
0
 
 
0
0
0
0
0
 
 
 
 
0
0


0
0
#HDR
-1
-1
#GR
nm
%R
1.0
0.0
2500,000000
-1,000000
2251
8
53,231800
3,109100
#DATA
2500.000000	10.024200
2499.000000	9.885200
2498.000000	9.891600
2497.000000	9.900500
2496.000000	9.898800
2495.000000	9.746900
2494.000000	9.768300
2493.000000	9.843200
2492.000000	9.721100
2491.000000	9.756400
2490.000000	9.731600
2489.000000	9.784000
2488.000000	9.682600
2487.000000	9.737800
2486.000000	9.700100
2485.000000	9.715200
2484.000000	9.604400
2483.000000	9.673200
2482.000000	9.691900
2481.000000	9.685800
2480.000000	9.708200
2479.000000	9.785900
2478.000000	9.749200
2477.000000	9.762400
2476.000000	9.740800
2475.000000	9.753900
2474.000000	9.835100
2473.000000	9.795800
2472.000000	9.840800
2471.000000	9.842100
2470.000000	9.881600
2469.000000	9.894100
2468.000000	9.945100
2467.000000	9.983400
2466.000000	10.025700
2465.000000	10.061200
2464.000000	10.139900
2463.000000	10.175100
2462.000000	10.217600
2461.000000	10.311300
2460.000000	10.361200
2459.000000	10.431700
2458.000000	10.533000
2457.000000	10.588100
2456.000000	10.680600
2455.000000	10.738700
2454.000000	10.832700
2453.000000	10.885200
2452.000000	10.966300
2451.000000	11.033400
2450.000000	11.119000
2449.000000	11.208000
2448.000000	11.287900
2447.000000	11.340700
2446.000000	11.435400
2445.000000	11.505200
2444.000000	11.574400
2443.000000	11.657300
2442.000000	11.741600
2441.000000	11.798500
2440.000000	11.876300
2439.000000	11.946600
2438.000000	12.034200
2437.000000	12.107600
2436.000000	12.173000
2435.000000	12.234000
2434.000000	12.283200
2433.000000	12.347900
2432.000000	12.411900
2431.000000	12.484800
2430.000000	12.524200
2429.000000	12.574200
2428.000000	12.617800
2427.000000	12.595000
2426.000000	12.549800
2425.000000	12.505000
2424.000000	12.484400
2423.000000	12.494700
2422.000000	12.545900
2421.000000	12.580400
2420.000000	12.596100
2419.000000	12.597900
2418.000000	12.595400
2417.000000	12.619400
2416.000000	12.610400
2415.000000	12.628500
2414.000000	12.647200
2413.000000	12.633400
2412.000000	12.623800
2411.000000	12.645300
2410.000000	12.657100
2409.000000	12.648000
2408.000000	12.659600
2407.000000	12.631000
2406.000000	12.662300
2405.000000	12.674800
2404.000000	12.669500
2403.000000	12.693200
2402.000000	12.674800
2401.000000	12.694800
2400.000000	12.691200
2399.000000	12.674700
2398.000000	12.701500
2397.000000	12.690700
2396.000000	12.682900
2395.000000	12.687400
2394.000000	12.650500
2393.000000	12.660900
2392.000000	12.672600
2391.000000	12.657700
2390.000000	12.635900
2389.000000	12.640000
2388.000000	12.638400
2387.000000	12.636300
2386.000000	12.615400
2385.000000	12.577200
2384.000000	12.568500
2383.000000	12.567600
2382.000000	12.538400
2381.000000	12.500300
2380.000000	12.468200
2379.000000	12.415700
2378.000000	12.402700
2377.000000	12.391400
2376.000000	12.376600
2375.000000	12.363400
2374.000000	12.322800
2373.000000	12.264700
2372.000000	12.249200
2371.000000	12.207700
2370.000000	12.130300
2369.000000	12.087000
2368.000000	12.059500
2367.000000	12.003100
2366.000000	11.947600
2365.000000	11.903400
2364.000000	11.855600
2363.000000	11.785800
2362.000000	11.717000
2361.000000	11.675800
2360.000000	11.633400
2359.000000	11.557900
2358.000000	11.499500
2357.000000	11.480000
2356.000000	11.461200
2355.000000	11.401400
2354.000000	11.362400
2353.000000	11.372600
2352.000000	11.375500
2351.000000	11.355200
2350.000000	11.358000
2349.000000	11.369200
2348.000000	11.386400
2347.000000	11.380700
2346.000000	11.386100
2345.000000	11.393900
2344.000000	11.391900
2343.000000	11.404300
2342.000000	11.418700
2341.000000	11.400200
2340.000000	11.390200
2339.000000	11.390400
2338.000000	11.358100
2337.000000	11.298700
2336.000000	11.254100
2335.000000	11.241300
2334.000000	11.235200
2333.000000	11.186000
2332.000000	11.149500
2331.000000	11.095900
2330.000000	11.050600
2329.000000	11.012100
2328.000000	10.934700
2327.000000	10.874000
2326.000000	10.815000
2325.000000	10.777200
2324.000000	10.721500
2323.000000	10.647100
2322.000000	10.577500
2321.000000	10.504700
2320.000000	10.419500
2319.000000	10.347700
2318.000000	10.270100
2317.000000	10.162100
2316.000000	10.088700
2315.000000	10.032500
2314.000000	9.949500
2313.000000	9.898100
2312.000000	9.841300
2311.000000	9.801900
2310.000000	9.743600
2309.000000	9.711600
2308.000000	9.717300
2307.000000	9.683100
2306.000000	9.680500
2305.000000	9.733700
2304.000000	9.779200
2303.000000	9.784900
2302.000000	9.841800
2301.000000	9.912600
2300.000000	9.953500
2299.000000	9.985900
2298.000000	10.065700
2297.000000	10.124600
2296.000000	10.143100
2295.000000	10.205200
2294.000000	10.232800
2293.000000	10.234500
2292.000000	10.258300
2291.000000	10.296500
2290.000000	10.286600
2289.000000	10.253700
2288.000000	10.235400
2287.000000	10.220000
2286.000000	10.208600
2285.000000	10.148400
2284.000000	10.117300
2283.000000	10.068900
2282.000000	10.038600
2281.000000	9.959000
2280.000000	9.931100
2279.000000	9.874200
2278.000000	9.841100
2277.000000	9.782800
2276.000000	9.733300
2275.000000	9.743200
2274.000000	9.730900
2273.000000	9.674700
2272.000000	9.662000
2271.000000	9.705600
2270.000000	9.745500
2269.000000	9.732400
2268.000000	9.778600
2267.000000	9.872300
2266.000000	9.978600
2265.000000	10.038000
2264.000000	10.148200
2263.000000	10.284500
2262.000000	10.430900
2261.000000	10.616100
2260.000000	10.766600
2259.000000	10.935600
2258.000000	11.108500
2257.000000	11.303500
2256.000000	11.481700
2255.000000	11.618200
2254.000000	11.793900
2253.000000	11.996900
2252.000000	12.160600
2251.000000	12.329000
2250.000000	12.433400
2249.000000	12.572100
2248.000000	12.715000
2247.000000	12.848800
2246.000000	12.940300
2245.000000	13.042600
2244.000000	13.167300
2243.000000	13.247200
2242.000000	13.350500
2241.000000	13.390500
2240.000000	13.469600
2239.000000	13.554700
2238.000000	13.608200
2237.000000	13.651400
2236.000000	13.704000
2235.000000	13.767700
2234.000000	13.814700
2233.000000	13.862900
2232.000000	13.893000
2231.000000	13.887200
2230.000000	13.898900
2229.000000	13.905200
2228.000000	13.925800
2227.000000	13.935500
2226.000000	13.951000
2225.000000	13.941500
2224.000000	13.925100
2223.000000	13.873800
2222.000000	13.869700
2221.000000	13.861100
2220.000000	13.858700
2219.000000	13.827700
2218.000000	13.815200
2217.000000	13.786500
2216.000000	13.757400
2215.000000	13.741400
2214.000000	13.709300
2213.000000	13.692300
2212.000000	13.666900
2211.000000	13.654200
2210.000000	13.630300
2209.000000	13.606000
2208.000000	13.595900
2207.000000	13.570600
2206.000000	13.523600
2205.000000	13.514900
2204.000000	13.500800
2203.000000	13.488200
2202.000000	13.466000
2201.000000	13.454600
2200.000000	13.441900
2199.000000	13.436800
2198.000000	13.419000
2197.000000	13.393100
2196.000000	13.372800
2195.000000	13.360000
2194.000000	13.338900
2193.000000	13.336100
2192.000000	13.322800
2191.000000	13.315600
2190.000000	13.307800
2189.000000	13.303400
2188.000000	13.277000
2187.000000	13.274600
2186.000000	13.258900
2185.000000	13.234700
2184.000000	13.212500
2183.000000	13.200400
2182.000000	13.241100
2181.000000	13.220700
2180.000000	13.213700
2179.000000	13.209300
2178.000000	13.186500
2177.000000	13.217600
2176.000000	13.211100
2175.000000	13.210500
2174.000000	13.193600
2173.000000	13.214700
2172.000000	13.223700
2171.000000	13.258800
2170.000000	13.246400
2169.000000	13.247400
2168.000000	13.269500
2167.000000	13.287900
2166.000000	13.323000
2165.000000	13.318600
2164.000000	13.344300
2163.000000	13.366100
2162.000000	13.413000
2161.000000	13.421800
2160.000000	13.442000
2159.000000	13.486100
2158.000000	13.540300
2157.000000	13.552400
2156.000000	13.579200
2155.000000	13.615900
2154.000000	13.628700
2153.000000	13.651200
2152.000000	13.679700
2151.000000	13.723300
2150.000000	13.766200
2149.000000	13.793300
2148.000000	13.832400
2147.000000	13.847500
2146.000000	13.858500
2145.000000	13.877600
2144.000000	13.901300
2143.000000	13.918500
2142.000000	13.943500
2141.000000	13.959400
2140.000000	13.979100
2139.000000	13.991300
2138.000000	13.986100
2137.000000	13.990200
2136.000000	13.995800
2135.000000	14.007800
2134.000000	14.008500
2133.000000	14.012500
2132.000000	13.993800
2131.000000	13.999500
2130.000000	14.004600
2129.000000	13.982900
2128.000000	13.943200
2127.000000	13.941900
2126.000000	13.920000
2125.000000	13.894200
2124.000000	13.884800
2123.000000	13.866700
2122.000000	13.833000
2121.000000	13.789600
2120.000000	13.744700
2119.000000	13.711400
2118.000000	13.695900
2117.000000	13.660600
2116.000000	13.616300
2115.000000	13.574100
2114.000000	13.535200
2113.000000	13.520100
2112.000000	13.493000
2111.000000	13.453100
2110.000000	13.416000
2109.000000	13.374700
2108.000000	13.349600
2107.000000	13.321800
2106.000000	13.278500
2105.000000	13.238000
2104.000000	13.198100
2103.000000	13.179500
2102.000000	13.171800
2101.000000	13.145300
2100.000000	13.097700
2099.000000	13.056500
2098.000000	13.043600
2097.000000	13.042200
2096.000000	13.018000
2095.000000	12.978000
2094.000000	12.980600
2093.000000	12.975300
2092.000000	12.955300
2091.000000	12.948000
2090.000000	12.929400
2089.000000	12.920600
2088.000000	12.905500
2087.000000	12.895500
2086.000000	12.888100
2085.000000	12.850000
2084.000000	12.823900
2083.000000	12.812100
2082.000000	12.807000
2081.000000	12.794300
2080.000000	12.768800
2079.000000	12.728200
2078.000000	12.690200
2077.000000	12.682900
2076.000000	12.666200
2075.000000	12.662500
2074.000000	12.638500
2073.000000	12.615700
2072.000000	12.581000
2071.000000	12.549600
2070.000000	12.537600
2069.000000	12.526400
2068.000000	12.490500
2067.000000	12.478400
2066.000000	12.460900
2065.000000	12.431700
2064.000000	12.415400
2063.000000	12.407000
2062.000000	12.379800
2061.000000	12.365900
2060.000000	12.373100
2059.000000	12.372200
2058.000000	12.365000
2057.000000	12.386900
2056.000000	12.389600
2055.000000	12.420200
2054.000000	12.474400
2053.000000	12.513100
2052.000000	12.565700
2051.000000	12.629500
2050.000000	12.693300
2049.000000	12.764200
2048.000000	12.859000
2047.000000	12.941600
2046.000000	13.045000
2045.000000	13.149300
2044.000000	13.241800
2043.000000	13.333400
2042.000000	13.450100
2041.000000	13.548400
2040.000000	13.633900
2039.000000	13.729200
2038.000000	13.818600
2037.000000	13.920500
2036.000000	14.029200
2035.000000	14.110900
2034.000000	14.178300
2033.000000	14.240900
2032.000000	14.321900
2031.000000	14.419200
2030.000000	14.474100
2029.000000	14.516300
2028.000000	14.559500
2027.000000	14.626900
2026.000000	14.694300
2025.000000	14.727200
2024.000000	14.768600
2023.000000	14.812900
2022.000000	14.872800
2021.000000	14.918600
2020.000000	14.958800
2019.000000	14.972500
2018.000000	15.012100
2017.000000	15.056600
2016.000000	15.074300
2015.000000	15.093400
2014.000000	15.130000
2013.000000	15.140900
2012.000000	15.134700
2011.000000	15.144300
2010.000000	15.155000
2009.000000	15.151400
2008.000000	15.144900
2007.000000	15.158000
2006.000000	15.126200
2005.000000	15.121300
2004.000000	15.096000
2003.000000	15.079400
2002.000000	15.070300
2001.000000	15.028900
2000.000000	14.999100
1999.000000	14.962100
1998.000000	14.919700
1997.000000	14.858300
1996.000000	14.826900
1995.000000	14.805300
1994.000000	14.726300
1993.000000	14.683800
1992.000000	14.661700
1991.000000	14.579000
1990.000000	14.525800
1989.000000	14.444700
1988.000000	14.391100
1987.000000	14.342700
1986.000000	14.282600
1985.000000	14.215400
1984.000000	14.147000
1983.000000	14.063400
1982.000000	14.009600
1981.000000	13.920100
1980.000000	13.879700
1979.000000	13.788700
1978.000000	13.733600
1977.000000	13.645200
1976.000000	13.610600
1975.000000	13.534300
1974.000000	13.447000
1973.000000	13.391900
1972.000000	13.319400
1971.000000	13.275100
1970.000000	13.222900
1969.000000	13.163800
1968.000000	13.098800
1967.000000	13.025000
1966.000000	12.956500
1965.000000	12.891500
1964.000000	12.829800
1963.000000	12.779300
1962.000000	12.720800
1961.000000	12.672700
1960.000000	12.608200
1959.000000	12.541200
1958.000000	12.483400
1957.000000	12.406600
1956.000000	12.352800
1955.000000	12.307300
1954.000000	12.268900
1953.000000	12.210900
1952.000000	12.166000
1951.000000	12.085800
1950.000000	12.051900
1949.000000	11.999800
1948.000000	11.943100
1947.000000	11.915400
1946.000000	11.883700
1945.000000	11.853900
1944.000000	11.821500
1943.000000	11.798700
1942.000000	11.761300
1941.000000	11.756600
1940.000000	11.738300
1939.000000	11.761600
1938.000000	11.814000
1937.000000	11.835100
1936.000000	11.827000
1935.000000	11.823900
1934.000000	11.838500
1933.000000	11.856400
1932.000000	11.886600
1931.000000	11.962300
1930.000000	12.021900
1929.000000	12.114500
1928.000000	12.212400
1927.000000	12.297800
1926.000000	12.401700
1925.000000	12.504000
1924.000000	12.534900
1923.000000	12.600300
1922.000000	12.783200
1921.000000	12.984800
1920.000000	13.163600
1919.000000	13.357400
1918.000000	13.455800
1917.000000	13.489800
1916.000000	13.566200
1915.000000	13.715100
1914.000000	13.954500
1913.000000	14.250800
1912.000000	14.533200
1911.000000	14.714700
1910.000000	14.828800
1909.000000	14.889400
1908.000000	15.001000
1907.000000	15.244900
1906.000000	15.575700
1905.000000	15.973600
1904.000000	16.295400
1903.000000	16.479700
1902.000000	16.657600
1901.000000	16.886600
1900.000000	17.181600
1899.000000	17.571100
1898.000000	17.905900
1897.000000	18.125400
1896.000000	18.228500
1895.000000	18.323900
1894.000000	18.529100
1893.000000	18.800000
1892.000000	19.144400
1891.000000	19.545500
1890.000000	19.877700
1889.000000	20.125300
1888.000000	20.351900
1887.000000	20.531400
1886.000000	20.810100
1885.000000	21.199200
1884.000000	21.645000
1883.000000	22.056000
1882.000000	22.442100
1881.000000	22.799200
1880.000000	23.067200
1879.000000	23.348300
1878.000000	23.653400
1877.000000	23.980700
1876.000000	24.299700
1875.000000	24.623800
1874.000000	24.892300
1873.000000	25.214600
1872.000000	25.566100
1871.000000	25.848600
1870.000000	26.134600
1869.000000	26.381900
1868.000000	26.510500
1867.000000	26.536400
1866.000000	26.501700
1865.000000	26.437200
1864.000000	26.357900
1863.000000	26.265600
1862.000000	26.250700
1861.000000	26.314700
1860.000000	26.407500
1859.000000	26.542700
1858.000000	26.642100
1857.000000	26.585500
1856.000000	26.481300
1855.000000	26.484300
1854.000000	26.511700
1853.000000	26.508000
1852.000000	26.459300
1851.000000	26.291300
1850.000000	26.082000
1849.000000	26.043400
1848.000000	26.233900
1847.000000	26.472300
1846.000000	26.500700
1845.000000	26.259200
1844.000000	25.928500
1843.000000	25.731300
1842.000000	25.778900
1841.000000	25.959700
1840.000000	26.014400
1839.000000	25.961300
1838.000000	25.892600
1837.000000	25.891200
1836.000000	25.941800
1835.000000	25.931400
1834.000000	25.771800
1833.000000	25.530800
1832.000000	25.360700
1831.000000	25.310100
1830.000000	25.345400
1829.000000	25.317300
1828.000000	25.226300
1827.000000	25.198300
1826.000000	25.188400
1825.000000	25.107800
1824.000000	24.959100
1823.000000	24.769800
1822.000000	24.724300
1821.000000	24.882200
1820.000000	25.037900
1819.000000	25.042500
1818.000000	24.941800
1817.000000	24.839200
1816.000000	24.814700
1815.000000	24.817900
1814.000000	24.801000
1813.000000	24.761100
1812.000000	24.746700
1811.000000	24.769300
1810.000000	24.746500
1809.000000	24.676100
1808.000000	24.579500
1807.000000	24.530700
1806.000000	24.541900
1805.000000	24.525900
1804.000000	24.464000
1803.000000	24.389500
1802.000000	24.359200
1801.000000	24.358800
1800.000000	24.326800
1799.000000	24.275900
1798.000000	24.211800
1797.000000	24.142400
1796.000000	24.103800
1795.000000	24.062600
1794.000000	24.026500
1793.000000	23.986100
1792.000000	23.948700
1791.000000	23.907800
1790.000000	23.854900
1789.000000	23.794300
1788.000000	23.753900
1787.000000	23.712300
1786.000000	23.659200
1785.000000	23.612500
1784.000000	23.565600
1783.000000	23.511500
1782.000000	23.440100
1781.000000	23.383700
1780.000000	23.320200
1779.000000	23.247000
1778.000000	23.189500
1777.000000	23.106200
1776.000000	23.012100
1775.000000	22.909100
1774.000000	22.802800
1773.000000	22.702500
1772.000000	22.584500
1771.000000	22.489400
1770.000000	22.384000
1769.000000	22.261900
1768.000000	22.164800
1767.000000	22.084800
1766.000000	22.016600
1765.000000	21.933900
1764.000000	21.904000
1763.000000	21.900700
1762.000000	21.919200
1761.000000	21.953700
1760.000000	22.011100
1759.000000	22.062900
1758.000000	22.101100
1757.000000	22.158600
1756.000000	22.199200
1755.000000	22.243100
1754.000000	22.270800
1753.000000	22.277200
1752.000000	22.273100
1751.000000	22.252700
1750.000000	22.218600
1749.000000	22.147500
1748.000000	22.089300
1747.000000	22.008300
1746.000000	21.921800
1745.000000	21.796600
1744.000000	21.661700
1743.000000	21.496300
1742.000000	21.313800
1741.000000	21.131200
1740.000000	20.917200
1739.000000	20.725200
1738.000000	20.528200
1737.000000	20.351700
1736.000000	20.234700
1735.000000	20.145000
1734.000000	20.105500
1733.000000	20.089600
1732.000000	20.121500
1731.000000	20.168300
1730.000000	20.247300
1729.000000	20.325500
1728.000000	20.414500
1727.000000	20.487900
1726.000000	20.555200
1725.000000	20.582600
1724.000000	20.624500
1723.000000	20.674200
1722.000000	20.699700
1721.000000	20.713200
1720.000000	20.737700
1719.000000	20.765800
1718.000000	20.830500
1717.000000	20.885100
1716.000000	20.964600
1715.000000	21.013200
1714.000000	21.085200
1713.000000	21.159200
1712.000000	21.214400
1711.000000	21.263400
1710.000000	21.280400
1709.000000	21.283500
1708.000000	21.286000
1707.000000	21.281300
1706.000000	21.253300
1705.000000	21.230900
1704.000000	21.190500
1703.000000	21.121000
1702.000000	21.028800
1701.000000	20.937900
1700.000000	20.822300
1699.000000	20.661600
1698.000000	20.552100
1697.000000	20.477800
1696.000000	20.432000
1695.000000	20.420100
1694.000000	20.469900
1693.000000	20.566100
1692.000000	20.716000
1691.000000	20.821200
1690.000000	20.959800
1689.000000	21.031100
1688.000000	21.083700
1687.000000	21.115400
1686.000000	21.129600
1685.000000	21.175800
1684.000000	21.278800
1683.000000	21.463400
1682.000000	21.756300
1681.000000	22.154600
1680.000000	22.603200
1679.000000	23.061700
1678.000000	23.528800
1677.000000	23.963700
1676.000000	24.347600
1675.000000	24.658200
1674.000000	24.951900
1673.000000	25.208700
1672.000000	25.426800
1671.000000	25.612000
1670.000000	25.789000
1669.000000	25.953000
1668.000000	26.105800
1667.000000	26.220000
1666.000000	26.313100
1665.000000	26.413200
1664.000000	26.484600
1663.000000	26.555500
1662.000000	26.611000
1661.000000	26.655700
1660.000000	26.719900
1659.000000	26.768100
1658.000000	26.788300
1657.000000	26.792100
1656.000000	26.836200
1655.000000	26.854900
1654.000000	26.844000
1653.000000	26.846700
1652.000000	26.851400
1651.000000	26.817500
1650.000000	26.803600
1649.000000	26.763800
1648.000000	26.737000
1647.000000	26.710100
1646.000000	26.678600
1645.000000	26.637000
1644.000000	26.584000
1643.000000	26.543200
1642.000000	26.486400
1641.000000	26.444300
1640.000000	26.407300
1639.000000	26.348700
1638.000000	26.302500
1637.000000	26.241800
1636.000000	26.187400
1635.000000	26.132800
1634.000000	26.072500
1633.000000	26.015000
1632.000000	25.954800
1631.000000	25.891200
1630.000000	25.829800
1629.000000	25.761600
1628.000000	25.696500
1627.000000	25.642500
1626.000000	25.577500
1625.000000	25.508300
1624.000000	25.423000
1623.000000	25.353700
1622.000000	25.273400
1621.000000	25.206100
