PE UV       SUBTECH     SPECTRUM    ASCII       PEDS        4.00        
   -1
CICIMAUCR0020-7.Sample.ASC
24/04/25
16:24:51.00
24/04/25
16:24:51.00
Vinicio Soto Monge
C. resplendens
250,000000
1
Lambda 1050
1050L1511233
PerkinElmer UV WinLab 6.3.2.0749 / 2.02.05 Lambda 900 UV/VIS/NIR, Aug  7 2015 09:38:08

0
0
3350/servo 860,8/2
0
0
UV/VIS
1
1
1
DoubleDePol,CommonBeamDepol,RBeamAtt,SBeamAtt,60mm sphere, WB InGaAs Detector
0
0
0
0
Program
Program
3350/servo 860,8/2
3350/0,2 860,8/0,2
3350/0,2 860,8/0,2
0
15.00
 
 
 
0
 
860,8
319,2
860,8
Front
100
on
S:100 R:100
0
0
0
0
 
0
 
 
 
0
 
 
0
0
0
0
0
 
 
 
 
0
0


0
0
#HDR
-1
-1
#GR
nm
%R
1.0
0.0
2500,000000
-1,000000
2251
8
81,082400
5,554700
#DATA
2500.000000	8.025100
2499.000000	8.153500
2498.000000	7.915200
2497.000000	7.986700
2496.000000	7.964500
2495.000000	7.857500
2494.000000	7.879000
2493.000000	7.873500
2492.000000	7.762500
2491.000000	7.824200
2490.000000	7.790200
2489.000000	7.795300
2488.000000	7.768000
2487.000000	7.784700
2486.000000	7.767500
2485.000000	7.775600
2484.000000	7.699200
2483.000000	7.777400
2482.000000	7.731900
2481.000000	7.697700
2480.000000	7.702000
2479.000000	7.757700
2478.000000	7.697600
2477.000000	7.680500
2476.000000	7.684800
2475.000000	7.714900
2474.000000	7.721300
2473.000000	7.707800
2472.000000	7.656300
2471.000000	7.688500
2470.000000	7.673700
2469.000000	7.694600
2468.000000	7.699300
2467.000000	7.641500
2466.000000	7.690300
2465.000000	7.688600
2464.000000	7.733800
2463.000000	7.731700
2462.000000	7.770300
2461.000000	7.787000
2460.000000	7.825700
2459.000000	7.871700
2458.000000	7.897800
2457.000000	7.949800
2456.000000	7.952700
2455.000000	8.028400
2454.000000	8.071600
2453.000000	8.143200
2452.000000	8.181400
2451.000000	8.236400
2450.000000	8.307600
2449.000000	8.358800
2448.000000	8.400600
2447.000000	8.481300
2446.000000	8.533600
2445.000000	8.587800
2444.000000	8.633800
2443.000000	8.676500
2442.000000	8.748400
2441.000000	8.792100
2440.000000	8.833500
2439.000000	8.887100
2438.000000	8.924200
2437.000000	8.982300
2436.000000	9.023700
2435.000000	9.051000
2434.000000	9.091200
2433.000000	9.122200
2432.000000	9.159800
2431.000000	9.208900
2430.000000	9.231200
2429.000000	9.276900
2428.000000	9.291400
2427.000000	9.303100
2426.000000	9.322300
2425.000000	9.342000
2424.000000	9.353800
2423.000000	9.377500
2422.000000	9.402900
2421.000000	9.421200
2420.000000	9.435400
2419.000000	9.442800
2418.000000	9.493800
2417.000000	9.520300
2416.000000	9.524000
2415.000000	9.531600
2414.000000	9.557800
2413.000000	9.581800
2412.000000	9.598900
2411.000000	9.640000
2410.000000	9.707500
2409.000000	9.764400
2408.000000	9.815700
2407.000000	9.838100
2406.000000	9.842700
2405.000000	9.872000
2404.000000	9.897600
2403.000000	9.927200
2402.000000	9.979200
2401.000000	10.018600
2400.000000	10.042200
2399.000000	10.059800
2398.000000	10.097100
2397.000000	10.123400
2396.000000	10.159400
2395.000000	10.200500
2394.000000	10.223200
2393.000000	10.254600
2392.000000	10.289600
2391.000000	10.314700
2390.000000	10.334900
2389.000000	10.345700
2388.000000	10.350400
2387.000000	10.356900
2386.000000	10.369800
2385.000000	10.378900
2384.000000	10.386500
2383.000000	10.394700
2382.000000	10.402400
2381.000000	10.400600
2380.000000	10.405800
2379.000000	10.386300
2378.000000	10.384300
2377.000000	10.394300
2376.000000	10.380000
2375.000000	10.355900
2374.000000	10.343400
2373.000000	10.326300
2372.000000	10.298200
2371.000000	10.282300
2370.000000	10.253900
2369.000000	10.215500
2368.000000	10.188100
2367.000000	10.146200
2366.000000	10.091300
2365.000000	10.029400
2364.000000	9.985600
2363.000000	9.939800
2362.000000	9.879100
2361.000000	9.822900
2360.000000	9.773900
2359.000000	9.738600
2358.000000	9.700200
2357.000000	9.663400
2356.000000	9.658700
2355.000000	9.653400
2354.000000	9.653400
2353.000000	9.679700
2352.000000	9.703800
2351.000000	9.727800
2350.000000	9.767200
2349.000000	9.804100
2348.000000	9.857300
2347.000000	9.928800
2346.000000	9.999400
2345.000000	10.053400
2344.000000	10.092100
2343.000000	10.147700
2342.000000	10.202500
2341.000000	10.246100
2340.000000	10.272500
2339.000000	10.298200
2338.000000	10.334400
2337.000000	10.327700
2336.000000	10.333500
2335.000000	10.322900
2334.000000	10.293600
2333.000000	10.291300
2332.000000	10.280000
2331.000000	10.219800
2330.000000	10.168700
2329.000000	10.133200
2328.000000	10.077300
2327.000000	10.032300
2326.000000	9.958500
2325.000000	9.872100
2324.000000	9.779700
2323.000000	9.709100
2322.000000	9.634500
2321.000000	9.538300
2320.000000	9.427900
2319.000000	9.326000
2318.000000	9.214500
2317.000000	9.119600
2316.000000	9.036100
2315.000000	8.940700
2314.000000	8.846300
2313.000000	8.757900
2312.000000	8.680100
2311.000000	8.616600
2310.000000	8.573600
2309.000000	8.559500
2308.000000	8.555200
2307.000000	8.549500
2306.000000	8.558000
2305.000000	8.599500
2304.000000	8.653200
2303.000000	8.731100
2302.000000	8.815300
2301.000000	8.902600
2300.000000	9.000800
2299.000000	9.084200
2298.000000	9.202100
2297.000000	9.289100
2296.000000	9.361700
2295.000000	9.452000
2294.000000	9.522700
2293.000000	9.581500
2292.000000	9.636600
2291.000000	9.669400
2290.000000	9.693800
2289.000000	9.687800
2288.000000	9.682300
2287.000000	9.690300
2286.000000	9.663400
2285.000000	9.633200
2284.000000	9.594100
2283.000000	9.541000
2282.000000	9.491900
2281.000000	9.478600
2280.000000	9.431100
2279.000000	9.367800
2278.000000	9.335400
2277.000000	9.298600
2276.000000	9.271100
2275.000000	9.248700
2274.000000	9.266200
2273.000000	9.256400
2272.000000	9.259300
2271.000000	9.288500
2270.000000	9.314000
2269.000000	9.382000
2268.000000	9.485300
2267.000000	9.581400
2266.000000	9.703300
2265.000000	9.817300
2264.000000	10.006800
2263.000000	10.170400
2262.000000	10.338800
2261.000000	10.541500
2260.000000	10.778800
2259.000000	11.005800
2258.000000	11.242300
2257.000000	11.488600
2256.000000	11.741900
2255.000000	11.998900
2254.000000	12.201800
2253.000000	12.433400
2252.000000	12.617800
2251.000000	12.886600
2250.000000	13.063100
2249.000000	13.235900
2248.000000	13.417900
2247.000000	13.555500
2246.000000	13.725400
2245.000000	13.872200
2244.000000	13.991500
2243.000000	14.127800
2242.000000	14.266600
2241.000000	14.373700
2240.000000	14.438400
2239.000000	14.539100
2238.000000	14.620700
2237.000000	14.711000
2236.000000	14.789400
2235.000000	14.867600
2234.000000	14.922200
2233.000000	14.957100
2232.000000	15.003100
2231.000000	15.049400
2230.000000	15.087200
2229.000000	15.108400
2228.000000	15.120300
2227.000000	15.138900
2226.000000	15.134600
2225.000000	15.131400
2224.000000	15.122000
2223.000000	15.156600
2222.000000	15.127700
2221.000000	15.091000
2220.000000	15.077600
2219.000000	15.048800
2218.000000	15.039600
2217.000000	15.023500
2216.000000	14.994600
2215.000000	14.975100
2214.000000	14.944800
2213.000000	14.926500
2212.000000	14.882500
2211.000000	14.873800
2210.000000	14.848900
2209.000000	14.822000
2208.000000	14.818300
2207.000000	14.798600
2206.000000	14.812100
2205.000000	14.798200
2204.000000	14.775300
2203.000000	14.770500
2202.000000	14.737500
2201.000000	14.723900
2200.000000	14.726200
2199.000000	14.723200
2198.000000	14.693300
2197.000000	14.685200
2196.000000	14.687400
2195.000000	14.671700
2194.000000	14.660700
2193.000000	14.628000
2192.000000	14.609000
2191.000000	14.588200
2190.000000	14.569900
2189.000000	14.560500
2188.000000	14.565200
2187.000000	14.548200
2186.000000	14.534100
2185.000000	14.499200
2184.000000	14.493500
2183.000000	14.473100
2182.000000	14.452000
2181.000000	14.400100
2180.000000	14.406400
2179.000000	14.394800
2178.000000	14.381700
2177.000000	14.370600
2176.000000	14.366100
2175.000000	14.351400
2174.000000	14.348800
2173.000000	14.344800
2172.000000	14.350700
2171.000000	14.338500
2170.000000	14.345900
2169.000000	14.343400
2168.000000	14.375100
2167.000000	14.382700
2166.000000	14.378000
2165.000000	14.394200
2164.000000	14.415000
2163.000000	14.430900
2162.000000	14.453800
2161.000000	14.476300
2160.000000	14.492500
2159.000000	14.532700
2158.000000	14.559600
2157.000000	14.574500
2156.000000	14.594100
2155.000000	14.648400
2154.000000	14.689700
2153.000000	14.733800
2152.000000	14.766800
2151.000000	14.811400
2150.000000	14.854100
2149.000000	14.885300
2148.000000	14.898800
2147.000000	14.944000
2146.000000	14.984600
2145.000000	15.012600
2144.000000	15.067900
2143.000000	15.089400
2142.000000	15.122500
2141.000000	15.154100
2140.000000	15.191600
2139.000000	15.231700
2138.000000	15.247200
2137.000000	15.274500
2136.000000	15.303600
2135.000000	15.326600
2134.000000	15.362300
2133.000000	15.374600
2132.000000	15.396900
2131.000000	15.415900
2130.000000	15.424200
2129.000000	15.457400
2128.000000	15.481000
2127.000000	15.481100
2126.000000	15.492900
2125.000000	15.509600
2124.000000	15.503700
2123.000000	15.513400
2122.000000	15.516400
2121.000000	15.510800
2120.000000	15.514000
2119.000000	15.491500
2118.000000	15.487900
2117.000000	15.493600
2116.000000	15.477500
2115.000000	15.476500
2114.000000	15.466400
2113.000000	15.442400
2112.000000	15.415200
2111.000000	15.397500
2110.000000	15.387000
2109.000000	15.390600
2108.000000	15.369700
2107.000000	15.333400
2106.000000	15.312400
2105.000000	15.318900
2104.000000	15.308700
2103.000000	15.284800
2102.000000	15.273100
2101.000000	15.250800
2100.000000	15.233000
2099.000000	15.223600
2098.000000	15.219600
2097.000000	15.216200
2096.000000	15.198900
2095.000000	15.163600
2094.000000	15.160300
2093.000000	15.164600
2092.000000	15.151700
2091.000000	15.144200
2090.000000	15.133700
2089.000000	15.113400
2088.000000	15.114200
2087.000000	15.115400
2086.000000	15.088800
2085.000000	15.086300
2084.000000	15.088600
2083.000000	15.076500
2082.000000	15.058100
2081.000000	15.040300
2080.000000	15.033000
2079.000000	15.011700
2078.000000	14.991800
2077.000000	14.967300
2076.000000	14.941300
2075.000000	14.930600
2074.000000	14.912200
2073.000000	14.912800
2072.000000	14.895100
2071.000000	14.863200
2070.000000	14.841200
2069.000000	14.817100
2068.000000	14.794200
2067.000000	14.774200
2066.000000	14.757300
2065.000000	14.734900
2064.000000	14.732100
2063.000000	14.734200
2062.000000	14.709900
2061.000000	14.702300
2060.000000	14.717000
2059.000000	14.740200
2058.000000	14.742600
2057.000000	14.753800
2056.000000	14.786700
2055.000000	14.822100
2054.000000	14.878400
2053.000000	14.961100
2052.000000	15.019700
2051.000000	15.077100
2050.000000	15.152000
2049.000000	15.258100
2048.000000	15.357600
2047.000000	15.439000
2046.000000	15.566500
2045.000000	15.689300
2044.000000	15.807600
2043.000000	15.910900
2042.000000	16.012800
2041.000000	16.154700
2040.000000	16.262100
2039.000000	16.352100
2038.000000	16.453900
2037.000000	16.579900
2036.000000	16.689300
2035.000000	16.766200
2034.000000	16.854500
2033.000000	16.939400
2032.000000	17.031300
2031.000000	17.128900
2030.000000	17.203800
2029.000000	17.268800
2028.000000	17.319100
2027.000000	17.400400
2026.000000	17.460100
2025.000000	17.536300
2024.000000	17.564200
2023.000000	17.631000
2022.000000	17.668500
2021.000000	17.705600
2020.000000	17.757800
2019.000000	17.777700
2018.000000	17.832900
2017.000000	17.852900
2016.000000	17.886200
2015.000000	17.925400
2014.000000	17.933400
2013.000000	17.960600
2012.000000	17.960700
2011.000000	17.970900
2010.000000	17.971600
2009.000000	17.983000
2008.000000	17.969400
2007.000000	17.955400
2006.000000	17.939900
2005.000000	17.934600
2004.000000	17.893800
2003.000000	17.886100
2002.000000	17.836400
2001.000000	17.799200
2000.000000	17.780400
1999.000000	17.729400
1998.000000	17.694500
1997.000000	17.624700
1996.000000	17.575000
1995.000000	17.531700
1994.000000	17.462700
1993.000000	17.417100
1992.000000	17.334400
1991.000000	17.285000
1990.000000	17.208500
1989.000000	17.136700
1988.000000	17.054200
1987.000000	16.999300
1986.000000	16.899700
1985.000000	16.864600
1984.000000	16.763000
1983.000000	16.681800
1982.000000	16.604100
1981.000000	16.534600
1980.000000	16.452000
1979.000000	16.351500
1978.000000	16.288500
1977.000000	16.207100
1976.000000	16.129100
1975.000000	16.042200
1974.000000	15.967500
1973.000000	15.886000
1972.000000	15.807100
1971.000000	15.753400
1970.000000	15.660900
1969.000000	15.604500
1968.000000	15.545300
1967.000000	15.464200
1966.000000	15.366200
1965.000000	15.318800
1964.000000	15.265900
1963.000000	15.186200
1962.000000	15.122700
1961.000000	15.029900
1960.000000	14.974700
1959.000000	14.916600
1958.000000	14.836700
1957.000000	14.784300
1956.000000	14.712600
1955.000000	14.648300
1954.000000	14.579000
1953.000000	14.537100
1952.000000	14.448800
1951.000000	14.407400
1950.000000	14.347600
1949.000000	14.288900
1948.000000	14.253200
1947.000000	14.198600
1946.000000	14.177000
1945.000000	14.135800
1944.000000	14.107400
1943.000000	14.079900
1942.000000	14.030700
1941.000000	14.058000
1940.000000	14.010400
1939.000000	14.023800
1938.000000	14.058500
1937.000000	14.091600
1936.000000	14.089400
1935.000000	14.132000
1934.000000	14.150000
1933.000000	14.196300
1932.000000	14.254500
1931.000000	14.311700
1930.000000	14.369000
1929.000000	14.470600
1928.000000	14.576800
1927.000000	14.675800
1926.000000	14.810000
1925.000000	14.902400
1924.000000	14.997900
1923.000000	15.110000
1922.000000	15.265200
1921.000000	15.482500
1920.000000	15.680500
1919.000000	15.842800
1918.000000	16.001000
1917.000000	16.140000
1916.000000	16.253800
1915.000000	16.417400
1914.000000	16.688500
1913.000000	16.961300
1912.000000	17.213300
1911.000000	17.393900
1910.000000	17.575900
1909.000000	17.732600
1908.000000	17.905600
1907.000000	18.155900
1906.000000	18.475900
1905.000000	18.816900
1904.000000	19.076900
1903.000000	19.327900
1902.000000	19.581200
1901.000000	19.859000
1900.000000	20.184800
1899.000000	20.515000
1898.000000	20.825900
1897.000000	21.136300
1896.000000	21.314200
1895.000000	21.522200
1894.000000	21.779300
1893.000000	22.080000
1892.000000	22.450500
1891.000000	22.791900
1890.000000	23.125900
1889.000000	23.419000
1888.000000	23.726300
1887.000000	24.040400
1886.000000	24.419300
1885.000000	24.813300
1884.000000	25.270000
1883.000000	25.734600
1882.000000	26.174600
1881.000000	26.603900
1880.000000	26.974200
1879.000000	27.347200
1878.000000	27.741700
1877.000000	28.081600
1876.000000	28.399900
1875.000000	28.717500
1874.000000	29.018900
1873.000000	29.323100
1872.000000	29.599000
1871.000000	29.878000
1870.000000	30.158200
1869.000000	30.391800
1868.000000	30.544400
1867.000000	30.654700
1866.000000	30.703900
1865.000000	30.762400
1864.000000	30.774700
1863.000000	30.784700
1862.000000	30.833400
1861.000000	30.901300
1860.000000	30.970200
1859.000000	31.025400
1858.000000	31.075200
1857.000000	31.064400
1856.000000	31.013800
1855.000000	31.025700
1854.000000	31.043200
1853.000000	31.013400
1852.000000	30.961000
1851.000000	30.890200
1850.000000	30.814500
1849.000000	30.789800
1848.000000	30.853700
1847.000000	30.895100
1846.000000	30.833700
1845.000000	30.711500
1844.000000	30.595500
1843.000000	30.550500
1842.000000	30.576600
1841.000000	30.588200
1840.000000	30.554200
1839.000000	30.501600
1838.000000	30.447900
1837.000000	30.440100
1836.000000	30.435300
1835.000000	30.390200
1834.000000	30.294100
1833.000000	30.174800
1832.000000	30.081000
1831.000000	30.032900
1830.000000	29.987900
1829.000000	29.910900
1828.000000	29.835800
1827.000000	29.787100
1826.000000	29.739900
1825.000000	29.668000
1824.000000	29.589300
1823.000000	29.530500
1822.000000	29.519700
1821.000000	29.541100
1820.000000	29.555800
1819.000000	29.517400
1818.000000	29.457100
1817.000000	29.425100
1816.000000	29.422400
1815.000000	29.408500
1814.000000	29.371800
1813.000000	29.351400
1812.000000	29.335200
1811.000000	29.319300
1810.000000	29.273700
1809.000000	29.203600
1808.000000	29.159300
1807.000000	29.128400
1806.000000	29.082900
1805.000000	29.031000
1804.000000	28.987000
1803.000000	28.932800
1802.000000	28.888200
1801.000000	28.843100
1800.000000	28.805500
1799.000000	28.746400
1798.000000	28.683300
1797.000000	28.631700
1796.000000	28.587000
1795.000000	28.553200
1794.000000	28.490800
1793.000000	28.432200
1792.000000	28.378200
1791.000000	28.328000
1790.000000	28.264600
1789.000000	28.213600
1788.000000	28.164000
1787.000000	28.085100
1786.000000	28.019100
1785.000000	27.952200
1784.000000	27.874200
1783.000000	27.799900
1782.000000	27.717800
1781.000000	27.637900
1780.000000	27.566600
1779.000000	27.493200
1778.000000	27.400300
1777.000000	27.286300
1776.000000	27.184700
1775.000000	27.075700
1774.000000	26.959200
1773.000000	26.837400
1772.000000	26.703000
1771.000000	26.579500
1770.000000	26.457000
1769.000000	26.361900
1768.000000	26.230400
1767.000000	26.135800
1766.000000	26.043800
1765.000000	25.977000
1764.000000	25.934500
1763.000000	25.924300
1762.000000	25.943200
1761.000000	25.972200
1760.000000	26.039800
1759.000000	26.098400
1758.000000	26.151800
1757.000000	26.183900
1756.000000	26.235400
1755.000000	26.261200
1754.000000	26.261500
1753.000000	26.271500
1752.000000	26.254800
1751.000000	26.218900
1750.000000	26.165800
1749.000000	26.117200
1748.000000	26.052800
1747.000000	25.961400
1746.000000	25.854200
1745.000000	25.702300
1744.000000	25.570800
1743.000000	25.418800
1742.000000	25.221100
1741.000000	24.995600
1740.000000	24.774300
1739.000000	24.566900
1738.000000	24.386400
1737.000000	24.209400
1736.000000	24.094600
1735.000000	24.025600
1734.000000	24.016000
1733.000000	24.024900
1732.000000	24.077300
1731.000000	24.158200
1730.000000	24.289600
1729.000000	24.421800
1728.000000	24.523100
1727.000000	24.648000
1726.000000	24.756400
1725.000000	24.806700
1724.000000	24.876800
1723.000000	24.903600
1722.000000	24.970700
1721.000000	24.981100
1720.000000	25.018500
1719.000000	25.061300
1718.000000	25.107900
1717.000000	25.164900
1716.000000	25.240200
1715.000000	25.314200
1714.000000	25.385400
1713.000000	25.465400
1712.000000	25.502100
1711.000000	25.534400
1710.000000	25.557100
1709.000000	25.564900
1708.000000	25.572300
1707.000000	25.546400
1706.000000	25.499000
1705.000000	25.465800
1704.000000	25.423700
1703.000000	25.351700
1702.000000	25.237500
1701.000000	25.111800
1700.000000	24.973200
1699.000000	24.836800
1698.000000	24.700000
1697.000000	24.600100
1696.000000	24.536400
1695.000000	24.552600
1694.000000	24.593200
1693.000000	24.744100
1692.000000	24.907400
1691.000000	25.045300
1690.000000	25.187000
1689.000000	25.303500
1688.000000	25.373400
1687.000000	25.392600
1686.000000	25.425000
1685.000000	25.469700
1684.000000	25.585600
1683.000000	25.821200
1682.000000	26.145900
1681.000000	26.582400
1680.000000	27.061000
1679.000000	27.585800
1678.000000	28.074800
1677.000000	28.543200
1676.000000	28.927800
1675.000000	29.282300
1674.000000	29.593200
1673.000000	29.850400
1672.000000	30.050400
1671.000000	30.257000
1670.000000	30.424000
1669.000000	30.580700
1668.000000	30.717600
1667.000000	30.841200
1666.000000	30.931500
1665.000000	31.018000
1664.000000	31.102500
1663.000000	31.178400
1662.000000	31.232000
1661.000000	31.250900
1660.000000	31.299400
1659.000000	31.320600
1658.000000	31.355700
1657.000000	31.379000
1656.000000	31.379300
1655.000000	31.386300
1654.000000	31.383200
1653.000000	31.367800
1652.000000	31.331100
1651.000000	31.330800
1650.000000	31.290100
1649.000000	31.250600
1648.000000	31.208000
1647.000000	31.181600
1646.000000	31.133500
1645.000000	31.055500
1644.000000	31.006200
1643.000000	30.950400
1642.000000	30.904100
1641.000000	30.849200
1640.000000	30.789300
1639.000000	30.737400
1638.000000	30.671300
1637.000000	30.604100
1636.000000	30.532400
1635.000000	30.475900
1634.000000	30.399100
1633.000000	30.334500
1632.000000	30.261300
1631.000000	30.200300
1630.000000	30.116400
1629.000000	30.043700
1628.000000	29.961600
1627.000000	29.884400
1626.000000	29.795100
1625.000000	29.729300
1624.000000	29.659200
1623.000000	29.591400
1622.000000	29.513500
1621.000000	29.441800
1620.000000	29.378000
1619.000000	29.307500
1618.000000	29.234500
1617.000000	29.175500
1616.000000	29.122300
