PE UV       SUBTECH     SPECTRUM    ASCII       PEDS        4.00        
   -1
CICIMAUCR0113-1.Sample.ASC
24/04/18
14:46:15.00
24/04/18
14:46:15.00
Vinicio Soto Monge
C. kalinini
250,000000
1
Lambda 1050
1050L1511233
PerkinElmer UV WinLab 6.3.2.0749 / 2.02.05 Lambda 900 UV/VIS/NIR, Aug  7 2015 09:38:08

0
0
3350/servo 860,8/2
0
0
UV/VIS
1
1
1
DoubleDePol,CommonBeamDepol,RBeamAtt,SBeamAtt,60mm sphere, WB InGaAs Detector
0
0
0
0
Program
Program
3350/servo 860,8/2
3350/0,2 860,8/0,2
3350/0,2 860,8/0,2
0
15.00
 
 
 
0
 
860,8
319,2
860,8
Front
100
on
S:100 R:100
0
0
0
0
 
0
 
 
 
0
 
 
0
0
0
0
0
 
 
 
 
0
0


0
0
#HDR
-1
-1
#GR
nm
%R
1.0
0.0
2500,000000
-1,000000
2251
8
90,738500
4,918600
#DATA
2500.000000	7.110800
2499.000000	7.177400
2498.000000	7.065800
2497.000000	6.955600
2496.000000	6.989500
2495.000000	7.132600
2494.000000	6.940100
2493.000000	6.982200
2492.000000	6.919000
2491.000000	6.961600
2490.000000	6.969900
2489.000000	6.931100
2488.000000	6.968600
2487.000000	6.862900
2486.000000	6.808100
2485.000000	6.954800
2484.000000	6.871800
2483.000000	6.898500
2482.000000	6.869500
2481.000000	6.903800
2480.000000	6.838700
2479.000000	6.846800
2478.000000	6.914200
2477.000000	6.933100
2476.000000	6.908700
2475.000000	6.872800
2474.000000	6.868100
2473.000000	6.882700
2472.000000	6.923300
2471.000000	6.894300
2470.000000	6.867100
2469.000000	6.941100
2468.000000	6.934400
2467.000000	6.952000
2466.000000	6.990600
2465.000000	7.034300
2464.000000	7.031900
2463.000000	7.035100
2462.000000	7.062100
2461.000000	7.103800
2460.000000	7.142800
2459.000000	7.153600
2458.000000	7.204600
2457.000000	7.269300
2456.000000	7.310200
2455.000000	7.335700
2454.000000	7.377200
2453.000000	7.429700
2452.000000	7.475500
2451.000000	7.500400
2450.000000	7.556600
2449.000000	7.589400
2448.000000	7.641900
2447.000000	7.691400
2446.000000	7.748000
2445.000000	7.777500
2444.000000	7.842800
2443.000000	7.869300
2442.000000	7.909900
2441.000000	7.967100
2440.000000	8.015500
2439.000000	8.053200
2438.000000	8.112200
2437.000000	8.140100
2436.000000	8.174900
2435.000000	8.194400
2434.000000	8.232600
2433.000000	8.286900
2432.000000	8.333200
2431.000000	8.360800
2430.000000	8.383000
2429.000000	8.419300
2428.000000	8.448200
2427.000000	8.483500
2426.000000	8.502100
2425.000000	8.514300
2424.000000	8.527400
2423.000000	8.493900
2422.000000	8.433700
2421.000000	8.381100
2420.000000	8.347900
2419.000000	8.364300
2418.000000	8.373400
2417.000000	8.393800
2416.000000	8.389300
2415.000000	8.356000
2414.000000	8.336100
2413.000000	8.353500
2412.000000	8.364800
2411.000000	8.331200
2410.000000	8.301700
2409.000000	8.304200
2408.000000	8.334800
2407.000000	8.338300
2406.000000	8.295900
2405.000000	8.270700
2404.000000	8.282100
2403.000000	8.285700
2402.000000	8.273800
2401.000000	8.276300
2400.000000	8.288400
2399.000000	8.258300
2398.000000	8.252100
2397.000000	8.248900
2396.000000	8.273600
2395.000000	8.289200
2394.000000	8.281600
2393.000000	8.256300
2392.000000	8.261400
2391.000000	8.253800
2390.000000	8.227900
2389.000000	8.234300
2388.000000	8.227600
2387.000000	8.214000
2386.000000	8.223400
2385.000000	8.208500
2384.000000	8.186100
2383.000000	8.171100
2382.000000	8.151800
2381.000000	8.132700
2380.000000	8.100800
2379.000000	8.095000
2378.000000	8.093200
2377.000000	8.070400
2376.000000	8.045600
2375.000000	8.032800
2374.000000	7.992300
2373.000000	7.958900
2372.000000	7.943600
2371.000000	7.928800
2370.000000	7.900700
2369.000000	7.861700
2368.000000	7.834800
2367.000000	7.817800
2366.000000	7.780700
2365.000000	7.721700
2364.000000	7.687400
2363.000000	7.662100
2362.000000	7.616600
2361.000000	7.560700
2360.000000	7.526600
2359.000000	7.509900
2358.000000	7.464000
2357.000000	7.423100
2356.000000	7.398600
2355.000000	7.366900
2354.000000	7.349400
2353.000000	7.342900
2352.000000	7.343900
2351.000000	7.349500
2350.000000	7.348100
2349.000000	7.345600
2348.000000	7.349500
2347.000000	7.372000
2346.000000	7.391000
2345.000000	7.410800
2344.000000	7.426000
2343.000000	7.440900
2342.000000	7.443700
2341.000000	7.460700
2340.000000	7.478100
2339.000000	7.482300
2338.000000	7.483700
2337.000000	7.470300
2336.000000	7.463200
2335.000000	7.458600
2334.000000	7.447400
2333.000000	7.422100
2332.000000	7.398500
2331.000000	7.372100
2330.000000	7.358000
2329.000000	7.343900
2328.000000	7.317300
2327.000000	7.278200
2326.000000	7.247000
2325.000000	7.197000
2324.000000	7.163100
2323.000000	7.110300
2322.000000	7.071700
2321.000000	7.045900
2320.000000	7.004000
2319.000000	6.951300
2318.000000	6.900400
2317.000000	6.852200
2316.000000	6.780400
2315.000000	6.735200
2314.000000	6.677300
2313.000000	6.632600
2312.000000	6.592400
2311.000000	6.552400
2310.000000	6.531000
2309.000000	6.511000
2308.000000	6.497900
2307.000000	6.492700
2306.000000	6.481000
2305.000000	6.493800
2304.000000	6.514500
2303.000000	6.543000
2302.000000	6.578200
2301.000000	6.624800
2300.000000	6.674100
2299.000000	6.704500
2298.000000	6.758000
2297.000000	6.806300
2296.000000	6.860700
2295.000000	6.927600
2294.000000	6.961200
2293.000000	6.989200
2292.000000	7.009400
2291.000000	7.030300
2290.000000	7.044400
2289.000000	7.064200
2288.000000	7.061500
2287.000000	7.050400
2286.000000	7.065300
2285.000000	7.053900
2284.000000	7.041200
2283.000000	7.030100
2282.000000	7.000100
2281.000000	7.001100
2280.000000	6.958100
2279.000000	6.952800
2278.000000	6.932700
2277.000000	6.902000
2276.000000	6.892200
2275.000000	6.881800
2274.000000	6.885400
2273.000000	6.870800
2272.000000	6.874800
2271.000000	6.892400
2270.000000	6.921800
2269.000000	6.942400
2268.000000	6.980600
2267.000000	7.006200
2266.000000	7.075400
2265.000000	7.144000
2264.000000	7.221600
2263.000000	7.307000
2262.000000	7.391000
2261.000000	7.527200
2260.000000	7.644100
2259.000000	7.750000
2258.000000	7.920800
2257.000000	8.048000
2256.000000	8.193300
2255.000000	8.334500
2254.000000	8.468200
2253.000000	8.578900
2252.000000	8.733200
2251.000000	8.872700
2250.000000	8.978500
2249.000000	9.095600
2248.000000	9.234600
2247.000000	9.316800
2246.000000	9.435300
2245.000000	9.522500
2244.000000	9.597200
2243.000000	9.704100
2242.000000	9.754100
2241.000000	9.830400
2240.000000	9.910300
2239.000000	9.988500
2238.000000	10.033400
2237.000000	10.096200
2236.000000	10.196700
2235.000000	10.202200
2234.000000	10.247600
2233.000000	10.292600
2232.000000	10.331100
2231.000000	10.374000
2230.000000	10.395700
2229.000000	10.412900
2228.000000	10.425700
2227.000000	10.448700
2226.000000	10.449100
2225.000000	10.449000
2224.000000	10.429600
2223.000000	10.432300
2222.000000	10.423400
2221.000000	10.430800
2220.000000	10.411200
2219.000000	10.407500
2218.000000	10.393400
2217.000000	10.396300
2216.000000	10.365300
2215.000000	10.349500
2214.000000	10.328500
2213.000000	10.342500
2212.000000	10.298500
2211.000000	10.306300
2210.000000	10.275600
2209.000000	10.269500
2208.000000	10.242800
2207.000000	10.250600
2206.000000	10.231400
2205.000000	10.221100
2204.000000	10.208100
2203.000000	10.222100
2202.000000	10.242000
2201.000000	10.211200
2200.000000	10.210000
2199.000000	10.197900
2198.000000	10.183500
2197.000000	10.187000
2196.000000	10.183800
2195.000000	10.176000
2194.000000	10.159300
2193.000000	10.148300
2192.000000	10.162000
2191.000000	10.152000
2190.000000	10.140100
2189.000000	10.143300
2188.000000	10.132000
2187.000000	10.116700
2186.000000	10.110900
2185.000000	10.085000
2184.000000	10.067800
2183.000000	10.049500
2182.000000	10.058000
2181.000000	10.052100
2180.000000	10.015900
2179.000000	10.016100
2178.000000	9.991600
2177.000000	9.997700
2176.000000	9.988300
2175.000000	9.977900
2174.000000	9.975100
2173.000000	9.980800
2172.000000	9.967800
2171.000000	9.975900
2170.000000	9.987200
2169.000000	9.989100
2168.000000	10.003000
2167.000000	9.983600
2166.000000	9.984300
2165.000000	10.014200
2164.000000	10.030200
2163.000000	10.007600
2162.000000	10.023100
2161.000000	10.047700
2160.000000	10.053800
2159.000000	10.067500
2158.000000	10.095900
2157.000000	10.088400
2156.000000	10.095800
2155.000000	10.130400
2154.000000	10.166300
2153.000000	10.173300
2152.000000	10.194700
2151.000000	10.217500
2150.000000	10.255100
2149.000000	10.288700
2148.000000	10.299900
2147.000000	10.320600
2146.000000	10.346300
2145.000000	10.384100
2144.000000	10.413300
2143.000000	10.421100
2142.000000	10.438300
2141.000000	10.456900
2140.000000	10.469900
2139.000000	10.496300
2138.000000	10.513100
2137.000000	10.515300
2136.000000	10.537500
2135.000000	10.573900
2134.000000	10.585500
2133.000000	10.591300
2132.000000	10.626900
2131.000000	10.654300
2130.000000	10.654800
2129.000000	10.666000
2128.000000	10.664500
2127.000000	10.676000
2126.000000	10.689400
2125.000000	10.694600
2124.000000	10.710000
2123.000000	10.708800
2122.000000	10.704900
2121.000000	10.716600
2120.000000	10.706000
2119.000000	10.704800
2118.000000	10.712700
2117.000000	10.719400
2116.000000	10.708100
2115.000000	10.699000
2114.000000	10.704900
2113.000000	10.691300
2112.000000	10.686400
2111.000000	10.679700
2110.000000	10.670200
2109.000000	10.666800
2108.000000	10.661500
2107.000000	10.653000
2106.000000	10.644100
2105.000000	10.640400
2104.000000	10.649800
2103.000000	10.653100
2102.000000	10.636200
2101.000000	10.626600
2100.000000	10.620300
2099.000000	10.621200
2098.000000	10.629500
2097.000000	10.622000
2096.000000	10.609400
2095.000000	10.622600
2094.000000	10.636500
2093.000000	10.620000
2092.000000	10.618600
2091.000000	10.634900
2090.000000	10.634100
2089.000000	10.638200
2088.000000	10.635900
2087.000000	10.642600
2086.000000	10.661500
2085.000000	10.678000
2084.000000	10.675400
2083.000000	10.662300
2082.000000	10.664300
2081.000000	10.676200
2080.000000	10.672800
2079.000000	10.666100
2078.000000	10.663400
2077.000000	10.660200
2076.000000	10.648200
2075.000000	10.639800
2074.000000	10.648800
2073.000000	10.644500
2072.000000	10.649900
2071.000000	10.648100
2070.000000	10.642300
2069.000000	10.629700
2068.000000	10.628500
2067.000000	10.632200
2066.000000	10.617800
2065.000000	10.609400
2064.000000	10.605500
2063.000000	10.605000
2062.000000	10.599400
2061.000000	10.587900
2060.000000	10.592700
2059.000000	10.630800
2058.000000	10.641600
2057.000000	10.645900
2056.000000	10.673800
2055.000000	10.712600
2054.000000	10.734000
2053.000000	10.769000
2052.000000	10.819800
2051.000000	10.850000
2050.000000	10.929700
2049.000000	11.005000
2048.000000	11.086800
2047.000000	11.155300
2046.000000	11.234300
2045.000000	11.334000
2044.000000	11.434900
2043.000000	11.510400
2042.000000	11.607300
2041.000000	11.692900
2040.000000	11.804800
2039.000000	11.902500
2038.000000	11.988600
2037.000000	12.067700
2036.000000	12.145300
2035.000000	12.235900
2034.000000	12.306200
2033.000000	12.388200
2032.000000	12.470600
2031.000000	12.517100
2030.000000	12.602800
2029.000000	12.660700
2028.000000	12.738400
2027.000000	12.798800
2026.000000	12.839900
2025.000000	12.904900
2024.000000	12.947700
2023.000000	13.009100
2022.000000	13.053200
2021.000000	13.114500
2020.000000	13.160000
2019.000000	13.213700
2018.000000	13.245800
2017.000000	13.284700
2016.000000	13.321400
2015.000000	13.349000
2014.000000	13.387000
2013.000000	13.402600
2012.000000	13.431100
2011.000000	13.467200
2010.000000	13.472300
2009.000000	13.510400
2008.000000	13.525800
2007.000000	13.501700
2006.000000	13.533100
2005.000000	13.527000
2004.000000	13.515100
2003.000000	13.527200
2002.000000	13.530200
2001.000000	13.495600
2000.000000	13.498300
1999.000000	13.475200
1998.000000	13.458700
1997.000000	13.457500
1996.000000	13.431300
1995.000000	13.405300
1994.000000	13.380500
1993.000000	13.332500
1992.000000	13.302000
1991.000000	13.263300
1990.000000	13.225200
1989.000000	13.181400
1988.000000	13.151600
1987.000000	13.104100
1986.000000	13.044400
1985.000000	13.010600
1984.000000	12.976900
1983.000000	12.922000
1982.000000	12.870700
1981.000000	12.832400
1980.000000	12.775100
1979.000000	12.727200
1978.000000	12.691600
1977.000000	12.624000
1976.000000	12.573700
1975.000000	12.519400
1974.000000	12.482100
1973.000000	12.425800
1972.000000	12.390800
1971.000000	12.328300
1970.000000	12.290000
1969.000000	12.256300
1968.000000	12.211900
1967.000000	12.156700
1966.000000	12.135200
1965.000000	12.066400
1964.000000	12.016500
1963.000000	12.005300
1962.000000	11.938100
1961.000000	11.896900
1960.000000	11.823200
1959.000000	11.810900
1958.000000	11.763100
1957.000000	11.734200
1956.000000	11.704600
1955.000000	11.668600
1954.000000	11.603600
1953.000000	11.649900
1952.000000	11.647700
1951.000000	11.629200
1950.000000	11.584500
1949.000000	11.560400
1948.000000	11.541200
1947.000000	11.522200
1946.000000	11.503500
1945.000000	11.478300
1944.000000	11.455500
1943.000000	11.429800
1942.000000	11.440600
1941.000000	11.442300
1940.000000	11.454200
1939.000000	11.466500
1938.000000	11.485900
1937.000000	11.500500
1936.000000	11.508600
1935.000000	11.555100
1934.000000	11.584100
1933.000000	11.593900
1932.000000	11.661000
1931.000000	11.718600
1930.000000	11.768800
1929.000000	11.828200
1928.000000	11.898500
1927.000000	11.968600
1926.000000	12.064300
1925.000000	12.154100
1924.000000	12.248400
1923.000000	12.332700
1922.000000	12.438500
1921.000000	12.560500
1920.000000	12.678100
1919.000000	12.811100
1918.000000	12.950700
1917.000000	13.100700
1916.000000	13.216500
1915.000000	13.355000
1914.000000	13.530700
1913.000000	13.693700
1912.000000	13.860700
1911.000000	14.048000
1910.000000	14.215000
1909.000000	14.377100
1908.000000	14.553400
1907.000000	14.728300
1906.000000	14.918700
1905.000000	15.117800
1904.000000	15.338000
1903.000000	15.533900
1902.000000	15.749400
1901.000000	15.950200
1900.000000	16.176900
1899.000000	16.413900
1898.000000	16.619000
1897.000000	16.853500
1896.000000	17.075900
1895.000000	17.283400
1894.000000	17.505500
1893.000000	17.714800
1892.000000	17.950200
1891.000000	18.181800
1890.000000	18.388500
1889.000000	18.587700
1888.000000	18.840100
1887.000000	19.109500
1886.000000	19.358300
1885.000000	19.648600
1884.000000	19.978100
1883.000000	20.331000
1882.000000	20.688900
1881.000000	21.040000
1880.000000	21.415800
1879.000000	21.756100
1878.000000	22.081000
1877.000000	22.383100
1876.000000	22.655800
1875.000000	22.880400
1874.000000	23.101200
1873.000000	23.304800
1872.000000	23.480500
1871.000000	23.654600
1870.000000	23.807200
1869.000000	23.933400
1868.000000	24.082900
1867.000000	24.198000
1866.000000	24.264200
1865.000000	24.352700
1864.000000	24.430800
1863.000000	24.487200
1862.000000	24.544200
1861.000000	24.570900
1860.000000	24.567100
1859.000000	24.531300
1858.000000	24.501700
1857.000000	24.500500
1856.000000	24.489000
1855.000000	24.459500
1854.000000	24.430600
1853.000000	24.361300
1852.000000	24.291000
1851.000000	24.268900
1850.000000	24.257700
1849.000000	24.205800
1848.000000	24.097900
1847.000000	23.983600
1846.000000	23.884300
1845.000000	23.835000
1844.000000	23.823300
1843.000000	23.830100
1842.000000	23.824900
1841.000000	23.764300
1840.000000	23.686000
1839.000000	23.616200
1838.000000	23.563500
1837.000000	23.518600
1836.000000	23.463900
1835.000000	23.403200
1834.000000	23.329700
1833.000000	23.276200
1832.000000	23.236800
1831.000000	23.186400
1830.000000	23.117300
1829.000000	23.041300
1828.000000	22.950100
1827.000000	22.867100
1826.000000	22.805900
1825.000000	22.749500
1824.000000	22.709600
1823.000000	22.689700
1822.000000	22.704600
1821.000000	22.679300
1820.000000	22.606500
1819.000000	22.549600
1818.000000	22.533800
1817.000000	22.532300
1816.000000	22.532800
1815.000000	22.526100
1814.000000	22.514000
1813.000000	22.509900
1812.000000	22.489800
1811.000000	22.456000
1810.000000	22.403500
1809.000000	22.376600
1808.000000	22.354600
1807.000000	22.313500
1806.000000	22.267000
1805.000000	22.219500
1804.000000	22.181900
1803.000000	22.152300
1802.000000	22.119300
1801.000000	22.070800
1800.000000	22.010600
1799.000000	21.954900
1798.000000	21.925900
1797.000000	21.897000
1796.000000	21.864600
1795.000000	21.827500
1794.000000	21.776100
1793.000000	21.744500
1792.000000	21.690900
1791.000000	21.637900
1790.000000	21.605500
1789.000000	21.553200
1788.000000	21.500900
1787.000000	21.441100
1786.000000	21.387600
1785.000000	21.346700
1784.000000	21.261600
1783.000000	21.203800
1782.000000	21.133400
1781.000000	21.068700
1780.000000	20.998600
1779.000000	20.923400
1778.000000	20.855500
1777.000000	20.775800
1776.000000	20.692000
1775.000000	20.599600
1774.000000	20.487000
1773.000000	20.374100
1772.000000	20.255800
1771.000000	20.159600
1770.000000	20.057100
1769.000000	19.958000
1768.000000	19.843800
1767.000000	19.756300
1766.000000	19.695300
1765.000000	19.650600
1764.000000	19.605700
1763.000000	19.578500
1762.000000	19.608200
1761.000000	19.646000
1760.000000	19.705900
1759.000000	19.773800
1758.000000	19.831700
1757.000000	19.886300
1756.000000	19.926800
1755.000000	19.973600
1754.000000	20.019300
1753.000000	20.018600
1752.000000	19.997600
1751.000000	19.964300
1750.000000	19.942400
1749.000000	19.893200
1748.000000	19.836400
1747.000000	19.779900
1746.000000	19.673000
1745.000000	19.555100
1744.000000	19.434500
1743.000000	19.288000
1742.000000	19.110100
1741.000000	18.917200
1740.000000	18.725500
1739.000000	18.543800
1738.000000	18.352900
1737.000000	18.202400
1736.000000	18.084300
1735.000000	18.004700
1734.000000	17.967900
1733.000000	17.960900
1732.000000	17.993200
1731.000000	18.064700
1730.000000	18.159700
1729.000000	18.255600
1728.000000	18.354900
1727.000000	18.442800
1726.000000	18.538900
1725.000000	18.596900
1724.000000	18.610800
1723.000000	18.659900
1722.000000	18.661800
1721.000000	18.664200
1720.000000	18.681600
1719.000000	18.699400
1718.000000	18.721600
1717.000000	18.749400
1716.000000	18.788700
1715.000000	18.850600
1714.000000	18.897900
1713.000000	18.959400
1712.000000	19.000900
1711.000000	19.016400
1710.000000	19.032900
1709.000000	19.044600
1708.000000	19.023300
1707.000000	18.973400
1706.000000	18.960200
1705.000000	18.922600
1704.000000	18.890000
1703.000000	18.784500
1702.000000	18.710400
1701.000000	18.606600
1700.000000	18.467100
1699.000000	18.312900
1698.000000	18.183700
1697.000000	18.100300
1696.000000	18.023500
1695.000000	17.983100
1694.000000	18.020300
1693.000000	18.097400
1692.000000	18.207600
1691.000000	18.324200
1690.000000	18.459600
1689.000000	18.579200
1688.000000	18.611600
1687.000000	18.608100
1686.000000	18.615200
1685.000000	18.609600
1684.000000	18.668300
1683.000000	18.804900
1682.000000	19.062700
1681.000000	19.435400
1680.000000	19.893000
1679.000000	20.327500
1678.000000	20.803900
1677.000000	21.249800
1676.000000	21.639800
1675.000000	21.985800
1674.000000	22.302400
1673.000000	22.557500
1672.000000	22.802300
1671.000000	22.958300
1670.000000	23.143500
1669.000000	23.306600
1668.000000	23.432900
1667.000000	23.564000
1666.000000	23.659000
1665.000000	23.752700
1664.000000	23.822000
1663.000000	23.885800
1662.000000	23.956400
1661.000000	24.003800
1660.000000	24.057900
1659.000000	24.101000
1658.000000	24.113600
1657.000000	24.134400
1656.000000	24.155000
1655.000000	24.160500
1654.000000	24.179800
1653.000000	24.165800
1652.000000	24.151200
1651.000000	24.152000
1650.000000	24.113400
1649.000000	24.114200
1648.000000	24.093400
1647.000000	24.053900
1646.000000	24.028400
1645.000000	23.990700
1644.000000	23.948200
1643.000000	23.915500
1642.000000	23.883000
1641.000000	23.857600
1640.000000	23.806700
1639.000000	23.755600
1638.000000	23.701900
1637.000000	23.659900
1636.000000	23.618500
1635.000000	23.570900
1634.000000	23.528600
1633.000000	23.477500
1632.000000	23.420400
1631.000000	23.371200
1630.000000	23.311200
1629.000000	23.254400
1628.000000	23.190100
1627.000000	23.139600
1626.000000	23.086800
1625.000000	23.025400
1624.000000	22.972000
1623.000000	22.914700
1622.000000	22.857100
1621.000000	22.810400
1620.000000	22.752000
1619.000000	22.697400
1618.000000	22.654400
1617.000000	22.586500
1616.000000	22.534000
1615.000000	22.484600
1614.000000	22.429600
1613.000000	22.381500
1612.000000	22.340700
