PE UV       SUBTECH     SPECTRUM    ASCII       PEDS        4.00        
   -1
CICIMAUCR0112-1.Sample.ASC
24/04/19
15:29:01.00
24/04/19
15:29:01.00
Vinicio Soto Monge
C. resplendens
250,000000
1
Lambda 1050
1050L1511233
PerkinElmer UV WinLab 6.3.2.0749 / 2.02.05 Lambda 900 UV/VIS/NIR, Aug  7 2015 09:38:08

0
0
3350/servo 860,8/2
0
0
UV/VIS
1
1
1
DoubleDePol,CommonBeamDepol,RBeamAtt,SBeamAtt,60mm sphere, WB InGaAs Detector
0
0
0
0
Program
Program
3350/servo 860,8/2
3350/0,2 860,8/0,2
3350/0,2 860,8/0,2
0
15.00
 
 
 
0
 
860,8
319,2
860,8
Front
100
on
S:100 R:100
0
0
0
0
 
0
 
 
 
0
 
 
0
0
0
0
0
 
 
 
 
0
0


0
0
#HDR
-1
-1
#GR
nm
%R
1.0
0.0
2500,000000
-1,000000
2251
8
88,637500
5,329100
#DATA
2500.000000	7.584200
2499.000000	7.584400
2498.000000	7.512100
2497.000000	7.365900
2496.000000	7.401700
2495.000000	7.376500
2494.000000	7.461200
2493.000000	7.403100
2492.000000	7.330200
2491.000000	7.400800
2490.000000	7.278400
2489.000000	7.341600
2488.000000	7.273600
2487.000000	7.231400
2486.000000	7.285700
2485.000000	7.200500
2484.000000	7.239800
2483.000000	7.206100
2482.000000	7.206400
2481.000000	7.218800
2480.000000	7.198300
2479.000000	7.241600
2478.000000	7.184300
2477.000000	7.197400
2476.000000	7.164300
2475.000000	7.185700
2474.000000	7.181900
2473.000000	7.179100
2472.000000	7.193200
2471.000000	7.172900
2470.000000	7.143000
2469.000000	7.200100
2468.000000	7.174900
2467.000000	7.204000
2466.000000	7.218700
2465.000000	7.238900
2464.000000	7.215600
2463.000000	7.247300
2462.000000	7.264500
2461.000000	7.333300
2460.000000	7.318500
2459.000000	7.345700
2458.000000	7.388300
2457.000000	7.426300
2456.000000	7.470600
2455.000000	7.493400
2454.000000	7.550800
2453.000000	7.615400
2452.000000	7.677400
2451.000000	7.736200
2450.000000	7.800200
2449.000000	7.843100
2448.000000	7.900900
2447.000000	7.968000
2446.000000	8.006300
2445.000000	8.082500
2444.000000	8.147300
2443.000000	8.205000
2442.000000	8.262100
2441.000000	8.314000
2440.000000	8.369800
2439.000000	8.416900
2438.000000	8.484900
2437.000000	8.543700
2436.000000	8.590000
2435.000000	8.635500
2434.000000	8.681500
2433.000000	8.741100
2432.000000	8.791100
2431.000000	8.824900
2430.000000	8.862200
2429.000000	8.905700
2428.000000	8.943700
2427.000000	8.970500
2426.000000	9.000200
2425.000000	8.999700
2424.000000	9.053900
2423.000000	9.103400
2422.000000	9.117700
2421.000000	9.171700
2420.000000	9.200400
2419.000000	9.226200
2418.000000	9.242100
2417.000000	9.266700
2416.000000	9.295500
2415.000000	9.310900
2414.000000	9.321500
2413.000000	9.343300
2412.000000	9.371900
2411.000000	9.387000
2410.000000	9.399900
2409.000000	9.427200
2408.000000	9.454700
2407.000000	9.466000
2406.000000	9.482000
2405.000000	9.499700
2404.000000	9.519900
2403.000000	9.539900
2402.000000	9.551100
2401.000000	9.576100
2400.000000	9.602600
2399.000000	9.628800
2398.000000	9.649600
2397.000000	9.660000
2396.000000	9.684500
2395.000000	9.701900
2394.000000	9.735300
2393.000000	9.764900
2392.000000	9.776400
2391.000000	9.787300
2390.000000	9.802900
2389.000000	9.810700
2388.000000	9.810300
2387.000000	9.812900
2386.000000	9.829800
2385.000000	9.831000
2384.000000	9.830500
2383.000000	9.826500
2382.000000	9.801600
2381.000000	9.785500
2380.000000	9.772600
2379.000000	9.756000
2378.000000	9.733000
2377.000000	9.712800
2376.000000	9.688400
2375.000000	9.671100
2374.000000	9.652000
2373.000000	9.619400
2372.000000	9.584800
2371.000000	9.551300
2370.000000	9.509700
2369.000000	9.459800
2368.000000	9.411800
2367.000000	9.363900
2366.000000	9.318000
2365.000000	9.267500
2364.000000	9.198900
2363.000000	9.129200
2362.000000	9.062900
2361.000000	8.999400
2360.000000	8.927000
2359.000000	8.866900
2358.000000	8.815400
2357.000000	8.751400
2356.000000	8.712700
2355.000000	8.687000
2354.000000	8.648100
2353.000000	8.631200
2352.000000	8.631900
2351.000000	8.640800
2350.000000	8.657700
2349.000000	8.668700
2348.000000	8.689400
2347.000000	8.731100
2346.000000	8.777900
2345.000000	8.811100
2344.000000	8.848800
2343.000000	8.884800
2342.000000	8.915200
2341.000000	8.942000
2340.000000	8.962200
2339.000000	8.982200
2338.000000	8.981900
2337.000000	8.973600
2336.000000	8.954300
2335.000000	8.940900
2334.000000	8.913800
2333.000000	8.886100
2332.000000	8.848200
2331.000000	8.796100
2330.000000	8.754400
2329.000000	8.699200
2328.000000	8.621600
2327.000000	8.561200
2326.000000	8.492100
2325.000000	8.427700
2324.000000	8.347500
2323.000000	8.272700
2322.000000	8.175800
2321.000000	8.097800
2320.000000	8.005500
2319.000000	7.906900
2318.000000	7.820900
2317.000000	7.719100
2316.000000	7.643200
2315.000000	7.541200
2314.000000	7.446400
2313.000000	7.352700
2312.000000	7.281400
2311.000000	7.248300
2310.000000	7.172300
2309.000000	7.135300
2308.000000	7.114000
2307.000000	7.083900
2306.000000	7.063900
2305.000000	7.070800
2304.000000	7.081200
2303.000000	7.116600
2302.000000	7.181700
2301.000000	7.246700
2300.000000	7.308600
2299.000000	7.377000
2298.000000	7.436600
2297.000000	7.511900
2296.000000	7.574400
2295.000000	7.657200
2294.000000	7.700500
2293.000000	7.728800
2292.000000	7.772700
2291.000000	7.809300
2290.000000	7.819600
2289.000000	7.817700
2288.000000	7.819200
2287.000000	7.809400
2286.000000	7.785400
2285.000000	7.765200
2284.000000	7.722400
2283.000000	7.695300
2282.000000	7.656600
2281.000000	7.623000
2280.000000	7.584200
2279.000000	7.551100
2278.000000	7.499900
2277.000000	7.478300
2276.000000	7.452800
2275.000000	7.405100
2274.000000	7.404700
2273.000000	7.387000
2272.000000	7.382800
2271.000000	7.413300
2270.000000	7.440600
2269.000000	7.475000
2268.000000	7.517500
2267.000000	7.585600
2266.000000	7.668900
2265.000000	7.745600
2264.000000	7.875300
2263.000000	8.019800
2262.000000	8.190800
2261.000000	8.335900
2260.000000	8.526600
2259.000000	8.732600
2258.000000	8.942300
2257.000000	9.160400
2256.000000	9.408300
2255.000000	9.633800
2254.000000	9.864400
2253.000000	10.126600
2252.000000	10.289500
2251.000000	10.511900
2250.000000	10.743600
2249.000000	10.934800
2248.000000	11.112700
2247.000000	11.285000
2246.000000	11.449500
2245.000000	11.616800
2244.000000	11.746400
2243.000000	11.888000
2242.000000	12.009700
2241.000000	12.150700
2240.000000	12.246600
2239.000000	12.358500
2238.000000	12.452100
2237.000000	12.550100
2236.000000	12.645700
2235.000000	12.735200
2234.000000	12.815400
2233.000000	12.871700
2232.000000	12.931600
2231.000000	12.983800
2230.000000	13.044200
2229.000000	13.085300
2228.000000	13.111100
2227.000000	13.130600
2226.000000	13.129100
2225.000000	13.171400
2224.000000	13.174800
2223.000000	13.187100
2222.000000	13.192200
2221.000000	13.154300
2220.000000	13.157900
2219.000000	13.154800
2218.000000	13.148500
2217.000000	13.144500
2216.000000	13.123400
2215.000000	13.091500
2214.000000	13.090400
2213.000000	13.071900
2212.000000	13.056200
2211.000000	13.046200
2210.000000	13.027700
2209.000000	13.017800
2208.000000	13.016000
2207.000000	13.001300
2206.000000	12.969100
2205.000000	12.964000
2204.000000	12.957900
2203.000000	12.954800
2202.000000	12.934100
2201.000000	12.945400
2200.000000	12.943600
2199.000000	12.926500
2198.000000	12.941600
2197.000000	12.933400
2196.000000	12.928500
2195.000000	12.916500
2194.000000	12.924300
2193.000000	12.913200
2192.000000	12.908500
2191.000000	12.897000
2190.000000	12.904300
2189.000000	12.885800
2188.000000	12.891000
2187.000000	12.901400
2186.000000	12.852800
2185.000000	12.855100
2184.000000	12.832100
2183.000000	12.821600
2182.000000	12.825600
2181.000000	12.792800
2180.000000	12.788300
2179.000000	12.783900
2178.000000	12.790200
2177.000000	12.788900
2176.000000	12.780300
2175.000000	12.784900
2174.000000	12.798500
2173.000000	12.788800
2172.000000	12.792000
2171.000000	12.804100
2170.000000	12.816200
2169.000000	12.831500
2168.000000	12.830100
2167.000000	12.845400
2166.000000	12.896100
2165.000000	12.898200
2164.000000	12.923500
2163.000000	12.947400
2162.000000	12.972600
2161.000000	12.993100
2160.000000	13.016000
2159.000000	13.030500
2158.000000	13.074000
2157.000000	13.112900
2156.000000	13.149500
2155.000000	13.179600
2154.000000	13.216400
2153.000000	13.234200
2152.000000	13.261500
2151.000000	13.308800
2150.000000	13.352300
2149.000000	13.370400
2148.000000	13.392400
2147.000000	13.439500
2146.000000	13.457100
2145.000000	13.469200
2144.000000	13.501700
2143.000000	13.520300
2142.000000	13.535700
2141.000000	13.549200
2140.000000	13.566600
2139.000000	13.600000
2138.000000	13.601600
2137.000000	13.621500
2136.000000	13.632900
2135.000000	13.650300
2134.000000	13.668400
2133.000000	13.642600
2132.000000	13.634200
2131.000000	13.645300
2130.000000	13.631000
2129.000000	13.624800
2128.000000	13.626200
2127.000000	13.614400
2126.000000	13.600000
2125.000000	13.584400
2124.000000	13.566300
2123.000000	13.544400
2122.000000	13.530200
2121.000000	13.507000
2120.000000	13.476800
2119.000000	13.436700
2118.000000	13.402800
2117.000000	13.374800
2116.000000	13.345200
2115.000000	13.313100
2114.000000	13.269100
2113.000000	13.241700
2112.000000	13.206400
2111.000000	13.168400
2110.000000	13.143400
2109.000000	13.111000
2108.000000	13.086900
2107.000000	13.058300
2106.000000	13.021400
2105.000000	12.997400
2104.000000	12.963400
2103.000000	12.919200
2102.000000	12.895600
2101.000000	12.882900
2100.000000	12.851300
2099.000000	12.814800
2098.000000	12.782800
2097.000000	12.748900
2096.000000	12.716300
2095.000000	12.700200
2094.000000	12.685400
2093.000000	12.666400
2092.000000	12.640500
2091.000000	12.624400
2090.000000	12.620100
2089.000000	12.611500
2088.000000	12.593200
2087.000000	12.578500
2086.000000	12.560700
2085.000000	12.539200
2084.000000	12.520400
2083.000000	12.511600
2082.000000	12.503400
2081.000000	12.487000
2080.000000	12.474900
2079.000000	12.449000
2078.000000	12.430600
2077.000000	12.414100
2076.000000	12.393500
2075.000000	12.375000
2074.000000	12.368800
2073.000000	12.354400
2072.000000	12.335600
2071.000000	12.320300
2070.000000	12.304600
2069.000000	12.278500
2068.000000	12.266500
2067.000000	12.253100
2066.000000	12.253500
2065.000000	12.228400
2064.000000	12.227000
2063.000000	12.224400
2062.000000	12.217200
2061.000000	12.228100
2060.000000	12.233700
2059.000000	12.248000
2058.000000	12.262600
2057.000000	12.298100
2056.000000	12.337900
2055.000000	12.391600
2054.000000	12.442200
2053.000000	12.519600
2052.000000	12.583300
2051.000000	12.664100
2050.000000	12.764300
2049.000000	12.882200
2048.000000	13.001200
2047.000000	13.128200
2046.000000	13.274200
2045.000000	13.404900
2044.000000	13.547000
2043.000000	13.702400
2042.000000	13.855500
2041.000000	14.020200
2040.000000	14.157000
2039.000000	14.318700
2038.000000	14.467900
2037.000000	14.605800
2036.000000	14.746500
2035.000000	14.890200
2034.000000	15.016700
2033.000000	15.157900
2032.000000	15.297000
2031.000000	15.407400
2030.000000	15.509400
2029.000000	15.624500
2028.000000	15.758100
2027.000000	15.845700
2026.000000	15.925000
2025.000000	16.044400
2024.000000	16.142800
2023.000000	16.246400
2022.000000	16.317200
2021.000000	16.427100
2020.000000	16.516200
2019.000000	16.617400
2018.000000	16.698200
2017.000000	16.767000
2016.000000	16.857100
2015.000000	16.931200
2014.000000	16.995500
2013.000000	17.065500
2012.000000	17.113300
2011.000000	17.153000
2010.000000	17.221700
2009.000000	17.275100
2008.000000	17.301900
2007.000000	17.328600
2006.000000	17.366200
2005.000000	17.392800
2004.000000	17.399000
2003.000000	17.414800
2002.000000	17.399100
2001.000000	17.448500
2000.000000	17.472000
1999.000000	17.460000
1998.000000	17.448900
1997.000000	17.419700
1996.000000	17.403300
1995.000000	17.396700
1994.000000	17.358100
1993.000000	17.331300
1992.000000	17.283300
1991.000000	17.253400
1990.000000	17.214400
1989.000000	17.168700
1988.000000	17.115600
1987.000000	17.050300
1986.000000	17.022000
1985.000000	16.954500
1984.000000	16.880600
1983.000000	16.824700
1982.000000	16.740200
1981.000000	16.683000
1980.000000	16.637800
1979.000000	16.546400
1978.000000	16.498400
1977.000000	16.405900
1976.000000	16.344900
1975.000000	16.283100
1974.000000	16.224000
1973.000000	16.155600
1972.000000	16.105900
1971.000000	16.043300
1970.000000	15.970000
1969.000000	15.902000
1968.000000	15.853200
1967.000000	15.791100
1966.000000	15.730100
1965.000000	15.671200
1964.000000	15.597300
1963.000000	15.531400
1962.000000	15.480100
1961.000000	15.425900
1960.000000	15.365000
1959.000000	15.304200
1958.000000	15.258900
1957.000000	15.186300
1956.000000	15.129400
1955.000000	15.062400
1954.000000	15.015100
1953.000000	14.937200
1952.000000	14.901800
1951.000000	14.847700
1950.000000	14.788400
1949.000000	14.762400
1948.000000	14.719100
1947.000000	14.671900
1946.000000	14.668100
1945.000000	14.618300
1944.000000	14.605800
1943.000000	14.580200
1942.000000	14.583800
1941.000000	14.594500
1940.000000	14.576700
1939.000000	14.594600
1938.000000	14.608300
1937.000000	14.637900
1936.000000	14.662200
1935.000000	14.700300
1934.000000	14.769100
1933.000000	14.817000
1932.000000	14.927200
1931.000000	14.995700
1930.000000	15.078300
1929.000000	15.169000
1928.000000	15.290500
1927.000000	15.401400
1926.000000	15.525700
1925.000000	15.655200
1924.000000	15.790200
1923.000000	15.957600
1922.000000	16.123600
1921.000000	16.286900
1920.000000	16.459800
1919.000000	16.623100
1918.000000	16.792300
1917.000000	16.994100
1916.000000	17.223000
1915.000000	17.445100
1914.000000	17.678900
1913.000000	17.907700
1912.000000	18.146100
1911.000000	18.356600
1910.000000	18.609700
1909.000000	18.846000
1908.000000	19.101400
1907.000000	19.364800
1906.000000	19.655600
1905.000000	19.926600
1904.000000	20.202000
1903.000000	20.468800
1902.000000	20.722400
1901.000000	20.993200
1900.000000	21.287500
1899.000000	21.548900
1898.000000	21.821900
1897.000000	22.098300
1896.000000	22.353500
1895.000000	22.611600
1894.000000	22.875600
1893.000000	23.148100
1892.000000	23.441800
1891.000000	23.709700
1890.000000	23.955400
1889.000000	24.222700
1888.000000	24.529100
1887.000000	24.839500
1886.000000	25.188300
1885.000000	25.591200
1884.000000	26.033300
1883.000000	26.481900
1882.000000	26.963600
1881.000000	27.459900
1880.000000	27.925100
1879.000000	28.380200
1878.000000	28.825700
1877.000000	29.277300
1876.000000	29.653500
1875.000000	30.011000
1874.000000	30.318600
1873.000000	30.583500
1872.000000	30.843600
1871.000000	31.036500
1870.000000	31.155000
1869.000000	31.277800
1868.000000	31.412100
1867.000000	31.471200
1866.000000	31.520500
1865.000000	31.556500
1864.000000	31.589700
1863.000000	31.633600
1862.000000	31.661900
1861.000000	31.660700
1860.000000	31.642900
1859.000000	31.582800
1858.000000	31.537600
1857.000000	31.483400
1856.000000	31.421700
1855.000000	31.351400
1854.000000	31.245400
1853.000000	31.110000
1852.000000	31.012100
1851.000000	30.952500
1850.000000	30.899900
1849.000000	30.830500
1848.000000	30.682800
1847.000000	30.497700
1846.000000	30.373500
1845.000000	30.298500
1844.000000	30.269700
1843.000000	30.263000
1842.000000	30.215500
1841.000000	30.142100
1840.000000	30.059800
1839.000000	29.988000
1838.000000	29.933000
1837.000000	29.842700
1836.000000	29.733000
1835.000000	29.614700
1834.000000	29.501700
1833.000000	29.429100
1832.000000	29.339200
1831.000000	29.218700
1830.000000	29.108900
1829.000000	29.007600
1828.000000	28.886700
1827.000000	28.783100
1826.000000	28.688900
1825.000000	28.599100
1824.000000	28.553700
1823.000000	28.554000
1822.000000	28.549400
1821.000000	28.506500
1820.000000	28.453300
1819.000000	28.403600
1818.000000	28.371600
1817.000000	28.385500
1816.000000	28.397900
1815.000000	28.380900
1814.000000	28.370500
1813.000000	28.357800
1812.000000	28.329400
1811.000000	28.275100
1810.000000	28.218100
1809.000000	28.188400
1808.000000	28.133700
1807.000000	28.078900
1806.000000	28.007700
1805.000000	27.933600
1804.000000	27.882500
1803.000000	27.838100
1802.000000	27.776400
1801.000000	27.685400
1800.000000	27.606400
1799.000000	27.531300
1798.000000	27.489100
1797.000000	27.445200
1796.000000	27.377300
1795.000000	27.313800
1794.000000	27.251800
1793.000000	27.169200
1792.000000	27.085500
1791.000000	27.018200
1790.000000	26.942800
1789.000000	26.867000
1788.000000	26.778100
1787.000000	26.688100
1786.000000	26.569400
1785.000000	26.474500
1784.000000	26.351700
1783.000000	26.230200
1782.000000	26.145500
1781.000000	26.020900
1780.000000	25.904900
1779.000000	25.788900
1778.000000	25.670800
1777.000000	25.511400
1776.000000	25.337500
1775.000000	25.172200
1774.000000	24.995000
1773.000000	24.800500
1772.000000	24.615100
1771.000000	24.452200
1770.000000	24.279200
1769.000000	24.093500
1768.000000	23.943000
1767.000000	23.809700
1766.000000	23.680500
1765.000000	23.565900
1764.000000	23.521300
1763.000000	23.523200
1762.000000	23.544100
1761.000000	23.580500
1760.000000	23.666500
1759.000000	23.775900
1758.000000	23.853300
1757.000000	23.913400
1756.000000	23.977300
1755.000000	24.001500
1754.000000	24.006600
1753.000000	23.978500
1752.000000	23.949600
1751.000000	23.872100
1750.000000	23.792600
1749.000000	23.692000
1748.000000	23.561100
1747.000000	23.417200
1746.000000	23.248000
1745.000000	23.050100
1744.000000	22.812500
1743.000000	22.532500
1742.000000	22.251700
1741.000000	21.929900
1740.000000	21.611200
1739.000000	21.300800
1738.000000	21.037600
1737.000000	20.798500
1736.000000	20.644500
1735.000000	20.544000
1734.000000	20.503300
1733.000000	20.538900
1732.000000	20.618100
1731.000000	20.717500
1730.000000	20.862100
1729.000000	21.035300
1728.000000	21.164800
1727.000000	21.294200
1726.000000	21.401700
1725.000000	21.489600
1724.000000	21.538300
1723.000000	21.550000
1722.000000	21.587100
1721.000000	21.575600
1720.000000	21.594200
1719.000000	21.614200
1718.000000	21.632500
1717.000000	21.681000
1716.000000	21.766900
1715.000000	21.827700
1714.000000	21.897800
1713.000000	21.944700
1712.000000	22.008900
1711.000000	22.033900
1710.000000	22.055300
1709.000000	22.039800
1708.000000	22.028600
1707.000000	22.011200
1706.000000	21.962300
1705.000000	21.908500
1704.000000	21.828200
1703.000000	21.733200
1702.000000	21.590400
1701.000000	21.437000
1700.000000	21.248300
1699.000000	21.044500
1698.000000	20.868600
1697.000000	20.755900
1696.000000	20.703300
1695.000000	20.702700
1694.000000	20.815300
1693.000000	20.959000
1692.000000	21.204400
1691.000000	21.434900
1690.000000	21.613800
1689.000000	21.795400
1688.000000	21.832300
1687.000000	21.846400
1686.000000	21.824100
1685.000000	21.869600
1684.000000	21.981300
1683.000000	22.274300
1682.000000	22.760800
1681.000000	23.380400
1680.000000	24.138900
1679.000000	24.829100
1678.000000	25.566600
1677.000000	26.204000
1676.000000	26.812700
1675.000000	27.323700
1674.000000	27.755000
1673.000000	28.152900
1672.000000	28.456700
1671.000000	28.713800
1670.000000	28.966600
1669.000000	29.175500
1668.000000	29.361200
1667.000000	29.504400
1666.000000	29.620400
1665.000000	29.727400
1664.000000	29.826900
1663.000000	29.880500
1662.000000	29.938900
1661.000000	29.981800
1660.000000	30.013200
1659.000000	30.041000
1658.000000	30.056200
1657.000000	30.065700
1656.000000	30.056300
1655.000000	30.049200
1654.000000	30.031600
1653.000000	29.991000
1652.000000	29.974200
1651.000000	29.927000
1650.000000	29.867300
1649.000000	29.815600
1648.000000	29.742500
1647.000000	29.688900
1646.000000	29.601800
1645.000000	29.528100
1644.000000	29.451500
1643.000000	29.369200
1642.000000	29.288600
1641.000000	29.197900
1640.000000	29.115500
1639.000000	29.025000
1638.000000	28.923700
1637.000000	28.826100
1636.000000	28.746600
1635.000000	28.647900
1634.000000	28.536800
1633.000000	28.422800
1632.000000	28.325100
1631.000000	28.228300
1630.000000	28.099400
1629.000000	27.982600
1628.000000	27.882100
1627.000000	27.770900
1626.000000	27.658300
1625.000000	27.539100
1624.000000	27.420400
1623.000000	27.312000
1622.000000	27.222200
1621.000000	27.110100
1620.000000	26.987100
1619.000000	26.888600
1618.000000	26.803500
1617.000000	26.691900
1616.000000	26.581000
1615.000000	26.482700
1614.000000	26.378600
1613.000000	26.287300
