PE UV       SUBTECH     SPECTRUM    ASCII       PEDS        4.00        
   -1
CICIMAUCR0008-4.Sample.ASC
24/04/25
09:16:30.00
24/04/25
09:16:30.00
Vinicio Soto Monge
C. kalinini
250,000000
1
Lambda 1050
1050L1511233
PerkinElmer UV WinLab 6.3.2.0749 / 2.02.05 Lambda 900 UV/VIS/NIR, Aug  7 2015 09:38:08

0
0
3350/servo 860,8/2
0
0
UV/VIS
1
1
1
DoubleDePol,CommonBeamDepol,RBeamAtt,SBeamAtt,60mm sphere, WB InGaAs Detector
0
0
0
0
Program
Program
3350/servo 860,8/2
3350/0,2 860,8/0,2
3350/0,2 860,8/0,2
0
15.00
 
 
 
0
 
860,8
319,2
860,8
Front
100
on
S:100 R:100
0
0
0
0
 
0
 
 
 
0
 
 
0
0
0
0
0
 
 
 
 
0
0


0
0
#HDR
-1
-1
#GR
nm
%R
1.0
0.0
2500,000000
-1,000000
2251
8
94,238500
5,235800
#DATA
2500.000000	5.932600
2499.000000	5.753900
2498.000000	5.713900
2497.000000	5.712800
2496.000000	5.650500
2495.000000	5.808100
2494.000000	5.664800
2493.000000	5.656200
2492.000000	5.708200
2491.000000	5.706300
2490.000000	5.668100
2489.000000	5.726200
2488.000000	5.674800
2487.000000	5.671200
2486.000000	5.657900
2485.000000	5.623000
2484.000000	5.639200
2483.000000	5.605300
2482.000000	5.662500
2481.000000	5.615700
2480.000000	5.567500
2479.000000	5.609700
2478.000000	5.613500
2477.000000	5.573300
2476.000000	5.571200
2475.000000	5.628900
2474.000000	5.590300
2473.000000	5.604500
2472.000000	5.590800
2471.000000	5.618100
2470.000000	5.628700
2469.000000	5.639400
2468.000000	5.635800
2467.000000	5.616600
2466.000000	5.638500
2465.000000	5.643100
2464.000000	5.640700
2463.000000	5.648900
2462.000000	5.651400
2461.000000	5.687800
2460.000000	5.709600
2459.000000	5.713800
2458.000000	5.746300
2457.000000	5.776100
2456.000000	5.788500
2455.000000	5.828800
2454.000000	5.849900
2453.000000	5.860800
2452.000000	5.871100
2451.000000	5.888500
2450.000000	5.936700
2449.000000	5.969100
2448.000000	5.987300
2447.000000	6.012900
2446.000000	6.019800
2445.000000	6.052800
2444.000000	6.078300
2443.000000	6.094500
2442.000000	6.134800
2441.000000	6.176400
2440.000000	6.184500
2439.000000	6.219500
2438.000000	6.237100
2437.000000	6.254900
2436.000000	6.270100
2435.000000	6.298200
2434.000000	6.309100
2433.000000	6.325400
2432.000000	6.352200
2431.000000	6.374400
2430.000000	6.375000
2429.000000	6.401500
2428.000000	6.407900
2427.000000	6.418000
2426.000000	6.442500
2425.000000	6.458400
2424.000000	6.478800
2423.000000	6.465000
2422.000000	6.483400
2421.000000	6.500700
2420.000000	6.512600
2419.000000	6.535000
2418.000000	6.532400
2417.000000	6.541800
2416.000000	6.557500
2415.000000	6.553100
2414.000000	6.526300
2413.000000	6.466600
2412.000000	6.441900
2411.000000	6.432300
2410.000000	6.440400
2409.000000	6.442400
2408.000000	6.443700
2407.000000	6.440500
2406.000000	6.434600
2405.000000	6.441800
2404.000000	6.439700
2403.000000	6.438400
2402.000000	6.439700
2401.000000	6.429900
2400.000000	6.441000
2399.000000	6.447300
2398.000000	6.444600
2397.000000	6.432000
2396.000000	6.440000
2395.000000	6.446100
2394.000000	6.459200
2393.000000	6.465100
2392.000000	6.449200
2391.000000	6.441100
2390.000000	6.450600
2389.000000	6.448300
2388.000000	6.429600
2387.000000	6.436200
2386.000000	6.439600
2385.000000	6.415300
2384.000000	6.420300
2383.000000	6.423200
2382.000000	6.395600
2381.000000	6.390900
2380.000000	6.376300
2379.000000	6.364600
2378.000000	6.368900
2377.000000	6.363800
2376.000000	6.338400
2375.000000	6.329000
2374.000000	6.315000
2373.000000	6.292100
2372.000000	6.268300
2371.000000	6.258600
2370.000000	6.241800
2369.000000	6.215200
2368.000000	6.207500
2367.000000	6.183700
2366.000000	6.156300
2365.000000	6.139700
2364.000000	6.110200
2363.000000	6.075500
2362.000000	6.055200
2361.000000	6.030600
2360.000000	6.007700
2359.000000	5.983100
2358.000000	5.975300
2357.000000	5.962700
2356.000000	5.944500
2355.000000	5.934200
2354.000000	5.915200
2353.000000	5.917700
2352.000000	5.930100
2351.000000	5.932500
2350.000000	5.959000
2349.000000	5.974700
2348.000000	5.999700
2347.000000	6.026500
2346.000000	6.031700
2345.000000	6.028900
2344.000000	6.059400
2343.000000	6.086800
2342.000000	6.087200
2341.000000	6.088800
2340.000000	6.102900
2339.000000	6.109200
2338.000000	6.106200
2337.000000	6.102000
2336.000000	6.115100
2335.000000	6.114700
2334.000000	6.098200
2333.000000	6.091800
2332.000000	6.058100
2331.000000	6.031500
2330.000000	6.029600
2329.000000	6.009700
2328.000000	5.990200
2327.000000	5.961100
2326.000000	5.947900
2325.000000	5.922900
2324.000000	5.892600
2323.000000	5.844100
2322.000000	5.818500
2321.000000	5.796300
2320.000000	5.761700
2319.000000	5.737000
2318.000000	5.706300
2317.000000	5.667400
2316.000000	5.634400
2315.000000	5.603000
2314.000000	5.575900
2313.000000	5.552200
2312.000000	5.534400
2311.000000	5.522500
2310.000000	5.513700
2309.000000	5.499200
2308.000000	5.488600
2307.000000	5.516300
2306.000000	5.527200
2305.000000	5.534300
2304.000000	5.548900
2303.000000	5.571400
2302.000000	5.618800
2301.000000	5.646500
2300.000000	5.673700
2299.000000	5.700900
2298.000000	5.743800
2297.000000	5.783700
2296.000000	5.820400
2295.000000	5.835500
2294.000000	5.843700
2293.000000	5.868600
2292.000000	5.882700
2291.000000	5.897300
2290.000000	5.917500
2289.000000	5.908500
2288.000000	5.907200
2287.000000	5.898700
2286.000000	5.898600
2285.000000	5.891100
2284.000000	5.883400
2283.000000	5.882400
2282.000000	5.871500
2281.000000	5.845800
2280.000000	5.835600
2279.000000	5.818400
2278.000000	5.833100
2277.000000	5.820200
2276.000000	5.825500
2275.000000	5.832300
2274.000000	5.809300
2273.000000	5.802500
2272.000000	5.836900
2271.000000	5.823300
2270.000000	5.836700
2269.000000	5.878400
2268.000000	5.902200
2267.000000	5.943000
2266.000000	6.000500
2265.000000	6.037700
2264.000000	6.102700
2263.000000	6.179200
2262.000000	6.248800
2261.000000	6.316700
2260.000000	6.405300
2259.000000	6.525100
2258.000000	6.610300
2257.000000	6.710400
2256.000000	6.782100
2255.000000	6.888800
2254.000000	7.004400
2253.000000	7.099200
2252.000000	7.170600
2251.000000	7.286800
2250.000000	7.363300
2249.000000	7.433700
2248.000000	7.512200
2247.000000	7.594900
2246.000000	7.670500
2245.000000	7.739200
2244.000000	7.798300
2243.000000	7.855800
2242.000000	7.923800
2241.000000	8.003300
2240.000000	8.035800
2239.000000	8.080300
2238.000000	8.135100
2237.000000	8.153400
2236.000000	8.214000
2235.000000	8.243200
2234.000000	8.271200
2233.000000	8.328800
2232.000000	8.338300
2231.000000	8.361500
2230.000000	8.376300
2229.000000	8.407200
2228.000000	8.417300
2227.000000	8.445000
2226.000000	8.449400
2225.000000	8.439800
2224.000000	8.430700
2223.000000	8.477500
2222.000000	8.467300
2221.000000	8.447800
2220.000000	8.462600
2219.000000	8.457600
2218.000000	8.439200
2217.000000	8.428300
2216.000000	8.426700
2215.000000	8.408600
2214.000000	8.397400
2213.000000	8.422200
2212.000000	8.414900
2211.000000	8.367800
2210.000000	8.374900
2209.000000	8.387300
2208.000000	8.373000
2207.000000	8.346200
2206.000000	8.371300
2205.000000	8.357000
2204.000000	8.341400
2203.000000	8.353800
2202.000000	8.340200
2201.000000	8.355100
2200.000000	8.331900
2199.000000	8.329100
2198.000000	8.329500
2197.000000	8.338500
2196.000000	8.307900
2195.000000	8.305100
2194.000000	8.321800
2193.000000	8.303700
2192.000000	8.290500
2191.000000	8.298900
2190.000000	8.303500
2189.000000	8.300600
2188.000000	8.292500
2187.000000	8.271600
2186.000000	8.273900
2185.000000	8.255700
2184.000000	8.231000
2183.000000	8.231100
2182.000000	8.224800
2181.000000	8.207500
2180.000000	8.202600
2179.000000	8.196400
2178.000000	8.194200
2177.000000	8.179300
2176.000000	8.176600
2175.000000	8.171800
2174.000000	8.159300
2173.000000	8.175700
2172.000000	8.163200
2171.000000	8.184200
2170.000000	8.198000
2169.000000	8.184000
2168.000000	8.181100
2167.000000	8.184500
2166.000000	8.191300
2165.000000	8.216800
2164.000000	8.211200
2163.000000	8.216200
2162.000000	8.216800
2161.000000	8.225000
2160.000000	8.228200
2159.000000	8.247000
2158.000000	8.252100
2157.000000	8.267900
2156.000000	8.292100
2155.000000	8.308000
2154.000000	8.321000
2153.000000	8.316200
2152.000000	8.317800
2151.000000	8.338100
2150.000000	8.361900
2149.000000	8.369400
2148.000000	8.387500
2147.000000	8.408400
2146.000000	8.422500
2145.000000	8.428200
2144.000000	8.429100
2143.000000	8.444500
2142.000000	8.462400
2141.000000	8.458500
2140.000000	8.471000
2139.000000	8.473200
2138.000000	8.495400
2137.000000	8.504200
2136.000000	8.513600
2135.000000	8.512600
2134.000000	8.498000
2133.000000	8.516200
2132.000000	8.532400
2131.000000	8.554900
2130.000000	8.552700
2129.000000	8.539200
2128.000000	8.532600
2127.000000	8.533600
2126.000000	8.536600
2125.000000	8.546300
2124.000000	8.540900
2123.000000	8.528700
2122.000000	8.521500
2121.000000	8.525500
2120.000000	8.519500
2119.000000	8.512200
2118.000000	8.509700
2117.000000	8.491900
2116.000000	8.473400
2115.000000	8.470900
2114.000000	8.464200
2113.000000	8.459400
2112.000000	8.474500
2111.000000	8.468300
2110.000000	8.452200
2109.000000	8.457600
2108.000000	8.433300
2107.000000	8.423000
2106.000000	8.427200
2105.000000	8.414400
2104.000000	8.410300
2103.000000	8.393300
2102.000000	8.387900
2101.000000	8.389300
2100.000000	8.392800
2099.000000	8.394600
2098.000000	8.376000
2097.000000	8.379400
2096.000000	8.370200
2095.000000	8.370600
2094.000000	8.376100
2093.000000	8.368600
2092.000000	8.369000
2091.000000	8.365400
2090.000000	8.371100
2089.000000	8.386100
2088.000000	8.388300
2087.000000	8.376700
2086.000000	8.362000
2085.000000	8.377000
2084.000000	8.391000
2083.000000	8.391700
2082.000000	8.389300
2081.000000	8.386000
2080.000000	8.395400
2079.000000	8.403900
2078.000000	8.414900
2077.000000	8.410500
2076.000000	8.386600
2075.000000	8.379800
2074.000000	8.382800
2073.000000	8.396600
2072.000000	8.400800
2071.000000	8.378500
2070.000000	8.388900
2069.000000	8.389800
2068.000000	8.390900
2067.000000	8.395600
2066.000000	8.397400
2065.000000	8.408300
2064.000000	8.424600
2063.000000	8.427400
2062.000000	8.429400
2061.000000	8.437500
2060.000000	8.457400
2059.000000	8.480200
2058.000000	8.487300
2057.000000	8.513000
2056.000000	8.537100
2055.000000	8.560200
2054.000000	8.592200
2053.000000	8.621600
2052.000000	8.670100
2051.000000	8.713300
2050.000000	8.768000
2049.000000	8.823100
2048.000000	8.867700
2047.000000	8.926200
2046.000000	8.991900
2045.000000	9.077500
2044.000000	9.127000
2043.000000	9.198200
2042.000000	9.270300
2041.000000	9.332100
2040.000000	9.411000
2039.000000	9.467700
2038.000000	9.536800
2037.000000	9.600700
2036.000000	9.653900
2035.000000	9.715400
2034.000000	9.766500
2033.000000	9.804000
2032.000000	9.875000
2031.000000	9.916200
2030.000000	9.970100
2029.000000	10.000500
2028.000000	10.040900
2027.000000	10.069700
2026.000000	10.127700
2025.000000	10.173400
2024.000000	10.205100
2023.000000	10.241600
2022.000000	10.295700
2021.000000	10.304800
2020.000000	10.355100
2019.000000	10.389600
2018.000000	10.415200
2017.000000	10.431000
2016.000000	10.439300
2015.000000	10.475500
2014.000000	10.503300
2013.000000	10.525500
2012.000000	10.515700
2011.000000	10.548300
2010.000000	10.551100
2009.000000	10.552400
2008.000000	10.561100
2007.000000	10.559000
2006.000000	10.568000
2005.000000	10.554300
2004.000000	10.544800
2003.000000	10.524200
2002.000000	10.508800
2001.000000	10.496800
2000.000000	10.482300
1999.000000	10.488500
1998.000000	10.457500
1997.000000	10.436000
1996.000000	10.422200
1995.000000	10.377500
1994.000000	10.351400
1993.000000	10.312100
1992.000000	10.295500
1991.000000	10.250800
1990.000000	10.192600
1989.000000	10.168900
1988.000000	10.137800
1987.000000	10.077800
1986.000000	10.040400
1985.000000	10.017000
1984.000000	9.976300
1983.000000	9.936800
1982.000000	9.874500
1981.000000	9.846000
1980.000000	9.803100
1979.000000	9.751800
1978.000000	9.723900
1977.000000	9.668900
1976.000000	9.629000
1975.000000	9.604800
1974.000000	9.563600
1973.000000	9.532400
1972.000000	9.486600
1971.000000	9.439000
1970.000000	9.419200
1969.000000	9.378800
1968.000000	9.354400
1967.000000	9.318500
1966.000000	9.279600
1965.000000	9.250000
1964.000000	9.220100
1963.000000	9.202300
1962.000000	9.179500
1961.000000	9.129800
1960.000000	9.099100
1959.000000	9.066500
1958.000000	9.032400
1957.000000	9.014400
1956.000000	8.991700
1955.000000	8.965600
1954.000000	8.939300
1953.000000	8.912900
1952.000000	8.898700
1951.000000	8.885300
1950.000000	8.868000
1949.000000	8.854800
1948.000000	8.828600
1947.000000	8.835400
1946.000000	8.817400
1945.000000	8.811000
1944.000000	8.809400
1943.000000	8.798400
1942.000000	8.826400
1941.000000	8.815700
1940.000000	8.855200
1939.000000	8.855700
1938.000000	8.872000
1937.000000	8.899900
1936.000000	8.937000
1935.000000	8.963000
1934.000000	8.979600
1933.000000	9.046000
1932.000000	9.093300
1931.000000	9.126800
1930.000000	9.196800
1929.000000	9.259500
1928.000000	9.350600
1927.000000	9.412500
1926.000000	9.476400
1925.000000	9.533700
1924.000000	9.616700
1923.000000	9.712600
1922.000000	9.841500
1921.000000	9.931300
1920.000000	10.028800
1919.000000	10.116400
1918.000000	10.218800
1917.000000	10.323800
1916.000000	10.439000
1915.000000	10.570000
1914.000000	10.733400
1913.000000	10.889600
1912.000000	11.001500
1911.000000	11.111000
1910.000000	11.235900
1909.000000	11.375100
1908.000000	11.523600
1907.000000	11.686300
1906.000000	11.863100
1905.000000	12.048600
1904.000000	12.197900
1903.000000	12.332000
1902.000000	12.491900
1901.000000	12.650700
1900.000000	12.846100
1899.000000	13.025000
1898.000000	13.182300
1897.000000	13.335500
1896.000000	13.464900
1895.000000	13.631300
1894.000000	13.807500
1893.000000	13.995100
1892.000000	14.171900
1891.000000	14.351800
1890.000000	14.509200
1889.000000	14.701300
1888.000000	14.899600
1887.000000	15.140300
1886.000000	15.409500
1885.000000	15.720400
1884.000000	16.049600
1883.000000	16.414500
1882.000000	16.777500
1881.000000	17.103500
1880.000000	17.431600
1879.000000	17.772500
1878.000000	18.081600
1877.000000	18.366500
1876.000000	18.649500
1875.000000	18.909200
1874.000000	19.134800
1873.000000	19.340100
1872.000000	19.529000
1871.000000	19.682300
1870.000000	19.820000
1869.000000	19.937700
1868.000000	19.984000
1867.000000	20.004900
1866.000000	20.041100
1865.000000	20.051300
1864.000000	20.044600
1863.000000	20.061200
1862.000000	20.073700
1861.000000	20.058600
1860.000000	20.030400
1859.000000	19.997700
1858.000000	19.954900
1857.000000	19.887300
1856.000000	19.826600
1855.000000	19.758200
1854.000000	19.649500
1853.000000	19.557600
1852.000000	19.482500
1851.000000	19.404900
1850.000000	19.332400
1849.000000	19.246900
1848.000000	19.152000
1847.000000	19.052000
1846.000000	18.952100
1845.000000	18.879900
1844.000000	18.833600
1843.000000	18.803200
1842.000000	18.755200
1841.000000	18.680500
1840.000000	18.635700
1839.000000	18.599000
1838.000000	18.522700
1837.000000	18.434400
1836.000000	18.346100
1835.000000	18.251100
1834.000000	18.148400
1833.000000	18.052300
1832.000000	17.966000
1831.000000	17.883100
1830.000000	17.797800
1829.000000	17.698400
1828.000000	17.606000
1827.000000	17.520900
1826.000000	17.437500
1825.000000	17.371200
1824.000000	17.330800
1823.000000	17.318400
1822.000000	17.288100
1821.000000	17.252300
1820.000000	17.215100
1819.000000	17.186800
1818.000000	17.179700
1817.000000	17.159600
1816.000000	17.143600
1815.000000	17.128900
1814.000000	17.121700
1813.000000	17.108600
1812.000000	17.073300
1811.000000	17.020500
1810.000000	16.979000
1809.000000	16.940600
1808.000000	16.901000
1807.000000	16.855700
1806.000000	16.790500
1805.000000	16.737800
1804.000000	16.707500
1803.000000	16.665400
1802.000000	16.624200
1801.000000	16.564600
1800.000000	16.516500
1799.000000	16.495000
1798.000000	16.447600
1797.000000	16.401200
1796.000000	16.362100
1795.000000	16.313800
1794.000000	16.263000
1793.000000	16.201700
1792.000000	16.154100
1791.000000	16.106500
1790.000000	16.040400
1789.000000	15.983400
1788.000000	15.909300
1787.000000	15.838800
1786.000000	15.791500
1785.000000	15.711900
1784.000000	15.632900
1783.000000	15.566800
1782.000000	15.490300
1781.000000	15.419400
1780.000000	15.339400
1779.000000	15.251800
1778.000000	15.176500
1777.000000	15.079300
1776.000000	14.964400
1775.000000	14.852400
1774.000000	14.753000
1773.000000	14.632000
1772.000000	14.521500
1771.000000	14.397900
1770.000000	14.293500
1769.000000	14.205500
1768.000000	14.112400
1767.000000	14.034100
1766.000000	13.981600
1765.000000	13.947700
1764.000000	13.951100
1763.000000	13.972300
1762.000000	14.027100
1761.000000	14.090500
1760.000000	14.152500
1759.000000	14.226400
1758.000000	14.288400
1757.000000	14.335900
1756.000000	14.370100
1755.000000	14.389000
1754.000000	14.367800
1753.000000	14.371800
1752.000000	14.362700
1751.000000	14.308000
1750.000000	14.262200
1749.000000	14.204700
1748.000000	14.137500
1747.000000	14.011800
1746.000000	13.902500
1745.000000	13.777600
1744.000000	13.624100
1743.000000	13.442300
1742.000000	13.260700
1741.000000	13.070100
1740.000000	12.881900
1739.000000	12.706200
1738.000000	12.579400
1737.000000	12.472500
1736.000000	12.417100
1735.000000	12.379500
1734.000000	12.373400
1733.000000	12.435400
1732.000000	12.500100
1731.000000	12.588500
1730.000000	12.687000
1729.000000	12.787100
1728.000000	12.876100
1727.000000	12.946500
1726.000000	12.983500
1725.000000	13.062600
1724.000000	13.063300
1723.000000	13.070700
1722.000000	13.073300
1721.000000	13.049600
1720.000000	13.063000
1719.000000	13.047400
1718.000000	13.041400
1717.000000	13.086300
1716.000000	13.096200
1715.000000	13.121900
1714.000000	13.154600
1713.000000	13.204100
1712.000000	13.175200
1711.000000	13.183600
1710.000000	13.173300
1709.000000	13.156600
1708.000000	13.119900
1707.000000	13.063300
1706.000000	13.040400
1705.000000	12.971000
1704.000000	12.908500
1703.000000	12.846000
1702.000000	12.702000
1701.000000	12.588300
1700.000000	12.458400
1699.000000	12.333700
1698.000000	12.226600
1697.000000	12.185400
1696.000000	12.164000
1695.000000	12.210400
1694.000000	12.291600
1693.000000	12.418500
1692.000000	12.554000
1691.000000	12.663200
1690.000000	12.764400
1689.000000	12.805600
1688.000000	12.805700
1687.000000	12.799500
1686.000000	12.782900
1685.000000	12.842100
1684.000000	12.981700
1683.000000	13.256000
1682.000000	13.606400
1681.000000	14.066300
1680.000000	14.544800
1679.000000	15.021200
1678.000000	15.505700
1677.000000	15.928100
1676.000000	16.307600
1675.000000	16.618800
1674.000000	16.888600
1673.000000	17.141000
1672.000000	17.353300
1671.000000	17.547100
1670.000000	17.699200
1669.000000	17.818900
1668.000000	17.935900
1667.000000	18.030000
1666.000000	18.140100
1665.000000	18.199500
1664.000000	18.261900
1663.000000	18.314600
1662.000000	18.367800
1661.000000	18.406800
1660.000000	18.415700
1659.000000	18.443100
1658.000000	18.461400
1657.000000	18.467600
1656.000000	18.473900
1655.000000	18.481500
1654.000000	18.470600
1653.000000	18.445600
1652.000000	18.426500
1651.000000	18.405100
1650.000000	18.363500
1649.000000	18.324600
1648.000000	18.300000
1647.000000	18.263900
1646.000000	18.213700
1645.000000	18.168200
1644.000000	18.123400
1643.000000	18.069000
1642.000000	18.034500
1641.000000	17.982700
1640.000000	17.923100
1639.000000	17.885000
1638.000000	17.801500
1637.000000	17.751500
1636.000000	17.688500
1635.000000	17.615300
1634.000000	17.567200
1633.000000	17.512100
1632.000000	17.440300
1631.000000	17.367000
1630.000000	17.316000
1629.000000	17.243100
1628.000000	17.167400
1627.000000	17.082800
1626.000000	17.016700
1625.000000	16.946100
1624.000000	16.887400
1623.000000	16.827100
1622.000000	16.770200
1621.000000	16.697600
1620.000000	16.629400
1619.000000	16.551100
1618.000000	16.492300
1617.000000	16.424600
1616.000000	16.366700
1615.000000	16.304100
1614.000000	16.237000
1613.000000	16.191800
1612.000000	16.128700
1611.000000	16.071300
1610.000000	16.019400
1609.000000	15.969300
1608.000000	15.912900
1607.000000	15.844800
1606.000000	15.789200
1605.000000	15.749300
1604.000000	15.696900
1603.000000	15.645200
1602.000000	15.595500
1601.000000	15.537600
1600.000000	15.494100
