PE UV       SUBTECH     SPECTRUM    ASCII       PEDS        4.00        
   -1
CICIMAUCR0108-3.Sample.ASC
24/04/22
10:06:33.00
24/04/22
10:06:33.00
Vinicio Soto Monge
C. resplendens
250,000000
1
Lambda 1050
1050L1511233
PerkinElmer UV WinLab 6.3.2.0749 / 2.02.05 Lambda 900 UV/VIS/NIR, Aug  7 2015 09:38:08

0
0
3350/servo 860,8/2
0
0
UV/VIS
1
1
1
DoubleDePol,CommonBeamDepol,RBeamAtt,SBeamAtt,60mm sphere, WB InGaAs Detector
0
0
0
0
Program
Program
3350/servo 860,8/2
3350/0,2 860,8/0,2
3350/0,2 860,8/0,2
0
15.00
 
 
 
0
 
860,8
319,2
860,8
Front
100
on
S:100 R:100
0
0
0
0
 
0
 
 
 
0
 
 
0
0
0
0
0
 
 
 
 
0
0


0
0
#HDR
-1
-1
#GR
nm
%R
1.0
0.0
2500,000000
-1,000000
2251
8
82,967800
5,292400
#DATA
2500.000000	17.302924
2499.000000	17.147450
2498.000000	17.214761
2497.000000	17.192088
2496.000000	17.105140
2495.000000	17.080139
2494.000000	17.043902
2493.000000	17.065665
2492.000000	17.078924
2491.000000	17.012119
2490.000000	17.031553
2489.000000	17.048761
2488.000000	17.109695
2487.000000	16.965963
2486.000000	17.030946
2485.000000	17.084390
2484.000000	17.043902
2483.000000	17.122246
2482.000000	17.133482
2481.000000	17.043497
2480.000000	17.105849
2479.000000	17.117793
2478.000000	17.175994
2477.000000	17.147349
2476.000000	17.194315
2475.000000	17.275898
2474.000000	17.238548
2473.000000	17.318815
2472.000000	17.342906
2471.000000	17.383191
2470.000000	17.409306
2469.000000	17.456069
2468.000000	17.509109
2467.000000	17.559010
2466.000000	17.622981
2465.000000	17.679765
2464.000000	17.755781
2463.000000	17.798800
2462.000000	17.886456
2461.000000	17.919758
2460.000000	18.012880
2459.000000	18.103775
2458.000000	18.197201
2457.000000	18.270586
2456.000000	18.359052
2455.000000	18.450656
2454.000000	18.539527
2453.000000	18.644896
2452.000000	18.771725
2451.000000	18.866163
2450.000000	18.978416
2449.000000	19.078219
2448.000000	19.195026
2447.000000	19.315782
2446.000000	19.450100
2445.000000	19.563365
2444.000000	19.675112
2443.000000	19.799916
2442.000000	19.918951
2441.000000	20.028673
2440.000000	20.155906
2439.000000	20.257531
2438.000000	20.373529
2437.000000	20.495499
2436.000000	20.621619
2435.000000	20.729114
2434.000000	20.846529
2433.000000	20.961717
2432.000000	21.054637
2431.000000	21.164562
2430.000000	21.256166
2429.000000	21.363256
2428.000000	21.466501
2427.000000	21.557497
2426.000000	21.648798
2425.000000	21.732102
2424.000000	21.805182
2423.000000	21.892029
2422.000000	21.952660
2421.000000	22.003067
2420.000000	22.075338
2419.000000	22.158338
2418.000000	22.223625
2417.000000	22.278891
2416.000000	22.343571
2415.000000	22.402278
2414.000000	22.452179
2413.000000	22.511798
2412.000000	22.555525
2411.000000	22.607754
2410.000000	22.633160
2409.000000	22.670814
2408.000000	22.699966
2407.000000	22.730129
2406.000000	22.764848
2405.000000	22.797440
2404.000000	22.827199
2403.000000	22.851593
2402.000000	22.869104
2401.000000	22.882667
2400.000000	22.907770
2399.000000	22.947144
2398.000000	22.962024
2397.000000	22.969413
2396.000000	22.985102
2395.000000	22.999475
2394.000000	23.006662
2393.000000	23.013646
2392.000000	23.031056
2391.000000	23.044518
2390.000000	23.034193
2389.000000	23.043911
2388.000000	23.054539
2387.000000	23.047858
2386.000000	23.038748
2385.000000	23.044822
2384.000000	23.047352
2383.000000	23.020124
2382.000000	23.013342
2381.000000	23.001297
2380.000000	22.974879
2379.000000	22.949472
2378.000000	22.929633
2377.000000	22.905442
2376.000000	22.885906
2375.000000	22.868901
2374.000000	22.839953
2373.000000	22.813737
2372.000000	22.796124
2371.000000	22.773856
2370.000000	22.741364
2369.000000	22.730939
2368.000000	22.727093
2367.000000	22.707658
2366.000000	22.679924
2365.000000	22.664741
2364.000000	22.650975
2363.000000	22.626986
2362.000000	22.617471
2361.000000	22.601884
2360.000000	22.568785
2359.000000	22.541253
2358.000000	22.528702
2357.000000	22.507344
2356.000000	22.475156
2355.000000	22.455925
2354.000000	22.436389
2353.000000	22.422927
2352.000000	22.385779
2351.000000	22.364624
2350.000000	22.354907
2349.000000	22.335675
2348.000000	22.303690
2347.000000	22.291847
2346.000000	22.291037
2345.000000	22.288811
2344.000000	22.272615
2343.000000	22.249436
2342.000000	22.251865
2341.000000	22.231824
2340.000000	22.216742
2339.000000	22.195486
2338.000000	22.195385
2337.000000	22.198016
2336.000000	22.194372
2335.000000	22.172711
2334.000000	22.169270
2333.000000	22.175647
2332.000000	22.167549
2331.000000	22.172610
2330.000000	22.189413
2329.000000	22.193563
2328.000000	22.196296
2327.000000	22.210163
2326.000000	22.203786
2325.000000	22.211884
2324.000000	22.201357
2323.000000	22.182429
2322.000000	22.181720
2321.000000	22.161678
2320.000000	22.143661
2319.000000	22.112789
2318.000000	22.062685
2317.000000	22.016124
2316.000000	21.958733
2315.000000	21.912981
2314.000000	21.866117
2313.000000	21.808624
2312.000000	21.744450
2311.000000	21.693942
2310.000000	21.641611
2309.000000	21.577134
2308.000000	21.520147
2307.000000	21.483404
2306.000000	21.443119
2305.000000	21.401416
2304.000000	21.369633
2303.000000	21.362649
2302.000000	21.359714
2301.000000	21.341595
2300.000000	21.353033
2299.000000	21.340583
2298.000000	21.346353
2297.000000	21.355260
2296.000000	21.373682
2295.000000	21.376617
2294.000000	21.406680
2293.000000	21.440285
2292.000000	21.458909
2291.000000	21.481886
2290.000000	21.502636
2289.000000	21.538772
2288.000000	21.583713
2287.000000	21.596467
2286.000000	21.621063
2285.000000	21.662462
2284.000000	21.692727
2283.000000	21.710845
2282.000000	21.749410
2281.000000	21.775525
2280.000000	21.790100
2279.000000	21.822390
2278.000000	21.837573
2277.000000	21.852047
2276.000000	21.884032
2275.000000	21.897393
2274.000000	21.904378
2273.000000	21.930290
2272.000000	21.953469
2271.000000	21.974523
2270.000000	22.004788
2269.000000	22.071492
2268.000000	22.116838
2267.000000	22.189514
2266.000000	22.266542
2265.000000	22.374847
2264.000000	22.446410
2263.000000	22.560080
2262.000000	22.703103
2261.000000	22.830742
2260.000000	22.992187
2259.000000	23.161730
2258.000000	23.341294
2257.000000	23.521972
2256.000000	23.681089
2255.000000	23.886869
2254.000000	24.097609
2253.000000	24.283145
2252.000000	24.466859
2251.000000	24.670716
2250.000000	24.844814
2249.000000	24.991988
2248.000000	25.157988
2247.000000	25.320851
2246.000000	25.455068
2245.000000	25.590500
2244.000000	25.701033
2243.000000	25.794560
2242.000000	25.885354
2241.000000	25.988699
2240.000000	26.059958
2239.000000	26.114414
2238.000000	26.163708
2237.000000	26.195087
2236.000000	26.231424
2235.000000	26.243875
2234.000000	26.237498
2233.000000	26.225554
2232.000000	26.203387
2231.000000	26.198629
2230.000000	26.165125
2229.000000	26.139011
2228.000000	26.078785
2227.000000	26.005603
2226.000000	25.939102
2225.000000	25.908128
2224.000000	25.830088
2223.000000	25.741520
2222.000000	25.662771
2221.000000	25.560135
2220.000000	25.466405
2219.000000	25.383000
2218.000000	25.284918
2217.000000	25.206068
2216.000000	25.117095
2215.000000	25.015977
2214.000000	24.941783
2213.000000	24.858782
2212.000000	24.758777
2211.000000	24.699159
2210.000000	24.622535
2209.000000	24.554111
2208.000000	24.482852
2207.000000	24.447425
2206.000000	24.389628
2205.000000	24.326163
2204.000000	24.263205
2203.000000	24.227474
2202.000000	24.161681
2201.000000	24.114614
2200.000000	24.086171
2199.000000	24.064915
2198.000000	24.000236
2197.000000	23.968351
2196.000000	23.918045
2195.000000	23.891121
2194.000000	23.878671
2193.000000	23.830186
2192.000000	23.826441
2191.000000	23.815206
2190.000000	23.773301
2189.000000	23.740708
2188.000000	23.714796
2187.000000	23.701536
2186.000000	23.688580
2185.000000	23.651128
2184.000000	23.621572
2183.000000	23.607908
2182.000000	23.575922
2181.000000	23.560334
2180.000000	23.539179
2179.000000	23.537054
2178.000000	23.522377
2177.000000	23.506384
2176.000000	23.493529
2175.000000	23.493732
2174.000000	23.494238
2173.000000	23.496768
2172.000000	23.526223
2171.000000	23.540191
2170.000000	23.563472
2169.000000	23.595457
2168.000000	23.623192
2167.000000	23.668741
2166.000000	23.684733
2165.000000	23.741012
2164.000000	23.783828
2163.000000	23.849013
2162.000000	23.918551
2161.000000	23.970578
2160.000000	24.045177
2159.000000	24.126153
2158.000000	24.209659
2157.000000	24.314017
2156.000000	24.420500
2155.000000	24.526882
2154.000000	24.630228
2153.000000	24.735598
2152.000000	24.855948
2151.000000	24.968505
2150.000000	25.086426
2149.000000	25.211027
2148.000000	25.328847
2147.000000	25.455574
2146.000000	25.568030
2145.000000	25.685343
2144.000000	25.788385
2143.000000	25.918756
2142.000000	26.056820
2141.000000	26.153586
2140.000000	26.247923
2139.000000	26.357646
2138.000000	26.463926
2137.000000	26.558567
2136.000000	26.649867
2135.000000	26.752504
2134.000000	26.841375
2133.000000	26.917391
2132.000000	26.997355
2131.000000	27.066994
2130.000000	27.132990
2129.000000	27.209411
2128.000000	27.284819
2127.000000	27.330065
2126.000000	27.380168
2125.000000	27.448188
2124.000000	27.498596
2123.000000	27.533314
2122.000000	27.572486
2121.000000	27.612367
2120.000000	27.641113
2119.000000	27.656195
2118.000000	27.677856
2117.000000	27.700529
2116.000000	27.706198
2115.000000	27.721887
2114.000000	27.733932
2113.000000	27.745167
2112.000000	27.750127
2111.000000	27.745977
2110.000000	27.744459
2109.000000	27.746179
2108.000000	27.748103
2107.000000	27.734033
2106.000000	27.717230
2105.000000	27.718749
2104.000000	27.710752
2103.000000	27.697897
2102.000000	27.695165
2101.000000	27.690306
2100.000000	27.681601
2099.000000	27.670568
2098.000000	27.663786
2097.000000	27.668544
2096.000000	27.668847
2095.000000	27.663786
2094.000000	27.665507
2093.000000	27.680893
2092.000000	27.702958
2091.000000	27.716016
2090.000000	27.726644
2089.000000	27.723506
2088.000000	27.716016
2087.000000	27.712271
2086.000000	27.692330
2085.000000	27.677147
2084.000000	27.652753
2083.000000	27.623298
2082.000000	27.576332
2081.000000	27.534529
2080.000000	27.480275
2079.000000	27.419239
2078.000000	27.357394
2077.000000	27.263867
2076.000000	27.168417
2075.000000	27.070638
2074.000000	26.978832
2073.000000	26.868502
2072.000000	26.735904
2071.000000	26.625170
2070.000000	26.489738
2069.000000	26.361694
2068.000000	26.233955
2067.000000	26.091539
2066.000000	25.967747
2065.000000	25.824318
2064.000000	25.702146
2063.000000	25.578961
2062.000000	25.458611
2061.000000	25.351723
2060.000000	25.241292
2059.000000	25.145639
2058.000000	25.065777
2057.000000	25.003729
2056.000000	24.976197
2055.000000	24.951297
2054.000000	24.955650
2053.000000	24.987433
2052.000000	25.024074
2051.000000	25.099888
2050.000000	25.202525
2049.000000	25.299392
2048.000000	25.426119
2047.000000	25.571977
2046.000000	25.731500
2045.000000	25.899423
2044.000000	26.073420
2043.000000	26.238409
2042.000000	26.403701
2041.000000	26.597031
2040.000000	26.765055
2039.000000	26.919618
2038.000000	27.093109
2037.000000	27.242408
2036.000000	27.387760
2035.000000	27.540804
2034.000000	27.672593
2033.000000	27.796384
2032.000000	27.927059
2031.000000	28.044272
2030.000000	28.139317
2029.000000	28.235678
2028.000000	28.350259
2027.000000	28.452086
2026.000000	28.547436
2025.000000	28.624160
2024.000000	28.695925
2023.000000	28.779634
2022.000000	28.834596
2021.000000	28.903831
2020.000000	28.964259
2019.000000	29.014363
2018.000000	29.070641
2017.000000	29.094529
2016.000000	29.137345
2015.000000	29.172266
2014.000000	29.190485
2013.000000	29.229354
2012.000000	29.224596
2011.000000	29.229151
2010.000000	29.233200
2009.000000	29.234819
2008.000000	29.217511
2007.000000	29.189979
2006.000000	29.174290
2005.000000	29.141900
2004.000000	29.104954
2003.000000	29.059304
2002.000000	29.002216
2001.000000	28.939156
2000.000000	28.873768
1999.000000	28.810000
1998.000000	28.728619
1997.000000	28.658879
1996.000000	28.589948
1995.000000	28.483262
1994.000000	28.389836
1993.000000	28.321817
1992.000000	28.227581
1991.000000	28.123122
1990.000000	28.003278
1989.000000	27.906107
1988.000000	27.817033
1987.000000	27.692938
1986.000000	27.607306
1985.000000	27.488069
1984.000000	27.377334
1983.000000	27.273483
1982.000000	27.153436
1981.000000	27.058289
1980.000000	26.932878
1979.000000	26.830747
1978.000000	26.715357
1977.000000	26.615048
1976.000000	26.512208
1975.000000	26.422831
1974.000000	26.307845
1973.000000	26.218063
1972.000000	26.107430
1971.000000	26.010462
1970.000000	25.922603
1969.000000	25.827355
1968.000000	25.715406
1967.000000	25.634531
1966.000000	25.554264
1965.000000	25.456587
1964.000000	25.367108
1963.000000	25.255868
1962.000000	25.156166
1961.000000	25.023467
1960.000000	24.951803
1959.000000	24.849774
1958.000000	24.743797
1957.000000	24.639844
1956.000000	24.530425
1955.000000	24.447222
1954.000000	24.333957
1953.000000	24.219478
1952.000000	24.131821
1951.000000	24.037181
1950.000000	23.963594
1949.000000	23.863892
1948.000000	23.797594
1947.000000	23.693641
1946.000000	23.632504
1945.000000	23.575112
1944.000000	23.515190
1943.000000	23.481788
1942.000000	23.432190
1941.000000	23.399800
1940.000000	23.384515
1939.000000	23.352834
1938.000000	23.339270
1937.000000	23.329047
1936.000000	23.310827
1935.000000	23.343319
1934.000000	23.366296
1933.000000	23.430874
1932.000000	23.503752
1931.000000	23.575315
1930.000000	23.638577
1929.000000	23.726740
1928.000000	23.826644
1927.000000	23.925738
1926.000000	24.045481
1925.000000	24.184456
1924.000000	24.333350
1923.000000	24.505120
1922.000000	24.702904
1921.000000	24.912226
1920.000000	25.110516
1919.000000	25.285728
1918.000000	25.524708
1917.000000	25.776036
1916.000000	26.038601
1915.000000	26.323737
1914.000000	26.646527
1913.000000	26.979237
1912.000000	27.308606
1911.000000	27.634838
1910.000000	27.962587
1909.000000	28.326068
1908.000000	28.735704
1907.000000	29.191194
1906.000000	29.689094
1905.000000	30.187399
1904.000000	30.660298
1903.000000	31.167511
1902.000000	31.664703
1901.000000	32.234874
1900.000000	32.801300
1899.000000	33.390096
1898.000000	33.984763
1897.000000	34.515155
1896.000000	35.040891
1895.000000	35.598005
1894.000000	36.175970
1893.000000	36.782378
1892.000000	37.424719
1891.000000	38.019588
1890.000000	38.535708
1889.000000	39.072983
1888.000000	39.633336
1887.000000	40.150772
1886.000000	40.638955
1885.000000	41.117117
1884.000000	41.590016
1883.000000	41.998034
1882.000000	42.375179
1881.000000	42.755867
1880.000000	43.093536
1879.000000	43.447299
1878.000000	43.768065
1877.000000	44.081037
1876.000000	44.373764
1875.000000	44.652828
1874.000000	44.930777
1873.000000	45.171883
1872.000000	45.384343
1871.000000	45.557733
1870.000000	45.672820
1869.000000	45.815034
1868.000000	45.906334
1867.000000	45.963928
1866.000000	46.020308
1865.000000	46.105636
1864.000000	46.209791
1863.000000	46.332368
1862.000000	46.440167
1861.000000	46.535719
1860.000000	46.607180
1859.000000	46.652932
1858.000000	46.700404
1857.000000	46.748888
1856.000000	46.792716
1855.000000	46.834621
1854.000000	46.834317
1853.000000	46.823791
1852.000000	46.855675
1851.000000	46.920051
1850.000000	46.991006
1849.000000	47.024105
1848.000000	46.981390
1847.000000	46.865291
1846.000000	46.799802
1845.000000	46.819438
1844.000000	46.849602
1843.000000	46.923492
1842.000000	46.929262
1841.000000	46.854865
1840.000000	46.815693
1839.000000	46.782189
1838.000000	46.748787
1837.000000	46.701011
1836.000000	46.614468
1835.000000	46.521245
1834.000000	46.472457
1833.000000	46.456363
1832.000000	46.450391
1831.000000	46.431665
1830.000000	46.381865
1829.000000	46.335304
1828.000000	46.287224
1827.000000	46.240157
1826.000000	46.204325
1825.000000	46.185701
1824.000000	46.210297
1823.000000	46.308784
1822.000000	46.345122
1821.000000	46.297346
1820.000000	46.244611
1819.000000	46.205439
1818.000000	46.198859
1817.000000	46.204528
1816.000000	46.198050
1815.000000	46.173453
1814.000000	46.162319
1813.000000	46.143593
1812.000000	46.136002
1811.000000	46.091364
1810.000000	46.040248
1809.000000	46.036503
1808.000000	46.030632
1807.000000	46.010388
1806.000000	45.954515
1805.000000	45.909877
1804.000000	45.913824
1803.000000	45.921821
1802.000000	45.898743
1801.000000	45.856534
1800.000000	45.796207
1799.000000	45.782340
1798.000000	45.778999
1797.000000	45.748836
1796.000000	45.723835
1795.000000	45.713004
1794.000000	45.699339
1793.000000	45.671504
1792.000000	45.649337
1791.000000	45.637697
1790.000000	45.632332
1789.000000	45.620388
1788.000000	45.619477
1787.000000	45.625145
1786.000000	45.640531
1785.000000	45.616744
1784.000000	45.593970
1783.000000	45.569474
1782.000000	45.565830
1781.000000	45.550951
1780.000000	45.511982
1779.000000	45.474834
1778.000000	45.435965
1777.000000	45.381712
1776.000000	45.326344
1775.000000	45.263082
1774.000000	45.216521
1773.000000	45.172085
1772.000000	45.107305
1771.000000	45.058112
1770.000000	45.001024
1769.000000	44.944948
1768.000000	44.881483
1767.000000	44.834922
1766.000000	44.791701
1765.000000	44.755363
1764.000000	44.737042
1763.000000	44.713256
1762.000000	44.696656
1761.000000	44.670642
1760.000000	44.668719
1759.000000	44.666189
1758.000000	44.662443
1757.000000	44.642706
1756.000000	44.634608
1755.000000	44.618919
1754.000000	44.613453
1753.000000	44.604343
1752.000000	44.584504
1751.000000	44.535615
1750.000000	44.505856
1749.000000	44.444112
1748.000000	44.392085
1747.000000	44.323863
1746.000000	44.238231
1745.000000	44.169908
1744.000000	44.085187
1743.000000	44.002490
1742.000000	43.897120
1741.000000	43.788916
1740.000000	43.686482
1739.000000	43.609352
1738.000000	43.535057
1737.000000	43.471693
1736.000000	43.418958
1735.000000	43.368247
1734.000000	43.318851
1733.000000	43.270671
1732.000000	43.251540
1731.000000	43.217935
1730.000000	43.169350
1729.000000	43.153762
1728.000000	43.135745
1727.000000	43.105176
1726.000000	43.091613
1725.000000	43.076733
1724.000000	43.117424
1723.000000	43.191618
1722.000000	43.292838
1721.000000	43.431711
1720.000000	43.620284
1719.000000	43.809160
1718.000000	44.027694
1717.000000	44.248758
1716.000000	44.459903
1715.000000	44.684003
1714.000000	44.874398
1713.000000	45.040702
1712.000000	45.193443
1711.000000	45.325737
1710.000000	45.430803
1709.000000	45.522002
1708.000000	45.623425
1707.000000	45.694278
1706.000000	45.724341
1705.000000	45.767157
1704.000000	45.788413
1703.000000	45.781226
1702.000000	45.804811
1701.000000	45.788615
1700.000000	45.771914
1699.000000	45.757136
1698.000000	45.746407
1697.000000	45.713207
1696.000000	45.690635
1695.000000	45.642960
1694.000000	45.562693
1693.000000	45.525545
1692.000000	45.457728
1691.000000	45.388898
1690.000000	45.358431
1689.000000	45.349726
1688.000000	45.394567
1687.000000	45.484551
1686.000000	45.625247
1685.000000	45.814022
1684.000000	46.039843
1683.000000	46.270827
1682.000000	46.524585
1681.000000	46.780064
1680.000000	47.000014
1679.000000	47.230897
1678.000000	47.454694
1677.000000	47.639420
1676.000000	47.851881
1675.000000	48.035392
1674.000000	48.190866
1673.000000	48.387131
1672.000000	48.564873
1671.000000	48.745044
1670.000000	48.939386
1669.000000	49.114800
1668.000000	49.284951
1667.000000	49.449939
1666.000000	49.614017
1665.000000	49.762101
1664.000000	49.910287
1663.000000	50.057056
1662.000000	50.162831
1661.000000	50.267593
1660.000000	50.381567
1659.000000	50.477726
1658.000000	50.558600
1657.000000	50.648888
1656.000000	50.697069
1655.000000	50.732091
1654.000000	50.783005
1653.000000	50.827744
1652.000000	50.857401
1651.000000	50.858515
1650.000000	50.871369
1649.000000	50.890804
1648.000000	50.879163
1647.000000	50.881289
1646.000000	50.865195
1645.000000	50.862260
1644.000000	50.858616
1643.000000	50.844546
1642.000000	50.832805
1641.000000	50.843635
1640.000000	50.831489
1639.000000	50.794746
1638.000000	50.791406
1637.000000	50.796366
1636.000000	50.757092
1635.000000	50.729560
1634.000000	50.712758
1633.000000	50.678951
1632.000000	50.647370
1631.000000	50.606680
1630.000000	50.554855
1629.000000	50.520440
1628.000000	50.476713
1627.000000	50.444222
1626.000000	50.395839
1625.000000	50.343609
1624.000000	50.314255
