PE UV       SUBTECH     SPECTRUM    ASCII       PEDS        4.00        
   -1
CICIMAUCR0008-1.Sample.ASC
24/04/12
13:52:45.00
24/04/12
13:52:45.00
Vinicio Soto Monge
C. kalinini
250,000000
1
Lambda 1050
1050L1511233
PerkinElmer UV WinLab 6.3.2.0749 / 2.02.05 Lambda 900 UV/VIS/NIR, Aug  7 2015 09:38:08

0
0
3350/servo 860,8/2
0
0
UV/VIS
1
1
1
DoubleDePol,CommonBeamDepol,RBeamAtt,SBeamAtt,60mm sphere, WB InGaAs Detector
0
0
0
0
Program
Program
3350/servo 860,8/2
3350/0,2 860,8/0,2
3350/0,2 860,8/0,2
0
15.00
 
 
 
0
 
860,8
319,2
860,8
Front
100
on
S:100 R:100
0
0
0
0
 
0
 
 
 
0
 
 
0
0
0
0
0
 
 
 
 
0
0


0
0
#HDR
-1
-1
#GR
nm
%R
1.0
0.0
2500,000000
-1,000000
2251
8
60,497900
3,778300
#DATA
2500.000000	6.188068
2499.000000	6.110644
2498.000000	6.282624
2497.000000	6.208323
2496.000000	6.100800
2495.000000	6.107331
2494.000000	6.073257
2493.000000	6.107994
2492.000000	5.987598
2491.000000	6.063886
2490.000000	6.007948
2489.000000	6.091619
2488.000000	6.047796
2487.000000	5.973684
2486.000000	5.946046
2485.000000	6.010503
2484.000000	6.023092
2483.000000	6.015236
2482.000000	5.971413
2481.000000	6.031137
2480.000000	6.017602
2479.000000	5.982960
2478.000000	6.030759
2477.000000	5.989207
2476.000000	6.038993
2475.000000	6.028298
2474.000000	6.050446
2473.000000	6.035113
2472.000000	6.024512
2471.000000	6.067483
2470.000000	6.093133
2469.000000	6.072784
2468.000000	6.099191
2467.000000	6.094269
2466.000000	6.160714
2465.000000	6.142446
2464.000000	6.180117
2463.000000	6.214192
2462.000000	6.236908
2461.000000	6.289533
2460.000000	6.300892
2459.000000	6.344904
2458.000000	6.370649
2457.000000	6.433876
2456.000000	6.467287
2455.000000	6.510921
2454.000000	6.521522
2453.000000	6.556354
2452.000000	6.599987
2451.000000	6.616362
2450.000000	6.659807
2449.000000	6.701737
2448.000000	6.702683
2447.000000	6.743005
2446.000000	6.777457
2445.000000	6.823079
2444.000000	6.867186
2443.000000	6.897758
2442.000000	6.933631
2441.000000	6.973857
2440.000000	7.006796
2439.000000	7.045035
2438.000000	7.094916
2437.000000	7.109586
2436.000000	7.138833
2435.000000	7.167418
2434.000000	7.216542
2433.000000	7.233579
2432.000000	7.261879
2431.000000	7.317250
2430.000000	7.357192
2429.000000	7.384452
2428.000000	7.399501
2427.000000	7.414172
2426.000000	7.385682
2425.000000	7.361073
2424.000000	7.369686
2423.000000	7.398176
2422.000000	7.423921
2421.000000	7.437929
2420.000000	7.474654
2419.000000	7.451275
2418.000000	7.437267
2417.000000	7.473707
2416.000000	7.478061
2415.000000	7.463958
2414.000000	7.483835
2413.000000	7.469353
2412.000000	7.487810
2411.000000	7.479197
2410.000000	7.459226
2409.000000	7.448246
2408.000000	7.470205
2407.000000	7.483930
2406.000000	7.462633
2405.000000	7.482794
2404.000000	7.474843
2403.000000	7.462917
2402.000000	7.476736
2401.000000	7.468218
2400.000000	7.458658
2399.000000	7.443892
2398.000000	7.439728
2397.000000	7.446921
2396.000000	7.454872
2395.000000	7.453073
2394.000000	7.434143
2393.000000	7.426666
2392.000000	7.408398
2391.000000	7.411238
2390.000000	7.416444
2389.000000	7.407925
2388.000000	7.397608
2387.000000	7.399407
2386.000000	7.391456
2385.000000	7.372620
2384.000000	7.353880
2383.000000	7.347538
2382.000000	7.326715
2381.000000	7.320373
2380.000000	7.317534
2379.000000	7.302200
2378.000000	7.295575
2377.000000	7.272007
2376.000000	7.249575
2375.000000	7.245126
2374.000000	7.230739
2373.000000	7.203291
2372.000000	7.199315
2371.000000	7.194393
2370.000000	7.167702
2369.000000	7.136656
2368.000000	7.123500
2367.000000	7.087627
2366.000000	7.051092
2365.000000	7.032825
2364.000000	7.021467
2363.000000	6.989096
2362.000000	6.957010
2361.000000	6.943096
2360.000000	6.932779
2359.000000	6.895297
2358.000000	6.855639
2357.000000	6.853935
2356.000000	6.852989
2355.000000	6.837466
2354.000000	6.808124
2353.000000	6.786449
2352.000000	6.775470
2351.000000	6.750293
2350.000000	6.744803
2349.000000	6.745182
2348.000000	6.743383
2347.000000	6.718206
2346.000000	6.718301
2345.000000	6.727387
2344.000000	6.704482
2343.000000	6.701642
2342.000000	6.708457
2341.000000	6.705712
2340.000000	6.697194
2339.000000	6.683280
2338.000000	6.651572
2337.000000	6.640971
2336.000000	6.619012
2335.000000	6.586831
2334.000000	6.592226
2333.000000	6.584654
2332.000000	6.547835
2331.000000	6.489341
2330.000000	6.486880
2329.000000	6.478929
2328.000000	6.455267
2327.000000	6.436526
2326.000000	6.420814
2325.000000	6.368283
2324.000000	6.329949
2323.000000	6.311019
2322.000000	6.308369
2321.000000	6.293887
2320.000000	6.277134
2319.000000	6.241356
2318.000000	6.189961
2317.000000	6.157212
2316.000000	6.144055
2315.000000	6.124747
2314.000000	6.110928
2313.000000	6.064738
2312.000000	6.043347
2311.000000	6.026405
2310.000000	5.987598
2309.000000	5.988639
2308.000000	5.979647
2307.000000	5.982108
2306.000000	5.951347
2305.000000	5.965355
2304.000000	5.981067
2303.000000	5.994129
2302.000000	5.994413
2301.000000	5.998010
2300.000000	6.011071
2299.000000	6.009746
2298.000000	6.011071
2297.000000	6.028487
2296.000000	6.063508
2295.000000	6.067010
2294.000000	6.082154
2293.000000	6.100232
2292.000000	6.084331
2291.000000	6.077232
2290.000000	6.082817
2289.000000	6.044294
2288.000000	6.030853
2287.000000	6.046376
2286.000000	6.048080
2285.000000	6.022808
2284.000000	5.987693
2283.000000	5.980594
2282.000000	5.978228
2281.000000	5.921437
2280.000000	5.886227
2279.000000	5.888309
2278.000000	5.869285
2277.000000	5.825745
2276.000000	5.810601
2275.000000	5.812873
2274.000000	5.791671
2273.000000	5.753811
2272.000000	5.751255
2271.000000	5.752581
2270.000000	5.769239
2269.000000	5.770659
2268.000000	5.753811
2267.000000	5.778231
2266.000000	5.782963
2265.000000	5.813914
2264.000000	5.832276
2263.000000	5.892758
2262.000000	5.951441
2261.000000	6.022713
2260.000000	6.052339
2259.000000	6.125125
2258.000000	6.205862
2257.000000	6.275714
2256.000000	6.353328
2255.000000	6.422612
2254.000000	6.492654
2253.000000	6.581247
2252.000000	6.656021
2251.000000	6.718395
2250.000000	6.786638
2249.000000	6.838602
2248.000000	6.921232
2247.000000	6.977265
2246.000000	7.007080
2245.000000	7.082800
2244.000000	7.159846
2243.000000	7.227710
2242.000000	7.267085
2241.000000	7.312328
2240.000000	7.344415
2239.000000	7.391929
2238.000000	7.427423
2237.000000	7.465378
2236.000000	7.515070
2235.000000	7.521979
2234.000000	7.554160
2233.000000	7.598930
2232.000000	7.628461
2231.000000	7.643321
2230.000000	7.682223
2229.000000	7.671527
2228.000000	7.694527
2227.000000	7.708346
2226.000000	7.718190
2225.000000	7.759174
2224.000000	7.756334
2223.000000	7.734659
2222.000000	7.737309
2221.000000	7.756334
2220.000000	7.732103
2219.000000	7.765799
2218.000000	7.719610
2217.000000	7.752264
2216.000000	7.744692
2215.000000	7.753211
2214.000000	7.715445
2213.000000	7.723206
2212.000000	7.729927
2211.000000	7.739865
2210.000000	7.712511
2209.000000	7.706075
2208.000000	7.716486
2207.000000	7.698313
2206.000000	7.676922
2205.000000	7.643227
2204.000000	7.662157
2203.000000	7.671527
2202.000000	7.640008
2201.000000	7.619564
2200.000000	7.621173
2199.000000	7.599971
2198.000000	7.596375
2197.000000	7.608679
2196.000000	7.594292
2195.000000	7.601391
2194.000000	7.588802
2193.000000	7.596753
2192.000000	7.587004
2191.000000	7.573469
2190.000000	7.590979
2189.000000	7.580852
2188.000000	7.566465
2187.000000	7.564383
2186.000000	7.568547
2185.000000	7.552551
2184.000000	7.555864
2183.000000	7.536082
2182.000000	7.543749
2181.000000	7.534189
2180.000000	7.549049
2179.000000	7.553782
2178.000000	7.535893
2177.000000	7.513177
2176.000000	7.517436
2175.000000	7.522452
2174.000000	7.532201
2173.000000	7.545169
2172.000000	7.542992
2171.000000	7.546778
2170.000000	7.551415
2169.000000	7.563152
2168.000000	7.564099
2167.000000	7.567979
2166.000000	7.571955
2165.000000	7.605082
2164.000000	7.615683
2163.000000	7.608679
2162.000000	7.607922
2161.000000	7.623918
2160.000000	7.622214
2159.000000	7.639346
2158.000000	7.638494
2157.000000	7.654585
2156.000000	7.660737
2155.000000	7.661210
2154.000000	7.675124
2153.000000	7.666227
2152.000000	7.666227
2151.000000	7.662725
2150.000000	7.676828
2149.000000	7.679099
2148.000000	7.680046
2147.000000	7.675313
2146.000000	7.668782
2145.000000	7.675029
2144.000000	7.691025
2143.000000	7.687428
2142.000000	7.674935
2141.000000	7.682507
2140.000000	7.670770
2139.000000	7.657140
2138.000000	7.656667
2137.000000	7.684684
2136.000000	7.680708
2135.000000	7.670391
2134.000000	7.658939
2133.000000	7.644078
2132.000000	7.624864
2131.000000	7.598551
2130.000000	7.597510
2129.000000	7.576309
2128.000000	7.569020
2127.000000	7.555391
2126.000000	7.547913
2125.000000	7.534284
2124.000000	7.504469
2123.000000	7.473613
2122.000000	7.445691
2121.000000	7.433386
2120.000000	7.422217
2119.000000	7.403382
2118.000000	7.366184
2117.000000	7.332867
2116.000000	7.329649
2115.000000	7.314694
2114.000000	7.280999
2113.000000	7.260270
2112.000000	7.240299
2111.000000	7.228941
2110.000000	7.214081
2109.000000	7.179723
2108.000000	7.154261
2107.000000	7.149718
2106.000000	7.135615
2105.000000	7.124730
2104.000000	7.093401
2103.000000	7.073903
2102.000000	7.074566
2101.000000	7.066994
2100.000000	7.069265
2099.000000	7.062072
2098.000000	7.048158
2097.000000	7.038504
2096.000000	7.006607
2095.000000	7.002726
2094.000000	7.002915
2093.000000	7.001211
2092.000000	7.005471
2091.000000	6.991557
2090.000000	6.971396
2089.000000	6.971964
2088.000000	6.975466
2087.000000	6.968557
2086.000000	6.976129
2085.000000	6.964392
2084.000000	6.949059
2083.000000	6.965434
2082.000000	6.953129
2081.000000	6.941582
2080.000000	6.941487
2079.000000	6.948302
2078.000000	6.925207
2077.000000	6.910252
2076.000000	6.927384
2075.000000	6.929845
2074.000000	6.941960
2073.000000	6.922651
2072.000000	6.909116
2071.000000	6.906750
2070.000000	6.901923
2069.000000	6.901166
2068.000000	6.891985
2067.000000	6.892174
2066.000000	6.902112
2065.000000	6.898137
2064.000000	6.906372
2063.000000	6.905709
2062.000000	6.897096
2061.000000	6.902869
2060.000000	6.913376
2059.000000	6.926627
2058.000000	6.929750
2057.000000	6.931170
2056.000000	6.951141
2055.000000	6.965434
2054.000000	6.975561
2053.000000	6.998561
2052.000000	7.018911
2051.000000	7.050051
2050.000000	7.095957
2049.000000	7.130220
2048.000000	7.163253
2047.000000	7.200924
2046.000000	7.254875
2045.000000	7.287151
2044.000000	7.346592
2043.000000	7.402246
2042.000000	7.441148
2041.000000	7.497275
2040.000000	7.552173
2039.000000	7.589749
2038.000000	7.643794
2037.000000	7.712700
2036.000000	7.767030
2035.000000	7.781511
2034.000000	7.826470
2033.000000	7.888088
2032.000000	7.930870
2031.000000	7.968730
2030.000000	8.006117
2029.000000	8.041990
2028.000000	8.082027
2027.000000	8.105973
2026.000000	8.138439
2025.000000	8.164751
2024.000000	8.196933
2023.000000	8.233562
2022.000000	8.267731
2021.000000	8.310892
2020.000000	8.330011
2019.000000	8.350172
2018.000000	8.377431
2017.000000	8.385098
2016.000000	8.412641
2015.000000	8.438386
2014.000000	8.464605
2013.000000	8.476152
2012.000000	8.486658
2011.000000	8.506724
2010.000000	8.536823
2009.000000	8.538432
2008.000000	8.548749
2007.000000	8.560959
2006.000000	8.569667
2005.000000	8.554239
2004.000000	8.551683
2003.000000	8.556889
2002.000000	8.548181
2001.000000	8.548749
2000.000000	8.525370
1999.000000	8.507292
1998.000000	8.514959
1997.000000	8.504358
1996.000000	8.508806
1995.000000	8.470378
1994.000000	8.470094
1993.000000	8.456559
1992.000000	8.439049
1991.000000	8.412168
1990.000000	8.396929
1989.000000	8.379040
1988.000000	8.321398
1987.000000	8.303320
1986.000000	8.281172
1985.000000	8.244163
1984.000000	8.239904
1983.000000	8.185669
1982.000000	8.167591
1981.000000	8.128974
1980.000000	8.121591
1979.000000	8.075780
1978.000000	8.052590
1977.000000	8.023343
1976.000000	7.986051
1975.000000	7.958035
1974.000000	7.935981
1973.000000	7.895849
1972.000000	7.879380
1971.000000	7.844548
1970.000000	7.807729
1969.000000	7.800252
1968.000000	7.753968
1967.000000	7.739959
1966.000000	7.699733
1965.000000	7.686009
1964.000000	7.654869
1963.000000	7.647107
1962.000000	7.626852
1961.000000	7.596469
1960.000000	7.555580
1959.000000	7.524913
1958.000000	7.530782
1957.000000	7.512893
1956.000000	7.480049
1955.000000	7.443324
1954.000000	7.415970
1953.000000	7.392876
1952.000000	7.353028
1951.000000	7.318575
1950.000000	7.313369
1949.000000	7.308069
1948.000000	7.280525
1947.000000	7.259702
1946.000000	7.243138
1945.000000	7.238501
1944.000000	7.235472
1943.000000	7.214459
1942.000000	7.212472
1941.000000	7.228562
1940.000000	7.227710
1939.000000	7.230361
1938.000000	7.214365
1937.000000	7.218435
1936.000000	7.219949
1935.000000	7.236134
1934.000000	7.251089
1933.000000	7.264056
1932.000000	7.291410
1931.000000	7.333435
1930.000000	7.355773
1929.000000	7.413415
1928.000000	7.458658
1927.000000	7.490839
1926.000000	7.512325
1925.000000	7.555959
1924.000000	7.601580
1923.000000	7.681560
1922.000000	7.754346
1921.000000	7.837734
1920.000000	7.868874
1919.000000	7.910047
1918.000000	7.978952
1917.000000	8.066409
1916.000000	8.153961
1915.000000	8.256847
1914.000000	8.355756
1913.000000	8.434506
1912.000000	8.538053
1911.000000	8.609136
1910.000000	8.731425
1909.000000	8.850022
1908.000000	8.980072
1907.000000	9.094315
1906.000000	9.207991
1905.000000	9.347600
1904.000000	9.460897
1903.000000	9.575519
1902.000000	9.716264
1901.000000	9.868179
1900.000000	10.002866
1899.000000	10.101114
1898.000000	10.227567
1897.000000	10.353831
1896.000000	10.510004
1895.000000	10.672709
1894.000000	10.835603
1893.000000	10.982595
1892.000000	11.129682
1891.000000	11.271090
1890.000000	11.400099
1889.000000	11.544820
1888.000000	11.711783
1887.000000	11.917838
1886.000000	12.101839
1885.000000	12.320008
1884.000000	12.572252
1883.000000	12.824401
1882.000000	13.073806
1881.000000	13.374795
1880.000000	13.692442
1879.000000	13.987184
1878.000000	14.271231
1877.000000	14.541742
1876.000000	14.792377
1875.000000	15.021715
1874.000000	15.230704
1873.000000	15.408742
1872.000000	15.579586
1871.000000	15.708122
1870.000000	15.795484
1869.000000	15.872624
1868.000000	15.967086
1867.000000	16.023781
1866.000000	16.069119
1865.000000	16.112280
1864.000000	16.162066
1863.000000	16.213556
1862.000000	16.247819
1861.000000	16.271198
1860.000000	16.277918
1859.000000	16.247062
1858.000000	16.214502
1857.000000	16.198223
1856.000000	16.178914
1855.000000	16.131778
1854.000000	16.077543
1853.000000	16.010152
1852.000000	15.934242
1851.000000	15.905090
1850.000000	15.911147
1849.000000	15.898843
1848.000000	15.807883
1847.000000	15.675562
1846.000000	15.557059
1845.000000	15.501594
1844.000000	15.532166
1843.000000	15.560656
1842.000000	15.543997
1841.000000	15.497051
1840.000000	15.435055
1839.000000	15.391705
1838.000000	15.368705
1837.000000	15.320149
1836.000000	15.243292
1835.000000	15.161325
1834.000000	15.102452
1833.000000	15.074152
1832.000000	15.051530
1831.000000	14.990386
1830.000000	14.910122
1829.000000	14.837620
1828.000000	14.768241
1827.000000	14.706150
1826.000000	14.633837
1825.000000	14.568055
1824.000000	14.545150
1823.000000	14.568244
1822.000000	14.580170
1821.000000	14.541080
1820.000000	14.474919
1819.000000	14.428824
1818.000000	14.429581
1817.000000	14.457030
1816.000000	14.461952
1815.000000	14.454380
1814.000000	14.447659
1813.000000	14.455799
1812.000000	14.455421
1811.000000	14.432042
1810.000000	14.384527
1809.000000	14.360013
1808.000000	14.356416
1807.000000	14.344680
1806.000000	14.343354
1805.000000	14.325087
1804.000000	14.293663
1803.000000	14.274638
1802.000000	14.253058
1801.000000	14.199296
1800.000000	14.133514
1799.000000	14.096506
1798.000000	14.090543
1797.000000	14.082497
1796.000000	14.049843
1795.000000	14.005641
1794.000000	13.955571
1793.000000	13.929731
1792.000000	13.883258
1791.000000	13.837731
1790.000000	13.796085
1789.000000	13.755669
1788.000000	13.701623
1787.000000	13.665656
1786.000000	13.613125
1785.000000	13.553400
1784.000000	13.491404
1783.000000	13.424676
1782.000000	13.367980
1781.000000	13.311663
1780.000000	13.250234
1779.000000	13.179909
1778.000000	13.107501
1777.000000	13.024398
1776.000000	12.935900
1775.000000	12.856488
1774.000000	12.781809
1773.000000	12.674001
1772.000000	12.592791
1771.000000	12.510540
1770.000000	12.404437
1769.000000	12.299753
1768.000000	12.233024
1767.000000	12.150205
1766.000000	12.086032
1765.000000	12.036246
1764.000000	12.009933
1763.000000	11.990529
1762.000000	11.999521
1761.000000	12.032554
1760.000000	12.058583
1759.000000	12.091711
1758.000000	12.141497
1757.000000	12.179547
1756.000000	12.208510
1755.000000	12.173868
1754.000000	12.191283
1753.000000	12.201127
1752.000000	12.188255
1751.000000	12.170460
1750.000000	12.147365
1749.000000	12.102312
1748.000000	12.038233
1747.000000	11.966015
1746.000000	11.904587
1745.000000	11.820537
1744.000000	11.686417
1743.000000	11.560153
1742.000000	11.437959
1741.000000	11.290967
1740.000000	11.129398
1739.000000	10.986097
1738.000000	10.829356
1737.000000	10.714923
1736.000000	10.624058
1735.000000	10.591877
1734.000000	10.555626
1733.000000	10.574935
1732.000000	10.589700
1731.000000	10.615540
1730.000000	10.690976
1729.000000	10.753540
1728.000000	10.830870
1727.000000	10.906591
1726.000000	10.964043
1725.000000	10.996793
1724.000000	11.030583
1723.000000	11.048188
1722.000000	11.056138
1721.000000	11.059925
1720.000000	11.034274
1719.000000	11.058126
1718.000000	11.063332
1717.000000	11.073081
1716.000000	11.119081
1715.000000	11.147571
1714.000000	11.166028
1713.000000	11.207012
1712.000000	11.224143
1711.000000	11.243641
1710.000000	11.265884
1709.000000	11.249604
1708.000000	11.226320
1707.000000	11.247995
1706.000000	11.220831
1705.000000	11.184769
1704.000000	11.160727
1703.000000	11.124760
1702.000000	11.085291
1701.000000	10.990451
1700.000000	10.907726
1699.000000	10.819228
1698.000000	10.734894
1697.000000	10.665231
1696.000000	10.608157
1695.000000	10.607968
1694.000000	10.675359
1693.000000	10.725524
1692.000000	10.810142
1691.000000	10.938204
1690.000000	11.030583
1689.000000	11.101855
1688.000000	11.167448
1687.000000	11.169625
1686.000000	11.158361
1685.000000	11.165933
1684.000000	11.214584
1683.000000	11.314345
1682.000000	11.487367
1681.000000	11.781635
1680.000000	12.141213
1679.000000	12.517544
1678.000000	12.903340
1677.000000	13.295951
1676.000000	13.599685
1675.000000	13.888464
1674.000000	14.146386
1673.000000	14.361149
1672.000000	14.560578
1671.000000	14.739278
1670.000000	14.864406
1669.000000	15.000324
1668.000000	15.107942
1667.000000	15.230515
1666.000000	15.270930
1665.000000	15.353371
1664.000000	15.407322
1663.000000	15.464870
1662.000000	15.517117
1661.000000	15.553557
1660.000000	15.561319
1659.000000	15.600220
1658.000000	15.628994
1657.000000	15.631644
1656.000000	15.639216
1655.000000	15.633348
1654.000000	15.632401
1653.000000	15.634578
1652.000000	15.615175
1651.000000	15.591039
1650.000000	15.576557
1649.000000	15.539549
1648.000000	15.512195
1647.000000	15.476133
1646.000000	15.438273
1645.000000	15.397289
1644.000000	15.356400
1643.000000	15.317215
1642.000000	15.265819
1641.000000	15.205243
1640.000000	15.190572
1639.000000	15.128576
1638.000000	15.063267
1637.000000	15.028246
1636.000000	14.962275
1635.000000	14.906715
1634.000000	14.855887
1633.000000	14.801747
1632.000000	14.758208
1631.000000	14.703879
1630.000000	14.621438
1629.000000	14.575816
1628.000000	14.523475
1627.000000	14.468766
1626.000000	14.402132
1625.000000	14.347519
1624.000000	14.280980
1623.000000	14.215765
1622.000000	14.159732
1621.000000	14.089028
1620.000000	14.028641
1619.000000	13.981789
1618.000000	13.927081
1617.000000	13.858933
1616.000000	13.805834
1615.000000	13.755006
1614.000000	13.698216
1613.000000	13.648051
1612.000000	13.607730
1611.000000	13.566935
1610.000000	13.502762
1609.000000	13.442091
1608.000000	13.413128
1607.000000	13.356716
1606.000000	13.296613
1605.000000	13.260078
1604.000000	13.203098
1603.000000	13.167131
1602.000000	13.123971
1601.000000	13.084312
1600.000000	13.044180
1599.000000	12.996760
1598.000000	12.956912
1597.000000	12.913562
