PE UV       SUBTECH     SPECTRUM    ASCII       PEDS        4.00        
   -1
CICIMAUCR0113-3.Sample.ASC
24/04/18
16:30:55.00
24/04/18
16:30:55.00
Vinicio Soto Monge
C. kalinini
250,000000
1
Lambda 1050
1050L1511233
PerkinElmer UV WinLab 6.3.2.0749 / 2.02.05 Lambda 900 UV/VIS/NIR, Aug  7 2015 09:38:08

0
0
3350/servo 860,8/2
0
0
UV/VIS
1
1
1
DoubleDePol,CommonBeamDepol,RBeamAtt,SBeamAtt,60mm sphere, WB InGaAs Detector
0
0
0
0
Program
Program
3350/servo 860,8/2
3350/0,2 860,8/0,2
3350/0,2 860,8/0,2
0
15.00
 
 
 
0
 
860,8
319,2
860,8
Front
100
on
S:100 R:100
0
0
0
0
 
0
 
 
 
0
 
 
0
0
0
0
0
 
 
 
 
0
0


0
0
#HDR
-1
-1
#GR
nm
%R
1.0
0.0
2500,000000
-1,000000
2251
8
57,813900
3,274400
#DATA
2500.000000	10.934800
2499.000000	10.907800
2498.000000	10.933500
2497.000000	10.848200
2496.000000	10.895900
2495.000000	10.851800
2494.000000	10.745800
2493.000000	10.793900
2492.000000	10.816700
2491.000000	10.812200
2490.000000	10.685400
2489.000000	10.775600
2488.000000	10.769600
2487.000000	10.730900
2486.000000	10.770200
2485.000000	10.718800
2484.000000	10.664300
2483.000000	10.691300
2482.000000	10.630800
2481.000000	10.653500
2480.000000	10.600600
2479.000000	10.647000
2478.000000	10.607300
2477.000000	10.616500
2476.000000	10.541300
2475.000000	10.584500
2474.000000	10.582800
2473.000000	10.559200
2472.000000	10.550000
2471.000000	10.550700
2470.000000	10.534900
2469.000000	10.530400
2468.000000	10.552300
2467.000000	10.565100
2466.000000	10.530700
2465.000000	10.544000
2464.000000	10.515800
2463.000000	10.542400
2462.000000	10.572500
2461.000000	10.601300
2460.000000	10.613800
2459.000000	10.660000
2458.000000	10.678200
2457.000000	10.702600
2456.000000	10.718900
2455.000000	10.772100
2454.000000	10.819300
2453.000000	10.878500
2452.000000	10.919900
2451.000000	10.977000
2450.000000	11.012600
2449.000000	11.063300
2448.000000	11.140300
2447.000000	11.213600
2446.000000	11.270700
2445.000000	11.294200
2444.000000	11.363400
2443.000000	11.407400
2442.000000	11.479600
2441.000000	11.545500
2440.000000	11.586500
2439.000000	11.629600
2438.000000	11.688500
2437.000000	11.742600
2436.000000	11.805100
2435.000000	11.842500
2434.000000	11.897500
2433.000000	11.934600
2432.000000	11.950600
2431.000000	11.990200
2430.000000	12.037700
2429.000000	12.063400
2428.000000	12.120600
2427.000000	12.151400
2426.000000	12.157400
2425.000000	12.188800
2424.000000	12.216100
2423.000000	12.245800
2422.000000	12.270400
2421.000000	12.325500
2420.000000	12.372300
2419.000000	12.393500
2418.000000	12.423600
2417.000000	12.463100
2416.000000	12.481500
2415.000000	12.501000
2414.000000	12.527300
2413.000000	12.554600
2412.000000	12.582600
2411.000000	12.591000
2410.000000	12.618400
2409.000000	12.637000
2408.000000	12.647000
2407.000000	12.668400
2406.000000	12.698500
2405.000000	12.706300
2404.000000	12.720900
2403.000000	12.741300
2402.000000	12.749600
2401.000000	12.758800
2400.000000	12.776300
2399.000000	12.802100
2398.000000	12.822500
2397.000000	12.838000
2396.000000	12.843300
2395.000000	12.858200
2394.000000	12.858700
2393.000000	12.870500
2392.000000	12.894100
2391.000000	12.903400
2390.000000	12.901300
2389.000000	12.890300
2388.000000	12.892500
2387.000000	12.913000
2386.000000	12.923200
2385.000000	12.912000
2384.000000	12.909300
2383.000000	12.904100
2382.000000	12.887500
2381.000000	12.870800
2380.000000	12.855100
2379.000000	12.838300
2378.000000	12.811400
2377.000000	12.796000
2376.000000	12.785300
2375.000000	12.757100
2374.000000	12.727600
2373.000000	12.692400
2372.000000	12.667400
2371.000000	12.641400
2370.000000	12.617500
2369.000000	12.586400
2368.000000	12.533400
2367.000000	12.495100
2366.000000	12.449900
2365.000000	12.399800
2364.000000	12.353100
2363.000000	12.294100
2362.000000	12.239200
2361.000000	12.188200
2360.000000	12.129000
2359.000000	12.084000
2358.000000	12.045900
2357.000000	11.989100
2356.000000	11.937900
2355.000000	11.905500
2354.000000	11.887800
2353.000000	11.868700
2352.000000	11.863100
2351.000000	11.864700
2350.000000	11.863800
2349.000000	11.861300
2348.000000	11.886200
2347.000000	11.923000
2346.000000	11.939100
2345.000000	11.958900
2344.000000	11.990700
2343.000000	12.022900
2342.000000	12.048800
2341.000000	12.058900
2340.000000	12.078200
2339.000000	12.096900
2338.000000	12.104000
2337.000000	12.102200
2336.000000	12.098100
2335.000000	12.088700
2334.000000	12.084200
2333.000000	12.067400
2332.000000	12.016000
2331.000000	11.979600
2330.000000	11.941200
2329.000000	11.891500
2328.000000	11.849700
2327.000000	11.810500
2326.000000	11.731700
2325.000000	11.640500
2324.000000	11.580400
2323.000000	11.532100
2322.000000	11.449100
2321.000000	11.367800
2320.000000	11.287500
2319.000000	11.201600
2318.000000	11.114400
2317.000000	11.036100
2316.000000	10.913600
2315.000000	10.816400
2314.000000	10.726800
2313.000000	10.649500
2312.000000	10.566100
2311.000000	10.495400
2310.000000	10.425900
2309.000000	10.359700
2308.000000	10.317100
2307.000000	10.299800
2306.000000	10.287800
2305.000000	10.280900
2304.000000	10.290000
2303.000000	10.303000
2302.000000	10.361900
2301.000000	10.432200
2300.000000	10.465000
2299.000000	10.511300
2298.000000	10.570900
2297.000000	10.649700
2296.000000	10.690000
2295.000000	10.764000
2294.000000	10.834200
2293.000000	10.875500
2292.000000	10.898700
2291.000000	10.932000
2290.000000	10.952000
2289.000000	10.973500
2288.000000	10.969300
2287.000000	10.976100
2286.000000	10.958400
2285.000000	10.937100
2284.000000	10.925100
2283.000000	10.914000
2282.000000	10.882300
2281.000000	10.838500
2280.000000	10.804200
2279.000000	10.775600
2278.000000	10.749100
2277.000000	10.718500
2276.000000	10.694100
2275.000000	10.674000
2274.000000	10.662200
2273.000000	10.630500
2272.000000	10.651800
2271.000000	10.667700
2270.000000	10.672300
2269.000000	10.696400
2268.000000	10.745400
2267.000000	10.796100
2266.000000	10.877400
2265.000000	10.956700
2264.000000	11.059700
2263.000000	11.209100
2262.000000	11.339200
2261.000000	11.504900
2260.000000	11.641400
2259.000000	11.815100
2258.000000	12.018700
2257.000000	12.230300
2256.000000	12.430700
2255.000000	12.639800
2254.000000	12.833300
2253.000000	13.047500
2252.000000	13.230800
2251.000000	13.414800
2250.000000	13.590000
2249.000000	13.762100
2248.000000	13.938300
2247.000000	14.104100
2246.000000	14.238100
2245.000000	14.368300
2244.000000	14.515700
2243.000000	14.610000
2242.000000	14.726500
2241.000000	14.823400
2240.000000	14.902600
2239.000000	15.009200
2238.000000	15.067600
2237.000000	15.136600
2236.000000	15.193800
2235.000000	15.252500
2234.000000	15.321100
2233.000000	15.358300
2232.000000	15.395400
2231.000000	15.437700
2230.000000	15.441500
2229.000000	15.467900
2228.000000	15.467000
2227.000000	15.461900
2226.000000	15.462600
2225.000000	15.481600
2224.000000	15.442100
2223.000000	15.413900
2222.000000	15.375900
2221.000000	15.374400
2220.000000	15.342000
2219.000000	15.293400
2218.000000	15.264800
2217.000000	15.257400
2216.000000	15.217600
2215.000000	15.172700
2214.000000	15.131800
2213.000000	15.090400
2212.000000	15.063800
2211.000000	15.038300
2210.000000	15.012200
2209.000000	15.011300
2208.000000	14.950900
2207.000000	14.916600
2206.000000	14.908500
2205.000000	14.898900
2204.000000	14.883500
2203.000000	14.862600
2202.000000	14.851400
2201.000000	14.831200
2200.000000	14.818000
2199.000000	14.790300
2198.000000	14.760800
2197.000000	14.783500
2196.000000	14.762200
2195.000000	14.733700
2194.000000	14.739000
2193.000000	14.711400
2192.000000	14.695900
2191.000000	14.688300
2190.000000	14.667900
2189.000000	14.666200
2188.000000	14.675600
2187.000000	14.657500
2186.000000	14.636300
2185.000000	14.612900
2184.000000	14.604700
2183.000000	14.586600
2182.000000	14.591800
2181.000000	14.574300
2180.000000	14.566000
2179.000000	14.572200
2178.000000	14.566600
2177.000000	14.554700
2176.000000	14.550300
2175.000000	14.554700
2174.000000	14.541700
2173.000000	14.538400
2172.000000	14.541800
2171.000000	14.562400
2170.000000	14.590000
2169.000000	14.605400
2168.000000	14.609400
2167.000000	14.604100
2166.000000	14.618200
2165.000000	14.660500
2164.000000	14.683400
2163.000000	14.702500
2162.000000	14.740100
2161.000000	14.785200
2160.000000	14.826700
2159.000000	14.854600
2158.000000	14.898700
2157.000000	14.960100
2156.000000	14.995100
2155.000000	15.044900
2154.000000	15.097800
2153.000000	15.143100
2152.000000	15.198500
2151.000000	15.253400
2150.000000	15.306100
2149.000000	15.355600
2148.000000	15.415600
2147.000000	15.476400
2146.000000	15.526200
2145.000000	15.575300
2144.000000	15.627700
2143.000000	15.680500
2142.000000	15.734200
2141.000000	15.783000
2140.000000	15.833200
2139.000000	15.876600
2138.000000	15.912400
2137.000000	15.968400
2136.000000	16.013300
2135.000000	16.041400
2134.000000	16.090500
2133.000000	16.114800
2132.000000	16.131900
2131.000000	16.172600
2130.000000	16.192100
2129.000000	16.208500
2128.000000	16.234500
2127.000000	16.269700
2126.000000	16.287300
2125.000000	16.285700
2124.000000	16.289300
2123.000000	16.294600
2122.000000	16.307500
2121.000000	16.309300
2120.000000	16.308700
2119.000000	16.296000
2118.000000	16.285300
2117.000000	16.285900
2116.000000	16.278400
2115.000000	16.258500
2114.000000	16.220400
2113.000000	16.220100
2112.000000	16.218900
2111.000000	16.188700
2110.000000	16.164100
2109.000000	16.143200
2108.000000	16.128500
2107.000000	16.102700
2106.000000	16.088400
2105.000000	16.064900
2104.000000	16.043400
2103.000000	16.021700
2102.000000	15.981100
2101.000000	15.966900
2100.000000	15.954900
2099.000000	15.927000
2098.000000	15.903000
2097.000000	15.880400
2096.000000	15.874600
2095.000000	15.855900
2094.000000	15.820400
2093.000000	15.796200
2092.000000	15.775200
2091.000000	15.754400
2090.000000	15.743300
2089.000000	15.733900
2088.000000	15.718800
2087.000000	15.692300
2086.000000	15.671700
2085.000000	15.655000
2084.000000	15.634700
2083.000000	15.607100
2082.000000	15.570600
2081.000000	15.532000
2080.000000	15.499700
2079.000000	15.485100
2078.000000	15.448700
2077.000000	15.397900
2076.000000	15.354000
2075.000000	15.309700
2074.000000	15.264900
2073.000000	15.224000
2072.000000	15.164600
2071.000000	15.109300
2070.000000	15.057000
2069.000000	15.012500
2068.000000	14.975600
2067.000000	14.922100
2066.000000	14.863400
2065.000000	14.816900
2064.000000	14.769400
2063.000000	14.744000
2062.000000	14.715200
2061.000000	14.682000
2060.000000	14.657400
2059.000000	14.636800
2058.000000	14.618800
2057.000000	14.630100
2056.000000	14.640800
2055.000000	14.646100
2054.000000	14.671700
2053.000000	14.728100
2052.000000	14.798400
2051.000000	14.876800
2050.000000	14.942400
2049.000000	15.021400
2048.000000	15.130900
2047.000000	15.238500
2046.000000	15.370400
2045.000000	15.492700
2044.000000	15.607700
2043.000000	15.763400
2042.000000	15.897500
2041.000000	16.030600
2040.000000	16.156000
2039.000000	16.283600
2038.000000	16.410600
2037.000000	16.543200
2036.000000	16.660400
2035.000000	16.776600
2034.000000	16.904300
2033.000000	17.017400
2032.000000	17.096300
2031.000000	17.188800
2030.000000	17.296100
2029.000000	17.385600
2028.000000	17.465100
2027.000000	17.559100
2026.000000	17.627800
2025.000000	17.701900
2024.000000	17.744300
2023.000000	17.812100
2022.000000	17.871700
2021.000000	17.937500
2020.000000	17.998100
2019.000000	18.053900
2018.000000	18.109500
2017.000000	18.138800
2016.000000	18.179500
2015.000000	18.224300
2014.000000	18.248600
2013.000000	18.280600
2012.000000	18.323800
2011.000000	18.316800
2010.000000	18.355000
2009.000000	18.374400
2008.000000	18.375100
2007.000000	18.377200
2006.000000	18.367500
2005.000000	18.375500
2004.000000	18.375800
2003.000000	18.372600
2002.000000	18.349100
2001.000000	18.320800
2000.000000	18.301200
1999.000000	18.259500
1998.000000	18.228300
1997.000000	18.182100
1996.000000	18.157800
1995.000000	18.109300
1994.000000	18.067600
1993.000000	18.024200
1992.000000	17.955500
1991.000000	17.896600
1990.000000	17.827800
1989.000000	17.780200
1988.000000	17.695600
1987.000000	17.658400
1986.000000	17.578700
1985.000000	17.528700
1984.000000	17.448700
1983.000000	17.388900
1982.000000	17.302300
1981.000000	17.228000
1980.000000	17.166200
1979.000000	17.101200
1978.000000	17.026200
1977.000000	16.944000
1976.000000	16.885700
1975.000000	16.809900
1974.000000	16.743000
1973.000000	16.668800
1972.000000	16.627400
1971.000000	16.543000
1970.000000	16.481900
1969.000000	16.425700
1968.000000	16.376100
1967.000000	16.290300
1966.000000	16.244600
1965.000000	16.180800
1964.000000	16.114800
1963.000000	16.065300
1962.000000	16.006700
1961.000000	15.951200
1960.000000	15.852000
1959.000000	15.795000
1958.000000	15.754500
1957.000000	15.668500
1956.000000	15.624800
1955.000000	15.573000
1954.000000	15.508000
1953.000000	15.451400
1952.000000	15.392400
1951.000000	15.327900
1950.000000	15.260700
1949.000000	15.225700
1948.000000	15.200300
1947.000000	15.136200
1946.000000	15.090400
1945.000000	15.071900
1944.000000	15.055400
1943.000000	15.021000
1942.000000	14.978700
1941.000000	14.965700
1940.000000	14.989600
1939.000000	14.998700
1938.000000	15.008700
1937.000000	15.043200
1936.000000	15.052400
1935.000000	15.076200
1934.000000	15.092500
1933.000000	15.121200
1932.000000	15.188300
1931.000000	15.231900
1930.000000	15.312600
1929.000000	15.395000
1928.000000	15.498500
1927.000000	15.632500
1926.000000	15.731000
1925.000000	15.827900
1924.000000	15.937000
1923.000000	16.053800
1922.000000	16.177800
1921.000000	16.382800
1920.000000	16.575000
1919.000000	16.756500
1918.000000	16.923600
1917.000000	17.045800
1916.000000	17.174800
1915.000000	17.340800
1914.000000	17.567200
1913.000000	17.858600
1912.000000	18.119100
1911.000000	18.319900
1910.000000	18.523700
1909.000000	18.705500
1908.000000	18.886200
1907.000000	19.146100
1906.000000	19.452300
1905.000000	19.796000
1904.000000	20.127100
1903.000000	20.392500
1902.000000	20.653700
1901.000000	20.931600
1900.000000	21.242000
1899.000000	21.616800
1898.000000	21.932100
1897.000000	22.271700
1896.000000	22.527100
1895.000000	22.771300
1894.000000	23.066600
1893.000000	23.393000
1892.000000	23.751800
1891.000000	24.143900
1890.000000	24.493400
1889.000000	24.805800
1888.000000	25.164200
1887.000000	25.494000
1886.000000	25.857700
1885.000000	26.267200
1884.000000	26.711900
1883.000000	27.136800
1882.000000	27.550000
1881.000000	27.986800
1880.000000	28.384100
1879.000000	28.759700
1878.000000	29.123000
1877.000000	29.475900
1876.000000	29.815500
1875.000000	30.138700
1874.000000	30.430100
1873.000000	30.704000
1872.000000	30.950600
1871.000000	31.159900
1870.000000	31.340500
1869.000000	31.487700
1868.000000	31.614100
1867.000000	31.690000
1866.000000	31.735500
1865.000000	31.782600
1864.000000	31.817400
1863.000000	31.853700
1862.000000	31.898000
1861.000000	31.951600
1860.000000	32.005300
1859.000000	32.043100
1858.000000	32.068000
1857.000000	32.066700
1856.000000	32.034000
1855.000000	32.016400
1854.000000	31.998800
1853.000000	31.946800
1852.000000	31.901800
1851.000000	31.867000
1850.000000	31.843300
1849.000000	31.838100
1848.000000	31.809800
1847.000000	31.749700
1846.000000	31.676900
1845.000000	31.589600
1844.000000	31.520700
1843.000000	31.499800
1842.000000	31.494800
1841.000000	31.485100
1840.000000	31.451400
1839.000000	31.398400
1838.000000	31.340300
1837.000000	31.289600
1836.000000	31.236700
1835.000000	31.158800
1834.000000	31.062300
1833.000000	30.977400
1832.000000	30.915100
1831.000000	30.859200
1830.000000	30.788800
1829.000000	30.728200
1828.000000	30.662300
1827.000000	30.590800
1826.000000	30.521100
1825.000000	30.440300
1824.000000	30.396700
1823.000000	30.383000
1822.000000	30.381900
1821.000000	30.375800
1820.000000	30.354900
1819.000000	30.309600
1818.000000	30.276300
1817.000000	30.264400
1816.000000	30.265700
1815.000000	30.258500
1814.000000	30.249300
1813.000000	30.240500
1812.000000	30.220600
1811.000000	30.193000
1810.000000	30.141300
1809.000000	30.102000
1808.000000	30.070500
1807.000000	30.046800
1806.000000	30.005500
1805.000000	29.959400
1804.000000	29.906700
1803.000000	29.861300
1802.000000	29.830700
1801.000000	29.802200
1800.000000	29.745600
1799.000000	29.687300
1798.000000	29.639500
1797.000000	29.606800
1796.000000	29.565600
1795.000000	29.519100
1794.000000	29.475200
1793.000000	29.430300
1792.000000	29.382700
1791.000000	29.350500
1790.000000	29.287000
1789.000000	29.235900
1788.000000	29.196500
1787.000000	29.150100
1786.000000	29.082000
1785.000000	29.013600
1784.000000	28.946300
1783.000000	28.865600
1782.000000	28.789600
1781.000000	28.725100
1780.000000	28.635800
1779.000000	28.552200
1778.000000	28.471100
1777.000000	28.361300
1776.000000	28.268800
1775.000000	28.151700
1774.000000	28.025000
1773.000000	27.901800
1772.000000	27.758600
1771.000000	27.616900
1770.000000	27.476600
1769.000000	27.348000
1768.000000	27.222300
1767.000000	27.102000
1766.000000	27.001300
1765.000000	26.919600
1764.000000	26.860300
1763.000000	26.803500
1762.000000	26.789600
1761.000000	26.804200
1760.000000	26.825700
1759.000000	26.864700
1758.000000	26.911800
1757.000000	26.940300
1756.000000	26.960400
1755.000000	26.974100
1754.000000	26.966100
1753.000000	26.947900
1752.000000	26.926700
1751.000000	26.862200
1750.000000	26.806900
1749.000000	26.730200
1748.000000	26.638900
1747.000000	26.546000
1746.000000	26.422900
1745.000000	26.291600
1744.000000	26.128800
1743.000000	25.946800
1742.000000	25.756500
1741.000000	25.535900
1740.000000	25.314900
1739.000000	25.094000
1738.000000	24.898400
1737.000000	24.717000
1736.000000	24.581800
1735.000000	24.491600
1734.000000	24.422200
1733.000000	24.416500
1732.000000	24.429700
1731.000000	24.488000
1730.000000	24.568000
1729.000000	24.638900
1728.000000	24.728200
1727.000000	24.800900
1726.000000	24.886900
1725.000000	24.937200
1724.000000	24.998000
1723.000000	25.037100
1722.000000	25.053400
1721.000000	25.074300
1720.000000	25.123000
1719.000000	25.178700
1718.000000	25.240800
1717.000000	25.299200
1716.000000	25.407300
1715.000000	25.495100
1714.000000	25.582400
1713.000000	25.675200
1712.000000	25.740600
1711.000000	25.790100
1710.000000	25.824900
1709.000000	25.851300
1708.000000	25.866600
1707.000000	25.845800
1706.000000	25.849000
1705.000000	25.813100
1704.000000	25.769500
1703.000000	25.701200
1702.000000	25.608800
1701.000000	25.496000
1700.000000	25.384600
1699.000000	25.219900
1698.000000	25.107200
1697.000000	25.018600
1696.000000	24.946600
1695.000000	24.936400
1694.000000	24.989600
1693.000000	25.071800
1692.000000	25.202400
1691.000000	25.339000
1690.000000	25.464800
1689.000000	25.566200
1688.000000	25.670300
1687.000000	25.719600
1686.000000	25.792100
1685.000000	25.857900
1684.000000	25.951500
1683.000000	26.212100
1682.000000	26.532700
1681.000000	26.956000
1680.000000	27.457000
1679.000000	27.990700
1678.000000	28.506700
1677.000000	29.022700
1676.000000	29.427800
1675.000000	29.844100
1674.000000	30.187200
1673.000000	30.495800
1672.000000	30.763100
1671.000000	31.023200
1670.000000	31.261700
1669.000000	31.461200
1668.000000	31.648600
1667.000000	31.822100
1666.000000	31.968700
1665.000000	32.084100
1664.000000	32.206500
1663.000000	32.309600
1662.000000	32.407900
1661.000000	32.510300
1660.000000	32.572800
1659.000000	32.652900
1658.000000	32.709700
1657.000000	32.766600
1656.000000	32.807000
1655.000000	32.822300
1654.000000	32.839600
1653.000000	32.843800
1652.000000	32.852000
1651.000000	32.837000
1650.000000	32.830700
1649.000000	32.797000
1648.000000	32.775100
1647.000000	32.736300
1646.000000	32.709200
1645.000000	32.661900
1644.000000	32.611000
1643.000000	32.557300
1642.000000	32.512700
1641.000000	32.474000
1640.000000	32.438500
1639.000000	32.392500
1638.000000	32.334400
1637.000000	32.263900
1636.000000	32.210900
1635.000000	32.143900
1634.000000	32.081800
1633.000000	32.026800
1632.000000	31.957300
1631.000000	31.870300
1630.000000	31.803000
1629.000000	31.736900
1628.000000	31.661600
1627.000000	31.574900
1626.000000	31.520200
1625.000000	31.437600
1624.000000	31.355700
