PE UV       SUBTECH     SPECTRUM    ASCII       PEDS        4.00        
   -1
CICIMAUCR0097-2.Sample.ASC
24/04/18
12:01:15.00
24/04/18
12:01:15.00
Vinicio Soto Monge
C. kalinini
250,000000
1
Lambda 1050
1050L1511233
PerkinElmer UV WinLab 6.3.2.0749 / 2.02.05 Lambda 900 UV/VIS/NIR, Aug  7 2015 09:38:08

0
0
3350/servo 860,8/2
0
0
UV/VIS
1
1
1
DoubleDePol,CommonBeamDepol,RBeamAtt,SBeamAtt,60mm sphere, WB InGaAs Detector
0
0
0
0
Program
Program
3350/servo 860,8/2
3350/0,2 860,8/0,2
3350/0,2 860,8/0,2
0
15.00
 
 
 
0
 
860,8
319,2
860,8
Front
100
on
S:100 R:100
0
0
0
0
 
0
 
 
 
0
 
 
0
0
0
0
0
 
 
 
 
0
0


0
0
#HDR
-1
-1
#GR
nm
%R
1.0
0.0
2500,000000
-1,000000
2251
8
91,681900
5,245000
#DATA
2500.000000	19.454721
2499.000000	19.452543
2498.000000	19.358671
2497.000000	19.483604
2496.000000	19.477186
2495.000000	19.373801
2494.000000	19.310303
2493.000000	19.339301
2492.000000	19.263883
2491.000000	19.347439
2490.000000	19.257005
2489.000000	19.275459
2488.000000	19.292766
2487.000000	19.269155
2486.000000	19.326005
2485.000000	19.332997
2484.000000	19.317409
2483.000000	19.349502
2482.000000	19.313741
2481.000000	19.324859
2480.000000	19.335633
2479.000000	19.326005
2478.000000	19.381939
2477.000000	19.384460
2476.000000	19.389503
2475.000000	19.419648
2474.000000	19.454835
2473.000000	19.505726
2472.000000	19.540569
2471.000000	19.626647
2470.000000	19.590084
2469.000000	19.674213
2468.000000	19.695188
2467.000000	19.756394
2466.000000	19.782756
2465.000000	19.832500
2464.000000	19.889350
2463.000000	19.992506
2462.000000	20.026089
2461.000000	20.094287
2460.000000	20.146094
2459.000000	20.215666
2458.000000	20.277216
2457.000000	20.362835
2456.000000	20.463240
2455.000000	20.584506
2454.000000	20.653964
2453.000000	20.743709
2452.000000	20.836550
2451.000000	20.950250
2450.000000	21.071516
2449.000000	21.190718
2448.000000	21.288487
2447.000000	21.398634
2446.000000	21.506718
2445.000000	21.624545
2444.000000	21.753719
2443.000000	21.856989
2442.000000	21.976306
2441.000000	22.099176
2440.000000	22.181586
2439.000000	22.303883
2438.000000	22.428243
2437.000000	22.544695
2436.000000	22.661031
2435.000000	22.769001
2434.000000	22.857142
2433.000000	22.950555
2432.000000	23.058296
2431.000000	23.156867
2430.000000	23.244435
2429.000000	23.328449
2428.000000	23.444786
2427.000000	23.533959
2426.000000	23.613388
2425.000000	23.714710
2424.000000	23.842280
2423.000000	23.960909
2422.000000	24.088478
2421.000000	24.209973
2420.000000	24.265333
2419.000000	24.334104
2418.000000	24.410210
2417.000000	24.523566
2416.000000	24.611249
2415.000000	24.689532
2414.000000	24.757501
2413.000000	24.846215
2412.000000	24.904440
2411.000000	24.982380
2410.000000	25.031551
2409.000000	25.101353
2408.000000	25.139979
2407.000000	25.190984
2406.000000	25.252878
2405.000000	25.312249
2404.000000	25.369214
2403.000000	25.391909
2402.000000	25.421480
2401.000000	25.481883
2400.000000	25.519593
2399.000000	25.566471
2398.000000	25.587905
2397.000000	25.617705
2396.000000	25.669856
2395.000000	25.696218
2394.000000	25.715130
2393.000000	25.746306
2392.000000	25.759258
2391.000000	25.792612
2390.000000	25.821954
2389.000000	25.833301
2388.000000	25.858631
2387.000000	25.856224
2386.000000	25.865852
2385.000000	25.878460
2384.000000	25.887859
2383.000000	25.885566
2382.000000	25.887515
2381.000000	25.886369
2380.000000	25.852442
2379.000000	25.862070
2378.000000	25.867801
2377.000000	25.865508
2376.000000	25.860121
2375.000000	25.832498
2374.000000	25.807053
2373.000000	25.800520
2372.000000	25.799832
2371.000000	25.772897
2370.000000	25.750662
2369.000000	25.757653
2368.000000	25.776450
2367.000000	25.759716
2366.000000	25.753069
2365.000000	25.763040
2364.000000	25.750776
2363.000000	25.740919
2362.000000	25.753298
2361.000000	25.755819
2360.000000	25.738741
2359.000000	25.719715
2358.000000	25.696562
2357.000000	25.691060
2356.000000	25.677306
2355.000000	25.662062
2354.000000	25.663781
2353.000000	25.653695
2352.000000	25.646130
2351.000000	25.626645
2350.000000	25.630199
2349.000000	25.651632
2348.000000	25.644755
2347.000000	25.629969
2346.000000	25.612318
2345.000000	25.624124
2344.000000	25.669283
2343.000000	25.695531
2342.000000	25.679255
2341.000000	25.661260
2340.000000	25.641202
2339.000000	25.666418
2338.000000	25.699313
2337.000000	25.707565
2336.000000	25.701032
2335.000000	25.707909
2334.000000	25.723268
2333.000000	25.752266
2332.000000	25.794789
2331.000000	25.795935
2330.000000	25.803271
2329.000000	25.833415
2328.000000	25.881440
2327.000000	25.910553
2326.000000	25.912043
2325.000000	25.912158
2324.000000	25.923161
2323.000000	25.945626
2322.000000	25.957890
2321.000000	25.939551
2320.000000	25.911126
2319.000000	25.904707
2318.000000	25.880867
2317.000000	25.844419
2316.000000	25.810377
2315.000000	25.784932
2314.000000	25.760862
2313.000000	25.724643
2312.000000	25.674326
2311.000000	25.632491
2310.000000	25.598449
2309.000000	25.530596
2308.000000	25.508016
2307.000000	25.486583
2306.000000	25.445206
2305.000000	25.423543
2304.000000	25.417812
2303.000000	25.408299
2302.000000	25.385261
2301.000000	25.375175
2300.000000	25.369673
2299.000000	25.397410
2298.000000	25.409674
2297.000000	25.420678
2296.000000	25.456094
2295.000000	25.473746
2294.000000	25.474433
2293.000000	25.521770
2292.000000	25.544923
2291.000000	25.555353
2290.000000	25.580684
2289.000000	25.636388
2288.000000	25.650600
2287.000000	25.722351
2286.000000	25.733125
2285.000000	25.777597
2284.000000	25.819432
2283.000000	25.825736
2282.000000	25.851754
2281.000000	25.870666
2280.000000	25.904822
2279.000000	25.937030
2278.000000	25.942531
2277.000000	25.973707
2276.000000	26.014970
2275.000000	26.027119
2274.000000	26.051762
2273.000000	26.076405
2272.000000	26.122595
2271.000000	26.151021
2270.000000	26.185979
2269.000000	26.238588
2268.000000	26.317560
2267.000000	26.370742
2266.000000	26.454413
2265.000000	26.551953
2264.000000	26.667602
2263.000000	26.791389
2262.000000	26.912769
2261.000000	27.035868
2260.000000	27.203553
2259.000000	27.376282
2258.000000	27.539383
2257.000000	27.694002
2256.000000	27.882548
2255.000000	28.066165
2254.000000	28.283250
2253.000000	28.440620
2252.000000	28.612661
2251.000000	28.773126
2250.000000	28.953534
2249.000000	29.136005
2248.000000	29.279964
2247.000000	29.398364
2246.000000	29.538771
2245.000000	29.645594
2244.000000	29.755856
2243.000000	29.853281
2242.000000	29.940505
2241.000000	30.004347
2240.000000	30.096729
2239.000000	30.137189
2238.000000	30.177420
2237.000000	30.192778
2236.000000	30.187621
2235.000000	30.267624
2234.000000	30.242866
2233.000000	30.218567
2232.000000	30.216390
2231.000000	30.166187
2230.000000	30.142805
2229.000000	30.114036
2228.000000	30.074837
2227.000000	30.014663
2226.000000	29.961824
2225.000000	29.872079
2224.000000	29.794597
2223.000000	29.741644
2222.000000	29.675051
2221.000000	29.582899
2220.000000	29.486047
2219.000000	29.410628
2218.000000	29.305066
2217.000000	29.228616
2216.000000	29.156980
2215.000000	29.080645
2214.000000	28.972446
2213.000000	28.887973
2212.000000	28.790662
2211.000000	28.735531
2210.000000	28.673523
2209.000000	28.598105
2208.000000	28.541484
2207.000000	28.501024
2206.000000	28.444173
2205.000000	28.406923
2204.000000	28.365660
2203.000000	28.324742
2202.000000	28.270986
2201.000000	28.229151
2200.000000	28.208176
2199.000000	28.146282
2198.000000	28.129892
2197.000000	28.119233
2196.000000	28.077856
2195.000000	28.062039
2194.000000	28.048055
2193.000000	28.009200
2192.000000	27.977565
2191.000000	27.966218
2190.000000	27.945473
2189.000000	27.932177
2188.000000	27.903523
2187.000000	27.894697
2186.000000	27.888164
2185.000000	27.886101
2184.000000	27.864553
2183.000000	27.841629
2182.000000	27.836930
2181.000000	27.825583
2180.000000	27.810568
2179.000000	27.782716
2178.000000	27.772744
2177.000000	27.754978
2176.000000	27.767930
2175.000000	27.764377
2174.000000	27.783060
2173.000000	27.787988
2172.000000	27.784779
2171.000000	27.806785
2170.000000	27.834523
2169.000000	27.876931
2168.000000	27.922205
2167.000000	27.955788
2166.000000	28.012065
2165.000000	28.039230
2164.000000	28.074303
2163.000000	28.160380
2162.000000	28.240498
2161.000000	28.291961
2160.000000	28.379185
2159.000000	28.468816
2158.000000	28.559937
2157.000000	28.660342
2156.000000	28.753412
2155.000000	28.879491
2154.000000	28.990670
2153.000000	29.104256
2152.000000	29.220936
2151.000000	29.337502
2150.000000	29.451203
2149.000000	29.565247
2148.000000	29.673217
2147.000000	29.776258
2146.000000	29.908412
2145.000000	30.044349
2144.000000	30.151631
2143.000000	30.249629
2142.000000	30.357713
2141.000000	30.473018
2140.000000	30.581332
2139.000000	30.687353
2138.000000	30.807243
2137.000000	30.921631
2136.000000	31.021005
2135.000000	31.108572
2134.000000	31.177458
2133.000000	31.267089
2132.000000	31.358897
2131.000000	31.442339
2130.000000	31.508473
2129.000000	31.576670
2128.000000	31.655298
2127.000000	31.734613
2126.000000	31.770833
2125.000000	31.833758
2124.000000	31.894046
2123.000000	31.930036
2122.000000	31.978061
2121.000000	32.027690
2120.000000	32.066202
2119.000000	32.098066
2118.000000	32.135431
2117.000000	32.166148
2116.000000	32.182310
2115.000000	32.202711
2114.000000	32.222426
2113.000000	32.249819
2112.000000	32.269648
2111.000000	32.278588
2110.000000	32.279734
2109.000000	32.297844
2108.000000	32.309879
2107.000000	32.321799
2106.000000	32.325811
2105.000000	32.318704
2104.000000	32.320080
2103.000000	32.328218
2102.000000	32.353319
2101.000000	32.365354
2100.000000	32.363291
2099.000000	32.354350
2098.000000	32.364437
2097.000000	32.397217
2096.000000	32.404897
2095.000000	32.417161
2094.000000	32.433551
2093.000000	32.454985
2092.000000	32.474240
2091.000000	32.486848
2090.000000	32.488224
2089.000000	32.498425
2088.000000	32.521807
2087.000000	32.528569
2086.000000	32.517451
2085.000000	32.515044
2084.000000	32.506792
2083.000000	32.489714
2082.000000	32.477450
2081.000000	32.445127
2080.000000	32.378764
2079.000000	32.320309
2078.000000	32.261854
2077.000000	32.195949
2076.000000	32.130388
2075.000000	32.045800
2074.000000	31.956857
2073.000000	31.872957
2072.000000	31.783441
2071.000000	31.660685
2070.000000	31.534835
2069.000000	31.437869
2068.000000	31.323251
2067.000000	31.203247
2066.000000	31.079116
2065.000000	30.958882
2064.000000	30.832344
2063.000000	30.699159
2062.000000	30.589584
2061.000000	30.500412
2060.000000	30.404706
2059.000000	30.324016
2058.000000	30.265217
2057.000000	30.215702
2056.000000	30.165843
2055.000000	30.147734
2054.000000	30.145327
2053.000000	30.146817
2052.000000	30.168021
2051.000000	30.242064
2050.000000	30.358745
2049.000000	30.427744
2048.000000	30.533078
2047.000000	30.666951
2046.000000	30.795323
2045.000000	30.960945
2044.000000	31.131840
2043.000000	31.284167
2042.000000	31.412309
2041.000000	31.579651
2040.000000	31.752952
2039.000000	31.894046
2038.000000	32.040871
2037.000000	32.190333
2036.000000	32.315839
2035.000000	32.460142
2034.000000	32.576135
2033.000000	32.703475
2032.000000	32.834139
2031.000000	32.931450
2030.000000	33.045265
2029.000000	33.134552
2028.000000	33.206188
2027.000000	33.306478
2026.000000	33.390607
2025.000000	33.455596
2024.000000	33.506257
2023.000000	33.575715
2022.000000	33.640015
2021.000000	33.682997
2020.000000	33.754174
2019.000000	33.798417
2018.000000	33.848505
2017.000000	33.896988
2016.000000	33.910742
2015.000000	33.954870
2014.000000	33.982951
2013.000000	33.985129
2012.000000	33.991891
2011.000000	34.003467
2010.000000	34.024099
2009.000000	34.004728
2008.000000	33.993954
2007.000000	33.990859
2006.000000	33.973208
2005.000000	33.952577
2004.000000	33.903979
2003.000000	33.885526
2002.000000	33.830624
2001.000000	33.786726
2000.000000	33.742713
1999.000000	33.675088
1998.000000	33.610559
1997.000000	33.540756
1996.000000	33.477258
1995.000000	33.430953
1994.000000	33.355764
1993.000000	33.275761
1992.000000	33.216503
1991.000000	33.126643
1990.000000	33.058217
1989.000000	32.977870
1988.000000	32.892021
1987.000000	32.802046
1986.000000	32.704736
1985.000000	32.636997
1984.000000	32.549659
1983.000000	32.465529
1982.000000	32.374294
1981.000000	32.271482
1980.000000	32.186780
1979.000000	32.101619
1978.000000	32.012217
1977.000000	31.926025
1976.000000	31.832841
1975.000000	31.755818
1974.000000	31.648421
1973.000000	31.576900
1972.000000	31.492656
1971.000000	31.409329
1970.000000	31.325200
1969.000000	31.254251
1968.000000	31.153159
1967.000000	31.096194
1966.000000	31.000717
1965.000000	30.929884
1964.000000	30.842545
1963.000000	30.736524
1962.000000	30.678871
1961.000000	30.580300
1960.000000	30.486429
1959.000000	30.392557
1958.000000	30.318858
1957.000000	30.211003
1956.000000	30.125383
1955.000000	30.027729
1954.000000	29.955520
1953.000000	29.880102
1952.000000	29.769611
1951.000000	29.707373
1950.000000	29.595736
1949.000000	29.523985
1948.000000	29.460487
1947.000000	29.387132
1946.000000	29.333949
1945.000000	29.259792
1944.000000	29.206838
1943.000000	29.174058
1942.000000	29.127523
1941.000000	29.091648
1940.000000	29.077435
1939.000000	29.062650
1938.000000	29.072621
1937.000000	29.064025
1936.000000	29.071131
1935.000000	29.104256
1934.000000	29.125689
1933.000000	29.160418
1932.000000	29.240078
1931.000000	29.315840
1930.000000	29.370512
1929.000000	29.447650
1928.000000	29.606166
1927.000000	29.740612
1926.000000	29.871162
1925.000000	30.011797
1924.000000	30.135126
1923.000000	30.260632
1922.000000	30.464307
1921.000000	30.732054
1920.000000	31.005875
1919.000000	31.208404
1918.000000	31.454144
1917.000000	31.654840
1916.000000	31.851982
1915.000000	32.104026
1914.000000	32.458309
1913.000000	32.839641
1912.000000	33.232091
1911.000000	33.550957
1910.000000	33.862373
1909.000000	34.087711
1908.000000	34.405775
1907.000000	34.818398
1906.000000	35.301396
1905.000000	35.859354
1904.000000	36.325619
1903.000000	36.751079
1902.000000	37.181238
1901.000000	37.624579
1900.000000	38.172795
1899.000000	38.794824
1898.000000	39.366536
1897.000000	39.830164
1896.000000	40.208058
1895.000000	40.573000
1894.000000	41.026427
1893.000000	41.529484
1892.000000	42.098445
1891.000000	42.667292
1890.000000	43.188228
1889.000000	43.617471
1888.000000	44.056456
1887.000000	44.421398
1886.000000	44.816485
1885.000000	45.258450
1884.000000	45.685286
1883.000000	46.050457
1882.000000	46.404052
1881.000000	46.694608
1880.000000	46.917768
1879.000000	47.149410
1878.000000	47.410394
1877.000000	47.632638
1876.000000	47.856715
1875.000000	48.077239
1874.000000	48.280571
1873.000000	48.550724
1872.000000	48.785232
1871.000000	48.993721
1870.000000	49.196250
1869.000000	49.377919
1868.000000	49.477063
1867.000000	49.539759
1866.000000	49.526463
1865.000000	49.544573
1864.000000	49.548126
1863.000000	49.551679
1862.000000	49.603830
1861.000000	49.688532
1860.000000	49.785040
1859.000000	49.881319
1858.000000	49.943098
1857.000000	49.952840
1856.000000	49.936908
1855.000000	49.978973
1854.000000	50.044190
1853.000000	50.037084
1852.000000	50.033760
1851.000000	50.013817
1850.000000	49.980463
1849.000000	50.025966
1848.000000	50.140125
1847.000000	50.251534
1846.000000	50.218982
1845.000000	50.068719
1844.000000	49.923957
1843.000000	49.883153
1842.000000	49.962124
1841.000000	50.044764
1840.000000	50.044076
1839.000000	49.983099
1838.000000	49.926364
1837.000000	49.952267
1836.000000	49.983329
1835.000000	49.948256
1834.000000	49.836847
1833.000000	49.722688
1832.000000	49.650365
1831.000000	49.636381
1830.000000	49.668933
1829.000000	49.667901
1828.000000	49.606810
1827.000000	49.581136
1826.000000	49.598787
1825.000000	49.565204
1824.000000	49.504686
1823.000000	49.440500
1822.000000	49.478094
1821.000000	49.599245
1820.000000	49.679821
1819.000000	49.649448
1818.000000	49.565891
1817.000000	49.524056
1816.000000	49.551908
1815.000000	49.562682
1814.000000	49.548240
1813.000000	49.527953
1812.000000	49.526578
1811.000000	49.540790
1810.000000	49.496892
1809.000000	49.472593
1808.000000	49.476146
1807.000000	49.473166
1806.000000	49.468123
1805.000000	49.453108
1804.000000	49.427090
1803.000000	49.406229
1802.000000	49.423537
1801.000000	49.433508
1800.000000	49.402218
1799.000000	49.385254
1798.000000	49.379294
1797.000000	49.374366
1796.000000	49.371729
1795.000000	49.361070
1794.000000	49.372532
1793.000000	49.364852
1792.000000	49.343533
1791.000000	49.352130
1790.000000	49.355683
1789.000000	49.357975
1788.000000	49.378033
1787.000000	49.410126
1786.000000	49.420556
1785.000000	49.429038
1784.000000	49.439239
1783.000000	49.455056
1782.000000	49.447606
1781.000000	49.441761
1780.000000	49.433623
1779.000000	49.421244
1778.000000	49.402218
1777.000000	49.384108
1776.000000	49.342158
1775.000000	49.317171
1774.000000	49.304220
1773.000000	49.265937
1772.000000	49.240607
1771.000000	49.204846
1770.000000	49.162782
1769.000000	49.144099
1768.000000	49.127136
1767.000000	49.088166
1766.000000	49.061460
1765.000000	49.048164
1764.000000	49.046559
1763.000000	49.039568
1762.000000	49.013893
1761.000000	49.025355
1760.000000	49.038307
1759.000000	49.028794
1758.000000	49.022375
1757.000000	49.037849
1756.000000	49.022604
1755.000000	49.016759
1754.000000	49.023178
1753.000000	49.009194
1752.000000	48.990168
1751.000000	48.994294
1750.000000	48.947301
1749.000000	48.928962
1748.000000	48.904434
1747.000000	48.838185
1746.000000	48.800705
1745.000000	48.742708
1744.000000	48.682305
1743.000000	48.622245
1742.000000	48.540867
1741.000000	48.463385
1740.000000	48.382695
1739.000000	48.320687
1738.000000	48.259366
1737.000000	48.199077
1736.000000	48.153001
1735.000000	48.124118
1734.000000	48.084231
1733.000000	48.023598
1732.000000	48.000331
1731.000000	47.994944
1730.000000	47.947950
1729.000000	47.923766
1728.000000	47.901645
1727.000000	47.864967
1726.000000	47.859924
1725.000000	47.842273
1724.000000	47.847316
1723.000000	47.860727
1722.000000	47.931331
1721.000000	48.042510
1720.000000	48.176498
1719.000000	48.325615
1718.000000	48.483100
1717.000000	48.684597
1716.000000	48.852054
1715.000000	49.048508
1714.000000	49.186049
1713.000000	49.353964
1712.000000	49.500560
1711.000000	49.612655
1710.000000	49.713404
1709.000000	49.800514
1708.000000	49.886935
1707.000000	49.960749
1706.000000	50.011639
1705.000000	50.052787
1704.000000	50.058632
1703.000000	50.098863
1702.000000	50.129580
1701.000000	50.100238
1700.000000	50.128090
1699.000000	50.104135
1698.000000	50.125110
1697.000000	50.116858
1696.000000	50.087172
1695.000000	50.082473
1694.000000	50.052558
1693.000000	50.031353
1692.000000	49.958113
1691.000000	49.942639
1690.000000	49.944932
1689.000000	49.961207
1688.000000	49.979202
1687.000000	50.069292
1686.000000	50.208552
1685.000000	50.361223
1684.000000	50.596074
1683.000000	50.778660
1682.000000	51.010989
1681.000000	51.232774
1680.000000	51.466250
1679.000000	51.672332
1678.000000	51.874862
1677.000000	52.102377
1676.000000	52.275221
1675.000000	52.426172
1674.000000	52.614603
1673.000000	52.777933
1672.000000	52.941492
1671.000000	53.119723
1670.000000	53.271247
1669.000000	53.448216
1668.000000	53.580600
1667.000000	53.777283
1666.000000	53.893276
1665.000000	54.014427
1664.000000	54.138558
1663.000000	54.241370
1662.000000	54.321487
1661.000000	54.399886
1660.000000	54.506136
1659.000000	54.581784
1658.000000	54.642760
1657.000000	54.699267
1656.000000	54.755544
1655.000000	54.812738
1654.000000	54.831191
1653.000000	54.871651
1652.000000	54.892053
1651.000000	54.920364
1650.000000	54.940078
1649.000000	54.933316
1648.000000	54.963116
1647.000000	54.959105
1646.000000	54.939620
1645.000000	54.949935
1644.000000	54.939047
1643.000000	54.929189
1642.000000	54.932055
1641.000000	54.924146
1640.000000	54.923573
1639.000000	54.915321
1638.000000	54.934920
1637.000000	54.899160
1636.000000	54.902942
1635.000000	54.886781
1634.000000	54.858585
1633.000000	54.844029
1632.000000	54.818354
1631.000000	54.785803
1630.000000	54.753137
1629.000000	54.732277
1628.000000	54.715886
1627.000000	54.663621
1626.000000	54.620524
1625.000000	54.591297
1624.000000	54.556797
