PE UV       SUBTECH     SPECTRUM    ASCII       PEDS        4.00        
   -1
CICIMAUCR0019-3.Sample.ASC
24/04/17
14:35:40.00
24/04/17
14:35:40.00
Vinicio Soto Monge
C. cupreomarginata
250,000000
1
Lambda 1050
1050L1511233
PerkinElmer UV WinLab 6.3.2.0749 / 2.02.05 Lambda 900 UV/VIS/NIR, Aug  7 2015 09:38:08

0
0
3350/servo 860,8/2
0
0
UV/VIS
1
1
1
DoubleDePol,CommonBeamDepol,RBeamAtt,SBeamAtt,60mm sphere, WB InGaAs Detector
0
0
0
0
Program
Program
3350/servo 860,8/2
3350/0,2 860,8/0,2
3350/0,2 860,8/0,2
0
15.00
 
 
 
0
 
860,8
319,2
860,8
Front
100
on
S:100 R:100
0
0
0
0
 
0
 
 
 
0
 
 
0
0
0
0
0
 
 
 
 
0
0


0
0
#HDR
-1
-1
#GR
nm
%R
1.0
0.0
2500,000000
-1,000000
2251
8
48,289000
3,625600
#DATA
2500.000000	7.729000
2499.000000	7.686600
2498.000000	7.612000
2497.000000	7.670800
2496.000000	7.714700
2495.000000	7.596300
2494.000000	7.599500
2493.000000	7.597700
2492.000000	7.590500
2491.000000	7.588600
2490.000000	7.548300
2489.000000	7.486700
2488.000000	7.519900
2487.000000	7.542000
2486.000000	7.485200
2485.000000	7.527500
2484.000000	7.552500
2483.000000	7.523400
2482.000000	7.491900
2481.000000	7.497200
2480.000000	7.540500
2479.000000	7.491900
2478.000000	7.490100
2477.000000	7.499800
2476.000000	7.456100
2475.000000	7.476500
2474.000000	7.507600
2473.000000	7.468500
2472.000000	7.494100
2471.000000	7.494700
2470.000000	7.481500
2469.000000	7.517700
2468.000000	7.519200
2467.000000	7.555100
2466.000000	7.553500
2465.000000	7.554100
2464.000000	7.563300
2463.000000	7.611800
2462.000000	7.648000
2461.000000	7.673400
2460.000000	7.696200
2459.000000	7.735700
2458.000000	7.805800
2457.000000	7.862800
2456.000000	7.889800
2455.000000	7.945200
2454.000000	7.987000
2453.000000	8.061100
2452.000000	8.112700
2451.000000	8.165800
2450.000000	8.206900
2449.000000	8.267300
2448.000000	8.317900
2447.000000	8.385200
2446.000000	8.439900
2445.000000	8.503400
2444.000000	8.542200
2443.000000	8.586800
2442.000000	8.654300
2441.000000	8.715300
2440.000000	8.754200
2439.000000	8.792900
2438.000000	8.845800
2437.000000	8.906000
2436.000000	8.956400
2435.000000	9.003300
2434.000000	9.028700
2433.000000	9.062800
2432.000000	9.103700
2431.000000	9.139600
2430.000000	9.175600
2429.000000	9.202000
2428.000000	9.234100
2427.000000	9.249600
2426.000000	9.283900
2425.000000	9.319800
2424.000000	9.342300
2423.000000	9.360400
2422.000000	9.383800
2421.000000	9.424000
2420.000000	9.462300
2419.000000	9.492100
2418.000000	9.542600
2417.000000	9.580900
2416.000000	9.608600
2415.000000	9.621100
2414.000000	9.644600
2413.000000	9.667300
2412.000000	9.720000
2411.000000	9.723600
2410.000000	9.754800
2409.000000	9.797200
2408.000000	9.804000
2407.000000	9.815700
2406.000000	9.849600
2405.000000	9.873500
2404.000000	9.901800
2403.000000	9.936000
2402.000000	9.961700
2401.000000	9.978500
2400.000000	9.995800
2399.000000	10.008500
2398.000000	10.045200
2397.000000	10.059800
2396.000000	10.084000
2395.000000	10.106800
2394.000000	10.118000
2393.000000	10.144700
2392.000000	10.151900
2391.000000	10.161100
2390.000000	10.172100
2389.000000	10.163600
2388.000000	10.157900
2387.000000	10.168800
2386.000000	10.178200
2385.000000	10.181200
2384.000000	10.174800
2383.000000	10.159100
2382.000000	10.142000
2381.000000	10.134600
2380.000000	10.134900
2379.000000	10.123700
2378.000000	10.104500
2377.000000	10.085600
2376.000000	10.080900
2375.000000	10.061300
2374.000000	10.032300
2373.000000	10.010500
2372.000000	9.980700
2371.000000	9.942300
2370.000000	9.910100
2369.000000	9.880200
2368.000000	9.853100
2367.000000	9.811100
2366.000000	9.744300
2365.000000	9.698000
2364.000000	9.653300
2363.000000	9.606900
2362.000000	9.560200
2361.000000	9.507900
2360.000000	9.464500
2359.000000	9.417800
2358.000000	9.378200
2357.000000	9.344600
2356.000000	9.315700
2355.000000	9.301300
2354.000000	9.284900
2353.000000	9.285500
2352.000000	9.293100
2351.000000	9.305000
2350.000000	9.330500
2349.000000	9.358100
2348.000000	9.373200
2347.000000	9.399400
2346.000000	9.436100
2345.000000	9.458400
2344.000000	9.484700
2343.000000	9.512700
2342.000000	9.539400
2341.000000	9.552900
2340.000000	9.566400
2339.000000	9.560100
2338.000000	9.551000
2337.000000	9.540000
2336.000000	9.525100
2335.000000	9.489600
2334.000000	9.463400
2333.000000	9.409800
2332.000000	9.367000
2331.000000	9.340200
2330.000000	9.307900
2329.000000	9.253600
2328.000000	9.200600
2327.000000	9.153800
2326.000000	9.102000
2325.000000	9.037100
2324.000000	8.950500
2323.000000	8.867700
2322.000000	8.805500
2321.000000	8.743500
2320.000000	8.650900
2319.000000	8.547100
2318.000000	8.462700
2317.000000	8.361800
2316.000000	8.267200
2315.000000	8.186000
2314.000000	8.119600
2313.000000	8.046600
2312.000000	7.966100
2311.000000	7.919400
2310.000000	7.866700
2309.000000	7.837900
2308.000000	7.826400
2307.000000	7.810200
2306.000000	7.819700
2305.000000	7.855500
2304.000000	7.875300
2303.000000	7.904000
2302.000000	7.947500
2301.000000	8.024900
2300.000000	8.086300
2299.000000	8.141300
2298.000000	8.197500
2297.000000	8.253700
2296.000000	8.309700
2295.000000	8.348100
2294.000000	8.391400
2293.000000	8.428800
2292.000000	8.465900
2291.000000	8.475200
2290.000000	8.475200
2289.000000	8.474900
2288.000000	8.455000
2287.000000	8.450400
2286.000000	8.417500
2285.000000	8.406100
2284.000000	8.361800
2283.000000	8.325000
2282.000000	8.274600
2281.000000	8.241700
2280.000000	8.208300
2279.000000	8.178100
2278.000000	8.138900
2277.000000	8.112600
2276.000000	8.081000
2275.000000	8.076000
2274.000000	8.036600
2273.000000	8.036500
2272.000000	8.033400
2271.000000	8.057800
2270.000000	8.068700
2269.000000	8.098000
2268.000000	8.165400
2267.000000	8.242300
2266.000000	8.326400
2265.000000	8.425400
2264.000000	8.538700
2263.000000	8.673000
2262.000000	8.833300
2261.000000	9.006800
2260.000000	9.158200
2259.000000	9.337800
2258.000000	9.534600
2257.000000	9.719600
2256.000000	9.907400
2255.000000	10.102100
2254.000000	10.267800
2253.000000	10.485000
2252.000000	10.634100
2251.000000	10.782600
2250.000000	10.973500
2249.000000	11.120800
2248.000000	11.239200
2247.000000	11.400000
2246.000000	11.501800
2245.000000	11.625800
2244.000000	11.730900
2243.000000	11.809400
2242.000000	11.912200
2241.000000	12.000800
2240.000000	12.081200
2239.000000	12.188800
2238.000000	12.244700
2237.000000	12.313300
2236.000000	12.382200
2235.000000	12.406500
2234.000000	12.463200
2233.000000	12.505100
2232.000000	12.530400
2231.000000	12.546800
2230.000000	12.588700
2229.000000	12.612100
2228.000000	12.606700
2227.000000	12.620800
2226.000000	12.616800
2225.000000	12.618700
2224.000000	12.632900
2223.000000	12.624500
2222.000000	12.579300
2221.000000	12.581200
2220.000000	12.583100
2219.000000	12.546500
2218.000000	12.545900
2217.000000	12.501800
2216.000000	12.495700
2215.000000	12.443000
2214.000000	12.448800
2213.000000	12.422200
2212.000000	12.392400
2211.000000	12.366100
2210.000000	12.337300
2209.000000	12.333000
2208.000000	12.327400
2207.000000	12.312600
2206.000000	12.292800
2205.000000	12.303900
2204.000000	12.266000
2203.000000	12.258700
2202.000000	12.263200
2201.000000	12.260000
2200.000000	12.253200
2199.000000	12.217400
2198.000000	12.202000
2197.000000	12.194200
2196.000000	12.197400
2195.000000	12.181800
2194.000000	12.186700
2193.000000	12.157400
2192.000000	12.134700
2191.000000	12.117200
2190.000000	12.110500
2189.000000	12.118500
2188.000000	12.088100
2187.000000	12.076000
2186.000000	12.076800
2185.000000	12.035600
2184.000000	12.032300
2183.000000	12.035700
2182.000000	12.015800
2181.000000	12.007800
2180.000000	11.999200
2179.000000	11.984000
2178.000000	12.000400
2177.000000	11.980200
2176.000000	11.965500
2175.000000	11.961700
2174.000000	11.981200
2173.000000	11.978000
2172.000000	11.997100
2171.000000	11.999900
2170.000000	12.004200
2169.000000	12.029400
2168.000000	12.026200
2167.000000	12.054700
2166.000000	12.068300
2165.000000	12.104000
2164.000000	12.131200
2163.000000	12.144600
2162.000000	12.178100
2161.000000	12.205500
2160.000000	12.222500
2159.000000	12.272400
2158.000000	12.302900
2157.000000	12.343700
2156.000000	12.400100
2155.000000	12.439200
2154.000000	12.471400
2153.000000	12.525200
2152.000000	12.563000
2151.000000	12.603300
2150.000000	12.639100
2149.000000	12.670200
2148.000000	12.701000
2147.000000	12.745200
2146.000000	12.779400
2145.000000	12.806100
2144.000000	12.850500
2143.000000	12.883100
2142.000000	12.919300
2141.000000	12.943100
2140.000000	12.979800
2139.000000	13.008100
2138.000000	13.015500
2137.000000	13.049100
2136.000000	13.094800
2135.000000	13.118200
2134.000000	13.148900
2133.000000	13.159200
2132.000000	13.152400
2131.000000	13.180600
2130.000000	13.203200
2129.000000	13.214000
2128.000000	13.227100
2127.000000	13.212100
2126.000000	13.207400
2125.000000	13.226000
2124.000000	13.228800
2123.000000	13.222100
2122.000000	13.196400
2121.000000	13.176900
2120.000000	13.173900
2119.000000	13.163700
2118.000000	13.150200
2117.000000	13.122500
2116.000000	13.109100
2115.000000	13.084700
2114.000000	13.066000
2113.000000	13.052500
2112.000000	13.028300
2111.000000	13.002700
2110.000000	12.992500
2109.000000	12.974900
2108.000000	12.945000
2107.000000	12.933200
2106.000000	12.926400
2105.000000	12.903200
2104.000000	12.873000
2103.000000	12.851000
2102.000000	12.832600
2101.000000	12.814000
2100.000000	12.794600
2099.000000	12.761800
2098.000000	12.742500
2097.000000	12.732900
2096.000000	12.713700
2095.000000	12.701100
2094.000000	12.700100
2093.000000	12.700100
2092.000000	12.676300
2091.000000	12.649700
2090.000000	12.654700
2089.000000	12.650700
2088.000000	12.641300
2087.000000	12.622300
2086.000000	12.606200
2085.000000	12.602600
2084.000000	12.579000
2083.000000	12.558800
2082.000000	12.554700
2081.000000	12.550300
2080.000000	12.533000
2079.000000	12.514100
2078.000000	12.484400
2077.000000	12.470300
2076.000000	12.452100
2075.000000	12.424200
2074.000000	12.406700
2073.000000	12.372200
2072.000000	12.350700
2071.000000	12.326500
2070.000000	12.292900
2069.000000	12.279700
2068.000000	12.253900
2067.000000	12.224500
2066.000000	12.218100
2065.000000	12.186100
2064.000000	12.158800
2063.000000	12.136300
2062.000000	12.115000
2061.000000	12.110200
2060.000000	12.091400
2059.000000	12.075000
2058.000000	12.069900
2057.000000	12.107300
2056.000000	12.135300
2055.000000	12.153600
2054.000000	12.188500
2053.000000	12.226800
2052.000000	12.275800
2051.000000	12.338100
2050.000000	12.406000
2049.000000	12.474400
2048.000000	12.568800
2047.000000	12.663500
2046.000000	12.755900
2045.000000	12.837100
2044.000000	12.943300
2043.000000	13.018200
2042.000000	13.123900
2041.000000	13.225900
2040.000000	13.356800
2039.000000	13.466900
2038.000000	13.552600
2037.000000	13.643100
2036.000000	13.728700
2035.000000	13.822000
2034.000000	13.906600
2033.000000	13.998700
2032.000000	14.080800
2031.000000	14.148400
2030.000000	14.207800
2029.000000	14.268700
2028.000000	14.343300
2027.000000	14.411300
2026.000000	14.462700
2025.000000	14.522800
2024.000000	14.587800
2023.000000	14.637000
2022.000000	14.681500
2021.000000	14.710700
2020.000000	14.752200
2019.000000	14.770800
2018.000000	14.818600
2017.000000	14.864800
2016.000000	14.908300
2015.000000	14.919700
2014.000000	14.934900
2013.000000	14.960600
2012.000000	14.968900
2011.000000	14.995300
2010.000000	15.006600
2009.000000	15.027900
2008.000000	14.989800
2007.000000	14.968400
2006.000000	14.976300
2005.000000	14.967100
2004.000000	14.943600
2003.000000	14.950200
2002.000000	14.920000
2001.000000	14.902300
2000.000000	14.876000
1999.000000	14.836700
1998.000000	14.789100
1997.000000	14.740400
1996.000000	14.702700
1995.000000	14.631800
1994.000000	14.607400
1993.000000	14.553200
1992.000000	14.503200
1991.000000	14.441600
1990.000000	14.385400
1989.000000	14.311800
1988.000000	14.260500
1987.000000	14.198400
1986.000000	14.135400
1985.000000	14.074700
1984.000000	13.984100
1983.000000	13.916000
1982.000000	13.826900
1981.000000	13.768300
1980.000000	13.681200
1979.000000	13.628000
1978.000000	13.572600
1977.000000	13.481200
1976.000000	13.419200
1975.000000	13.346700
1974.000000	13.278100
1973.000000	13.203700
1972.000000	13.149000
1971.000000	13.064400
1970.000000	13.015300
1969.000000	12.958500
1968.000000	12.877800
1967.000000	12.811100
1966.000000	12.731900
1965.000000	12.672600
1964.000000	12.608000
1963.000000	12.535500
1962.000000	12.497300
1961.000000	12.434500
1960.000000	12.353900
1959.000000	12.288400
1958.000000	12.238500
1957.000000	12.181100
1956.000000	12.088300
1955.000000	12.031200
1954.000000	11.999200
1953.000000	11.969400
1952.000000	11.871700
1951.000000	11.811500
1950.000000	11.736200
1949.000000	11.692300
1948.000000	11.652600
1947.000000	11.596800
1946.000000	11.571100
1945.000000	11.559700
1944.000000	11.470700
1943.000000	11.473700
1942.000000	11.423900
1941.000000	11.389000
1940.000000	11.377700
1939.000000	11.380900
1938.000000	11.425200
1937.000000	11.403200
1936.000000	11.438900
1935.000000	11.469200
1934.000000	11.460200
1933.000000	11.492700
1932.000000	11.490000
1931.000000	11.510800
1930.000000	11.551800
1929.000000	11.648400
1928.000000	11.760600
1927.000000	11.864600
1926.000000	11.988300
1925.000000	12.054500
1924.000000	12.105300
1923.000000	12.143300
1922.000000	12.255400
1921.000000	12.468800
1920.000000	12.691900
1919.000000	12.896800
1918.000000	13.008000
1917.000000	13.090500
1916.000000	13.137100
1915.000000	13.214300
1914.000000	13.451300
1913.000000	13.748000
1912.000000	14.076400
1911.000000	14.268300
1910.000000	14.435300
1909.000000	14.469000
1908.000000	14.513900
1907.000000	14.711000
1906.000000	14.991600
1905.000000	15.402200
1904.000000	15.754000
1903.000000	15.971700
1902.000000	16.137400
1901.000000	16.291900
1900.000000	16.577500
1899.000000	16.990700
1898.000000	17.386900
1897.000000	17.657200
1896.000000	17.811500
1895.000000	17.880000
1894.000000	17.999400
1893.000000	18.240700
1892.000000	18.593300
1891.000000	18.978600
1890.000000	19.333500
1889.000000	19.603100
1888.000000	19.861200
1887.000000	20.058000
1886.000000	20.297500
1885.000000	20.652700
1884.000000	21.093600
1883.000000	21.547700
1882.000000	22.004100
1881.000000	22.384200
1880.000000	22.680900
1879.000000	22.962800
1878.000000	23.282400
1877.000000	23.612400
1876.000000	23.904500
1875.000000	24.198300
1874.000000	24.479500
1873.000000	24.815600
1872.000000	25.163600
1871.000000	25.457500
1870.000000	25.840400
1869.000000	26.181500
1868.000000	26.396200
1867.000000	26.510900
1866.000000	26.507800
1865.000000	26.488300
1864.000000	26.426900
1863.000000	26.340400
1862.000000	26.304500
1861.000000	26.321100
1860.000000	26.379600
1859.000000	26.492300
1858.000000	26.625200
1857.000000	26.616700
1856.000000	26.514200
1855.000000	26.481900
1854.000000	26.549000
1853.000000	26.573400
1852.000000	26.543800
1851.000000	26.408500
1850.000000	26.140800
1849.000000	25.971500
1848.000000	26.111900
1847.000000	26.428200
1846.000000	26.539100
1845.000000	26.350800
1844.000000	26.038400
1843.000000	25.767200
1842.000000	25.747300
1841.000000	25.919500
1840.000000	26.009500
1839.000000	25.964500
1838.000000	25.865700
1837.000000	25.874900
1836.000000	25.960500
1835.000000	26.012000
1834.000000	25.929400
1833.000000	25.711600
1832.000000	25.530500
1831.000000	25.442000
1830.000000	25.465000
1829.000000	25.442700
1828.000000	25.349200
1827.000000	25.313500
1826.000000	25.321800
1825.000000	25.290000
1824.000000	25.169300
1823.000000	24.938600
1822.000000	24.838100
1821.000000	24.951400
1820.000000	25.124700
1819.000000	25.192500
1818.000000	25.095100
1817.000000	24.953200
1816.000000	24.955200
1815.000000	24.994300
1814.000000	24.990600
1813.000000	24.937500
1812.000000	24.908500
1811.000000	24.957800
1810.000000	24.955000
1809.000000	24.868600
1808.000000	24.783000
1807.000000	24.735100
1806.000000	24.741400
1805.000000	24.732400
1804.000000	24.669300
1803.000000	24.578800
1802.000000	24.536100
1801.000000	24.532100
1800.000000	24.522900
1799.000000	24.476800
1798.000000	24.419100
1797.000000	24.361600
1796.000000	24.313700
1795.000000	24.274600
1794.000000	24.234700
1793.000000	24.197500
1792.000000	24.150200
1791.000000	24.119300
1790.000000	24.077900
1789.000000	24.004200
1788.000000	23.954200
1787.000000	23.914700
1786.000000	23.849600
1785.000000	23.768100
1784.000000	23.689700
1783.000000	23.616000
1782.000000	23.542900
1781.000000	23.469200
1780.000000	23.408700
1779.000000	23.345100
1778.000000	23.272100
1777.000000	23.186500
1776.000000	23.100600
1775.000000	23.013200
1774.000000	22.910400
1773.000000	22.789300
1772.000000	22.665900
1771.000000	22.547500
1770.000000	22.421900
1769.000000	22.281100
1768.000000	22.149900
1767.000000	22.059800
1766.000000	21.996200
1765.000000	21.930400
1764.000000	21.893200
1763.000000	21.852800
1762.000000	21.857100
1761.000000	21.881700
1760.000000	21.924900
1759.000000	21.989700
1758.000000	22.031500
1757.000000	22.079100
1756.000000	22.140200
1755.000000	22.176400
1754.000000	22.196900
1753.000000	22.191500
1752.000000	22.166200
1751.000000	22.123800
1750.000000	22.075300
1749.000000	22.004600
1748.000000	21.921500
1747.000000	21.856200
1746.000000	21.756000
1745.000000	21.626100
1744.000000	21.484000
1743.000000	21.322800
1742.000000	21.130100
1741.000000	20.920800
1740.000000	20.695400
1739.000000	20.483500
1738.000000	20.267100
1737.000000	20.086400
1736.000000	19.949300
1735.000000	19.851300
1734.000000	19.789100
1733.000000	19.754400
1732.000000	19.804900
1731.000000	19.832600
1730.000000	19.933300
1729.000000	20.009300
1728.000000	20.105500
1727.000000	20.206500
1726.000000	20.298800
1725.000000	20.349400
1724.000000	20.394300
1723.000000	20.430000
1722.000000	20.440400
1721.000000	20.456400
1720.000000	20.464000
1719.000000	20.473000
1718.000000	20.529700
1717.000000	20.578200
1716.000000	20.592800
1715.000000	20.653100
1714.000000	20.717000
1713.000000	20.772600
1712.000000	20.814200
1711.000000	20.843200
1710.000000	20.864700
1709.000000	20.850600
1708.000000	20.848900
1707.000000	20.830600
1706.000000	20.809400
1705.000000	20.768100
1704.000000	20.715000
1703.000000	20.649600
1702.000000	20.555900
1701.000000	20.417000
1700.000000	20.281300
1699.000000	20.139800
1698.000000	19.979200
1697.000000	19.869700
1696.000000	19.811300
1695.000000	19.787300
1694.000000	19.797700
1693.000000	19.878100
1692.000000	20.010300
1691.000000	20.171000
1690.000000	20.309600
1689.000000	20.419300
1688.000000	20.500600
1687.000000	20.544300
1686.000000	20.547200
1685.000000	20.559500
1684.000000	20.624800
1683.000000	20.789000
1682.000000	21.071500
1681.000000	21.449600
1680.000000	21.902500
1679.000000	22.414400
1678.000000	22.902900
1677.000000	23.383900
1676.000000	23.789300
1675.000000	24.152500
1674.000000	24.489100
1673.000000	24.757000
1672.000000	24.984800
1671.000000	25.200100
1670.000000	25.381400
1669.000000	25.594200
1668.000000	25.692400
1667.000000	25.843600
1666.000000	25.954600
1665.000000	26.036500
1664.000000	26.092800
1663.000000	26.195700
1662.000000	26.236200
1661.000000	26.305700
1660.000000	26.348600
1659.000000	26.360700
1658.000000	26.395400
1657.000000	26.414100
1656.000000	26.437500
1655.000000	26.456300
1654.000000	26.460800
1653.000000	26.430300
1652.000000	26.406500
1651.000000	26.368700
1650.000000	26.367700
1649.000000	26.334000
1648.000000	26.306800
1647.000000	26.297600
1646.000000	26.265600
1645.000000	26.215700
1644.000000	26.161800
1643.000000	26.133200
1642.000000	26.101600
1641.000000	26.040500
1640.000000	25.997000
1639.000000	25.956700
1638.000000	25.884500
1637.000000	25.808800
1636.000000	25.779300
1635.000000	25.737600
1634.000000	25.672700
1633.000000	25.601600
1632.000000	25.543900
1631.000000	25.484700
1630.000000	25.432400
1629.000000	25.358100
1628.000000	25.290000
1627.000000	25.228400
1626.000000	25.154800
1625.000000	25.085900
1624.000000	25.014900
1623.000000	24.935300
1622.000000	24.901700
1621.000000	24.848100
1620.000000	24.774600
1619.000000	24.699000
1618.000000	24.637400
1617.000000	24.565800
1616.000000	24.523100
1615.000000	24.479000
