PE UV       SUBTECH     SPECTRUM    ASCII       PEDS        4.00        
   -1
CICIMAUCR0116-3.Sample.ASC
24/04/11
14:13:42.00
24/04/11
14:13:42.00
Vinicio Soto Monge
C. kalinini
250,000000
1
Lambda 1050
1050L1511233
PerkinElmer UV WinLab 6.3.2.0749 / 2.02.05 Lambda 900 UV/VIS/NIR, Aug  7 2015 09:38:08

0
0
3350/2 860,8/2
0
0
UV/VIS
1
1
1
DoubleDePol,CommonBeamDepol,RBeamAtt,SBeamAtt,60mm sphere, WB InGaAs Detector
0
0
0
0
Program
Program
3350/2 860,8/2
3350/0,2 860,8/0,2
3350/0,2 860,8/0,2
0
15.00
 
 
 
0
 
860,8
319,2
860,8
Front
100
on
S:100 R:100
0
0
0
0
 
0
 
 
 
0
 
 
0
0
0
0
0
 
 
 
 
0
0


0
0
#HDR
-1
-1
#GR
nm
%R
1.0
0.0
2400,000000
-1,000000
2151
8
95,435400
5,183200
#DATA
2400.000000	17.162700
2399.000000	17.732500
2398.000000	17.196700
2397.000000	18.170600
2396.000000	18.196900
2395.000000	18.714000
2394.000000	17.523000
2393.000000	17.528700
2392.000000	17.275700
2391.000000	17.936000
2390.000000	18.344000
2389.000000	17.963200
2388.000000	18.488000
2387.000000	18.864300
2386.000000	18.226900
2385.000000	17.379200
2384.000000	17.902600
2383.000000	17.992100
2382.000000	17.729200
2381.000000	17.711000
2380.000000	16.895100
2379.000000	17.006600
2378.000000	17.848000
2377.000000	18.062000
2376.000000	18.284900
2375.000000	17.311000
2374.000000	16.741100
2373.000000	16.576200
2372.000000	17.257700
2371.000000	17.343500
2370.000000	17.439500
2369.000000	17.356100
2368.000000	16.883900
2367.000000	16.708700
2366.000000	17.204700
2365.000000	17.075600
2364.000000	17.324800
2363.000000	17.531700
2362.000000	16.541100
2361.000000	16.423400
2360.000000	16.302000
2359.000000	16.067200
2358.000000	16.062200
2357.000000	16.257600
2356.000000	15.817600
2355.000000	15.883000
2354.000000	15.637600
2353.000000	16.006600
2352.000000	17.010700
2351.000000	15.539700
2350.000000	15.597500
2349.000000	15.862800
2348.000000	15.882800
2347.000000	16.249800
2346.000000	16.577100
2345.000000	16.147900
2344.000000	15.372700
2343.000000	16.482800
2342.000000	16.153400
2341.000000	16.538600
2340.000000	16.569400
2339.000000	16.885100
2338.000000	16.217200
2337.000000	16.016300
2336.000000	16.367000
2335.000000	16.021500
2334.000000	16.273300
2333.000000	16.128100
2332.000000	16.436000
2331.000000	16.019500
2330.000000	16.043700
2329.000000	15.841900
2328.000000	15.590700
2327.000000	15.814700
2326.000000	15.743900
2325.000000	15.696700
2324.000000	15.357100
2323.000000	15.511300
2322.000000	15.537500
2321.000000	15.445800
2320.000000	15.553000
2319.000000	15.348700
2318.000000	15.489600
2317.000000	14.866200
2316.000000	14.839700
2315.000000	14.690700
2314.000000	13.966800
2313.000000	13.482700
2312.000000	13.892300
2311.000000	13.813100
2310.000000	13.630500
2309.000000	13.663800
2308.000000	13.661400
2307.000000	13.708100
2306.000000	13.546100
2305.000000	13.266400
2304.000000	13.806500
2303.000000	13.991900
2302.000000	13.580200
2301.000000	13.612800
2300.000000	13.490400
2299.000000	13.674400
2298.000000	14.216900
2297.000000	14.431100
2296.000000	14.482300
2295.000000	14.287300
2294.000000	14.498000
2293.000000	14.428600
2292.000000	14.546600
2291.000000	14.794900
2290.000000	15.052100
2289.000000	14.682000
2288.000000	14.426700
2287.000000	14.842600
2286.000000	14.647400
2285.000000	14.535400
2284.000000	14.601300
2283.000000	14.341900
2282.000000	14.306500
2281.000000	14.148000
2280.000000	14.019300
2279.000000	14.087000
2278.000000	14.014300
2277.000000	13.842000
2276.000000	13.832400
2275.000000	14.256700
2274.000000	14.381700
2273.000000	13.967600
2272.000000	13.734200
2271.000000	13.594900
2270.000000	13.735900
2269.000000	14.089300
2268.000000	14.032700
2267.000000	13.934900
2266.000000	14.313400
2265.000000	14.392000
2264.000000	14.196800
2263.000000	14.472500
2262.000000	14.753800
2261.000000	15.033000
2260.000000	15.349800
2259.000000	15.756800
2258.000000	15.968000
2257.000000	15.891600
2256.000000	16.285200
2255.000000	16.696600
2254.000000	16.890700
2253.000000	17.244100
2252.000000	17.545600
2251.000000	17.659900
2250.000000	18.035900
2249.000000	18.389200
2248.000000	18.387300
2247.000000	18.768800
2246.000000	18.794000
2245.000000	18.959900
2244.000000	19.008900
2243.000000	19.151500
2242.000000	19.466900
2241.000000	19.384900
2240.000000	19.582300
2239.000000	19.953500
2238.000000	19.853100
2237.000000	19.581700
2236.000000	19.789100
2235.000000	20.300100
2234.000000	20.297300
2233.000000	20.046200
2232.000000	20.110700
2231.000000	20.076200
2230.000000	20.041300
2229.000000	20.138500
2228.000000	20.307500
2227.000000	19.972100
2226.000000	19.952300
2225.000000	19.989300
2224.000000	20.038100
2223.000000	19.944900
2222.000000	19.603200
2221.000000	19.995200
2220.000000	20.262600
2219.000000	19.809500
2218.000000	19.583800
2217.000000	19.914400
2216.000000	19.846200
2215.000000	19.775400
2214.000000	19.258100
2213.000000	19.116800
2212.000000	19.379800
2211.000000	19.433400
2210.000000	19.427000
2209.000000	19.381400
2208.000000	19.425000
2207.000000	19.050200
2206.000000	19.218900
2205.000000	19.098800
2204.000000	18.909400
2203.000000	18.811500
2202.000000	18.758000
2201.000000	18.696600
2200.000000	18.930200
2199.000000	18.873700
2198.000000	18.769600
2197.000000	18.807000
2196.000000	18.937900
2195.000000	18.593600
2194.000000	18.702200
2193.000000	18.416000
2192.000000	18.981000
2191.000000	18.734300
2190.000000	19.012500
2189.000000	18.907900
2188.000000	18.693900
2187.000000	18.799100
2186.000000	18.740600
2185.000000	18.786500
2184.000000	18.726700
2183.000000	18.591000
2182.000000	18.828700
2181.000000	18.505000
2180.000000	18.638900
2179.000000	18.706300
2178.000000	18.823900
2177.000000	18.632900
2176.000000	18.577600
2175.000000	18.558700
2174.000000	18.584200
2173.000000	18.625600
2172.000000	18.361900
2171.000000	18.658400
2170.000000	18.945300
2169.000000	18.691100
2168.000000	18.693300
2167.000000	18.668800
2166.000000	18.720300
2165.000000	18.795500
2164.000000	18.852700
2163.000000	18.777800
2162.000000	18.995500
2161.000000	19.316800
2160.000000	19.298300
2159.000000	19.050000
2158.000000	19.190100
2157.000000	18.943900
2156.000000	19.405900
2155.000000	18.929400
2154.000000	19.370600
2153.000000	19.416600
2152.000000	20.078500
2151.000000	19.605500
2150.000000	19.242900
2149.000000	19.279300
2148.000000	19.513800
2147.000000	19.870000
2146.000000	20.394900
2145.000000	20.077800
2144.000000	19.863600
2143.000000	19.920000
2142.000000	19.866800
2141.000000	20.628600
2140.000000	20.363400
2139.000000	20.560500
2138.000000	20.294300
2137.000000	20.510000
2136.000000	20.792800
2135.000000	20.819000
2134.000000	20.494500
2133.000000	20.892500
2132.000000	20.599000
2131.000000	20.465000
2130.000000	20.571800
2129.000000	21.036400
2128.000000	20.948700
2127.000000	21.044300
2126.000000	20.992800
2125.000000	20.934500
2124.000000	20.864100
2123.000000	20.839000
2122.000000	20.799400
2121.000000	20.932800
2120.000000	20.789800
2119.000000	20.805500
2118.000000	20.520000
2117.000000	21.196100
2116.000000	20.574100
2115.000000	20.772900
2114.000000	20.726800
2113.000000	21.154600
2112.000000	20.571500
2111.000000	20.839600
2110.000000	20.338200
2109.000000	20.674500
2108.000000	20.741900
2107.000000	20.488300
2106.000000	20.578500
2105.000000	20.347700
2104.000000	20.579900
2103.000000	20.464300
2102.000000	20.513400
2101.000000	20.139100
2100.000000	20.345300
2099.000000	20.496900
2098.000000	20.511200
2097.000000	20.496300
2096.000000	20.354700
2095.000000	19.815100
2094.000000	19.956000
2093.000000	20.044300
2092.000000	20.264300
2091.000000	20.273800
2090.000000	20.493000
2089.000000	20.300000
2088.000000	20.229100
2087.000000	20.195000
2086.000000	20.437300
2085.000000	20.155600
2084.000000	20.073700
2083.000000	20.237900
2082.000000	20.384900
2081.000000	20.248400
2080.000000	20.036700
2079.000000	20.257700
2078.000000	19.800600
2077.000000	19.763200
2076.000000	19.781000
2075.000000	19.870800
2074.000000	19.803500
2073.000000	19.751700
2072.000000	19.657500
2071.000000	19.748500
2070.000000	19.586400
2069.000000	19.567900
2068.000000	19.421000
2067.000000	19.302400
2066.000000	19.240800
2065.000000	19.074300
2064.000000	19.070000
2063.000000	18.979700
2062.000000	18.895400
2061.000000	18.807600
2060.000000	18.743600
2059.000000	18.784100
2058.000000	18.791600
2057.000000	18.895100
2056.000000	18.822300
2055.000000	18.763700
2054.000000	18.755700
2053.000000	18.781600
2052.000000	18.767800
2051.000000	18.816600
2050.000000	18.962200
2049.000000	19.186800
2048.000000	19.261600
2047.000000	19.417800
2046.000000	19.464600
2045.000000	19.579200
2044.000000	19.689600
2043.000000	19.880300
2042.000000	20.041900
2041.000000	20.256100
2040.000000	20.442900
2039.000000	20.484500
2038.000000	20.603700
2037.000000	20.778900
2036.000000	20.936300
2035.000000	21.072600
2034.000000	21.297600
2033.000000	21.327200
2032.000000	21.324800
2031.000000	21.446900
2030.000000	21.525500
2029.000000	21.632500
2028.000000	21.685200
2027.000000	21.693200
2026.000000	21.752800
2025.000000	21.794600
2024.000000	21.858800
2023.000000	22.012300
2022.000000	22.083500
2021.000000	22.117300
2020.000000	22.137100
2019.000000	22.183000
2018.000000	22.160300
2017.000000	22.228600
2016.000000	22.332000
2015.000000	22.353000
2014.000000	22.451700
2013.000000	22.509300
2012.000000	22.413700
2011.000000	22.334200
2010.000000	22.342300
2009.000000	22.341400
2008.000000	22.340200
2007.000000	22.315000
2006.000000	22.336600
2005.000000	22.334400
2004.000000	22.319100
2003.000000	22.282100
2002.000000	22.175400
2001.000000	22.136500
2000.000000	22.153900
1999.000000	22.183000
1998.000000	22.112400
1997.000000	22.034900
1996.000000	22.059700
1995.000000	21.953300
1994.000000	21.810500
1993.000000	21.752800
1992.000000	21.703300
1991.000000	21.642400
1990.000000	21.562400
1989.000000	21.501400
1988.000000	21.383200
1987.000000	21.282700
1986.000000	21.209700
1985.000000	21.142800
1984.000000	21.051900
1983.000000	20.946100
1982.000000	20.858300
1981.000000	20.764300
1980.000000	20.702000
1979.000000	20.582500
1978.000000	20.455700
1977.000000	20.328300
1976.000000	20.302800
1975.000000	20.241000
1974.000000	20.124800
1973.000000	20.098000
1972.000000	20.052700
1971.000000	19.912700
1970.000000	19.915900
1969.000000	19.787700
1968.000000	19.674800
1967.000000	19.609500
1966.000000	19.487800
1965.000000	19.396900
1964.000000	19.457800
1963.000000	19.390800
1962.000000	19.191200
1961.000000	19.175500
1960.000000	19.155600
1959.000000	19.086100
1958.000000	18.878800
1957.000000	18.872100
1956.000000	18.809500
1955.000000	18.740000
1954.000000	18.728000
1953.000000	18.638800
1952.000000	18.516200
1951.000000	18.453000
1950.000000	18.379000
1949.000000	18.314800
1948.000000	18.266200
1947.000000	18.330800
1946.000000	18.167600
1945.000000	18.088800
1944.000000	18.088600
1943.000000	18.056400
1942.000000	17.988300
1941.000000	18.016100
1940.000000	18.024400
1939.000000	18.082800
1938.000000	18.094300
1937.000000	18.082300
1936.000000	18.117600
1935.000000	18.114200
1934.000000	18.137100
1933.000000	18.231100
1932.000000	18.312000
1931.000000	18.418400
1930.000000	18.474400
1929.000000	18.550500
1928.000000	18.707700
1927.000000	18.745200
1926.000000	18.884400
1925.000000	18.976100
1924.000000	19.192100
1923.000000	19.298400
1922.000000	19.337700
1921.000000	19.638700
1920.000000	19.956400
1919.000000	19.869000
1918.000000	20.027400
1917.000000	20.224200
1916.000000	20.600300
1915.000000	20.840800
1914.000000	21.046500
1913.000000	21.417900
1912.000000	21.462200
1911.000000	21.690900
1910.000000	22.031200
1909.000000	22.186000
1908.000000	22.436800
1907.000000	22.882600
1906.000000	23.369300
1905.000000	23.738100
1904.000000	23.901200
1903.000000	24.130100
1902.000000	24.328400
1901.000000	24.606800
1900.000000	25.224300
1899.000000	25.647900
1898.000000	25.922800
1897.000000	26.138700
1896.000000	26.464900
1895.000000	26.782300
1894.000000	27.134100
1893.000000	27.542800
1892.000000	27.892900
1891.000000	28.230800
1890.000000	28.565300
1889.000000	28.977800
1888.000000	29.153200
1887.000000	29.595600
1886.000000	30.103100
1885.000000	30.468200
1884.000000	31.007700
1883.000000	31.296400
1882.000000	31.772800
1881.000000	32.360900
1880.000000	32.759100
1879.000000	33.212900
1878.000000	33.690700
1877.000000	34.153000
1876.000000	34.528000
1875.000000	34.720000
1874.000000	35.143800
1873.000000	35.659500
1872.000000	35.676000
1871.000000	36.182700
1870.000000	36.297400
1869.000000	36.242600
1868.000000	36.576400
1867.000000	36.696800
1866.000000	36.508500
1865.000000	36.645600
1864.000000	36.861900
1863.000000	36.897200
1862.000000	36.882700
1861.000000	37.054800
1860.000000	37.394200
1859.000000	37.265900
1858.000000	37.088600
1857.000000	37.212200
1856.000000	37.345400
1855.000000	37.082600
1854.000000	37.253700
1853.000000	37.234200
1852.000000	36.999900
1851.000000	37.004900
1850.000000	37.079700
1849.000000	37.047900
1848.000000	37.295900
1847.000000	37.248900
1846.000000	36.798100
1845.000000	36.632900
1844.000000	36.620000
1843.000000	36.749200
1842.000000	36.878700
1841.000000	36.869200
1840.000000	36.663000
1839.000000	36.593500
1838.000000	36.597200
1837.000000	36.690000
1836.000000	36.647600
1835.000000	36.442500
1834.000000	36.241200
1833.000000	36.144500
1832.000000	36.157800
1831.000000	36.153500
1830.000000	36.017400
1829.000000	35.982300
1828.000000	35.853800
1827.000000	35.861700
1826.000000	35.759400
1825.000000	35.665800
1824.000000	35.547600
1823.000000	35.616800
1822.000000	35.651400
1821.000000	35.791000
1820.000000	35.723500
1819.000000	35.540600
1818.000000	35.495700
1817.000000	35.472100
1816.000000	35.555800
1815.000000	35.544200
1814.000000	35.444200
1813.000000	35.473800
1812.000000	35.525200
1811.000000	35.458900
1810.000000	35.421400
1809.000000	35.335400
1808.000000	35.307800
1807.000000	35.302900
1806.000000	35.290900
1805.000000	35.201000
1804.000000	35.099700
1803.000000	35.096800
1802.000000	35.094900
1801.000000	35.077800
1800.000000	35.034800
1799.000000	34.954900
1798.000000	34.879800
1797.000000	34.862800
1796.000000	34.853100
1795.000000	34.802300
1794.000000	34.737800
1793.000000	34.684100
1792.000000	34.658100
1791.000000	34.641600
1790.000000	34.583000
1789.000000	34.507500
1788.000000	34.464300
1787.000000	34.441700
1786.000000	34.389600
1785.000000	34.346100
1784.000000	34.294300
1783.000000	34.233800
1782.000000	34.162500
1781.000000	34.082700
1780.000000	34.003200
1779.000000	33.944300
1778.000000	33.856700
1777.000000	33.791300
1776.000000	33.677400
1775.000000	33.596400
1774.000000	33.482500
1773.000000	33.341100
1772.000000	33.231500
1771.000000	33.097100
1770.000000	32.958900
1769.000000	32.851300
1768.000000	32.751000
1767.000000	32.638800
1766.000000	32.569200
1765.000000	32.504300
1764.000000	32.410800
1763.000000	32.383400
1762.000000	32.386000
1761.000000	32.423300
1760.000000	32.455200
1759.000000	32.490900
1758.000000	32.531000
1757.000000	32.604400
1756.000000	32.629800
1755.000000	32.639000
1754.000000	32.685600
1753.000000	32.688900
1752.000000	32.663400
1751.000000	32.646800
1750.000000	32.611500
1749.000000	32.533600
1748.000000	32.428300
1747.000000	32.369100
1746.000000	32.279400
1745.000000	32.151300
1744.000000	31.976700
1743.000000	31.783000
1742.000000	31.597200
1741.000000	31.374000
1740.000000	31.139000
1739.000000	30.943500
1738.000000	30.710000
1737.000000	30.513600
1736.000000	30.391800
1735.000000	30.298500
1734.000000	30.215900
1733.000000	30.172300
1732.000000	30.209000
1731.000000	30.247300
1730.000000	30.290900
1729.000000	30.371600
1728.000000	30.482300
1727.000000	30.545100
1726.000000	30.575600
1725.000000	30.612800
1724.000000	30.683400
1723.000000	30.733800
1722.000000	30.757900
1721.000000	30.787200
1720.000000	30.797800
1719.000000	30.875000
1718.000000	30.984200
1717.000000	31.088700
1716.000000	31.201100
1715.000000	31.313000
1714.000000	31.419000
1713.000000	31.535100
1712.000000	31.606000
1711.000000	31.651800
1710.000000	31.713300
1709.000000	31.738400
1708.000000	31.773700
1707.000000	31.774600
1706.000000	31.738900
1705.000000	31.724800
1704.000000	31.680500
1703.000000	31.630300
1702.000000	31.531900
1701.000000	31.381400
1700.000000	31.268600
1699.000000	31.134100
1698.000000	30.965700
1697.000000	30.842700
1696.000000	30.780400
1695.000000	30.757200
1694.000000	30.797400
1693.000000	30.875600
1692.000000	30.955600
1691.000000	31.103000
1690.000000	31.254200
1689.000000	31.349100
1688.000000	31.434800
1687.000000	31.475000
1686.000000	31.534900
1685.000000	31.600200
1684.000000	31.722000
1683.000000	31.923200
1682.000000	32.236400
1681.000000	32.701500
1680.000000	33.190600
1679.000000	33.724100
1678.000000	34.247100
1677.000000	34.752600
1676.000000	35.232300
1675.000000	35.629100
1674.000000	35.975200
1673.000000	36.274700
1672.000000	36.530800
1671.000000	36.760900
1670.000000	37.040600
1669.000000	37.234900
1668.000000	37.395300
1667.000000	37.600700
1666.000000	37.729900
1665.000000	37.865300
1664.000000	37.972700
1663.000000	38.118200
1662.000000	38.191500
1661.000000	38.258400
1660.000000	38.374100
1659.000000	38.455600
1658.000000	38.478700
1657.000000	38.570300
1656.000000	38.556900
1655.000000	38.601500
1654.000000	38.618500
1653.000000	38.630200
1652.000000	38.602300
1651.000000	38.627900
1650.000000	38.618200
1649.000000	38.608000
1648.000000	38.566500
1647.000000	38.532900
1646.000000	38.489400
1645.000000	38.465200
1644.000000	38.431500
1643.000000	38.382100
1642.000000	38.355700
1641.000000	38.302600
1640.000000	38.284500
1639.000000	38.220800
1638.000000	38.170400
1637.000000	38.094900
1636.000000	38.049400
1635.000000	38.017500
1634.000000	37.923400
1633.000000	37.884100
1632.000000	37.803500
1631.000000	37.728400
1630.000000	37.663700
1629.000000	37.570600
1628.000000	37.514000
1627.000000	37.444100
1626.000000	37.331900
1625.000000	37.295300
1624.000000	37.208700
1623.000000	37.134900
1622.000000	37.026900
1621.000000	36.968000
1620.000000	36.895400
1619.000000	36.808600
1618.000000	36.740500
1617.000000	36.679900
1616.000000	36.624300
1615.000000	36.525100
1614.000000	36.482800
1613.000000	36.413500
1612.000000	36.335400
1611.000000	36.265400
1610.000000	36.165100
1609.000000	36.065400
1608.000000	36.048100
1607.000000	35.985700
1606.000000	35.856500
1605.000000	35.786600
1604.000000	35.698600
1603.000000	35.653700
1602.000000	35.569000
1601.000000	35.459400
1600.000000	35.398100
1599.000000	35.327800
1598.000000	35.261700
1597.000000	35.171200
1596.000000	35.091400
1595.000000	35.068200
1594.000000	34.978700
1593.000000	34.921300
1592.000000	34.915300
1591.000000	34.806000
1590.000000	34.777300
1589.000000	34.697600
1588.000000	34.681400
1587.000000	34.652200
1586.000000	34.605100
1585.000000	34.503400
1584.000000	34.515000
1583.000000	34.489300
1582.000000	34.464800
1581.000000	34.433900
1580.000000	34.415600
1579.000000	34.417400
1578.000000	34.413500
1577.000000	34.381200
1576.000000	34.376800
1575.000000	34.384800
1574.000000	34.413600
1573.000000	34.424100
1572.000000	34.418500
1571.000000	34.420400
1570.000000	34.473300
1569.000000	34.512300
1568.000000	34.525500
1567.000000	34.541900
1566.000000	34.584900
1565.000000	34.654100
1564.000000	34.675800
1563.000000	34.693700
1562.000000	34.703800
1561.000000	34.731700
1560.000000	34.788600
1559.000000	34.784200
1558.000000	34.798100
1557.000000	34.797800
1556.000000	34.788100
1555.000000	34.795000
1554.000000	34.741100
1553.000000	34.731200
1552.000000	34.732400
1551.000000	34.714300
1550.000000	34.680600
1549.000000	34.655300
1548.000000	34.613900
1547.000000	34.590100
1546.000000	34.553300
1545.000000	34.557700
1544.000000	34.524900
1543.000000	34.518100
1542.000000	34.506200
1541.000000	34.511200
1540.000000	34.538400
1539.000000	34.493400
1538.000000	34.496100
1537.000000	34.506500
1536.000000	34.472400
1535.000000	34.472400
1534.000000	34.461000
1533.000000	34.425600
1532.000000	34.424700
1531.000000	34.399900
1530.000000	34.364000
1529.000000	34.352400
1528.000000	34.324400
1527.000000	34.288600
1526.000000	34.260100
1525.000000	34.234800
1524.000000	34.169400
