PE UV       SUBTECH     SPECTRUM    ASCII       PEDS        4.00        
   -1
CICIMAUCR0108-2.Sample.ASC
24/04/19
17:04:33.00
24/04/19
17:04:33.00
Vinicio Soto Monge
C. resplendens
250,000000
1
Lambda 1050
1050L1511233
PerkinElmer UV WinLab 6.3.2.0749 / 2.02.05 Lambda 900 UV/VIS/NIR, Aug  7 2015 09:38:08

0
0
3350/servo 860,8/2
0
0
UV/VIS
1
1
1
DoubleDePol,CommonBeamDepol,RBeamAtt,SBeamAtt,60mm sphere, WB InGaAs Detector
0
0
0
0
Program
Program
3350/servo 860,8/2
3350/0,2 860,8/0,2
3350/0,2 860,8/0,2
0
15.00
 
 
 
0
 
860,8
319,2
860,8
Front
100
on
S:100 R:100
0
0
0
0
 
0
 
 
 
0
 
 
0
0
0
0
0
 
 
 
 
0
0


0
0
#HDR
-1
-1
#GR
nm
%R
1.0
0.0
2500,000000
-1,000000
2251
8
90,331100
5,360400
#DATA
2500.000000	10.637762
2499.000000	10.593478
2498.000000	10.640379
2497.000000	10.488606
2496.000000	10.504005
2495.000000	10.496255
2494.000000	10.426005
2493.000000	10.464149
2492.000000	10.377293
2491.000000	10.395711
2490.000000	10.383332
2489.000000	10.302312
2488.000000	10.337840
2487.000000	10.275340
2486.000000	10.351528
2485.000000	10.300601
2484.000000	10.255211
2483.000000	10.246756
2482.000000	10.279365
2481.000000	10.305533
2480.000000	10.246354
2479.000000	10.216764
2478.000000	10.210625
2477.000000	10.238403
2476.000000	10.296475
2475.000000	10.321837
2474.000000	10.308955
2473.000000	10.290638
2472.000000	10.298186
2471.000000	10.282083
2470.000000	10.246052
2469.000000	10.313786
2468.000000	10.352534
2467.000000	10.343375
2466.000000	10.341765
2465.000000	10.386250
2464.000000	10.431037
2463.000000	10.453179
2462.000000	10.473509
2461.000000	10.522221
2460.000000	10.579186
2459.000000	10.670773
2458.000000	10.733777
2457.000000	10.779973
2456.000000	10.863206
2455.000000	10.967575
2454.000000	11.029673
2453.000000	11.108377
2452.000000	11.191107
2451.000000	11.282996
2450.000000	11.374684
2449.000000	11.480864
2448.000000	11.586642
2447.000000	11.692319
2446.000000	11.753712
2445.000000	11.859792
2444.000000	11.951781
2443.000000	12.032901
2442.000000	12.136968
2441.000000	12.239827
2440.000000	12.312191
2439.000000	12.394317
2438.000000	12.492848
2437.000000	12.553135
2436.000000	12.652672
2435.000000	12.746473
2434.000000	12.803539
2433.000000	12.861209
2432.000000	12.940819
2431.000000	13.003520
2430.000000	13.036834
2429.000000	13.115739
2428.000000	13.180454
2427.000000	13.233897
2426.000000	13.281804
2425.000000	13.319042
2424.000000	13.363326
2423.000000	13.365138
2422.000000	13.380637
2421.000000	13.397746
2420.000000	13.403081
2419.000000	13.412340
2418.000000	13.439816
2417.000000	13.472022
2416.000000	13.500304
2415.000000	13.526673
2414.000000	13.546097
2413.000000	13.555558
2412.000000	13.576894
2411.000000	13.609000
2410.000000	13.621480
2409.000000	13.632752
2408.000000	13.640301
2407.000000	13.658417
2406.000000	13.673815
2405.000000	13.696561
2404.000000	13.718300
2403.000000	13.730177
2402.000000	13.736215
2401.000000	13.754734
2400.000000	13.793281
2399.000000	13.809082
2398.000000	13.818341
2397.000000	13.826192
2396.000000	13.854372
2395.000000	13.879735
2394.000000	13.888088
2393.000000	13.902078
2392.000000	13.916370
2391.000000	13.923314
2390.000000	13.950086
2389.000000	13.959446
2388.000000	13.950488
2387.000000	13.950186
2386.000000	13.948576
2385.000000	13.949582
2384.000000	13.936800
2383.000000	13.913149
2382.000000	13.897851
2381.000000	13.888692
2380.000000	13.869670
2379.000000	13.833338
2378.000000	13.803043
2377.000000	13.783418
2376.000000	13.735913
2375.000000	13.701493
2374.000000	13.688811
2373.000000	13.644226
2372.000000	13.577700
2371.000000	13.530195
2370.000000	13.477759
2369.000000	13.423310
2368.000000	13.356381
2367.000000	13.276570
2366.000000	13.215781
2365.000000	13.132447
2364.000000	13.034620
2363.000000	12.933270
2362.000000	12.840375
2361.000000	12.766401
2360.000000	12.669279
2359.000000	12.573767
2358.000000	12.505429
2357.000000	12.419679
2356.000000	12.342485
2355.000000	12.308165
2354.000000	12.268008
2353.000000	12.229159
2352.000000	12.217182
2351.000000	12.226542
2350.000000	12.243853
2349.000000	12.253213
2348.000000	12.292766
2347.000000	12.362815
2346.000000	12.410823
2345.000000	12.444438
2344.000000	12.488017
2343.000000	12.524954
2342.000000	12.572257
2341.000000	12.607483
2340.000000	12.625498
2339.000000	12.647741
2338.000000	12.650257
2337.000000	12.638381
2336.000000	12.622177
2335.000000	12.586146
2334.000000	12.548002
2333.000000	12.513984
2332.000000	12.444941
2331.000000	12.386064
2330.000000	12.326482
2329.000000	12.246268
2328.000000	12.156594
2327.000000	12.066718
2326.000000	11.959430
2325.000000	11.848218
2324.000000	11.746566
2323.000000	11.639480
2322.000000	11.504214
2321.000000	11.352844
2320.000000	11.222609
2319.000000	11.066308
2318.000000	10.918561
2317.000000	10.780476
2316.000000	10.615117
2315.000000	10.474415
2314.000000	10.338846
2313.000000	10.198246
2312.000000	10.086027
2311.000000	9.979242
2310.000000	9.900437
2309.000000	9.828174
2308.000000	9.765271
2307.000000	9.732058
2306.000000	9.706696
2305.000000	9.715955
2304.000000	9.765674
2303.000000	9.823947
2302.000000	9.887655
2301.000000	9.981054
2300.000000	10.091159
2299.000000	10.188584
2298.000000	10.293053
2297.000000	10.401850
2296.000000	10.512861
2295.000000	10.606864
2294.000000	10.698652
2293.000000	10.759844
2292.000000	10.810871
2291.000000	10.868138
2290.000000	10.905377
2289.000000	10.935771
2288.000000	10.927216
2287.000000	10.909302
2286.000000	10.899237
2285.000000	10.832711
2284.000000	10.790742
2283.000000	10.772626
2282.000000	10.714252
2281.000000	10.646015
2280.000000	10.587137
2279.000000	10.535708
2278.000000	10.486291
2277.000000	10.420570
2276.000000	10.391584
2275.000000	10.368436
2274.000000	10.323548
2273.000000	10.338545
2272.000000	10.328480
2271.000000	10.349012
2270.000000	10.393295
2269.000000	10.421073
2268.000000	10.494645
2267.000000	10.596195
2266.000000	10.734280
2265.000000	10.875284
2264.000000	11.047890
2263.000000	11.222911
2262.000000	11.468988
2261.000000	11.694030
2260.000000	11.957820
2259.000000	12.229058
2258.000000	12.520828
2257.000000	12.811188
2256.000000	13.098026
2255.000000	13.425524
2254.000000	13.680760
2253.000000	13.972227
2252.000000	14.227262
2251.000000	14.489039
2250.000000	14.721327
2249.000000	14.936808
2248.000000	15.151383
2247.000000	15.348647
2246.000000	15.534437
2245.000000	15.699394
2244.000000	15.871799
2243.000000	16.031019
2242.000000	16.142232
2241.000000	16.270151
2240.000000	16.361940
2239.000000	16.465302
2238.000000	16.581547
2237.000000	16.660050
2236.000000	16.718323
2235.000000	16.805784
2234.000000	16.880361
2233.000000	16.943667
2232.000000	16.974364
2231.000000	17.013515
2230.000000	17.029920
2229.000000	17.062025
2228.000000	17.096748
2227.000000	17.108926
2226.000000	17.083865
2225.000000	17.103592
2224.000000	17.081450
2223.000000	17.076921
2222.000000	17.065548
2221.000000	17.039481
2220.000000	16.995600
2219.000000	16.971445
2218.000000	16.961582
2217.000000	16.888916
2216.000000	16.882173
2215.000000	16.835373
2214.000000	16.805180
2213.000000	16.778106
2212.000000	16.756166
2211.000000	16.712385
2210.000000	16.713392
2209.000000	16.667497
2208.000000	16.660654
2207.000000	16.615967
2206.000000	16.608822
2205.000000	16.571382
2204.000000	16.543805
2203.000000	16.516933
2202.000000	16.502641
2201.000000	16.508781
2200.000000	16.467315
2199.000000	16.444770
2198.000000	16.410048
2197.000000	16.409746
2196.000000	16.401090
2195.000000	16.372709
2194.000000	16.383679
2193.000000	16.371199
2192.000000	16.373111
2191.000000	16.358216
2190.000000	16.347547
2189.000000	16.304673
2188.000000	16.297426
2187.000000	16.287462
2186.000000	16.268340
2185.000000	16.237844
2184.000000	16.245393
2183.000000	16.208154
2182.000000	16.211476
2181.000000	16.185107
2180.000000	16.176149
2179.000000	16.169205
2178.000000	16.167292
2177.000000	16.148572
2176.000000	16.176652
2175.000000	16.171117
2174.000000	16.161153
2173.000000	16.177759
2172.000000	16.181685
2171.000000	16.189032
2170.000000	16.200707
2169.000000	16.237241
2168.000000	16.239656
2167.000000	16.276291
2166.000000	16.295816
2165.000000	16.316046
2164.000000	16.359222
2163.000000	16.375023
2162.000000	16.430680
2161.000000	16.455741
2160.000000	16.480600
2159.000000	16.534848
2158.000000	16.585774
2157.000000	16.637807
2156.000000	16.683399
2155.000000	16.725268
2154.000000	16.769350
2153.000000	16.825007
2152.000000	16.882274
2151.000000	16.932697
2150.000000	16.991473
2149.000000	17.044010
2148.000000	17.094836
2147.000000	17.142944
2146.000000	17.195481
2145.000000	17.237651
2144.000000	17.274990
2143.000000	17.322394
2142.000000	17.368992
2141.000000	17.411364
2140.000000	17.467020
2139.000000	17.490169
2138.000000	17.509090
2137.000000	17.542102
2136.000000	17.588398
2135.000000	17.605608
2134.000000	17.623221
2133.000000	17.642746
2132.000000	17.656032
2131.000000	17.673745
2130.000000	17.682602
2129.000000	17.696893
2128.000000	17.698000
2127.000000	17.689949
2126.000000	17.691257
2125.000000	17.679985
2124.000000	17.671531
2123.000000	17.659554
2122.000000	17.638721
2121.000000	17.623825
2120.000000	17.619900
2119.000000	17.593430
2118.000000	17.566256
2117.000000	17.536767
2116.000000	17.514827
2115.000000	17.492987
2114.000000	17.459573
2113.000000	17.429379
2112.000000	17.395563
2111.000000	17.353292
2110.000000	17.331754
2109.000000	17.300151
2108.000000	17.262711
2107.000000	17.233424
2106.000000	17.203834
2105.000000	17.169917
2104.000000	17.139220
2103.000000	17.101780
2102.000000	17.073700
2101.000000	17.052665
2100.000000	17.014118
2099.000000	16.982214
2098.000000	16.952524
2097.000000	16.931388
2096.000000	16.910756
2095.000000	16.891835
2094.000000	16.861843
2093.000000	16.837285
2092.000000	16.822793
2091.000000	16.807293
2090.000000	16.793002
2089.000000	16.774282
2088.000000	16.763110
2087.000000	16.740264
2086.000000	16.729394
2085.000000	16.715706
2084.000000	16.685714
2083.000000	16.675650
2082.000000	16.641934
2081.000000	16.615062
2080.000000	16.609627
2079.000000	16.567356
2078.000000	16.530520
2077.000000	16.499521
2076.000000	16.468623
2075.000000	16.423937
2074.000000	16.394347
2073.000000	16.364858
2072.000000	16.313731
2071.000000	16.257370
2070.000000	16.222848
2069.000000	16.189736
2068.000000	16.157027
2067.000000	16.119385
2066.000000	16.070875
2065.000000	16.030113
2064.000000	15.989654
2063.000000	15.954932
2062.000000	15.924034
2061.000000	15.900080
2060.000000	15.892834
2059.000000	15.874215
2058.000000	15.882367
2057.000000	15.884682
2056.000000	15.886795
2055.000000	15.934803
2054.000000	15.972243
2053.000000	16.017734
2052.000000	16.088186
2051.000000	16.167091
2050.000000	16.266830
2049.000000	16.359524
2048.000000	16.508076
2047.000000	16.628649
2046.000000	16.745296
2045.000000	16.903007
2044.000000	17.048841
2043.000000	17.206652
2042.000000	17.353191
2041.000000	17.508285
2040.000000	17.666398
2039.000000	17.814145
2038.000000	17.946090
2037.000000	18.100681
2036.000000	18.226688
2035.000000	18.353803
2034.000000	18.501147
2033.000000	18.618297
2032.000000	18.726289
2031.000000	18.828544
2030.000000	18.933316
2029.000000	19.033659
2028.000000	19.131184
2027.000000	19.224884
2026.000000	19.318584
2025.000000	19.406246
2024.000000	19.489077
2023.000000	19.566372
2022.000000	19.645378
2021.000000	19.726397
2020.000000	19.811241
2019.000000	19.852002
2018.000000	19.914805
2017.000000	19.972273
2016.000000	20.034975
2015.000000	20.100092
2014.000000	20.128172
2013.000000	20.157258
2012.000000	20.199932
2011.000000	20.252871
2010.000000	20.255890
2009.000000	20.289808
2008.000000	20.301684
2007.000000	20.309534
2006.000000	20.306414
2005.000000	20.313459
2004.000000	20.304703
2003.000000	20.290210
2002.000000	20.290210
2001.000000	20.266257
2000.000000	20.256393
1999.000000	20.222879
1998.000000	20.180306
1997.000000	20.138941
1996.000000	20.093953
1995.000000	20.053695
1994.000000	20.018469
1993.000000	19.974789
1992.000000	19.905344
1991.000000	19.843045
1990.000000	19.780746
1989.000000	19.726800
1988.000000	19.620519
1987.000000	19.556509
1986.000000	19.489983
1985.000000	19.399000
1984.000000	19.331870
1983.000000	19.246623
1982.000000	19.186941
1981.000000	19.086497
1980.000000	19.028727
1979.000000	18.954854
1978.000000	18.869104
1977.000000	18.753967
1976.000000	18.681905
1975.000000	18.622021
1974.000000	18.517350
1973.000000	18.427273
1972.000000	18.349575
1971.000000	18.286672
1970.000000	18.208471
1969.000000	18.121514
1968.000000	18.047238
1967.000000	17.972560
1966.000000	17.929584
1965.000000	17.835783
1964.000000	17.767445
1963.000000	17.680891
1962.000000	17.625234
1961.000000	17.548040
1960.000000	17.450615
1959.000000	17.374930
1958.000000	17.320683
1957.000000	17.249527
1956.000000	17.174546
1955.000000	17.086482
1954.000000	17.018044
1953.000000	16.955342
1952.000000	16.873115
1951.000000	16.814540
1950.000000	16.748617
1949.000000	16.667699
1948.000000	16.620295
1947.000000	16.579936
1946.000000	16.519348
1945.000000	16.475970
1944.000000	16.425950
1943.000000	16.417294
1942.000000	16.403003
1941.000000	16.396058
1940.000000	16.397870
1939.000000	16.384786
1938.000000	16.377439
1937.000000	16.384887
1936.000000	16.401795
1935.000000	16.432592
1934.000000	16.489457
1933.000000	16.548837
1932.000000	16.621100
1931.000000	16.686821
1930.000000	16.767740
1929.000000	16.892137
1928.000000	16.975471
1927.000000	17.087690
1926.000000	17.192159
1925.000000	17.334572
1924.000000	17.472556
1923.000000	17.623725
1922.000000	17.794217
1921.000000	17.962093
1920.000000	18.144763
1919.000000	18.303178
1918.000000	18.509098
1917.000000	18.706060
1916.000000	18.914596
1915.000000	19.137122
1914.000000	19.388029
1913.000000	19.632999
1912.000000	19.878069
1911.000000	20.128071
1910.000000	20.357340
1909.000000	20.602712
1908.000000	20.875259
1907.000000	21.153341
1906.000000	21.459200
1905.000000	21.763752
1904.000000	22.057333
1903.000000	22.354739
1902.000000	22.639060
1901.000000	22.923885
1900.000000	23.247660
1899.000000	23.551004
1898.000000	23.878402
1897.000000	24.189495
1896.000000	24.470697
1895.000000	24.760252
1894.000000	25.049606
1893.000000	25.369154
1892.000000	25.694740
1891.000000	26.013885
1890.000000	26.319342
1889.000000	26.612118
1888.000000	26.933175
1887.000000	27.252924
1886.000000	27.633462
1885.000000	28.044093
1884.000000	28.508066
1883.000000	28.933291
1882.000000	29.390621
1881.000000	29.867175
1880.000000	30.269251
1879.000000	30.689846
1878.000000	31.110038
1877.000000	31.485645
1876.000000	31.838003
1875.000000	32.183416
1874.000000	32.499844
1873.000000	32.778127
1872.000000	33.049868
1871.000000	33.260115
1870.000000	33.410277
1869.000000	33.564566
1868.000000	33.705167
1867.000000	33.779342
1866.000000	33.833288
1865.000000	33.888139
1864.000000	33.926787
1863.000000	33.971876
1862.000000	34.021192
1861.000000	34.057424
1860.000000	34.087919
1859.000000	34.083592
1858.000000	34.072722
1857.000000	34.054505
1856.000000	34.015757
1855.000000	33.978720
1854.000000	33.926686
1853.000000	33.846070
1852.000000	33.774813
1851.000000	33.730831
1850.000000	33.684837
1849.000000	33.654945
1848.000000	33.619015
1847.000000	33.531957
1846.000000	33.432621
1845.000000	33.335297
1844.000000	33.263839
1843.000000	33.265047
1842.000000	33.267664
1841.000000	33.232538
1840.000000	33.186644
1839.000000	33.127968
1838.000000	33.072111
1837.000000	33.026116
1836.000000	32.958181
1835.000000	32.860354
1834.000000	32.764137
1833.000000	32.678186
1832.000000	32.599180
1831.000000	32.523697
1830.000000	32.453144
1829.000000	32.373736
1828.000000	32.276613
1827.000000	32.199318
1826.000000	32.128162
1825.000000	32.066869
1824.000000	32.026310
1823.000000	32.002859
1822.000000	32.022082
1821.000000	32.012219
1820.000000	31.976792
1819.000000	31.932005
1818.000000	31.887218
1817.000000	31.886715
1816.000000	31.891848
1815.000000	31.876852
1814.000000	31.860145
1813.000000	31.844444
1812.000000	31.830354
1811.000000	31.797141
1810.000000	31.734037
1809.000000	31.689954
1808.000000	31.661271
1807.000000	31.627856
1806.000000	31.569784
1805.000000	31.507183
1804.000000	31.455351
1803.000000	31.425258
1802.000000	31.377049
1801.000000	31.317065
1800.000000	31.260201
1799.000000	31.215212
1798.000000	31.161367
1797.000000	31.120304
1796.000000	31.067566
1795.000000	31.017244
1794.000000	30.967425
1793.000000	30.920222
1792.000000	30.856413
1791.000000	30.789384
1790.000000	30.722656
1789.000000	30.668912
1788.000000	30.615973
1787.000000	30.558605
1786.000000	30.481612
1785.000000	30.418206
1784.000000	30.320983
1783.000000	30.235636
1782.000000	30.159448
1781.000000	30.083863
1780.000000	29.990867
1779.000000	29.899281
1778.000000	29.791691
1777.000000	29.696179
1776.000000	29.585369
1775.000000	29.446781
1774.000000	29.329932
1773.000000	29.190439
1772.000000	29.026790
1771.000000	28.898770
1770.000000	28.774473
1769.000000	28.637798
1768.000000	28.512595
1767.000000	28.409132
1766.000000	28.314426
1765.000000	28.257259
1764.000000	28.214988
1763.000000	28.209050
1762.000000	28.221128
1761.000000	28.248906
1760.000000	28.319860
1759.000000	28.388701
1758.000000	28.456335
1757.000000	28.530208
1756.000000	28.576002
1755.000000	28.587676
1754.000000	28.597842
1753.000000	28.596634
1752.000000	28.575901
1751.000000	28.549331
1750.000000	28.489044
1749.000000	28.401886
1748.000000	28.331938
1747.000000	28.229884
1746.000000	28.088780
1745.000000	27.933585
1744.000000	27.763395
1743.000000	27.548719
1742.000000	27.320658
1741.000000	27.071964
1740.000000	26.826995
1739.000000	26.582830
1738.000000	26.360003
1737.000000	26.170287
1736.000000	26.023949
1735.000000	25.922700
1734.000000	25.877914
1733.000000	25.876706
1732.000000	25.934577
1731.000000	26.006135
1730.000000	26.098930
1729.000000	26.201990
1728.000000	26.315719
1727.000000	26.414451
1726.000000	26.497987
1725.000000	26.546196
1724.000000	26.610004
1723.000000	26.615137
1722.000000	26.652678
1721.000000	26.690118
1720.000000	26.722928
1719.000000	26.773150
1718.000000	26.805658
1717.000000	26.881444
1716.000000	26.955720
1715.000000	27.036537
1714.000000	27.132553
1713.000000	27.201595
1712.000000	27.258761
1711.000000	27.297711
1710.000000	27.324281
1709.000000	27.320859
1708.000000	27.340082
1707.000000	27.292175
1706.000000	27.275166
1705.000000	27.239538
1704.000000	27.169288
1703.000000	27.078708
1702.000000	26.988932
1701.000000	26.843903
1700.000000	26.681362
1699.000000	26.525161
1698.000000	26.388183
1697.000000	26.264792
1696.000000	26.201990
1695.000000	26.190818
1694.000000	26.253420
1693.000000	26.363525
1692.000000	26.517814
1691.000000	26.656603
1690.000000	26.789454
1689.000000	26.890804
1688.000000	26.942535
1687.000000	26.937201
1686.000000	26.969709
1685.000000	26.985812
1684.000000	27.106083
1683.000000	27.367156
1682.000000	27.729075
1681.000000	28.188821
1680.000000	28.713684
1679.000000	29.276993
1678.000000	29.809908
1677.000000	30.304678
1676.000000	30.771771
1675.000000	31.143654
1674.000000	31.457163
1673.000000	31.740277
1672.000000	32.005677
1671.000000	32.224177
1670.000000	32.417516
1669.000000	32.593443
1668.000000	32.751255
1667.000000	32.849182
1666.000000	32.967138
1665.000000	33.061040
1664.000000	33.143367
1663.000000	33.230828
1662.000000	33.289403
1661.000000	33.338819
1660.000000	33.407661
1659.000000	33.453857
1658.000000	33.482943
1657.000000	33.497033
1656.000000	33.517464
1655.000000	33.505789
1654.000000	33.496429
1653.000000	33.506997
1652.000000	33.493410
1651.000000	33.465229
1650.000000	33.431312
1649.000000	33.400615
1648.000000	33.366597
1647.000000	33.314967
1646.000000	33.272193
1645.000000	33.215328
1644.000000	33.155042
1643.000000	33.115187
1642.000000	33.068487
1641.000000	32.996325
1640.000000	32.939360
1639.000000	32.866292
1638.000000	32.790506
1637.000000	32.744008
1636.000000	32.664901
1635.000000	32.586298
1634.000000	32.510009
1633.000000	32.445898
1632.000000	32.363671
1631.000000	32.262624
1630.000000	32.200727
1629.000000	32.117594
1628.000000	32.029731
1627.000000	31.935930
1626.000000	31.852295
1625.000000	31.772986
1624.000000	31.693980
