PE UV       SUBTECH     SPECTRUM    ASCII       PEDS        4.00        
   -1
CICIMAUCR0008-1.Sample.ASC
24/04/12
13:52:45.00
24/04/12
13:52:45.00
Vinicio Soto Monge
C. kalinini
250,000000
1
Lambda 1050
1050L1511233
PerkinElmer UV WinLab 6.3.2.0749 / 2.02.05 Lambda 900 UV/VIS/NIR, Aug  7 2015 09:38:08

0
0
3350/servo 860,8/2
0
0
UV/VIS
1
1
1
DoubleDePol,CommonBeamDepol,RBeamAtt,SBeamAtt,60mm sphere, WB InGaAs Detector
0
0
0
0
Program
Program
3350/servo 860,8/2
3350/0,2 860,8/0,2
3350/0,2 860,8/0,2
0
15.00
 
 
 
0
 
860,8
319,2
860,8
Front
100
on
S:100 R:100
0
0
0
0
 
0
 
 
 
0
 
 
0
0
0
0
0
 
 
 
 
0
0


0
0
#HDR
-1
-1
#GR
nm
%R
1.0
0.0
2500,000000
-1,000000
2251
8
60,497900
3,778300
#DATA
2500.000000	6.537800
2499.000000	6.456000
2498.000000	6.637700
2497.000000	6.559200
2496.000000	6.445600
2495.000000	6.452500
2494.000000	6.416500
2493.000000	6.453200
2492.000000	6.326000
2491.000000	6.406600
2490.000000	6.347500
2489.000000	6.435900
2488.000000	6.389600
2487.000000	6.311300
2486.000000	6.282100
2485.000000	6.350200
2484.000000	6.363500
2483.000000	6.355200
2482.000000	6.308900
2481.000000	6.372000
2480.000000	6.357700
2479.000000	6.321100
2478.000000	6.371600
2477.000000	6.327700
2476.000000	6.380300
2475.000000	6.369000
2474.000000	6.392400
2473.000000	6.376200
2472.000000	6.365000
2471.000000	6.410400
2470.000000	6.437500
2469.000000	6.416000
2468.000000	6.443900
2467.000000	6.438700
2466.000000	6.508900
2465.000000	6.489600
2464.000000	6.529400
2463.000000	6.565400
2462.000000	6.589400
2461.000000	6.645000
2460.000000	6.657000
2459.000000	6.703500
2458.000000	6.730700
2457.000000	6.797500
2456.000000	6.832800
2455.000000	6.878900
2454.000000	6.890100
2453.000000	6.926900
2452.000000	6.973000
2451.000000	6.990300
2450.000000	7.036200
2449.000000	7.080500
2448.000000	7.081500
2447.000000	7.124100
2446.000000	7.160500
2445.000000	7.208700
2444.000000	7.255300
2443.000000	7.287600
2442.000000	7.325500
2441.000000	7.368000
2440.000000	7.402800
2439.000000	7.443200
2438.000000	7.495900
2437.000000	7.511400
2436.000000	7.542300
2435.000000	7.572500
2434.000000	7.624400
2433.000000	7.642400
2432.000000	7.672300
2431.000000	7.730800
2430.000000	7.773000
2429.000000	7.801800
2428.000000	7.817700
2427.000000	7.833200
2426.000000	7.803100
2425.000000	7.777100
2424.000000	7.786200
2423.000000	7.816300
2422.000000	7.843500
2421.000000	7.858300
2420.000000	7.897100
2419.000000	7.872400
2418.000000	7.857600
2417.000000	7.896100
2416.000000	7.900700
2415.000000	7.885800
2414.000000	7.906800
2413.000000	7.891500
2412.000000	7.911000
2411.000000	7.901900
2410.000000	7.880800
2409.000000	7.869200
2408.000000	7.892400
2407.000000	7.906900
2406.000000	7.884400
2405.000000	7.905700
2404.000000	7.897300
2403.000000	7.884700
2402.000000	7.899300
2401.000000	7.890300
2400.000000	7.880200
2399.000000	7.864600
2398.000000	7.860200
2397.000000	7.867800
2396.000000	7.876200
2395.000000	7.874300
2394.000000	7.854300
2393.000000	7.846400
2392.000000	7.827100
2391.000000	7.830100
2390.000000	7.835600
2389.000000	7.826600
2388.000000	7.815700
2387.000000	7.817600
2386.000000	7.809200
2385.000000	7.789300
2384.000000	7.769500
2383.000000	7.762800
2382.000000	7.740800
2381.000000	7.734100
2380.000000	7.731100
2379.000000	7.714900
2378.000000	7.707900
2377.000000	7.683000
2376.000000	7.659300
2375.000000	7.654600
2374.000000	7.639400
2373.000000	7.610400
2372.000000	7.606200
2371.000000	7.601000
2370.000000	7.572800
2369.000000	7.540000
2368.000000	7.526100
2367.000000	7.488200
2366.000000	7.449600
2365.000000	7.430300
2364.000000	7.418300
2363.000000	7.384100
2362.000000	7.350200
2361.000000	7.335500
2360.000000	7.324600
2359.000000	7.285000
2358.000000	7.243100
2357.000000	7.241300
2356.000000	7.240300
2355.000000	7.223900
2354.000000	7.192900
2353.000000	7.170000
2352.000000	7.158400
2351.000000	7.131800
2350.000000	7.126000
2349.000000	7.126400
2348.000000	7.124500
2347.000000	7.097900
2346.000000	7.098000
2345.000000	7.107600
2344.000000	7.083400
2343.000000	7.080400
2342.000000	7.087600
2341.000000	7.084700
2340.000000	7.075700
2339.000000	7.061000
2338.000000	7.027500
2337.000000	7.016300
2336.000000	6.993100
2335.000000	6.959100
2334.000000	6.964800
2333.000000	6.956800
2332.000000	6.917900
2331.000000	6.856100
2330.000000	6.853500
2329.000000	6.845100
2328.000000	6.820100
2327.000000	6.800300
2326.000000	6.783700
2325.000000	6.728200
2324.000000	6.687700
2323.000000	6.667700
2322.000000	6.664900
2321.000000	6.649600
2320.000000	6.631900
2319.000000	6.594100
2318.000000	6.539800
2317.000000	6.505200
2316.000000	6.491300
2315.000000	6.470900
2314.000000	6.456300
2313.000000	6.407500
2312.000000	6.384900
2311.000000	6.367000
2310.000000	6.326000
2309.000000	6.327100
2308.000000	6.317600
2307.000000	6.320200
2306.000000	6.287700
2305.000000	6.302500
2304.000000	6.319100
2303.000000	6.332900
2302.000000	6.333200
2301.000000	6.337000
2300.000000	6.350800
2299.000000	6.349400
2298.000000	6.350800
2297.000000	6.369200
2296.000000	6.406200
2295.000000	6.409900
2294.000000	6.425900
2293.000000	6.445000
2292.000000	6.428200
2291.000000	6.420700
2290.000000	6.426600
2289.000000	6.385900
2288.000000	6.371700
2287.000000	6.388100
2286.000000	6.389900
2285.000000	6.363200
2284.000000	6.326100
2283.000000	6.318600
2282.000000	6.316100
2281.000000	6.256100
2280.000000	6.218900
2279.000000	6.221100
2278.000000	6.201000
2277.000000	6.155000
2276.000000	6.139000
2275.000000	6.141400
2274.000000	6.119000
2273.000000	6.079000
2272.000000	6.076300
2271.000000	6.077700
2270.000000	6.095300
2269.000000	6.096800
2268.000000	6.079000
2267.000000	6.104800
2266.000000	6.109800
2265.000000	6.142500
2264.000000	6.161900
2263.000000	6.225800
2262.000000	6.287800
2261.000000	6.363100
2260.000000	6.394400
2259.000000	6.471300
2258.000000	6.556600
2257.000000	6.630400
2256.000000	6.712400
2255.000000	6.785600
2254.000000	6.859600
2253.000000	6.953200
2252.000000	7.032200
2251.000000	7.098100
2250.000000	7.170200
2249.000000	7.225100
2248.000000	7.312400
2247.000000	7.371600
2246.000000	7.403100
2245.000000	7.483100
2244.000000	7.564500
2243.000000	7.636200
2242.000000	7.677800
2241.000000	7.725600
2240.000000	7.759500
2239.000000	7.809700
2238.000000	7.847200
2237.000000	7.887300
2236.000000	7.939800
2235.000000	7.947100
2234.000000	7.981100
2233.000000	8.028400
2232.000000	8.059600
2231.000000	8.075300
2230.000000	8.116400
2229.000000	8.105100
2228.000000	8.129400
2227.000000	8.144000
2226.000000	8.154400
2225.000000	8.197700
2224.000000	8.194700
2223.000000	8.171800
2222.000000	8.174600
2221.000000	8.194700
2220.000000	8.169100
2219.000000	8.204700
2218.000000	8.155900
2217.000000	8.190400
2216.000000	8.182400
2215.000000	8.191400
2214.000000	8.151500
2213.000000	8.159700
2212.000000	8.166800
2211.000000	8.177300
2210.000000	8.148400
2209.000000	8.141600
2208.000000	8.152600
2207.000000	8.133400
2206.000000	8.110800
2205.000000	8.075200
2204.000000	8.095200
2203.000000	8.105100
2202.000000	8.071800
2201.000000	8.050200
2200.000000	8.051900
2199.000000	8.029500
2198.000000	8.025700
2197.000000	8.038700
2196.000000	8.023500
2195.000000	8.031000
2194.000000	8.017700
2193.000000	8.026100
2192.000000	8.015800
2191.000000	8.001500
2190.000000	8.020000
2189.000000	8.009300
2188.000000	7.994100
2187.000000	7.991900
2186.000000	7.996300
2185.000000	7.979400
2184.000000	7.982900
2183.000000	7.962000
2182.000000	7.970100
2181.000000	7.960000
2180.000000	7.975700
2179.000000	7.980700
2178.000000	7.961800
2177.000000	7.937800
2176.000000	7.942300
2175.000000	7.947600
2174.000000	7.957900
2173.000000	7.971600
2172.000000	7.969300
2171.000000	7.973300
2170.000000	7.978200
2169.000000	7.990600
2168.000000	7.991600
2167.000000	7.995700
2166.000000	7.999900
2165.000000	8.034900
2164.000000	8.046100
2163.000000	8.038700
2162.000000	8.037900
2161.000000	8.054800
2160.000000	8.053000
2159.000000	8.071100
2158.000000	8.070200
2157.000000	8.087200
2156.000000	8.093700
2155.000000	8.094200
2154.000000	8.108900
2153.000000	8.099500
2152.000000	8.099500
2151.000000	8.095800
2150.000000	8.110700
2149.000000	8.113100
2148.000000	8.114100
2147.000000	8.109100
2146.000000	8.102200
2145.000000	8.108800
2144.000000	8.125700
2143.000000	8.121900
2142.000000	8.108700
2141.000000	8.116700
2140.000000	8.104300
2139.000000	8.089900
2138.000000	8.089400
2137.000000	8.119000
2136.000000	8.114800
2135.000000	8.103900
2134.000000	8.091800
2133.000000	8.076100
2132.000000	8.055800
2131.000000	8.028000
2130.000000	8.026900
2129.000000	8.004500
2128.000000	7.996800
2127.000000	7.982400
2126.000000	7.974500
2125.000000	7.960100
2124.000000	7.928600
2123.000000	7.896000
2122.000000	7.866500
2121.000000	7.853500
2120.000000	7.841700
2119.000000	7.821800
2118.000000	7.782500
2117.000000	7.747300
2116.000000	7.743900
2115.000000	7.728100
2114.000000	7.692500
2113.000000	7.670600
2112.000000	7.649500
2111.000000	7.637500
2110.000000	7.621800
2109.000000	7.585500
2108.000000	7.558600
2107.000000	7.553800
2106.000000	7.538900
2105.000000	7.527400
2104.000000	7.494300
2103.000000	7.473700
2102.000000	7.474400
2101.000000	7.466400
2100.000000	7.468800
2099.000000	7.461200
2098.000000	7.446500
2097.000000	7.436300
2096.000000	7.402600
2095.000000	7.398500
2094.000000	7.398700
2093.000000	7.396900
2092.000000	7.401400
2091.000000	7.386700
2090.000000	7.365400
2089.000000	7.366000
2088.000000	7.369700
2087.000000	7.362400
2086.000000	7.370400
2085.000000	7.358000
2084.000000	7.341800
2083.000000	7.359100
2082.000000	7.346100
2081.000000	7.333900
2080.000000	7.333800
2079.000000	7.341000
2078.000000	7.316600
2077.000000	7.300800
2076.000000	7.318900
2075.000000	7.321500
2074.000000	7.334300
2073.000000	7.313900
2072.000000	7.299600
2071.000000	7.297100
2070.000000	7.292000
2069.000000	7.291200
2068.000000	7.281500
2067.000000	7.281700
2066.000000	7.292200
2065.000000	7.288000
2064.000000	7.296700
2063.000000	7.296000
2062.000000	7.286900
2061.000000	7.293000
2060.000000	7.304100
2059.000000	7.318100
2058.000000	7.321400
2057.000000	7.322900
2056.000000	7.344000
2055.000000	7.359100
2054.000000	7.369800
2053.000000	7.394100
2052.000000	7.415600
2051.000000	7.448500
2050.000000	7.497000
2049.000000	7.533200
2048.000000	7.568100
2047.000000	7.607900
2046.000000	7.664900
2045.000000	7.699000
2044.000000	7.761800
2043.000000	7.820600
2042.000000	7.861700
2041.000000	7.921000
2040.000000	7.979000
2039.000000	8.018700
2038.000000	8.075800
2037.000000	8.148600
2036.000000	8.206000
2035.000000	8.221300
2034.000000	8.268800
2033.000000	8.333900
2032.000000	8.379100
2031.000000	8.419100
2030.000000	8.458600
2029.000000	8.496500
2028.000000	8.538800
2027.000000	8.564100
2026.000000	8.598400
2025.000000	8.626200
2024.000000	8.660200
2023.000000	8.698900
2022.000000	8.735000
2021.000000	8.780600
2020.000000	8.800800
2019.000000	8.822100
2018.000000	8.850900
2017.000000	8.859000
2016.000000	8.888100
2015.000000	8.915300
2014.000000	8.943000
2013.000000	8.955200
2012.000000	8.966300
2011.000000	8.987500
2010.000000	9.019300
2009.000000	9.021000
2008.000000	9.031900
2007.000000	9.044800
2006.000000	9.054000
2005.000000	9.037700
2004.000000	9.035000
2003.000000	9.040500
2002.000000	9.031300
2001.000000	9.031900
2000.000000	9.007200
1999.000000	8.988100
1998.000000	8.996200
1997.000000	8.985000
1996.000000	8.989700
1995.000000	8.949100
1994.000000	8.948800
1993.000000	8.934500
1992.000000	8.916000
1991.000000	8.887600
1990.000000	8.871500
1989.000000	8.852600
1988.000000	8.791700
1987.000000	8.772600
1986.000000	8.749200
1985.000000	8.710100
1984.000000	8.705600
1983.000000	8.648300
1982.000000	8.629200
1981.000000	8.588400
1980.000000	8.580600
1979.000000	8.532200
1978.000000	8.507700
1977.000000	8.476800
1976.000000	8.437400
1975.000000	8.407800
1974.000000	8.384500
1973.000000	8.342100
1972.000000	8.324700
1971.000000	8.287900
1970.000000	8.249000
1969.000000	8.241100
1968.000000	8.192200
1967.000000	8.177400
1966.000000	8.134900
1965.000000	8.120400
1964.000000	8.087500
1963.000000	8.079300
1962.000000	8.057900
1961.000000	8.025800
1960.000000	7.982600
1959.000000	7.950200
1958.000000	7.956400
1957.000000	7.937500
1956.000000	7.902800
1955.000000	7.864000
1954.000000	7.835100
1953.000000	7.810700
1952.000000	7.768600
1951.000000	7.732200
1950.000000	7.726700
1949.000000	7.721100
1948.000000	7.692000
1947.000000	7.670000
1946.000000	7.652500
1945.000000	7.647600
1944.000000	7.644400
1943.000000	7.622200
1942.000000	7.620100
1941.000000	7.637100
1940.000000	7.636200
1939.000000	7.639000
1938.000000	7.622100
1937.000000	7.626400
1936.000000	7.628000
1935.000000	7.645100
1934.000000	7.660900
1933.000000	7.674600
1932.000000	7.703500
1931.000000	7.747900
1930.000000	7.771500
1929.000000	7.832400
1928.000000	7.880200
1927.000000	7.914200
1926.000000	7.936900
1925.000000	7.983000
1924.000000	8.031200
1923.000000	8.115700
1922.000000	8.192600
1921.000000	8.280700
1920.000000	8.313600
1919.000000	8.357100
1918.000000	8.429900
1917.000000	8.522300
1916.000000	8.614800
1915.000000	8.723500
1914.000000	8.828000
1913.000000	8.911200
1912.000000	9.020600
1911.000000	9.095700
1910.000000	9.224900
1909.000000	9.350200
1908.000000	9.487600
1907.000000	9.608300
1906.000000	9.728400
1905.000000	9.875900
1904.000000	9.995600
1903.000000	10.116700
1902.000000	10.265400
1901.000000	10.425900
1900.000000	10.568200
1899.000000	10.672000
1898.000000	10.805600
1897.000000	10.939000
1896.000000	11.104000
1895.000000	11.275900
1894.000000	11.448000
1893.000000	11.603300
1892.000000	11.758700
1891.000000	11.908100
1890.000000	12.044400
1889.000000	12.197300
1888.000000	12.373700
1887.000000	12.591400
1886.000000	12.785800
1885.000000	13.016300
1884.000000	13.282800
1883.000000	13.549200
1882.000000	13.812700
1881.000000	14.130700
1880.000000	14.466300
1879.000000	14.777700
1878.000000	15.077800
1877.000000	15.363600
1876.000000	15.628400
1875.000000	15.870700
1874.000000	16.091500
1873.000000	16.279600
1872.000000	16.460100
1871.000000	16.595900
1870.000000	16.688200
1869.000000	16.769700
1868.000000	16.869500
1867.000000	16.929400
1866.000000	16.977300
1865.000000	17.022900
1864.000000	17.075500
1863.000000	17.129900
1862.000000	17.166100
1861.000000	17.190800
1860.000000	17.197900
1859.000000	17.165300
1858.000000	17.130900
1857.000000	17.113700
1856.000000	17.093300
1855.000000	17.043500
1854.000000	16.986200
1853.000000	16.915000
1852.000000	16.834800
1851.000000	16.804000
1850.000000	16.810400
1849.000000	16.797400
1848.000000	16.701300
1847.000000	16.561500
1846.000000	16.436300
1845.000000	16.377700
1844.000000	16.410000
1843.000000	16.440100
1842.000000	16.422500
1841.000000	16.372900
1840.000000	16.307400
1839.000000	16.261600
1838.000000	16.237300
1837.000000	16.186000
1836.000000	16.104800
1835.000000	16.018200
1834.000000	15.956000
1833.000000	15.926100
1832.000000	15.902200
1831.000000	15.837600
1830.000000	15.752800
1829.000000	15.676200
1828.000000	15.602900
1827.000000	15.537300
1826.000000	15.460900
1825.000000	15.391400
1824.000000	15.367200
1823.000000	15.391600
1822.000000	15.404200
1821.000000	15.362900
1820.000000	15.293000
1819.000000	15.244300
1818.000000	15.245100
1817.000000	15.274100
1816.000000	15.279300
1815.000000	15.271300
1814.000000	15.264200
1813.000000	15.272800
1812.000000	15.272400
1811.000000	15.247700
1810.000000	15.197500
1809.000000	15.171600
1808.000000	15.167800
1807.000000	15.155400
1806.000000	15.154000
1805.000000	15.134700
1804.000000	15.101500
1803.000000	15.081400
1802.000000	15.058600
1801.000000	15.001800
1800.000000	14.932300
1799.000000	14.893200
1798.000000	14.886900
1797.000000	14.878400
1796.000000	14.843900
1795.000000	14.797200
1794.000000	14.744300
1793.000000	14.717000
1792.000000	14.667900
1791.000000	14.619800
1790.000000	14.575800
1789.000000	14.533100
1788.000000	14.476000
1787.000000	14.438000
1786.000000	14.382500
1785.000000	14.319400
1784.000000	14.253900
1783.000000	14.183400
1782.000000	14.123500
1781.000000	14.064000
1780.000000	13.999100
1779.000000	13.924800
1778.000000	13.848300
1777.000000	13.760500
1776.000000	13.667000
1775.000000	13.583100
1774.000000	13.504200
1773.000000	13.390300
1772.000000	13.304500
1771.000000	13.217600
1770.000000	13.105500
1769.000000	12.994900
1768.000000	12.924400
1767.000000	12.836900
1766.000000	12.769100
1765.000000	12.716500
1764.000000	12.688700
1763.000000	12.668200
1762.000000	12.677700
1761.000000	12.712600
1760.000000	12.740100
1759.000000	12.775100
1758.000000	12.827700
1757.000000	12.867900
1756.000000	12.898500
1755.000000	12.861900
1754.000000	12.880300
1753.000000	12.890700
1752.000000	12.877100
1751.000000	12.858300
1750.000000	12.833900
1749.000000	12.786300
1748.000000	12.718600
1747.000000	12.642300
1746.000000	12.577400
1745.000000	12.488600
1744.000000	12.346900
1743.000000	12.213500
1742.000000	12.084400
1741.000000	11.929100
1740.000000	11.758400
1739.000000	11.607000
1738.000000	11.441400
1737.000000	11.320500
1736.000000	11.224500
1735.000000	11.190500
1734.000000	11.152200
1733.000000	11.172600
1732.000000	11.188200
1731.000000	11.215500
1730.000000	11.295200
1729.000000	11.361300
1728.000000	11.443000
1727.000000	11.523000
1726.000000	11.583700
1725.000000	11.618300
1724.000000	11.654000
1723.000000	11.672600
1722.000000	11.681000
1721.000000	11.685000
1720.000000	11.657900
1719.000000	11.683100
1718.000000	11.688600
1717.000000	11.698900
1716.000000	11.747500
1715.000000	11.777600
1714.000000	11.797100
1713.000000	11.840400
1712.000000	11.858500
1711.000000	11.879100
1710.000000	11.902600
1709.000000	11.885400
1708.000000	11.860800
1707.000000	11.883700
1706.000000	11.855000
1705.000000	11.816900
1704.000000	11.791500
1703.000000	11.753500
1702.000000	11.711800
1701.000000	11.611600
1700.000000	11.524200
1699.000000	11.430700
1698.000000	11.341600
1697.000000	11.268000
1696.000000	11.207700
1695.000000	11.207500
1694.000000	11.278700
1693.000000	11.331700
1692.000000	11.421100
1691.000000	11.556400
1690.000000	11.654000
1689.000000	11.729300
1688.000000	11.798600
1687.000000	11.800900
1686.000000	11.789000
1685.000000	11.797000
1684.000000	11.848400
1683.000000	11.953800
1682.000000	12.136600
1681.000000	12.447500
1680.000000	12.827400
1679.000000	13.225000
1678.000000	13.632600
1677.000000	14.047400
1676.000000	14.368300
1675.000000	14.673400
1674.000000	14.945900
1673.000000	15.172800
1672.000000	15.383500
1671.000000	15.572300
1670.000000	15.704500
1669.000000	15.848100
1668.000000	15.961800
1667.000000	16.091300
1666.000000	16.134000
1665.000000	16.221100
1664.000000	16.278100
1663.000000	16.338900
1662.000000	16.394100
1661.000000	16.432600
1660.000000	16.440800
1659.000000	16.481900
1658.000000	16.512300
1657.000000	16.515100
1656.000000	16.523100
1655.000000	16.516900
1654.000000	16.515900
1653.000000	16.518200
1652.000000	16.497700
1651.000000	16.472200
1650.000000	16.456900
1649.000000	16.417800
1648.000000	16.388900
1647.000000	16.350800
1646.000000	16.310800
1645.000000	16.267500
1644.000000	16.224300
1643.000000	16.182900
1642.000000	16.128600
1641.000000	16.064600
1640.000000	16.049100
1639.000000	15.983600
1638.000000	15.914600
1637.000000	15.877600
1636.000000	15.807900
1635.000000	15.749200
1634.000000	15.695500
1633.000000	15.638300
1632.000000	15.592300
1631.000000	15.534900
1630.000000	15.447800
1629.000000	15.399600
1628.000000	15.344300
1627.000000	15.286500
1626.000000	15.216100
1625.000000	15.158400
1624.000000	15.088100
1623.000000	15.019200
1622.000000	14.960000
1621.000000	14.885300
1620.000000	14.821500
1619.000000	14.772000
1618.000000	14.714200
1617.000000	14.642200
1616.000000	14.586100
1615.000000	14.532400
1614.000000	14.472400
1613.000000	14.419400
1612.000000	14.376800
1611.000000	14.333700
1610.000000	14.265900
1609.000000	14.201800
1608.000000	14.171200
1607.000000	14.111600
1606.000000	14.048100
1605.000000	14.009500
1604.000000	13.949300
1603.000000	13.911300
1602.000000	13.865700
1601.000000	13.823800
1600.000000	13.781400
1599.000000	13.731300
1598.000000	13.689200
1597.000000	13.643400
