PE UV       SUBTECH     SPECTRUM    ASCII       PEDS        4.00        
   -1
CICIMAUCR0113-2.Sample.ASC
24/04/18
15:37:48.00
24/04/18
15:37:48.00
Vinicio Soto Monge
C. kalinini
250,000000
1
Lambda 1050
1050L1511233
PerkinElmer UV WinLab 6.3.2.0749 / 2.02.05 Lambda 900 UV/VIS/NIR, Aug  7 2015 09:38:08

0
0
3350/servo 860,8/2
0
0
UV/VIS
1
1
1
DoubleDePol,CommonBeamDepol,RBeamAtt,SBeamAtt,60mm sphere, WB InGaAs Detector
0
0
0
0
Program
Program
3350/servo 860,8/2
3350/0,2 860,8/0,2
3350/0,2 860,8/0,2
0
15.00
 
 
 
0
 
860,8
319,2
860,8
Front
100
on
S:100 R:100
0
0
0
0
 
0
 
 
 
0
 
 
0
0
0
0
0
 
 
 
 
0
0


0
0
#HDR
-1
-1
#GR
nm
%R
1.0
0.0
2500,000000
-1,000000
2251
8
36,527000
2,130400
#DATA
2500.000000	8.460400
2499.000000	8.371800
2498.000000	8.385200
2497.000000	8.378400
2496.000000	8.432800
2495.000000	8.400900
2494.000000	8.317700
2493.000000	8.261700
2492.000000	8.235700
2491.000000	8.254400
2490.000000	8.227900
2489.000000	8.241200
2488.000000	8.239100
2487.000000	8.176400
2486.000000	8.221500
2485.000000	8.215100
2484.000000	8.182500
2483.000000	8.243400
2482.000000	8.150500
2481.000000	8.222500
2480.000000	8.213500
2479.000000	8.225000
2478.000000	8.243600
2477.000000	8.266000
2476.000000	8.291600
2475.000000	8.273100
2474.000000	8.293000
2473.000000	8.312500
2472.000000	8.350200
2471.000000	8.344100
2470.000000	8.410400
2469.000000	8.460500
2468.000000	8.462500
2467.000000	8.510400
2466.000000	8.555800
2465.000000	8.613500
2464.000000	8.645600
2463.000000	8.699500
2462.000000	8.768800
2461.000000	8.814300
2460.000000	8.872500
2459.000000	8.955600
2458.000000	9.016100
2457.000000	9.067000
2456.000000	9.126100
2455.000000	9.210500
2454.000000	9.260700
2453.000000	9.336700
2452.000000	9.421700
2451.000000	9.491200
2450.000000	9.552400
2449.000000	9.606700
2448.000000	9.687500
2447.000000	9.749800
2446.000000	9.785600
2445.000000	9.848800
2444.000000	9.929800
2443.000000	9.998700
2442.000000	10.056600
2441.000000	10.107600
2440.000000	10.171800
2439.000000	10.248700
2438.000000	10.323300
2437.000000	10.373700
2436.000000	10.425400
2435.000000	10.485000
2434.000000	10.532400
2433.000000	10.609000
2432.000000	10.648300
2431.000000	10.694100
2430.000000	10.742600
2429.000000	10.811300
2428.000000	10.867100
2427.000000	10.909100
2426.000000	10.950400
2425.000000	10.996400
2424.000000	11.060100
2423.000000	11.091600
2422.000000	11.135500
2421.000000	11.156000
2420.000000	11.163600
2419.000000	11.159500
2418.000000	11.182600
2417.000000	11.205700
2416.000000	11.234900
2415.000000	11.259900
2414.000000	11.289800
2413.000000	11.319500
2412.000000	11.320400
2411.000000	11.323000
2410.000000	11.348900
2409.000000	11.370700
2408.000000	11.381000
2407.000000	11.390100
2406.000000	11.405200
2405.000000	11.419300
2404.000000	11.432000
2403.000000	11.439200
2402.000000	11.452300
2401.000000	11.454700
2400.000000	11.450600
2399.000000	11.482800
2398.000000	11.493300
2397.000000	11.479700
2396.000000	11.479500
2395.000000	11.485000
2394.000000	11.487800
2393.000000	11.497300
2392.000000	11.496600
2391.000000	11.472400
2390.000000	11.464800
2389.000000	11.477800
2388.000000	11.455300
2387.000000	11.456000
2386.000000	11.447200
2385.000000	11.437900
2384.000000	11.407400
2383.000000	11.379200
2382.000000	11.385900
2381.000000	11.362300
2380.000000	11.332300
2379.000000	11.321300
2378.000000	11.318500
2377.000000	11.295400
2376.000000	11.254100
2375.000000	11.234200
2374.000000	11.213700
2373.000000	11.188600
2372.000000	11.158900
2371.000000	11.146400
2370.000000	11.109900
2369.000000	11.072700
2368.000000	11.060100
2367.000000	11.032900
2366.000000	10.984200
2365.000000	10.941500
2364.000000	10.903100
2363.000000	10.883600
2362.000000	10.857800
2361.000000	10.826700
2360.000000	10.793200
2359.000000	10.760100
2358.000000	10.733100
2357.000000	10.698900
2356.000000	10.677100
2355.000000	10.647100
2354.000000	10.629700
2353.000000	10.626800
2352.000000	10.618700
2351.000000	10.585300
2350.000000	10.567200
2349.000000	10.577700
2348.000000	10.582100
2347.000000	10.570600
2346.000000	10.567600
2345.000000	10.562600
2344.000000	10.554400
2343.000000	10.543700
2342.000000	10.530400
2341.000000	10.505100
2340.000000	10.489500
2339.000000	10.472300
2338.000000	10.451800
2337.000000	10.451600
2336.000000	10.420000
2335.000000	10.389700
2334.000000	10.375300
2333.000000	10.343500
2332.000000	10.305000
2331.000000	10.292200
2330.000000	10.273900
2329.000000	10.271200
2328.000000	10.234300
2327.000000	10.202000
2326.000000	10.193100
2325.000000	10.164300
2324.000000	10.164700
2323.000000	10.128900
2322.000000	10.095900
2321.000000	10.076900
2320.000000	10.038400
2319.000000	10.020000
2318.000000	9.966900
2317.000000	9.950300
2316.000000	9.926400
2315.000000	9.910000
2314.000000	9.862500
2313.000000	9.846400
2312.000000	9.853000
2311.000000	9.831400
2310.000000	9.816300
2309.000000	9.819300
2308.000000	9.807400
2307.000000	9.813400
2306.000000	9.843900
2305.000000	9.895400
2304.000000	9.889500
2303.000000	9.944600
2302.000000	9.966600
2301.000000	9.996100
2300.000000	10.037500
2299.000000	10.078800
2298.000000	10.122400
2297.000000	10.137100
2296.000000	10.174500
2295.000000	10.176700
2294.000000	10.183300
2293.000000	10.210400
2292.000000	10.236700
2291.000000	10.236300
2290.000000	10.209700
2289.000000	10.214500
2288.000000	10.203800
2287.000000	10.166300
2286.000000	10.135400
2285.000000	10.112600
2284.000000	10.106200
2283.000000	10.047400
2282.000000	10.013800
2281.000000	9.979400
2280.000000	9.974400
2279.000000	9.913600
2278.000000	9.867200
2277.000000	9.827900
2276.000000	9.826200
2275.000000	9.773200
2274.000000	9.760300
2273.000000	9.759200
2272.000000	9.765900
2271.000000	9.774900
2270.000000	9.759300
2269.000000	9.793300
2268.000000	9.835300
2267.000000	9.895500
2266.000000	9.930300
2265.000000	10.029000
2264.000000	10.127700
2263.000000	10.213900
2262.000000	10.291700
2261.000000	10.410000
2260.000000	10.508700
2259.000000	10.634100
2258.000000	10.731100
2257.000000	10.869500
2256.000000	10.992700
2255.000000	11.121900
2254.000000	11.242200
2253.000000	11.338700
2252.000000	11.457600
2251.000000	11.554800
2250.000000	11.697200
2249.000000	11.745400
2248.000000	11.855600
2247.000000	11.960300
2246.000000	12.063300
2245.000000	12.135500
2244.000000	12.180000
2243.000000	12.267000
2242.000000	12.331400
2241.000000	12.418400
2240.000000	12.479700
2239.000000	12.524100
2238.000000	12.578200
2237.000000	12.639700
2236.000000	12.672400
2235.000000	12.726500
2234.000000	12.727300
2233.000000	12.759800
2232.000000	12.795200
2231.000000	12.846900
2230.000000	12.878300
2229.000000	12.873500
2228.000000	12.876600
2227.000000	12.865700
2226.000000	12.884100
2225.000000	12.905600
2224.000000	12.914600
2223.000000	12.933700
2222.000000	12.912900
2221.000000	12.923400
2220.000000	12.885100
2219.000000	12.899400
2218.000000	12.817800
2217.000000	12.846400
2216.000000	12.819000
2215.000000	12.811200
2214.000000	12.786000
2213.000000	12.778500
2212.000000	12.758700
2211.000000	12.748500
2210.000000	12.740500
2209.000000	12.707300
2208.000000	12.702600
2207.000000	12.679300
2206.000000	12.649700
2205.000000	12.650200
2204.000000	12.631300
2203.000000	12.609400
2202.000000	12.581800
2201.000000	12.552800
2200.000000	12.564600
2199.000000	12.544700
2198.000000	12.526800
2197.000000	12.527500
2196.000000	12.496700
2195.000000	12.455100
2194.000000	12.456600
2193.000000	12.445900
2192.000000	12.432200
2191.000000	12.445100
2190.000000	12.416300
2189.000000	12.413100
2188.000000	12.393000
2187.000000	12.401900
2186.000000	12.355400
2185.000000	12.357800
2184.000000	12.366200
2183.000000	12.380700
2182.000000	12.355800
2181.000000	12.353600
2180.000000	12.323000
2179.000000	12.297900
2178.000000	12.298700
2177.000000	12.334400
2176.000000	12.332000
2175.000000	12.316900
2174.000000	12.304100
2173.000000	12.311300
2172.000000	12.333300
2171.000000	12.339300
2170.000000	12.330700
2169.000000	12.316200
2168.000000	12.320600
2167.000000	12.364900
2166.000000	12.364300
2165.000000	12.371800
2164.000000	12.368300
2163.000000	12.391700
2162.000000	12.391900
2161.000000	12.381900
2160.000000	12.383600
2159.000000	12.414300
2158.000000	12.420300
2157.000000	12.421700
2156.000000	12.407300
2155.000000	12.419000
2154.000000	12.433100
2153.000000	12.443300
2152.000000	12.448500
2151.000000	12.459500
2150.000000	12.454100
2149.000000	12.463700
2148.000000	12.465800
2147.000000	12.455200
2146.000000	12.465500
2145.000000	12.468300
2144.000000	12.464700
2143.000000	12.464800
2142.000000	12.485400
2141.000000	12.485300
2140.000000	12.471600
2139.000000	12.461000
2138.000000	12.446800
2137.000000	12.446000
2136.000000	12.422400
2135.000000	12.371400
2134.000000	12.361700
2133.000000	12.355000
2132.000000	12.326700
2131.000000	12.267900
2130.000000	12.240600
2129.000000	12.241300
2128.000000	12.211000
2127.000000	12.165000
2126.000000	12.141600
2125.000000	12.106500
2124.000000	12.050000
2123.000000	12.024300
2122.000000	11.993300
2121.000000	11.947000
2120.000000	11.917200
2119.000000	11.879100
2118.000000	11.849700
2117.000000	11.817500
2116.000000	11.762500
2115.000000	11.749000
2114.000000	11.715000
2113.000000	11.680800
2112.000000	11.653800
2111.000000	11.605600
2110.000000	11.579800
2109.000000	11.544100
2108.000000	11.515300
2107.000000	11.496100
2106.000000	11.463900
2105.000000	11.426600
2104.000000	11.402300
2103.000000	11.381200
2102.000000	11.377200
2101.000000	11.373600
2100.000000	11.352700
2099.000000	11.322000
2098.000000	11.294400
2097.000000	11.305900
2096.000000	11.310700
2095.000000	11.285200
2094.000000	11.271000
2093.000000	11.274500
2092.000000	11.269700
2091.000000	11.264400
2090.000000	11.263700
2089.000000	11.237000
2088.000000	11.224400
2087.000000	11.240200
2086.000000	11.222700
2085.000000	11.207700
2084.000000	11.196200
2083.000000	11.188500
2082.000000	11.187800
2081.000000	11.198500
2080.000000	11.185100
2079.000000	11.168700
2078.000000	11.175600
2077.000000	11.147300
2076.000000	11.137800
2075.000000	11.141900
2074.000000	11.117000
2073.000000	11.121000
2072.000000	11.118600
2071.000000	11.102100
2070.000000	11.101500
2069.000000	11.099100
2068.000000	11.081700
2067.000000	11.085100
2066.000000	11.096300
2065.000000	11.099900
2064.000000	11.098600
2063.000000	11.092500
2062.000000	11.084400
2061.000000	11.079200
2060.000000	11.104700
2059.000000	11.107300
2058.000000	11.125300
2057.000000	11.145200
2056.000000	11.139500
2055.000000	11.166700
2054.000000	11.212400
2053.000000	11.245100
2052.000000	11.273000
2051.000000	11.320400
2050.000000	11.364700
2049.000000	11.417500
2048.000000	11.483100
2047.000000	11.551500
2046.000000	11.619700
2045.000000	11.711000
2044.000000	11.763400
2043.000000	11.833700
2042.000000	11.911500
2041.000000	11.965400
2040.000000	12.019600
2039.000000	12.096200
2038.000000	12.157800
2037.000000	12.220700
2036.000000	12.297500
2035.000000	12.356900
2034.000000	12.406000
2033.000000	12.460200
2032.000000	12.511200
2031.000000	12.565900
2030.000000	12.604600
2029.000000	12.633200
2028.000000	12.654500
2027.000000	12.688300
2026.000000	12.735900
2025.000000	12.760400
2024.000000	12.786500
2023.000000	12.819400
2022.000000	12.862700
2021.000000	12.897600
2020.000000	12.888200
2019.000000	12.902600
2018.000000	12.945000
2017.000000	12.958300
2016.000000	12.987000
2015.000000	12.998400
2014.000000	12.960300
2013.000000	12.973800
2012.000000	12.990100
2011.000000	12.986800
2010.000000	12.985200
2009.000000	12.945500
2008.000000	12.949600
2007.000000	12.936800
2006.000000	12.916000
2005.000000	12.902900
2004.000000	12.873600
2003.000000	12.860000
2002.000000	12.856700
2001.000000	12.796300
2000.000000	12.762700
1999.000000	12.748900
1998.000000	12.714400
1997.000000	12.674900
1996.000000	12.615700
1995.000000	12.569100
1994.000000	12.529100
1993.000000	12.490800
1992.000000	12.455500
1991.000000	12.408000
1990.000000	12.366400
1989.000000	12.336700
1988.000000	12.257700
1987.000000	12.193200
1986.000000	12.116300
1985.000000	12.075700
1984.000000	12.038100
1983.000000	11.990900
1982.000000	11.933000
1981.000000	11.879700
1980.000000	11.833500
1979.000000	11.749900
1978.000000	11.696200
1977.000000	11.667000
1976.000000	11.575400
1975.000000	11.538400
1974.000000	11.487800
1973.000000	11.453900
1972.000000	11.387000
1971.000000	11.333900
1970.000000	11.317100
1969.000000	11.229400
1968.000000	11.168600
1967.000000	11.123400
1966.000000	11.090800
1965.000000	11.049500
1964.000000	11.014400
1963.000000	10.974800
1962.000000	10.916600
1961.000000	10.866200
1960.000000	10.810700
1959.000000	10.739600
1958.000000	10.717300
1957.000000	10.670900
1956.000000	10.623600
1955.000000	10.581400
1954.000000	10.519700
1953.000000	10.457600
1952.000000	10.412900
1951.000000	10.402000
1950.000000	10.368900
1949.000000	10.328700
1948.000000	10.282100
1947.000000	10.259300
1946.000000	10.228200
1945.000000	10.207700
1944.000000	10.174500
1943.000000	10.162300
1942.000000	10.154800
1941.000000	10.178900
1940.000000	10.202700
1939.000000	10.193500
1938.000000	10.153700
1937.000000	10.147700
1936.000000	10.139500
1935.000000	10.137400
1934.000000	10.151600
1933.000000	10.178700
1932.000000	10.227500
1931.000000	10.292200
1930.000000	10.347700
1929.000000	10.384400
1928.000000	10.419700
1927.000000	10.456200
1926.000000	10.512800
1925.000000	10.542500
1924.000000	10.583300
1923.000000	10.750700
1922.000000	10.884700
1921.000000	10.944000
1920.000000	10.965000
1919.000000	11.015300
1918.000000	11.096500
1917.000000	11.190100
1916.000000	11.379100
1915.000000	11.594900
1914.000000	11.721800
1913.000000	11.808700
1912.000000	11.920800
1911.000000	12.012200
1910.000000	12.147900
1909.000000	12.374300
1908.000000	12.608200
1907.000000	12.821700
1906.000000	13.026700
1905.000000	13.203200
1904.000000	13.373100
1903.000000	13.527600
1902.000000	13.772500
1901.000000	14.060200
1900.000000	14.260300
1899.000000	14.401300
1898.000000	14.553600
1897.000000	14.735500
1896.000000	14.951800
1895.000000	15.252000
1894.000000	15.522500
1893.000000	15.769100
1892.000000	16.003600
1891.000000	16.227300
1890.000000	16.428000
1889.000000	16.622100
1888.000000	16.847700
1887.000000	17.096200
1886.000000	17.366100
1885.000000	17.615300
1884.000000	17.821500
1883.000000	18.039300
1882.000000	18.286500
1881.000000	18.503500
1880.000000	18.762000
1879.000000	19.046100
1878.000000	19.290400
1877.000000	19.526800
1876.000000	19.782200
1875.000000	20.027900
1874.000000	20.232000
1873.000000	20.427000
1872.000000	20.576500
1871.000000	20.655700
1870.000000	20.626100
1869.000000	20.587600
1868.000000	20.535700
1867.000000	20.474500
1866.000000	20.502900
1865.000000	20.499700
1864.000000	20.501300
1863.000000	20.582700
1862.000000	20.667400
1861.000000	20.739500
1860.000000	20.781300
1859.000000	20.791000
1858.000000	20.757000
1857.000000	20.721200
1856.000000	20.754500
1855.000000	20.750900
1854.000000	20.658600
1853.000000	20.585200
1852.000000	20.541300
1851.000000	20.547200
1850.000000	20.654600
1849.000000	20.766700
1848.000000	20.684300
1847.000000	20.483200
1846.000000	20.312400
1845.000000	20.242800
1844.000000	20.315400
1843.000000	20.427200
1842.000000	20.430400
1841.000000	20.337300
1840.000000	20.288300
1839.000000	20.299500
1838.000000	20.304000
1837.000000	20.231100
1836.000000	20.088000
1835.000000	19.924100
1834.000000	19.830000
1833.000000	19.829500
1832.000000	19.853300
1831.000000	19.836000
1830.000000	19.758600
1829.000000	19.689600
1828.000000	19.642200
1827.000000	19.596800
1826.000000	19.502900
1825.000000	19.426200
1824.000000	19.406500
1823.000000	19.488200
1822.000000	19.588500
1821.000000	19.548000
1820.000000	19.438500
1819.000000	19.346000
1818.000000	19.346100
1817.000000	19.400000
1816.000000	19.369800
1815.000000	19.318900
1814.000000	19.306300
1813.000000	19.325500
1812.000000	19.349500
1811.000000	19.307300
1810.000000	19.242700
1809.000000	19.212100
1808.000000	19.215600
1807.000000	19.220500
1806.000000	19.175300
1805.000000	19.132400
1804.000000	19.101200
1803.000000	19.112100
1802.000000	19.110500
1801.000000	19.067200
1800.000000	19.021200
1799.000000	18.992300
1798.000000	18.985700
1797.000000	18.950300
1796.000000	18.928700
1795.000000	18.889500
1794.000000	18.847700
1793.000000	18.840500
1792.000000	18.820400
1791.000000	18.793700
1790.000000	18.782900
1789.000000	18.748500
1788.000000	18.730900
1787.000000	18.712100
1786.000000	18.696800
1785.000000	18.638600
1784.000000	18.623500
1783.000000	18.567800
1782.000000	18.532700
1781.000000	18.520700
1780.000000	18.484500
1779.000000	18.441800
1778.000000	18.386600
1777.000000	18.338800
1776.000000	18.278300
1775.000000	18.223700
1774.000000	18.159900
1773.000000	18.094700
1772.000000	18.017600
1771.000000	17.945800
1770.000000	17.880100
1769.000000	17.819900
1768.000000	17.769400
1767.000000	17.706700
1766.000000	17.652400
1765.000000	17.624900
1764.000000	17.599400
1763.000000	17.586600
1762.000000	17.602100
1761.000000	17.602000
1760.000000	17.614400
1759.000000	17.634200
1758.000000	17.664900
1757.000000	17.684000
1756.000000	17.695100
1755.000000	17.708400
1754.000000	17.697800
1753.000000	17.697200
1752.000000	17.693200
1751.000000	17.683000
1750.000000	17.632900
1749.000000	17.604300
1748.000000	17.556500
1747.000000	17.504900
1746.000000	17.444200
1745.000000	17.366800
1744.000000	17.281600
1743.000000	17.206300
1742.000000	17.096900
1741.000000	16.958600
1740.000000	16.859300
1739.000000	16.762100
1738.000000	16.665600
1737.000000	16.544100
1736.000000	16.483100
1735.000000	16.434600
1734.000000	16.416300
1733.000000	16.405700
1732.000000	16.398600
1731.000000	16.403900
1730.000000	16.461700
1729.000000	16.511000
1728.000000	16.543200
1727.000000	16.569900
1726.000000	16.601400
1725.000000	16.622500
1724.000000	16.638000
1723.000000	16.663700
1722.000000	16.669500
1721.000000	16.699800
1720.000000	16.708600
1719.000000	16.743400
1718.000000	16.778300
1717.000000	16.852700
1716.000000	16.876300
1715.000000	16.945900
1714.000000	17.003200
1713.000000	17.024500
1712.000000	17.073700
1711.000000	17.107800
1710.000000	17.132400
1709.000000	17.143000
1708.000000	17.158000
1707.000000	17.169800
1706.000000	17.179000
1705.000000	17.145200
1704.000000	17.094800
1703.000000	17.085300
1702.000000	17.025700
1701.000000	16.963900
1700.000000	16.903500
1699.000000	16.834500
1698.000000	16.765000
1697.000000	16.725000
1696.000000	16.698300
1695.000000	16.695800
1694.000000	16.731300
1693.000000	16.779500
1692.000000	16.856900
1691.000000	16.915300
1690.000000	16.989900
1689.000000	17.020100
1688.000000	17.046500
1687.000000	17.062600
1686.000000	17.075900
1685.000000	17.106300
1684.000000	17.176600
1683.000000	17.314800
1682.000000	17.483300
1681.000000	17.733700
1680.000000	18.014900
1679.000000	18.303000
1678.000000	18.543300
1677.000000	18.797600
1676.000000	19.017600
1675.000000	19.236800
1674.000000	19.387500
1673.000000	19.559300
1672.000000	19.681000
1671.000000	19.818000
1670.000000	19.917300
1669.000000	20.019000
1668.000000	20.125600
1667.000000	20.208900
1666.000000	20.277000
1665.000000	20.351300
1664.000000	20.430400
1663.000000	20.486700
1662.000000	20.525300
1661.000000	20.566600
1660.000000	20.603900
1659.000000	20.644000
1658.000000	20.687000
1657.000000	20.706100
1656.000000	20.717500
1655.000000	20.746400
1654.000000	20.759600
1653.000000	20.757200
1652.000000	20.763100
1651.000000	20.760700
1650.000000	20.735100
1649.000000	20.726300
1648.000000	20.695300
1647.000000	20.650100
1646.000000	20.638100
1645.000000	20.617900
1644.000000	20.567200
1643.000000	20.553300
1642.000000	20.525200
1641.000000	20.491600
1640.000000	20.473100
1639.000000	20.431800
1638.000000	20.402000
1637.000000	20.385800
1636.000000	20.361800
1635.000000	20.318400
1634.000000	20.262100
1633.000000	20.198700
1632.000000	20.160700
1631.000000	20.106600
1630.000000	20.075800
1629.000000	20.025500
1628.000000	19.980300
1627.000000	19.935400
1626.000000	19.870400
1625.000000	19.826900
1624.000000	19.800300
1623.000000	19.748500
1622.000000	19.687600
1621.000000	19.631800
1620.000000	19.580800
