PE UV       SUBTECH     SPECTRUM    ASCII       PEDS        4.00        
   -1
CICIMAUCR0100-2.Sample.ASC
24/04/18
16:04:25.00
24/04/18
16:04:25.00
Vinicio Soto Monge
C. cupreomarginata
250,000000
1
Lambda 1050
1050L1511233
PerkinElmer UV WinLab 6.3.2.0749 / 2.02.05 Lambda 900 UV/VIS/NIR, Aug  7 2015 09:38:08

0
0
3350/servo 860,8/2
0
0
UV/VIS
1
1
1
DoubleDePol,CommonBeamDepol,RBeamAtt,SBeamAtt,60mm sphere, WB InGaAs Detector
0
0
0
0
Program
Program
3350/servo 860,8/2
3350/0,2 860,8/0,2
3350/0,2 860,8/0,2
0
15.00
 
 
 
0
 
860,8
319,2
860,8
Front
100
on
S:100 R:100
0
0
0
0
 
0
 
 
 
0
 
 
0
0
0
0
0
 
 
 
 
0
0


0
0
#HDR
-1
-1
#GR
nm
%R
1.0
0.0
2500,000000
-1,000000
2251
8
65,493400
4,757100
#DATA
2500.000000	10.787500
2499.000000	10.838300
2498.000000	10.709100
2497.000000	10.827400
2496.000000	10.713500
2495.000000	10.662300
2494.000000	10.641800
2493.000000	10.640000
2492.000000	10.637500
2491.000000	10.538100
2490.000000	10.614200
2489.000000	10.591700
2488.000000	10.562200
2487.000000	10.550500
2486.000000	10.518100
2485.000000	10.546500
2484.000000	10.593000
2483.000000	10.620300
2482.000000	10.576700
2481.000000	10.579300
2480.000000	10.564300
2479.000000	10.604700
2478.000000	10.559900
2477.000000	10.593400
2476.000000	10.597100
2475.000000	10.567700
2474.000000	10.568400
2473.000000	10.647000
2472.000000	10.599400
2471.000000	10.620100
2470.000000	10.639500
2469.000000	10.645400
2468.000000	10.678900
2467.000000	10.692300
2466.000000	10.747000
2465.000000	10.754400
2464.000000	10.792500
2463.000000	10.864500
2462.000000	10.878600
2461.000000	10.927400
2460.000000	11.008800
2459.000000	11.039700
2458.000000	11.127300
2457.000000	11.214500
2456.000000	11.287200
2455.000000	11.362600
2454.000000	11.455300
2453.000000	11.535800
2452.000000	11.646900
2451.000000	11.721800
2450.000000	11.810300
2449.000000	11.925700
2448.000000	12.020300
2447.000000	12.124300
2446.000000	12.226100
2445.000000	12.311900
2444.000000	12.423200
2443.000000	12.511800
2442.000000	12.621900
2441.000000	12.719900
2440.000000	12.804200
2439.000000	12.902800
2438.000000	13.001100
2437.000000	13.086500
2436.000000	13.179100
2435.000000	13.261300
2434.000000	13.349800
2433.000000	13.420200
2432.000000	13.504600
2431.000000	13.580700
2430.000000	13.656200
2429.000000	13.717700
2428.000000	13.789300
2427.000000	13.868700
2426.000000	13.912800
2425.000000	13.974800
2424.000000	14.037900
2423.000000	14.080400
2422.000000	14.136300
2421.000000	14.194200
2420.000000	14.256800
2419.000000	14.304700
2418.000000	14.358900
2417.000000	14.399300
2416.000000	14.436300
2415.000000	14.468100
2414.000000	14.504400
2413.000000	14.539100
2412.000000	14.576000
2411.000000	14.604200
2410.000000	14.647700
2409.000000	14.691900
2408.000000	14.713100
2407.000000	14.746300
2406.000000	14.771200
2405.000000	14.794100
2404.000000	14.830500
2403.000000	14.856300
2402.000000	14.904600
2401.000000	14.934600
2400.000000	14.953900
2399.000000	14.986700
2398.000000	15.014900
2397.000000	15.039000
2396.000000	15.080000
2395.000000	15.098100
2394.000000	15.116700
2393.000000	15.135800
2392.000000	15.176800
2391.000000	15.200100
2390.000000	15.201300
2389.000000	15.212600
2388.000000	15.229900
2387.000000	15.244300
2386.000000	15.245200
2385.000000	15.246000
2384.000000	15.240800
2383.000000	15.240100
2382.000000	15.242600
2381.000000	15.231800
2380.000000	15.216900
2379.000000	15.207000
2378.000000	15.183800
2377.000000	15.147000
2376.000000	15.122400
2375.000000	15.106200
2374.000000	15.085700
2373.000000	15.043100
2372.000000	15.012100
2371.000000	14.986200
2370.000000	14.949200
2369.000000	14.913000
2368.000000	14.859600
2367.000000	14.797900
2366.000000	14.745500
2365.000000	14.690300
2364.000000	14.622700
2363.000000	14.571800
2362.000000	14.513600
2361.000000	14.432700
2360.000000	14.358700
2359.000000	14.296000
2358.000000	14.234100
2357.000000	14.179300
2356.000000	14.125400
2355.000000	14.086300
2354.000000	14.058600
2353.000000	14.027900
2352.000000	14.011300
2351.000000	14.013700
2350.000000	14.020200
2349.000000	14.032500
2348.000000	14.062200
2347.000000	14.099700
2346.000000	14.133100
2345.000000	14.181700
2344.000000	14.221700
2343.000000	14.264300
2342.000000	14.309400
2341.000000	14.331600
2340.000000	14.357000
2339.000000	14.385600
2338.000000	14.396300
2337.000000	14.405900
2336.000000	14.396800
2335.000000	14.369500
2334.000000	14.348500
2333.000000	14.337400
2332.000000	14.299100
2331.000000	14.261100
2330.000000	14.211300
2329.000000	14.165800
2328.000000	14.103100
2327.000000	14.030700
2326.000000	13.981800
2325.000000	13.906700
2324.000000	13.822000
2323.000000	13.725700
2322.000000	13.646300
2321.000000	13.535400
2320.000000	13.428800
2319.000000	13.330600
2318.000000	13.198200
2317.000000	13.047100
2316.000000	12.944000
2315.000000	12.820100
2314.000000	12.696800
2313.000000	12.581300
2312.000000	12.453300
2311.000000	12.320200
2310.000000	12.224500
2309.000000	12.149800
2308.000000	12.095800
2307.000000	12.046800
2306.000000	12.016800
2305.000000	12.013100
2304.000000	12.047700
2303.000000	12.072500
2302.000000	12.120000
2301.000000	12.185500
2300.000000	12.263900
2299.000000	12.351800
2298.000000	12.453100
2297.000000	12.565100
2296.000000	12.664000
2295.000000	12.752100
2294.000000	12.842700
2293.000000	12.925600
2292.000000	12.973900
2291.000000	13.026400
2290.000000	13.051300
2289.000000	13.093500
2288.000000	13.108100
2287.000000	13.086800
2286.000000	13.074100
2285.000000	13.076200
2284.000000	13.040300
2283.000000	13.009600
2282.000000	12.955100
2281.000000	12.919500
2280.000000	12.880300
2279.000000	12.815200
2278.000000	12.770100
2277.000000	12.727900
2276.000000	12.699100
2275.000000	12.652100
2274.000000	12.641400
2273.000000	12.602600
2272.000000	12.607400
2271.000000	12.626300
2270.000000	12.651400
2269.000000	12.685200
2268.000000	12.754300
2267.000000	12.854200
2266.000000	12.951100
2265.000000	13.085100
2264.000000	13.230500
2263.000000	13.409700
2262.000000	13.624200
2261.000000	13.851300
2260.000000	14.081400
2259.000000	14.333700
2258.000000	14.629600
2257.000000	14.861900
2256.000000	15.133500
2255.000000	15.432400
2254.000000	15.709700
2253.000000	15.982100
2252.000000	16.238800
2251.000000	16.491900
2250.000000	16.738400
2249.000000	16.948900
2248.000000	17.178500
2247.000000	17.378700
2246.000000	17.540200
2245.000000	17.732200
2244.000000	17.872500
2243.000000	18.039400
2242.000000	18.174200
2241.000000	18.287600
2240.000000	18.406600
2239.000000	18.520300
2238.000000	18.606500
2237.000000	18.710700
2236.000000	18.783600
2235.000000	18.853700
2234.000000	18.916400
2233.000000	18.974900
2232.000000	19.028700
2231.000000	19.055700
2230.000000	19.099700
2229.000000	19.127500
2228.000000	19.127100
2227.000000	19.137200
2226.000000	19.140700
2225.000000	19.138700
2224.000000	19.132600
2223.000000	19.123100
2222.000000	19.085300
2221.000000	19.074600
2220.000000	19.047700
2219.000000	19.007100
2218.000000	18.965400
2217.000000	18.920600
2216.000000	18.905300
2215.000000	18.853400
2214.000000	18.796300
2213.000000	18.765100
2212.000000	18.734300
2211.000000	18.680800
2210.000000	18.673700
2209.000000	18.615800
2208.000000	18.574800
2207.000000	18.562100
2206.000000	18.530900
2205.000000	18.494400
2204.000000	18.475100
2203.000000	18.448100
2202.000000	18.408200
2201.000000	18.386400
2200.000000	18.394900
2199.000000	18.360500
2198.000000	18.338000
2197.000000	18.328800
2196.000000	18.328800
2195.000000	18.294700
2194.000000	18.275200
2193.000000	18.250700
2192.000000	18.241600
2191.000000	18.227900
2190.000000	18.210500
2189.000000	18.205900
2188.000000	18.171100
2187.000000	18.164500
2186.000000	18.147000
2185.000000	18.139800
2184.000000	18.123500
2183.000000	18.096200
2182.000000	18.067700
2181.000000	18.066000
2180.000000	18.055900
2179.000000	18.028600
2178.000000	18.015400
2177.000000	18.017400
2176.000000	18.005800
2175.000000	18.013500
2174.000000	18.012300
2173.000000	17.990300
2172.000000	18.004300
2171.000000	18.015300
2170.000000	18.025600
2169.000000	18.043200
2168.000000	18.077000
2167.000000	18.094900
2166.000000	18.129100
2165.000000	18.137900
2164.000000	18.168700
2163.000000	18.208900
2162.000000	18.239100
2161.000000	18.270400
2160.000000	18.323700
2159.000000	18.350200
2158.000000	18.419900
2157.000000	18.454400
2156.000000	18.514200
2155.000000	18.582100
2154.000000	18.645100
2153.000000	18.699700
2152.000000	18.767300
2151.000000	18.835100
2150.000000	18.887500
2149.000000	18.949100
2148.000000	19.034400
2147.000000	19.090700
2146.000000	19.151500
2145.000000	19.216100
2144.000000	19.284000
2143.000000	19.350000
2142.000000	19.392100
2141.000000	19.442200
2140.000000	19.503500
2139.000000	19.557900
2138.000000	19.599400
2137.000000	19.649700
2136.000000	19.703300
2135.000000	19.742700
2134.000000	19.765200
2133.000000	19.801600
2132.000000	19.840700
2131.000000	19.866700
2130.000000	19.895900
2129.000000	19.906600
2128.000000	19.925500
2127.000000	19.941500
2126.000000	19.937700
2125.000000	19.939400
2124.000000	19.944200
2123.000000	19.947700
2122.000000	19.969600
2121.000000	19.975400
2120.000000	19.943400
2119.000000	19.930900
2118.000000	19.928600
2117.000000	19.915600
2116.000000	19.910600
2115.000000	19.890800
2114.000000	19.880600
2113.000000	19.880400
2112.000000	19.858300
2111.000000	19.836800
2110.000000	19.831200
2109.000000	19.804600
2108.000000	19.770500
2107.000000	19.762700
2106.000000	19.742800
2105.000000	19.711200
2104.000000	19.683000
2103.000000	19.660100
2102.000000	19.647000
2101.000000	19.626800
2100.000000	19.599200
2099.000000	19.571100
2098.000000	19.554100
2097.000000	19.530800
2096.000000	19.501300
2095.000000	19.483900
2094.000000	19.481400
2093.000000	19.483600
2092.000000	19.480200
2091.000000	19.465400
2090.000000	19.463700
2089.000000	19.455000
2088.000000	19.449000
2087.000000	19.452500
2086.000000	19.439200
2085.000000	19.426900
2084.000000	19.419400
2083.000000	19.407800
2082.000000	19.369300
2081.000000	19.337100
2080.000000	19.309100
2079.000000	19.268300
2078.000000	19.248300
2077.000000	19.224600
2076.000000	19.171600
2075.000000	19.101800
2074.000000	19.068900
2073.000000	19.025900
2072.000000	18.961600
2071.000000	18.904300
2070.000000	18.847600
2069.000000	18.785400
2068.000000	18.730500
2067.000000	18.671500
2066.000000	18.602600
2065.000000	18.538200
2064.000000	18.479000
2063.000000	18.430800
2062.000000	18.373500
2061.000000	18.317300
2060.000000	18.272300
2059.000000	18.245700
2058.000000	18.206300
2057.000000	18.193900
2056.000000	18.190500
2055.000000	18.217600
2054.000000	18.234800
2053.000000	18.271700
2052.000000	18.318800
2051.000000	18.380500
2050.000000	18.462100
2049.000000	18.548600
2048.000000	18.655600
2047.000000	18.766900
2046.000000	18.892200
2045.000000	19.012600
2044.000000	19.162000
2043.000000	19.297600
2042.000000	19.434600
2041.000000	19.576700
2040.000000	19.717700
2039.000000	19.848700
2038.000000	20.001800
2037.000000	20.121700
2036.000000	20.244200
2035.000000	20.361000
2034.000000	20.467700
2033.000000	20.578800
2032.000000	20.691100
2031.000000	20.788000
2030.000000	20.883600
2029.000000	20.977900
2028.000000	21.052200
2027.000000	21.138000
2026.000000	21.221600
2025.000000	21.308800
2024.000000	21.358400
2023.000000	21.429500
2022.000000	21.486600
2021.000000	21.550900
2020.000000	21.620700
2019.000000	21.671100
2018.000000	21.728800
2017.000000	21.766700
2016.000000	21.791400
2015.000000	21.832600
2014.000000	21.872000
2013.000000	21.881000
2012.000000	21.889700
2011.000000	21.927000
2010.000000	21.935900
2009.000000	21.932200
2008.000000	21.938800
2007.000000	21.915400
2006.000000	21.908400
2005.000000	21.906800
2004.000000	21.885900
2003.000000	21.871500
2002.000000	21.836400
2001.000000	21.789900
2000.000000	21.753700
1999.000000	21.712600
1998.000000	21.655300
1997.000000	21.602400
1996.000000	21.562100
1995.000000	21.489500
1994.000000	21.426400
1993.000000	21.363800
1992.000000	21.286900
1991.000000	21.194900
1990.000000	21.118200
1989.000000	21.055300
1988.000000	20.958900
1987.000000	20.867500
1986.000000	20.811700
1985.000000	20.713200
1984.000000	20.615500
1983.000000	20.529800
1982.000000	20.434800
1981.000000	20.367400
1980.000000	20.277800
1979.000000	20.166800
1978.000000	20.065900
1977.000000	19.972400
1976.000000	19.895500
1975.000000	19.806200
1974.000000	19.720900
1973.000000	19.626900
1972.000000	19.555200
1971.000000	19.445400
1970.000000	19.377200
1969.000000	19.279900
1968.000000	19.201900
1967.000000	19.114200
1966.000000	19.038500
1965.000000	18.964400
1964.000000	18.869600
1963.000000	18.801800
1962.000000	18.725700
1961.000000	18.635100
1960.000000	18.535500
1959.000000	18.471400
1958.000000	18.385800
1957.000000	18.310500
1956.000000	18.201000
1955.000000	18.137600
1954.000000	18.046300
1953.000000	17.976600
1952.000000	17.881800
1951.000000	17.794100
1950.000000	17.758900
1949.000000	17.696500
1948.000000	17.623000
1947.000000	17.567700
1946.000000	17.509600
1945.000000	17.465200
1944.000000	17.408700
1943.000000	17.388400
1942.000000	17.355600
1941.000000	17.322600
1940.000000	17.332200
1939.000000	17.331200
1938.000000	17.330000
1937.000000	17.336700
1936.000000	17.332300
1935.000000	17.340200
1934.000000	17.371800
1933.000000	17.421500
1932.000000	17.480800
1931.000000	17.554500
1930.000000	17.615600
1929.000000	17.714700
1928.000000	17.819600
1927.000000	17.920800
1926.000000	18.026300
1925.000000	18.132400
1924.000000	18.278700
1923.000000	18.414600
1922.000000	18.583600
1921.000000	18.760200
1920.000000	18.934500
1919.000000	19.144700
1918.000000	19.323400
1917.000000	19.502500
1916.000000	19.696100
1915.000000	19.913000
1914.000000	20.180900
1913.000000	20.460200
1912.000000	20.720200
1911.000000	20.950700
1910.000000	21.231300
1909.000000	21.455700
1908.000000	21.730500
1907.000000	22.040700
1906.000000	22.384200
1905.000000	22.753100
1904.000000	23.093100
1903.000000	23.426400
1902.000000	23.771200
1901.000000	24.100900
1900.000000	24.471300
1899.000000	24.898700
1898.000000	25.283100
1897.000000	25.689100
1896.000000	26.036200
1895.000000	26.385000
1894.000000	26.783800
1893.000000	27.195900
1892.000000	27.645800
1891.000000	28.076600
1890.000000	28.494000
1889.000000	28.881300
1888.000000	29.307200
1887.000000	29.712200
1886.000000	30.130200
1885.000000	30.585100
1884.000000	31.073900
1883.000000	31.546700
1882.000000	31.995900
1881.000000	32.482600
1880.000000	32.920700
1879.000000	33.343600
1878.000000	33.764400
1877.000000	34.145800
1876.000000	34.506600
1875.000000	34.835100
1874.000000	35.140400
1873.000000	35.431300
1872.000000	35.689300
1871.000000	35.911900
1870.000000	36.087000
1869.000000	36.241800
1868.000000	36.368200
1867.000000	36.451400
1866.000000	36.512700
1865.000000	36.586900
1864.000000	36.664500
1863.000000	36.731600
1862.000000	36.810600
1861.000000	36.884100
1860.000000	36.943000
1859.000000	36.985200
1858.000000	37.000200
1857.000000	37.006500
1856.000000	37.011800
1855.000000	37.012400
1854.000000	36.999800
1853.000000	36.949300
1852.000000	36.904900
1851.000000	36.898700
1850.000000	36.921100
1849.000000	36.947900
1848.000000	36.905600
1847.000000	36.817600
1846.000000	36.719200
1845.000000	36.648200
1844.000000	36.610400
1843.000000	36.625900
1842.000000	36.651000
1841.000000	36.616800
1840.000000	36.559100
1839.000000	36.508400
1838.000000	36.467500
1837.000000	36.419600
1836.000000	36.337400
1835.000000	36.239700
1834.000000	36.155200
1833.000000	36.090600
1832.000000	36.033500
1831.000000	35.984900
1830.000000	35.918200
1829.000000	35.846700
1828.000000	35.761900
1827.000000	35.684800
1826.000000	35.622200
1825.000000	35.559500
1824.000000	35.517600
1823.000000	35.521000
1822.000000	35.541800
1821.000000	35.536800
1820.000000	35.486400
1819.000000	35.403500
1818.000000	35.378400
1817.000000	35.385000
1816.000000	35.379000
1815.000000	35.349100
1814.000000	35.334500
1813.000000	35.349200
1812.000000	35.339700
1811.000000	35.300600
1810.000000	35.254300
1809.000000	35.208400
1808.000000	35.171200
1807.000000	35.167000
1806.000000	35.126100
1805.000000	35.071000
1804.000000	35.023500
1803.000000	34.999300
1802.000000	34.976800
1801.000000	34.951000
1800.000000	34.898500
1799.000000	34.827700
1798.000000	34.786900
1797.000000	34.766400
1796.000000	34.734200
1795.000000	34.690400
1794.000000	34.661300
1793.000000	34.624400
1792.000000	34.580700
1791.000000	34.531200
1790.000000	34.480400
1789.000000	34.441700
1788.000000	34.386900
1787.000000	34.351600
1786.000000	34.302600
1785.000000	34.232000
1784.000000	34.166700
1783.000000	34.109000
1782.000000	34.057200
1781.000000	34.005600
1780.000000	33.937400
1779.000000	33.844800
1778.000000	33.756800
1777.000000	33.659300
1776.000000	33.562300
1775.000000	33.448300
1774.000000	33.325300
1773.000000	33.210300
1772.000000	33.086600
1771.000000	32.969400
1770.000000	32.838800
1769.000000	32.721300
1768.000000	32.597200
1767.000000	32.480500
1766.000000	32.385900
1765.000000	32.308400
1764.000000	32.233200
1763.000000	32.195100
1762.000000	32.175500
1761.000000	32.193100
1760.000000	32.208600
1759.000000	32.236200
1758.000000	32.275800
1757.000000	32.307500
1756.000000	32.316600
1755.000000	32.333400
1754.000000	32.318400
1753.000000	32.301800
1752.000000	32.283400
1751.000000	32.250800
1750.000000	32.183300
1749.000000	32.110300
1748.000000	32.044500
1747.000000	31.964100
1746.000000	31.855100
1745.000000	31.717400
1744.000000	31.581700
1743.000000	31.424900
1742.000000	31.231200
1741.000000	31.025700
1740.000000	30.809900
1739.000000	30.605400
1738.000000	30.403500
1737.000000	30.236700
1736.000000	30.088400
1735.000000	29.961900
1734.000000	29.911100
1733.000000	29.889100
1732.000000	29.881400
1731.000000	29.917000
1730.000000	29.960900
1729.000000	30.045100
1728.000000	30.105400
1727.000000	30.176300
1726.000000	30.246800
1725.000000	30.294000
1724.000000	30.331300
1723.000000	30.354600
1722.000000	30.401100
1721.000000	30.441000
1720.000000	30.501600
1719.000000	30.561800
1718.000000	30.640600
1717.000000	30.733100
1716.000000	30.852400
1715.000000	30.961000
1714.000000	31.069200
1713.000000	31.156400
1712.000000	31.235000
1711.000000	31.330400
1710.000000	31.386700
1709.000000	31.418900
1708.000000	31.447900
1707.000000	31.456100
1706.000000	31.447900
1705.000000	31.427300
1704.000000	31.407600
1703.000000	31.358900
1702.000000	31.271800
1701.000000	31.186400
1700.000000	31.053400
1699.000000	30.926700
1698.000000	30.833900
1697.000000	30.722000
1696.000000	30.667800
1695.000000	30.641800
1694.000000	30.679400
1693.000000	30.738100
1692.000000	30.833700
1691.000000	30.949700
1690.000000	31.057900
1689.000000	31.123500
1688.000000	31.196500
1687.000000	31.193000
1686.000000	31.226800
1685.000000	31.290300
1684.000000	31.383800
1683.000000	31.630700
1682.000000	31.919100
1681.000000	32.326700
1680.000000	32.800000
1679.000000	33.280100
1678.000000	33.774100
1677.000000	34.236600
1676.000000	34.623700
1675.000000	35.004800
1674.000000	35.337200
1673.000000	35.624500
1672.000000	35.886000
1671.000000	36.113100
1670.000000	36.315900
1669.000000	36.531500
1668.000000	36.711300
1667.000000	36.932800
1666.000000	37.069100
1665.000000	37.194600
1664.000000	37.356800
1663.000000	37.509500
1662.000000	37.607700
1661.000000	37.729600
1660.000000	37.850900
1659.000000	37.949200
1658.000000	38.020900
1657.000000	38.084500
1656.000000	38.145100
1655.000000	38.188200
1654.000000	38.219900
1653.000000	38.223600
1652.000000	38.246800
1651.000000	38.260000
1650.000000	38.257300
1649.000000	38.235400
1648.000000	38.218300
1647.000000	38.203400
1646.000000	38.166900
1645.000000	38.139100
1644.000000	38.099700
1643.000000	38.062000
1642.000000	38.029300
1641.000000	37.988200
1640.000000	37.952400
1639.000000	37.909800
1638.000000	37.861900
1637.000000	37.813700
1636.000000	37.781800
1635.000000	37.723800
1634.000000	37.659500
1633.000000	37.612300
1632.000000	37.548700
1631.000000	37.482900
1630.000000	37.418300
1629.000000	37.336400
1628.000000	37.273700
1627.000000	37.219400
1626.000000	37.152300
1625.000000	37.080600
