PE UV       SUBTECH     SPECTRUM    ASCII       PEDS        4.00        
   -1
CICIMAUCR0021-3.Sample.ASC
24/04/17
14:19:58.00
24/04/17
14:19:58.00
Vinicio Soto Monge
C. resplendens. 
250,000000
1
Lambda 1050
1050L1511233
PerkinElmer UV WinLab 6.3.2.0749 / 2.02.05 Lambda 900 UV/VIS/NIR, Aug  7 2015 09:38:08

0
0
3350/servo 860,8/2
0
0
UV/VIS
1
1
1
DoubleDePol,CommonBeamDepol,RBeamAtt,SBeamAtt,60mm sphere, WB InGaAs Detector
0
0
0
0
Program
Program
3350/servo 860,8/2
3350/0,2 860,8/0,2
3350/0,2 860,8/0,2
0
15.00
 
 
 
0
 
860,8
319,2
860,8
Front
100
on
S:100 R:100
0
0
0
0
 
0
 
 
 
0
 
 
0
0
0
0
0
 
 
 
 
0
0


0
0
#HDR
-1
-1
#GR
nm
%R
1.0
0.0
2500,000000
-1,000000
2251
8
79,251800
5,023200
#DATA
2500.000000	10.446026
2499.000000	10.280421
2498.000000	10.267505
2497.000000	10.186202
2496.000000	10.026478
2495.000000	10.201886
2494.000000	10.022327
2493.000000	10.051850
2492.000000	10.039164
2491.000000	10.138342
2490.000000	9.987038
2489.000000	10.064996
2488.000000	9.915767
2487.000000	9.958437
2486.000000	9.965933
2485.000000	9.979542
2484.000000	9.976774
2483.000000	9.929491
2482.000000	9.910693
2481.000000	9.913346
2480.000000	9.938832
2479.000000	9.931106
2478.000000	9.935257
2477.000000	9.921188
2476.000000	9.961666
2475.000000	9.918766
2474.000000	9.915191
2473.000000	9.922226
2472.000000	9.927531
2471.000000	9.937564
2470.000000	9.967663
2469.000000	10.017368
2468.000000	9.957515
2467.000000	9.981848
2466.000000	9.975390
2465.000000	10.029477
2464.000000	10.061998
2463.000000	10.105014
2462.000000	10.133960
2461.000000	10.155064
2460.000000	10.228180
2459.000000	10.276962
2458.000000	10.337391
2457.000000	10.393439
2456.000000	10.468976
2455.000000	10.532519
2454.000000	10.617051
2453.000000	10.704928
2452.000000	10.755440
2451.000000	10.878836
2450.000000	10.964406
2449.000000	11.072349
2448.000000	11.125629
2447.000000	11.203473
2446.000000	11.294694
2445.000000	11.407480
2444.000000	11.461798
2443.000000	11.535720
2442.000000	11.620714
2441.000000	11.687025
2440.000000	11.791970
2439.000000	11.888842
2438.000000	11.949387
2437.000000	11.993902
2436.000000	12.100230
2435.000000	12.172307
2434.000000	12.230315
2433.000000	12.286939
2432.000000	12.357517
2431.000000	12.397765
2430.000000	12.438129
2429.000000	12.499596
2428.000000	12.564408
2427.000000	12.602234
2426.000000	12.629682
2425.000000	12.690572
2424.000000	12.732550
2423.000000	12.759767
2422.000000	12.793095
2421.000000	12.836572
2420.000000	12.870939
2419.000000	12.895387
2418.000000	12.929062
2417.000000	12.962621
2416.000000	12.988569
2415.000000	13.028817
2414.000000	13.063875
2413.000000	13.103893
2412.000000	13.153136
2411.000000	13.190040
2410.000000	13.215757
2409.000000	13.253006
2408.000000	13.302365
2407.000000	13.317472
2406.000000	13.342959
2405.000000	13.385859
2404.000000	13.415959
2403.000000	13.457245
2402.000000	13.504758
2401.000000	13.542469
2400.000000	13.583986
2399.000000	13.615584
2398.000000	13.656178
2397.000000	13.706459
2396.000000	13.753512
2395.000000	13.773809
2394.000000	13.779575
2393.000000	13.826742
2392.000000	13.874256
2391.000000	13.895014
2390.000000	13.930649
2389.000000	13.948063
2388.000000	13.965361
2387.000000	13.976548
2386.000000	13.983582
2385.000000	13.995000
2384.000000	13.997537
2383.000000	14.003188
2382.000000	14.010568
2381.000000	14.005840
2380.000000	14.001342
2379.000000	13.985658
2378.000000	13.976548
2377.000000	13.969167
2376.000000	13.958442
2375.000000	13.953944
2374.000000	13.923268
2373.000000	13.882789
2372.000000	13.856265
2371.000000	13.839889
2370.000000	13.802985
2369.000000	13.767235
2368.000000	13.719376
2367.000000	13.659984
2366.000000	13.606243
2365.000000	13.544314
2364.000000	13.480886
2363.000000	13.403158
2362.000000	13.320586
2361.000000	13.265577
2360.000000	13.209299
2359.000000	13.132608
2358.000000	13.056725
2357.000000	13.021321
2356.000000	12.995143
2355.000000	12.952473
2354.000000	12.932291
2353.000000	12.928716
2352.000000	12.939210
2351.000000	12.946707
2350.000000	12.991913
2349.000000	13.055457
2348.000000	13.090861
2347.000000	13.144025
2346.000000	13.212874
2345.000000	13.264769
2344.000000	13.351378
2343.000000	13.415498
2342.000000	13.468201
2341.000000	13.507526
2340.000000	13.550080
2339.000000	13.584101
2338.000000	13.598978
2337.000000	13.613047
2336.000000	13.607627
2335.000000	13.591828
2334.000000	13.585715
2333.000000	13.579603
2332.000000	13.550657
2331.000000	13.508333
2330.000000	13.430374
2329.000000	13.355875
2328.000000	13.317472
2327.000000	13.260733
2326.000000	13.178623
2325.000000	13.080251
2324.000000	12.988454
2323.000000	12.870478
2322.000000	12.770031
2321.000000	12.672467
2320.000000	12.560833
2319.000000	12.429595
2318.000000	12.291437
2317.000000	12.141401
2316.000000	11.997823
2315.000000	11.869237
2314.000000	11.748147
2313.000000	11.658079
2312.000000	11.554403
2311.000000	11.429392
2310.000000	11.355700
2309.000000	11.297692
2308.000000	11.256867
2307.000000	11.220541
2306.000000	11.248449
2305.000000	11.289389
2304.000000	11.309109
2303.000000	11.377611
2302.000000	11.462144
2301.000000	11.562706
2300.000000	11.680452
2299.000000	11.789894
2298.000000	11.893685
2297.000000	11.999553
2296.000000	12.118913
2295.000000	12.239541
2294.000000	12.310119
2293.000000	12.396843
2292.000000	12.458541
2291.000000	12.493599
2290.000000	12.505132
2289.000000	12.537307
2288.000000	12.543765
2287.000000	12.541113
2286.000000	12.521854
2285.000000	12.486911
2284.000000	12.437091
2283.000000	12.404108
2282.000000	12.360977
2281.000000	12.274254
2280.000000	12.242309
2279.000000	12.189029
2278.000000	12.122718
2277.000000	12.076473
2276.000000	12.036456
2275.000000	12.010162
2274.000000	11.992402
2273.000000	11.977410
2272.000000	11.967262
2271.000000	11.983868
2270.000000	12.018696
2269.000000	12.103690
2268.000000	12.151665
2267.000000	12.254303
2266.000000	12.391538
2265.000000	12.547225
2264.000000	12.738547
2263.000000	12.927332
2262.000000	13.165706
2261.000000	13.410423
2260.000000	13.688354
2259.000000	13.941489
2258.000000	14.243176
2257.000000	14.587879
2256.000000	14.861773
2255.000000	15.153081
2254.000000	15.474373
2253.000000	15.760376
2252.000000	16.054913
2251.000000	16.313930
2250.000000	16.549190
2249.000000	16.837846
2248.000000	17.027668
2247.000000	17.290030
2246.000000	17.476970
2245.000000	17.647072
2244.000000	17.833666
2243.000000	17.997657
2242.000000	18.139505
2241.000000	18.296460
2240.000000	18.397484
2239.000000	18.541754
2238.000000	18.672992
2237.000000	18.778168
2236.000000	18.860855
2235.000000	18.953460
2234.000000	19.018041
2233.000000	19.130713
2232.000000	19.164041
2231.000000	19.244306
2230.000000	19.262758
2229.000000	19.309118
2228.000000	19.305774
2227.000000	19.313385
2226.000000	19.355940
2225.000000	19.340602
2224.000000	19.332760
2223.000000	19.325840
2222.000000	19.310156
2221.000000	19.285708
2220.000000	19.248919
2219.000000	19.222626
2218.000000	19.178572
2217.000000	19.146512
2216.000000	19.131289
2215.000000	19.103957
2214.000000	19.042029
2213.000000	18.995438
2212.000000	19.003626
2211.000000	18.957381
2210.000000	18.924975
2209.000000	18.899027
2208.000000	18.888417
2207.000000	18.839635
2206.000000	18.799849
2205.000000	18.774823
2204.000000	18.755680
2203.000000	18.743225
2202.000000	18.720737
2201.000000	18.689368
2200.000000	18.690291
2199.000000	18.647967
2198.000000	18.638626
2197.000000	18.611525
2196.000000	18.618906
2195.000000	18.583847
2194.000000	18.544752
2193.000000	18.513269
2192.000000	18.518920
2191.000000	18.476942
2190.000000	18.441422
2189.000000	18.442460
2188.000000	18.416858
2187.000000	18.380070
2186.000000	18.358620
2185.000000	18.330942
2184.000000	18.308339
2183.000000	18.297383
2182.000000	18.261748
2181.000000	18.233263
2180.000000	18.203509
2179.000000	18.191285
2178.000000	18.197397
2177.000000	18.167990
2176.000000	18.143195
2175.000000	18.127857
2174.000000	18.113442
2173.000000	18.108252
2172.000000	18.124628
2171.000000	18.111366
2170.000000	18.125666
2169.000000	18.133047
2168.000000	18.138236
2167.000000	18.158418
2166.000000	18.185288
2165.000000	18.200280
2164.000000	18.204086
2163.000000	18.233263
2162.000000	18.267168
2161.000000	18.298998
2160.000000	18.318257
2159.000000	18.344550
2158.000000	18.405211
2157.000000	18.460681
2156.000000	18.506580
2155.000000	18.523648
2154.000000	18.580388
2153.000000	18.638165
2152.000000	18.690983
2151.000000	18.723043
2150.000000	18.769749
2149.000000	18.816225
2148.000000	18.876654
2147.000000	18.925090
2146.000000	18.954613
2145.000000	19.008239
2144.000000	19.067400
2143.000000	19.107071
2142.000000	19.145243
2141.000000	19.194717
2140.000000	19.239002
2139.000000	19.281441
2138.000000	19.302430
2137.000000	19.338526
2136.000000	19.368395
2135.000000	19.374622
2134.000000	19.408758
2133.000000	19.454657
2132.000000	19.484641
2131.000000	19.508859
2130.000000	19.527080
2129.000000	19.532962
2128.000000	19.531463
2127.000000	19.539535
2126.000000	19.557872
2125.000000	19.571711
2124.000000	19.569404
2123.000000	19.560294
2122.000000	19.553028
2121.000000	19.547147
2120.000000	19.535730
2119.000000	19.518200
2118.000000	19.505399
2117.000000	19.488216
2116.000000	19.470687
2115.000000	19.452235
2114.000000	19.430439
2113.000000	19.397687
2112.000000	19.386385
2111.000000	19.378197
2110.000000	19.345791
2109.000000	19.310733
2108.000000	19.287437
2107.000000	19.260913
2106.000000	19.239809
2105.000000	19.223317
2104.000000	19.192411
2103.000000	19.180417
2102.000000	19.170153
2101.000000	19.128406
2100.000000	19.095769
2099.000000	19.073281
2098.000000	19.050908
2097.000000	19.040875
2096.000000	19.023692
2095.000000	18.992901
2094.000000	18.985981
2093.000000	18.989441
2092.000000	18.970874
2091.000000	18.951615
2090.000000	18.944580
2089.000000	18.932010
2088.000000	18.910444
2087.000000	18.899604
2086.000000	18.887841
2085.000000	18.876539
2084.000000	18.877923
2083.000000	18.868812
2082.000000	18.844018
2081.000000	18.828103
2080.000000	18.795582
2079.000000	18.781512
2078.000000	18.753373
2077.000000	18.725234
2076.000000	18.701593
2075.000000	18.669648
2074.000000	18.641970
2073.000000	18.608988
2072.000000	18.584078
2071.000000	18.544637
2070.000000	18.526993
2069.000000	18.485591
2068.000000	18.451686
2067.000000	18.435656
2066.000000	18.408324
2065.000000	18.382377
2064.000000	18.361503
2063.000000	18.340860
2062.000000	18.303841
2061.000000	18.294731
2060.000000	18.304072
2059.000000	18.298536
2058.000000	18.315835
2057.000000	18.327367
2056.000000	18.346050
2055.000000	18.383645
2054.000000	18.436002
2053.000000	18.502083
2052.000000	18.601146
2051.000000	18.684294
2050.000000	18.793045
2049.000000	18.917940
2048.000000	19.013198
2047.000000	19.147550
2046.000000	19.309349
2045.000000	19.456617
2044.000000	19.625682
2043.000000	19.779293
2042.000000	19.915721
2041.000000	20.070025
2040.000000	20.264576
2039.000000	20.421877
2038.000000	20.553923
2037.000000	20.707880
2036.000000	20.838081
2035.000000	20.965398
2034.000000	21.116472
2033.000000	21.245750
2032.000000	21.366610
2031.000000	21.496349
2030.000000	21.596680
2029.000000	21.704162
2028.000000	21.791116
2027.000000	21.895138
2026.000000	21.987859
2025.000000	22.096378
2024.000000	22.162805
2023.000000	22.248029
2022.000000	22.334868
2021.000000	22.399218
2020.000000	22.486173
2019.000000	22.551215
2018.000000	22.595730
2017.000000	22.662618
2016.000000	22.716820
2015.000000	22.755454
2014.000000	22.817036
2013.000000	22.842062
2012.000000	22.875621
2011.000000	22.886923
2010.000000	22.889921
2009.000000	22.905144
2008.000000	22.903645
2007.000000	22.902376
2006.000000	22.891074
2005.000000	22.867894
2004.000000	22.854171
2003.000000	22.830068
2002.000000	22.792818
2001.000000	22.762027
2000.000000	22.744498
1999.000000	22.685221
1998.000000	22.622485
1997.000000	22.568052
1996.000000	22.501626
1995.000000	22.463223
1994.000000	22.379844
1993.000000	22.295888
1992.000000	22.210433
1991.000000	22.130399
1990.000000	22.035141
1989.000000	21.976788
1988.000000	21.877148
1987.000000	21.778546
1986.000000	21.686633
1985.000000	21.589530
1984.000000	21.494850
1983.000000	21.387137
1982.000000	21.290265
1981.000000	21.178862
1980.000000	21.087526
1979.000000	20.959978
1978.000000	20.895973
1977.000000	20.770270
1976.000000	20.674552
1975.000000	20.574797
1974.000000	20.488304
1973.000000	20.371711
1972.000000	20.270457
1971.000000	20.184426
1970.000000	20.094358
1969.000000	19.998408
1968.000000	19.868439
1967.000000	19.831535
1966.000000	19.719556
1965.000000	19.615880
1964.000000	19.543456
1963.000000	19.439550
1962.000000	19.369087
1961.000000	19.265526
1960.000000	19.186875
1959.000000	19.111569
1958.000000	18.996130
1957.000000	18.895106
1956.000000	18.812765
1955.000000	18.741610
1954.000000	18.663536
1953.000000	18.591920
1952.000000	18.505081
1951.000000	18.416282
1950.000000	18.332441
1949.000000	18.252753
1948.000000	18.212505
1947.000000	18.132701
1946.000000	18.079421
1945.000000	18.030870
1944.000000	17.982780
1943.000000	17.961906
1942.000000	17.893173
1941.000000	17.867687
1940.000000	17.862958
1939.000000	17.884293
1938.000000	17.883255
1937.000000	17.912548
1936.000000	17.949105
1935.000000	17.977244
1934.000000	18.000309
1933.000000	18.043094
1932.000000	18.104792
1931.000000	18.185750
1930.000000	18.256558
1929.000000	18.379724
1928.000000	18.520880
1927.000000	18.660192
1926.000000	18.806537
1925.000000	18.978139
1924.000000	19.097269
1923.000000	19.196562
1922.000000	19.392959
1921.000000	19.665238
1920.000000	19.948704
1919.000000	20.198956
1918.000000	20.387626
1917.000000	20.602474
1916.000000	20.786877
1915.000000	20.995498
1914.000000	21.304450
1913.000000	21.674755
1912.000000	22.036410
1911.000000	22.361969
1910.000000	22.647395
1909.000000	22.851403
1908.000000	23.087701
1907.000000	23.424793
1906.000000	23.806630
1905.000000	24.285569
1904.000000	24.736139
1903.000000	25.086147
1902.000000	25.447110
1901.000000	25.779473
1900.000000	26.216550
1899.000000	26.744272
1898.000000	27.186654
1897.000000	27.631803
1896.000000	27.982042
1895.000000	28.269774
1894.000000	28.611133
1893.000000	29.010038
1892.000000	29.471794
1891.000000	29.962843
1890.000000	30.413874
1889.000000	30.813586
1888.000000	31.255968
1887.000000	31.635729
1886.000000	32.059313
1885.000000	32.547133
1884.000000	33.129864
1883.000000	33.739234
1882.000000	34.336266
1881.000000	34.880709
1880.000000	35.429073
1879.000000	35.899825
1878.000000	36.389144
1877.000000	36.842481
1876.000000	37.268487
1875.000000	37.702451
1874.000000	38.085095
1873.000000	38.460243
1872.000000	38.801140
1871.000000	39.113437
1870.000000	39.409242
1869.000000	39.663647
1868.000000	39.884722
1867.000000	40.013424
1866.000000	40.076736
1865.000000	40.138319
1864.000000	40.173954
1863.000000	40.204169
1862.000000	40.215240
1861.000000	40.269904
1860.000000	40.333101
1859.000000	40.372542
1858.000000	40.399412
1857.000000	40.405755
1856.000000	40.362739
1855.000000	40.317532
1854.000000	40.310382
1853.000000	40.250299
1852.000000	40.171994
1851.000000	40.089191
1850.000000	39.993127
1849.000000	39.930160
1848.000000	39.920242
1847.000000	39.949304
1846.000000	39.897869
1845.000000	39.763863
1844.000000	39.601256
1843.000000	39.497465
1842.000000	39.501732
1841.000000	39.525719
1840.000000	39.485933
1839.000000	39.417546
1838.000000	39.345468
1837.000000	39.297724
1836.000000	39.245137
1835.000000	39.196585
1834.000000	39.096023
1833.000000	38.937107
1832.000000	38.807252
1831.000000	38.722605
1830.000000	38.654218
1829.000000	38.561151
1828.000000	38.448826
1827.000000	38.359796
1826.000000	38.314474
1825.000000	38.236284
1824.000000	38.119346
1823.000000	38.015093
1822.000000	38.000447
1821.000000	38.029970
1820.000000	38.032623
1819.000000	38.011864
1818.000000	37.959161
1817.000000	37.894811
1816.000000	37.876474
1815.000000	37.882356
1814.000000	37.858368
1813.000000	37.829422
1812.000000	37.810740
1811.000000	37.797016
1810.000000	37.733588
1809.000000	37.665086
1808.000000	37.613421
1807.000000	37.572481
1806.000000	37.538576
1805.000000	37.482759
1804.000000	37.405953
1803.000000	37.332146
1802.000000	37.274830
1801.000000	37.244846
1800.000000	37.186146
1799.000000	37.096540
1798.000000	37.039339
1797.000000	36.974066
1796.000000	36.931165
1795.000000	36.871197
1794.000000	36.822992
1793.000000	36.763023
1792.000000	36.708821
1791.000000	36.637320
1790.000000	36.555441
1789.000000	36.488783
1788.000000	36.423626
1787.000000	36.352471
1786.000000	36.283507
1785.000000	36.191018
1784.000000	36.120555
1783.000000	36.019877
1782.000000	35.912280
1781.000000	35.820136
1780.000000	35.725571
1779.000000	35.631005
1778.000000	35.528944
1777.000000	35.428266
1776.000000	35.297143
1775.000000	35.162330
1774.000000	35.014715
1773.000000	34.874597
1772.000000	34.715796
1771.000000	34.544886
1770.000000	34.398194
1769.000000	34.261882
1768.000000	34.114729
1767.000000	33.970574
1766.000000	33.869781
1765.000000	33.790553
1764.000000	33.726203
1763.000000	33.701062
1762.000000	33.709366
1761.000000	33.726203
1760.000000	33.800010
1759.000000	33.904609
1758.000000	33.975763
1757.000000	34.037923
1756.000000	34.103312
1755.000000	34.156937
1754.000000	34.178733
1753.000000	34.185537
1752.000000	34.177695
1751.000000	34.131566
1750.000000	34.069060
1749.000000	34.005056
1748.000000	33.914296
1747.000000	33.798626
1746.000000	33.673039
1745.000000	33.506050
1744.000000	33.306655
1743.000000	33.103685
1742.000000	32.860352
1741.000000	32.579423
1740.000000	32.290191
1739.000000	32.000844
1738.000000	31.750246
1737.000000	31.503568
1736.000000	31.318012
1735.000000	31.200151
1734.000000	31.142374
1733.000000	31.111006
1732.000000	31.183083
1731.000000	31.269691
1730.000000	31.387206
1729.000000	31.513140
1728.000000	31.672517
1727.000000	31.796375
1726.000000	31.923231
1725.000000	32.021833
1724.000000	32.097370
1723.000000	32.172907
1722.000000	32.191359
1721.000000	32.198278
1720.000000	32.253288
1719.000000	32.286501
1718.000000	32.346123
1717.000000	32.405976
1716.000000	32.464100
1715.000000	32.545057
1714.000000	32.643197
1713.000000	32.713314
1712.000000	32.796463
1711.000000	32.870385
1710.000000	32.882725
1709.000000	32.894488
1708.000000	32.882494
1707.000000	32.868886
1706.000000	32.820565
1705.000000	32.796001
1704.000000	32.687020
1703.000000	32.620248
1702.000000	32.494430
1701.000000	32.320291
1700.000000	32.135773
1699.000000	31.964632
1698.000000	31.739751
1697.000000	31.571148
1696.000000	31.497456
1695.000000	31.454325
1694.000000	31.512563
1693.000000	31.648761
1692.000000	31.800757
1691.000000	32.015721
1690.000000	32.203699
1689.000000	32.395482
1688.000000	32.494314
1687.000000	32.539637
1686.000000	32.545518
1685.000000	32.590494
1684.000000	32.691403
1683.000000	32.883417
1682.000000	33.288203
1681.000000	33.820538
1680.000000	34.416762
1679.000000	35.124965
1678.000000	35.820021
1677.000000	36.416591
1676.000000	36.975911
1675.000000	37.485411
1674.000000	37.890313
1673.000000	38.218755
1672.000000	38.574990
1671.000000	38.828818
1670.000000	39.099713
1669.000000	39.303145
1668.000000	39.481435
1667.000000	39.677601
1666.000000	39.805034
1665.000000	39.922779
1664.000000	40.015961
1663.000000	40.098417
1662.000000	40.175223
1661.000000	40.262869
1660.000000	40.320992
1659.000000	40.358934
1658.000000	40.420978
1657.000000	40.451884
1656.000000	40.463878
1655.000000	40.465839
1654.000000	40.430780
1653.000000	40.411982
1652.000000	40.394915
1651.000000	40.364815
1650.000000	40.338867
1649.000000	40.303693
1648.000000	40.254681
1647.000000	40.205092
1646.000000	40.155618
1645.000000	40.086769
1644.000000	40.026224
1643.000000	39.957492
1642.000000	39.899830
1641.000000	39.827637
1640.000000	39.758212
1639.000000	39.688441
1638.000000	39.622361
1637.000000	39.540596
1636.000000	39.469211
1635.000000	39.368994
1634.000000	39.292765
1633.000000	39.188859
1632.000000	39.107671
1631.000000	39.030173
1630.000000	38.962478
1629.000000	38.841388
1628.000000	38.741172
1627.000000	38.644069
1626.000000	38.563804
1625.000000	38.451133
1624.000000	38.344573
1623.000000	38.246318
