PE UV       SUBTECH     SPECTRUM    ASCII       PEDS        4.00        
   -1
CICIMAUCR0014-4.Sample.ASC
24/04/23
10:33:05.00
24/04/23
10:33:05.00
Vinicio Soto Monge
C. cupreomarginata
250,000000
1
Lambda 1050
1050L1511233
PerkinElmer UV WinLab 6.3.2.0749 / 2.02.05 Lambda 900 UV/VIS/NIR, Aug  7 2015 09:38:08

0
0
3350/servo 860,8/2
0
0
UV/VIS
1
1
1
DoubleDePol,CommonBeamDepol,RBeamAtt,SBeamAtt,60mm sphere, WB InGaAs Detector
0
0
0
0
Program
Program
3350/servo 860,8/2
3350/0,2 860,8/0,2
3350/0,2 860,8/0,2
0
15.00
 
 
 
0
 
860,8
319,2
860,8
Front
100
on
S:100 R:100
0
0
0
0
 
0
 
 
 
0
 
 
0
0
0
0
0
 
 
 
 
0
0


0
0
#HDR
-1
-1
#GR
nm
%R
1.0
0.0
2500,000000
-1,000000
2251
8
76,501800
5,863200
#DATA
2500.000000	7.803295
2499.000000	7.757918
2498.000000	7.651208
2497.000000	7.609678
2496.000000	7.686174
2495.000000	7.617260
2494.000000	7.526732
2493.000000	7.585914
2492.000000	7.608207
2491.000000	7.645663
2490.000000	7.512360
2489.000000	7.484410
2488.000000	7.429527
2487.000000	7.544158
2486.000000	7.496631
2485.000000	7.481581
2484.000000	7.525261
2483.000000	7.454536
2482.000000	7.483052
2481.000000	7.463023
2480.000000	7.438580
2479.000000	7.495613
2478.000000	7.502402
2477.000000	7.467549
2476.000000	7.445709
2475.000000	7.475357
2474.000000	7.445370
2473.000000	7.485768
2472.000000	7.436204
2471.000000	7.466304
2470.000000	7.510776
2469.000000	7.486560
2468.000000	7.474339
2467.000000	7.529221
2466.000000	7.534540
2465.000000	7.525713
2464.000000	7.540311
2463.000000	7.596212
2462.000000	7.593723
2461.000000	7.618957
2460.000000	7.634008
2459.000000	7.670445
2458.000000	7.675424
2457.000000	7.740378
2456.000000	7.778513
2455.000000	7.827285
2454.000000	7.900726
2453.000000	7.906158
2452.000000	7.941577
2451.000000	8.005625
2450.000000	8.052474
2449.000000	8.083480
2448.000000	8.136099
2447.000000	8.164842
2446.000000	8.238169
2445.000000	8.277436
2444.000000	8.335374
2443.000000	8.399762
2442.000000	8.428618
2441.000000	8.500361
2440.000000	8.526275
2439.000000	8.560449
2438.000000	8.616916
2437.000000	8.656975
2436.000000	8.690810
2435.000000	8.742071
2434.000000	8.790617
2433.000000	8.818681
2432.000000	8.855005
2431.000000	8.887369
2430.000000	8.934217
2429.000000	8.961828
2428.000000	8.973484
2427.000000	9.041380
2426.000000	9.065709
2425.000000	9.082344
2424.000000	9.091849
2423.000000	9.092868
2422.000000	9.106786
2421.000000	9.117763
2420.000000	9.132021
2419.000000	9.142771
2418.000000	9.164724
2417.000000	9.183848
2416.000000	9.207612
2415.000000	9.215420
2414.000000	9.218023
2413.000000	9.236921
2412.000000	9.255705
2411.000000	9.280940
2410.000000	9.295311
2409.000000	9.308551
2408.000000	9.342159
2407.000000	9.356418
2406.000000	9.378484
2405.000000	9.384481
2404.000000	9.392855
2403.000000	9.421711
2402.000000	9.451698
2401.000000	9.479988
2400.000000	9.489154
2399.000000	9.510768
2398.000000	9.534079
2397.000000	9.559879
2396.000000	9.589301
2395.000000	9.618496
2394.000000	9.637281
2393.000000	9.669192
2392.000000	9.699972
2391.000000	9.706422
2390.000000	9.726791
2389.000000	9.738107
2388.000000	9.760512
2387.000000	9.778052
2386.000000	9.776128
2385.000000	9.780315
2384.000000	9.801476
2383.000000	9.804532
2382.000000	9.806569
2381.000000	9.802834
2380.000000	9.798647
2379.000000	9.808153
2378.000000	9.806795
2377.000000	9.800571
2376.000000	9.803740
2375.000000	9.792310
2374.000000	9.762210
2373.000000	9.750441
2372.000000	9.742859
2371.000000	9.730299
2370.000000	9.722491
2369.000000	9.699632
2368.000000	9.668061
2367.000000	9.623928
2366.000000	9.580475
2365.000000	9.569611
2364.000000	9.557277
2363.000000	9.503752
2362.000000	9.444004
2361.000000	9.420693
2360.000000	9.390479
2359.000000	9.337633
2358.000000	9.290106
2357.000000	9.251405
2356.000000	9.214741
2355.000000	9.192562
2354.000000	9.191204
2353.000000	9.198107
2352.000000	9.199351
2351.000000	9.200257
2350.000000	9.219041
2349.000000	9.239976
2348.000000	9.294180
2347.000000	9.333446
2346.000000	9.352344
2345.000000	9.392403
2344.000000	9.446380
2343.000000	9.491418
2342.000000	9.533740
2341.000000	9.601749
2340.000000	9.624947
2339.000000	9.632415
2338.000000	9.659121
2337.000000	9.683111
2336.000000	9.700538
2335.000000	9.699066
2334.000000	9.686279
2333.000000	9.653237
2332.000000	9.630605
2331.000000	9.622683
2330.000000	9.598807
2329.000000	9.559087
2328.000000	9.514389
2327.000000	9.478631
2326.000000	9.457583
2325.000000	9.409490
2324.000000	9.342725
2323.000000	9.280827
2322.000000	9.221983
2321.000000	9.162348
2320.000000	9.087889
2319.000000	9.020785
2318.000000	8.945646
2317.000000	8.859758
2316.000000	8.779414
2315.000000	8.716271
2314.000000	8.640906
2313.000000	8.571086
2312.000000	8.525596
2311.000000	8.456682
2310.000000	8.417302
2309.000000	8.386635
2308.000000	8.359024
2307.000000	8.331300
2306.000000	8.336619
2305.000000	8.348274
2304.000000	8.353027
2303.000000	8.416397
2302.000000	8.462113
2301.000000	8.494251
2300.000000	8.568031
2299.000000	8.645546
2298.000000	8.718195
2297.000000	8.787788
2296.000000	8.856589
2295.000000	8.931501
2294.000000	8.973371
2293.000000	9.047377
2292.000000	9.093434
2291.000000	9.120252
2290.000000	9.146392
2289.000000	9.163593
2288.000000	9.172759
2287.000000	9.164724
2286.000000	9.148656
2285.000000	9.156124
2284.000000	9.117876
2283.000000	9.107918
2282.000000	9.061183
2281.000000	9.041040
2280.000000	8.968844
2279.000000	8.949607
2278.000000	8.914301
2277.000000	8.884540
2276.000000	8.843010
2275.000000	8.797180
2274.000000	8.789938
2273.000000	8.782809
2272.000000	8.783262
2271.000000	8.810873
2270.000000	8.817889
2269.000000	8.832486
2268.000000	8.891443
2267.000000	8.921204
2266.000000	8.987742
2265.000000	9.068538
2264.000000	9.211686
2263.000000	9.306401
2262.000000	9.443098
2261.000000	9.589188
2260.000000	9.765944
2259.000000	9.967822
2258.000000	10.129528
2257.000000	10.350077
2256.000000	10.543807
2255.000000	10.749758
2254.000000	10.954352
2253.000000	11.155550
2252.000000	11.334004
2251.000000	11.555571
2250.000000	11.723388
2249.000000	11.877964
2248.000000	12.035257
2247.000000	12.207600
2246.000000	12.343958
2245.000000	12.469226
2244.000000	12.582952
2243.000000	12.729947
2242.000000	12.854423
2241.000000	12.945404
2240.000000	13.041137
2239.000000	13.147847
2238.000000	13.226720
2237.000000	13.321435
2236.000000	13.397931
2235.000000	13.466506
2234.000000	13.532139
2233.000000	13.575140
2232.000000	13.668610
2231.000000	13.694863
2230.000000	13.720777
2229.000000	13.771359
2228.000000	13.789012
2227.000000	13.823300
2226.000000	13.842424
2225.000000	13.869469
2224.000000	13.885538
2223.000000	13.878296
2222.000000	13.886783
2221.000000	13.890970
2220.000000	13.873656
2219.000000	13.856343
2218.000000	13.858040
2217.000000	13.859398
2216.000000	13.844913
2215.000000	13.843329
2214.000000	13.821829
2213.000000	13.803723
2212.000000	13.803950
2211.000000	13.784599
2210.000000	13.767851
2209.000000	13.745333
2208.000000	13.762080
2207.000000	13.742051
2206.000000	13.740467
2205.000000	13.724058
2204.000000	13.735374
2203.000000	13.724172
2202.000000	13.716703
2201.000000	13.709008
2200.000000	13.683095
2199.000000	13.694750
2198.000000	13.692600
2197.000000	13.711498
2196.000000	13.706858
2195.000000	13.693279
2194.000000	13.693166
2193.000000	13.683887
2192.000000	13.675965
2191.000000	13.680831
2190.000000	13.682302
2189.000000	13.669742
2188.000000	13.650278
2187.000000	13.653333
2186.000000	13.649033
2185.000000	13.625383
2184.000000	13.626175
2183.000000	13.608635
2182.000000	13.589737
2181.000000	13.572198
2180.000000	13.574913
2179.000000	13.570387
2178.000000	13.575706
2177.000000	13.559184
2176.000000	13.532252
2175.000000	13.537910
2174.000000	13.545266
2173.000000	13.564390
2172.000000	13.583853
2171.000000	13.583627
2170.000000	13.565747
2169.000000	13.578648
2168.000000	13.595509
2167.000000	13.612709
2166.000000	13.613727
2165.000000	13.632399
2164.000000	13.642696
2163.000000	13.652428
2162.000000	13.664536
2161.000000	13.678455
2160.000000	13.697805
2159.000000	13.716137
2158.000000	13.735148
2157.000000	13.745333
2156.000000	13.769888
2155.000000	13.806552
2154.000000	13.827600
2153.000000	13.823526
2152.000000	13.850119
2151.000000	13.878409
2150.000000	13.908623
2149.000000	13.919939
2148.000000	13.945513
2147.000000	13.965542
2146.000000	13.969276
2145.000000	13.989079
2144.000000	14.012730
2143.000000	14.031854
2142.000000	14.049846
2141.000000	14.060144
2140.000000	14.056749
2139.000000	14.083002
2138.000000	14.089452
2137.000000	14.091150
2136.000000	14.087302
2135.000000	14.097826
2134.000000	14.093074
2133.000000	14.097147
2132.000000	14.103258
2131.000000	14.101674
2130.000000	14.102353
2129.000000	14.091829
2128.000000	14.084587
2127.000000	14.079721
2126.000000	14.067386
2125.000000	14.058786
2124.000000	14.038530
2123.000000	14.021330
2122.000000	14.011146
2121.000000	13.989985
2120.000000	13.949021
2119.000000	13.932160
2118.000000	13.915299
2117.000000	13.888254
2116.000000	13.862227
2115.000000	13.829976
2114.000000	13.807231
2113.000000	13.804742
2112.000000	13.758459
2111.000000	13.716250
2110.000000	13.706066
2109.000000	13.689092
2108.000000	13.661141
2107.000000	13.636020
2106.000000	13.615425
2105.000000	13.589172
2104.000000	13.561900
2103.000000	13.551602
2102.000000	13.529423
2101.000000	13.504754
2100.000000	13.478841
2099.000000	13.436519
2098.000000	13.416942
2097.000000	13.413434
2096.000000	13.401326
2095.000000	13.360588
2094.000000	13.324830
2093.000000	13.321548
2092.000000	13.305366
2091.000000	13.291334
2090.000000	13.275605
2089.000000	13.257952
2088.000000	13.241544
2087.000000	13.210538
2086.000000	13.194130
2085.000000	13.176250
2084.000000	13.159842
2083.000000	13.140944
2082.000000	13.120802
2081.000000	13.101904
2080.000000	13.089004
2079.000000	13.064448
2078.000000	13.041929
2077.000000	13.028916
2076.000000	13.004134
2075.000000	12.978220
2074.000000	12.963849
2073.000000	12.958983
2072.000000	12.921527
2071.000000	12.903987
2070.000000	12.901950
2069.000000	12.878300
2068.000000	12.844691
2067.000000	12.824549
2066.000000	12.805990
2065.000000	12.795919
2064.000000	12.783585
2063.000000	12.770685
2062.000000	12.738208
2061.000000	12.733568
2060.000000	12.731192
2059.000000	12.732776
2058.000000	12.741489
2057.000000	12.766045
2056.000000	12.787998
2055.000000	12.787998
2054.000000	12.817985
2053.000000	12.843333
2052.000000	12.891313
2051.000000	12.924130
2050.000000	12.959096
2049.000000	13.027445
2048.000000	13.073388
2047.000000	13.145471
2046.000000	13.213141
2045.000000	13.295747
2044.000000	13.352441
2043.000000	13.429163
2042.000000	13.493099
2041.000000	13.576385
2040.000000	13.637944
2039.000000	13.703350
2038.000000	13.783468
2037.000000	13.872638
2036.000000	13.911565
2035.000000	13.963279
2034.000000	14.021104
2033.000000	14.068631
2032.000000	14.106540
2031.000000	14.176812
2030.000000	14.233958
2029.000000	14.255006
2028.000000	14.284088
2027.000000	14.331728
2026.000000	14.359339
2025.000000	14.415127
2024.000000	14.422596
2023.000000	14.445228
2022.000000	14.473292
2021.000000	14.496942
2020.000000	14.528287
2019.000000	14.546506
2018.000000	14.570383
2017.000000	14.595505
2016.000000	14.621079
2015.000000	14.625266
2014.000000	14.623229
2013.000000	14.605576
2012.000000	14.606255
2011.000000	14.597541
2010.000000	14.581246
2009.000000	14.574344
2008.000000	14.552843
2007.000000	14.537793
2006.000000	14.530890
2005.000000	14.497055
2004.000000	14.443417
2003.000000	14.417956
2002.000000	14.403245
2001.000000	14.373484
2000.000000	14.333652
1999.000000	14.294046
1998.000000	14.240974
1997.000000	14.185299
1996.000000	14.157009
1995.000000	14.090924
1994.000000	14.050412
1993.000000	13.998359
1992.000000	13.927294
1991.000000	13.883162
1990.000000	13.828166
1989.000000	13.747709
1988.000000	13.688526
1987.000000	13.617575
1986.000000	13.562579
1985.000000	13.491628
1984.000000	13.439008
1983.000000	13.370999
1982.000000	13.308421
1981.000000	13.229096
1980.000000	13.189490
1979.000000	13.122386
1978.000000	13.049737
1977.000000	12.990781
1976.000000	12.911682
1975.000000	12.830207
1974.000000	12.784377
1973.000000	12.737302
1972.000000	12.677667
1971.000000	12.604000
1970.000000	12.539951
1969.000000	12.479976
1968.000000	12.436975
1967.000000	12.391485
1966.000000	12.301862
1965.000000	12.266556
1964.000000	12.206355
1963.000000	12.170144
1962.000000	12.091498
1961.000000	12.027449
1960.000000	12.010814
1959.000000	11.969737
1958.000000	11.888715
1957.000000	11.822742
1956.000000	11.781778
1955.000000	11.742625
1954.000000	11.682990
1953.000000	11.638065
1952.000000	11.581598
1951.000000	11.566774
1950.000000	11.538371
1949.000000	11.498765
1948.000000	11.451917
1947.000000	11.425890
1946.000000	11.375534
1945.000000	11.351883
1944.000000	11.316011
1943.000000	11.322235
1942.000000	11.285232
1941.000000	11.313522
1940.000000	11.310353
1939.000000	11.294737
1938.000000	11.278782
1937.000000	11.289419
1936.000000	11.307411
1935.000000	11.331175
1934.000000	11.343283
1933.000000	11.392960
1932.000000	11.430642
1931.000000	11.478283
1930.000000	11.515739
1929.000000	11.571753
1928.000000	11.646099
1927.000000	11.694079
1926.000000	11.765144
1925.000000	11.853974
1924.000000	11.938392
1923.000000	12.045781
1922.000000	12.151359
1921.000000	12.238493
1920.000000	12.320307
1919.000000	12.401556
1918.000000	12.560546
1917.000000	12.708899
1916.000000	12.871850
1915.000000	13.016695
1914.000000	13.190735
1913.000000	13.289071
1912.000000	13.441950
1911.000000	13.629457
1910.000000	13.789012
1909.000000	13.960337
1908.000000	14.172286
1907.000000	14.395664
1906.000000	14.584189
1905.000000	14.761963
1904.000000	14.956033
1903.000000	15.184616
1902.000000	15.401883
1901.000000	15.627298
1900.000000	15.879080
1899.000000	16.097705
1898.000000	16.352542
1897.000000	16.618807
1896.000000	16.895144
1895.000000	17.187776
1894.000000	17.499532
1893.000000	17.791825
1892.000000	18.128929
1891.000000	18.459696
1890.000000	18.819093
1889.000000	19.166494
1888.000000	19.544223
1887.000000	19.982492
1886.000000	20.470212
1885.000000	20.972416
1884.000000	21.529164
1883.000000	22.105941
1882.000000	22.691658
1881.000000	23.327052
1880.000000	23.924311
1879.000000	24.524852
1878.000000	25.096989
1877.000000	25.641403
1876.000000	26.177668
1875.000000	26.690963
1874.000000	27.177551
1873.000000	27.612425
1872.000000	28.007920
1871.000000	28.351361
1870.000000	28.649085
1869.000000	28.963105
1868.000000	29.200514
1867.000000	29.387002
1866.000000	29.572698
1865.000000	29.745946
1864.000000	29.895431
1863.000000	30.053289
1862.000000	30.203113
1861.000000	30.311860
1860.000000	30.402275
1859.000000	30.450821
1858.000000	30.478771
1857.000000	30.519056
1856.000000	30.545875
1855.000000	30.531843
1854.000000	30.478205
1853.000000	30.411893
1852.000000	30.393109
1851.000000	30.393222
1850.000000	30.408612
1849.000000	30.380888
1848.000000	30.254375
1847.000000	30.111340
1846.000000	30.008591
1845.000000	29.981998
1844.000000	29.996370
1843.000000	30.008365
1842.000000	29.978490
1841.000000	29.917610
1840.000000	29.845301
1839.000000	29.800603
1838.000000	29.764052
1837.000000	29.687782
1836.000000	29.579035
1835.000000	29.477983
1834.000000	29.388813
1833.000000	29.322388
1832.000000	29.265242
1831.000000	29.173809
1830.000000	29.056575
1829.000000	28.953939
1828.000000	28.834442
1827.000000	28.730674
1826.000000	28.638561
1825.000000	28.559462
1824.000000	28.532530
1823.000000	28.533549
1822.000000	28.506843
1821.000000	28.428989
1820.000000	28.342987
1819.000000	28.293649
1818.000000	28.286747
1817.000000	28.292970
1816.000000	28.281994
1815.000000	28.255514
1814.000000	28.246688
1813.000000	28.233674
1812.000000	28.213532
1811.000000	28.154123
1810.000000	28.095280
1809.000000	28.065971
1808.000000	28.026818
1807.000000	27.954848
1806.000000	27.875296
1805.000000	27.793595
1804.000000	27.733959
1803.000000	27.677945
1802.000000	27.629513
1801.000000	27.558222
1800.000000	27.479236
1799.000000	27.397648
1798.000000	27.331562
1797.000000	27.288335
1796.000000	27.219647
1795.000000	27.145527
1794.000000	27.089399
1793.000000	27.028406
1792.000000	26.968884
1791.000000	26.902119
1790.000000	26.810007
1789.000000	26.734642
1788.000000	26.660409
1787.000000	26.574408
1786.000000	26.489764
1785.000000	26.371738
1784.000000	26.256880
1783.000000	26.161486
1782.000000	26.063716
1781.000000	25.968209
1780.000000	25.866591
1779.000000	25.748339
1778.000000	25.632123
1777.000000	25.515116
1776.000000	25.400032
1775.000000	25.255300
1774.000000	25.108305
1773.000000	24.951579
1772.000000	24.798020
1771.000000	24.652949
1770.000000	24.485246
1769.000000	24.343230
1768.000000	24.214906
1767.000000	24.089072
1766.000000	23.990057
1765.000000	23.896813
1764.000000	23.828125
1763.000000	23.826428
1762.000000	23.845665
1761.000000	23.900774
1760.000000	23.974667
1759.000000	24.053314
1758.000000	24.141805
1757.000000	24.219319
1756.000000	24.270128
1755.000000	24.319240
1754.000000	24.315619
1753.000000	24.341985
1752.000000	24.333611
1751.000000	24.298758
1750.000000	24.254399
1749.000000	24.178695
1748.000000	24.095975
1747.000000	24.005786
1746.000000	23.866939
1745.000000	23.698217
1744.000000	23.529948
1743.000000	23.324902
1742.000000	23.082966
1741.000000	22.833674
1740.000000	22.552810
1739.000000	22.304311
1738.000000	22.068938
1737.000000	21.857781
1736.000000	21.733192
1735.000000	21.618221
1734.000000	21.580086
1733.000000	21.578049
1732.000000	21.619805
1731.000000	21.725836
1730.000000	21.869663
1729.000000	21.979541
1728.000000	22.122576
1727.000000	22.262442
1726.000000	22.375262
1725.000000	22.485593
1724.000000	22.563561
1723.000000	22.615501
1722.000000	22.633267
1721.000000	22.644018
1720.000000	22.642094
1719.000000	22.621725
1718.000000	22.685774
1717.000000	22.702408
1716.000000	22.759780
1715.000000	22.804252
1714.000000	22.854495
1713.000000	22.918431
1712.000000	22.972182
1711.000000	22.986893
1710.000000	22.976708
1709.000000	22.970598
1708.000000	22.935971
1707.000000	22.878825
1706.000000	22.839898
1705.000000	22.765212
1704.000000	22.671742
1703.000000	22.583477
1702.000000	22.434106
1701.000000	22.271834
1700.000000	22.071993
1699.000000	21.910061
1698.000000	21.736021
1697.000000	21.602831
1696.000000	21.526561
1695.000000	21.537198
1694.000000	21.603850
1693.000000	21.731381
1692.000000	21.921151
1691.000000	22.114541
1690.000000	22.334751
1689.000000	22.457303
1688.000000	22.547605
1687.000000	22.574198
1686.000000	22.608825
1685.000000	22.634738
1684.000000	22.760459
1683.000000	22.998096
1682.000000	23.358284
1681.000000	23.873615
1680.000000	24.484001
1679.000000	25.155154
1678.000000	25.795300
1677.000000	26.418020
1676.000000	26.956436
1675.000000	27.453549
1674.000000	27.900192
1673.000000	28.272375
1672.000000	28.578021
1671.000000	28.850171
1670.000000	29.078641
1669.000000	29.301340
1668.000000	29.485565
1667.000000	29.680087
1666.000000	29.780234
1665.000000	29.893960
1664.000000	29.979622
1663.000000	30.068226
1662.000000	30.140649
1661.000000	30.176068
1660.000000	30.202774
1659.000000	30.265691
1658.000000	30.289907
1657.000000	30.277007
1656.000000	30.274291
1655.000000	30.260485
1654.000000	30.242493
1653.000000	30.223821
1652.000000	30.182065
1651.000000	30.153888
1650.000000	30.110774
1649.000000	30.066868
1648.000000	30.020925
1647.000000	29.949748
1646.000000	29.880494
1645.000000	29.801055
1644.000000	29.728520
1643.000000	29.664358
1642.000000	29.584240
1641.000000	29.506047
1640.000000	29.417556
1639.000000	29.324764
1638.000000	29.248268
1637.000000	29.162606
1636.000000	29.072644
1635.000000	28.978721
1634.000000	28.878800
1633.000000	28.790083
1632.000000	28.705213
1631.000000	28.610498
1630.000000	28.498017
1629.000000	28.385309
1628.000000	28.281315
1627.000000	28.172455
1626.000000	28.077287
1625.000000	27.973859
1624.000000	27.874391
1623.000000	27.785108
1622.000000	27.676927
1621.000000	27.578591
1620.000000	27.477539
1619.000000	27.391311
1618.000000	27.303951
1617.000000	27.196109
1616.000000	27.091776
1615.000000	27.010640
1614.000000	26.927580
