PE UV       SUBTECH     SPECTRUM    ASCII       PEDS        4.00        
   -1
CICIMAUCR0018-1.Sample.ASC
24/04/12
14:04:58.00
24/04/12
14:04:58.00
Vinicio Soto Monge
c. cupreomarginata
250,000000
1
Lambda 1050
1050L1511233
PerkinElmer UV WinLab 6.3.2.0749 / 2.02.05 Lambda 900 UV/VIS/NIR, Aug  7 2015 09:38:08

0
0
3350/servo 860,8/2
0
0
UV/VIS
1
1
1
DoubleDePol,CommonBeamDepol,RBeamAtt,SBeamAtt,60mm sphere, WB InGaAs Detector
0
0
0
0
Program
Program
3350/servo 860,8/2
3350/0,2 860,8/0,2
3350/0,2 860,8/0,2
0
15.00
 
 
 
0
 
860,8
319,2
860,8
Front
100
on
S:100 R:100
0
0
0
0
 
0
 
 
 
0
 
 
0
0
0
0
0
 
 
 
 
0
0


0
0
#HDR
-1
-1
#GR
nm
%R
1.0
0.0
2500,000000
-1,000000
2251
8
31,513900
1,645900
#DATA
2500.000000	6.129600
2499.000000	6.004700
2498.000000	6.109500
2497.000000	6.044900
2496.000000	5.958800
2495.000000	6.134100
2494.000000	6.008400
2493.000000	5.965800
2492.000000	6.004200
2491.000000	5.984800
2490.000000	5.946900
2489.000000	6.011800
2488.000000	6.012100
2487.000000	5.981200
2486.000000	5.938100
2485.000000	5.982900
2484.000000	5.972300
2483.000000	5.957400
2482.000000	6.002900
2481.000000	6.032200
2480.000000	6.019200
2479.000000	6.069200
2478.000000	6.022100
2477.000000	6.028000
2476.000000	6.053400
2475.000000	6.105600
2474.000000	6.087100
2473.000000	6.125400
2472.000000	6.137900
2471.000000	6.123000
2470.000000	6.147200
2469.000000	6.184900
2468.000000	6.201500
2467.000000	6.266500
2466.000000	6.255700
2465.000000	6.298400
2464.000000	6.347500
2463.000000	6.383100
2462.000000	6.396500
2461.000000	6.419800
2460.000000	6.455100
2459.000000	6.465900
2458.000000	6.506200
2457.000000	6.507100
2456.000000	6.545300
2455.000000	6.572300
2454.000000	6.600300
2453.000000	6.637800
2452.000000	6.661700
2451.000000	6.690100
2450.000000	6.713500
2449.000000	6.736600
2448.000000	6.749400
2447.000000	6.801300
2446.000000	6.848100
2445.000000	6.860000
2444.000000	6.884300
2443.000000	6.916500
2442.000000	6.972300
2441.000000	6.993200
2440.000000	7.000900
2439.000000	7.028100
2438.000000	7.074800
2437.000000	7.113700
2436.000000	7.120300
2435.000000	7.148600
2434.000000	7.169500
2433.000000	7.196400
2432.000000	7.229300
2431.000000	7.240700
2430.000000	7.249100
2429.000000	7.267500
2428.000000	7.298400
2427.000000	7.329100
2426.000000	7.429800
2425.000000	7.567000
2424.000000	7.654200
2423.000000	7.737500
2422.000000	7.794600
2421.000000	7.790400
2420.000000	7.799700
2419.000000	7.816600
2418.000000	7.834100
2417.000000	7.886700
2416.000000	7.959100
2415.000000	7.997300
2414.000000	8.036900
2413.000000	8.095600
2412.000000	8.099600
2411.000000	8.100100
2410.000000	8.155700
2409.000000	8.229200
2408.000000	8.268700
2407.000000	8.292700
2406.000000	8.302800
2405.000000	8.325600
2404.000000	8.392100
2403.000000	8.438900
2402.000000	8.439400
2401.000000	8.436600
2400.000000	8.483900
2399.000000	8.518700
2398.000000	8.511400
2397.000000	8.548000
2396.000000	8.592700
2395.000000	8.577400
2394.000000	8.597900
2393.000000	8.639400
2392.000000	8.634100
2391.000000	8.657300
2390.000000	8.699000
2389.000000	8.704100
2388.000000	8.740600
2387.000000	8.763600
2386.000000	8.749700
2385.000000	8.746500
2384.000000	8.779000
2383.000000	8.825300
2382.000000	8.815500
2381.000000	8.832800
2380.000000	8.872800
2379.000000	8.874900
2378.000000	8.865700
2377.000000	8.896500
2376.000000	8.928100
2375.000000	8.912200
2374.000000	8.907300
2373.000000	8.937200
2372.000000	8.958000
2371.000000	8.955500
2370.000000	8.950800
2369.000000	8.982100
2368.000000	9.053700
2367.000000	9.072400
2366.000000	9.068800
2365.000000	9.058500
2364.000000	9.041200
2363.000000	9.026300
2362.000000	9.066900
2361.000000	9.092600
2360.000000	9.066700
2359.000000	9.055500
2358.000000	9.094400
2357.000000	9.118200
2356.000000	9.104300
2355.000000	9.097900
2354.000000	9.137500
2353.000000	9.168200
2352.000000	9.163600
2351.000000	9.163900
2350.000000	9.207000
2349.000000	9.234700
2348.000000	9.233800
2347.000000	9.284200
2346.000000	9.319000
2345.000000	9.313600
2344.000000	9.368400
2343.000000	9.405100
2342.000000	9.388500
2341.000000	9.385500
2340.000000	9.439300
2339.000000	9.520200
2338.000000	9.561900
2337.000000	9.567200
2336.000000	9.562500
2335.000000	9.612000
2334.000000	9.701300
2333.000000	9.749500
2332.000000	9.755800
2331.000000	9.763400
2330.000000	9.830400
2329.000000	9.912100
2328.000000	9.945400
2327.000000	9.969700
2326.000000	9.985600
2325.000000	10.046000
2324.000000	10.082500
2323.000000	10.142700
2322.000000	10.174900
2321.000000	10.164400
2320.000000	10.172200
2319.000000	10.254100
2318.000000	10.339300
2317.000000	10.365600
2316.000000	10.376300
2315.000000	10.373300
2314.000000	10.396300
2313.000000	10.465900
2312.000000	10.485600
2311.000000	10.508100
2310.000000	10.528000
2309.000000	10.623100
2308.000000	10.664300
2307.000000	10.702700
2306.000000	10.795900
2305.000000	10.857200
2304.000000	10.881000
2303.000000	10.903300
2302.000000	10.995300
2301.000000	11.062100
2300.000000	11.084000
2299.000000	11.185000
2298.000000	11.230400
2297.000000	11.245300
2296.000000	11.270900
2295.000000	11.353100
2294.000000	11.384000
2293.000000	11.390100
2292.000000	11.378400
2291.000000	11.456300
2290.000000	11.479200
2289.000000	11.463900
2288.000000	11.511200
2287.000000	11.515700
2286.000000	11.498000
2285.000000	11.459700
2284.000000	11.533000
2283.000000	11.519500
2282.000000	11.477400
2281.000000	11.443700
2280.000000	11.490200
2279.000000	11.484900
2278.000000	11.464600
2277.000000	11.519000
2276.000000	11.533300
2275.000000	11.535900
2274.000000	11.537400
2273.000000	11.550100
2272.000000	11.646900
2271.000000	11.679000
2270.000000	11.716200
2269.000000	11.750700
2268.000000	11.906900
2267.000000	11.985600
2266.000000	12.046000
2265.000000	12.106300
2264.000000	12.274300
2263.000000	12.366700
2262.000000	12.447900
2261.000000	12.520300
2260.000000	12.599900
2259.000000	12.794200
2258.000000	12.909800
2257.000000	12.970200
2256.000000	13.064000
2255.000000	13.230100
2254.000000	13.301800
2253.000000	13.399400
2252.000000	13.456100
2251.000000	13.644000
2250.000000	13.710800
2249.000000	13.769800
2248.000000	13.846300
2247.000000	14.007200
2246.000000	14.060100
2245.000000	14.125600
2244.000000	14.186100
2243.000000	14.242100
2242.000000	14.376700
2241.000000	14.427300
2240.000000	14.458200
2239.000000	14.511300
2238.000000	14.632900
2237.000000	14.668600
2236.000000	14.703400
2235.000000	14.727300
2234.000000	14.756100
2233.000000	14.883000
2232.000000	14.904500
2231.000000	14.920500
2230.000000	14.938500
2229.000000	14.973100
2228.000000	14.976400
2227.000000	14.983100
2226.000000	15.104400
2225.000000	15.105500
2224.000000	15.127800
2223.000000	15.130700
2222.000000	15.140000
2221.000000	15.117500
2220.000000	15.127800
2219.000000	15.085700
2218.000000	15.093900
2217.000000	15.091000
2216.000000	15.078700
2215.000000	15.085600
2214.000000	15.157800
2213.000000	15.144800
2212.000000	15.143500
2211.000000	15.050000
2210.000000	15.039500
2209.000000	15.028100
2208.000000	15.038300
2207.000000	15.023800
2206.000000	15.010000
2205.000000	14.991200
2204.000000	14.974900
2203.000000	14.986700
2202.000000	15.082900
2201.000000	15.066900
2200.000000	15.048800
2199.000000	15.046100
2198.000000	15.027000
2197.000000	15.003800
2196.000000	15.087100
2195.000000	15.065000
2194.000000	15.063400
2193.000000	15.029400
2192.000000	15.039900
2191.000000	14.985700
2190.000000	14.980800
2189.000000	14.969300
2188.000000	14.949200
2187.000000	14.934600
2186.000000	14.913900
2185.000000	14.895100
2184.000000	14.889800
2183.000000	14.849800
2182.000000	14.754600
2181.000000	14.733900
2180.000000	14.717800
2179.000000	14.710100
2178.000000	14.697000
2177.000000	14.667600
2176.000000	14.539200
2175.000000	14.539500
2174.000000	14.536500
2173.000000	14.499800
2172.000000	14.481200
2171.000000	14.462600
2170.000000	14.378800
2169.000000	14.354200
2168.000000	14.340100
2167.000000	14.318400
2166.000000	14.283200
2165.000000	14.197400
2164.000000	14.182800
2163.000000	14.177800
2162.000000	14.167000
2161.000000	14.160600
2160.000000	14.117800
2159.000000	14.044200
2158.000000	14.026200
2157.000000	14.023300
2156.000000	14.020400
2155.000000	13.977500
2154.000000	13.897100
2153.000000	13.898100
2152.000000	13.893700
2151.000000	13.877300
2150.000000	13.854900
2149.000000	13.861300
2148.000000	13.844600
2147.000000	13.819500
2146.000000	13.801900
2145.000000	13.797000
2144.000000	13.786900
2143.000000	13.767900
2142.000000	13.755100
2141.000000	13.741700
2140.000000	13.733400
2139.000000	13.712600
2138.000000	13.699700
2137.000000	13.676600
2136.000000	13.700100
2135.000000	13.747400
2134.000000	13.715400
2133.000000	13.699500
2132.000000	13.676900
2131.000000	13.679300
2130.000000	13.725700
2129.000000	13.714900
2128.000000	13.711400
2127.000000	13.734400
2126.000000	13.712700
2125.000000	13.694500
2124.000000	13.717800
2123.000000	13.779800
2122.000000	13.833400
2121.000000	13.808000
2120.000000	13.764100
2119.000000	13.740100
2118.000000	13.754500
2117.000000	13.825700
2116.000000	13.857800
2115.000000	13.826200
2114.000000	13.843800
2113.000000	13.887600
2112.000000	13.859100
2111.000000	13.888500
2110.000000	13.934100
2109.000000	13.941600
2108.000000	13.955500
2107.000000	13.953100
2106.000000	13.996000
2105.000000	14.040200
2104.000000	14.044100
2103.000000	14.045100
2102.000000	14.040200
2101.000000	14.078100
2100.000000	14.112700
2099.000000	14.109600
2098.000000	14.172300
2097.000000	14.229400
2096.000000	14.267400
2095.000000	14.324000
2094.000000	14.339000
2093.000000	14.340100
2092.000000	14.390200
2091.000000	14.440700
2090.000000	14.501100
2089.000000	14.559100
2088.000000	14.565600
2087.000000	14.584400
2086.000000	14.649000
2085.000000	14.702000
2084.000000	14.721700
2083.000000	14.782500
2082.000000	14.830100
2081.000000	14.844100
2080.000000	14.910200
2079.000000	14.968100
2078.000000	14.998300
2077.000000	15.074700
2076.000000	15.127800
2075.000000	15.152600
2074.000000	15.245300
2073.000000	15.312200
2072.000000	15.345300
2071.000000	15.412700
2070.000000	15.466300
2069.000000	15.559900
2068.000000	15.632200
2067.000000	15.669500
2066.000000	15.705600
2065.000000	15.793800
2064.000000	15.846300
2063.000000	15.881800
2062.000000	15.990300
2061.000000	16.049800
2060.000000	16.106400
2059.000000	16.206400
2058.000000	16.276200
2057.000000	16.315400
2056.000000	16.364800
2055.000000	16.471400
2054.000000	16.592100
2053.000000	16.663300
2052.000000	16.729100
2051.000000	16.795800
2050.000000	16.855100
2049.000000	16.951300
2048.000000	17.104300
2047.000000	17.172200
2046.000000	17.223500
2045.000000	17.282000
2044.000000	17.336400
2043.000000	17.478500
2042.000000	17.557500
2041.000000	17.603100
2040.000000	17.703600
2039.000000	17.782800
2038.000000	17.904400
2037.000000	17.965200
2036.000000	18.017400
2035.000000	18.105800
2034.000000	18.183800
2033.000000	18.209000
2032.000000	18.315700
2031.000000	18.365300
2030.000000	18.473700
2029.000000	18.542500
2028.000000	18.582300
2027.000000	18.650400
2026.000000	18.718000
2025.000000	18.752200
2024.000000	18.785800
2023.000000	18.803700
2022.000000	18.891100
2021.000000	18.972900
2020.000000	18.992400
2019.000000	19.003700
2018.000000	19.035700
2017.000000	19.052400
2016.000000	19.061600
2015.000000	19.106300
2014.000000	19.185800
2013.000000	19.205800
2012.000000	19.180300
2011.000000	19.223400
2010.000000	19.217300
2009.000000	19.257500
2008.000000	19.254100
2007.000000	19.214300
2006.000000	19.256100
2005.000000	19.230700
2004.000000	19.209400
2003.000000	19.238000
2002.000000	19.206100
2001.000000	19.244100
2000.000000	19.207700
1999.000000	19.176400
1998.000000	19.196400
1997.000000	19.215400
1996.000000	19.179600
1995.000000	19.141900
1994.000000	19.098800
1993.000000	19.112300
1992.000000	19.046400
1991.000000	19.053300
1990.000000	19.015200
1989.000000	18.970700
1988.000000	18.927400
1987.000000	18.932000
1986.000000	18.883100
1985.000000	18.871800
1984.000000	18.837100
1983.000000	18.800000
1982.000000	18.761000
1981.000000	18.708600
1980.000000	18.658900
1979.000000	18.605700
1978.000000	18.593200
1977.000000	18.588800
1976.000000	18.529100
1975.000000	18.483700
1974.000000	18.434600
1973.000000	18.346000
1972.000000	18.343500
1971.000000	18.298600
1970.000000	18.254200
1969.000000	18.185600
1968.000000	18.123500
1967.000000	18.137300
1966.000000	18.074000
1965.000000	18.019800
1964.000000	17.964000
1963.000000	17.931700
1962.000000	17.874100
1961.000000	17.802800
1960.000000	17.775700
1959.000000	17.710200
1958.000000	17.690700
1957.000000	17.634700
1956.000000	17.562600
1955.000000	17.525200
1954.000000	17.484000
1953.000000	17.449100
1952.000000	17.381900
1951.000000	17.312600
1950.000000	17.246100
1949.000000	17.184900
1948.000000	17.158300
1947.000000	17.106800
1946.000000	17.005300
1945.000000	16.925400
1944.000000	16.903300
1943.000000	16.856200
1942.000000	16.801200
1941.000000	16.762900
1940.000000	16.621000
1939.000000	16.550800
1938.000000	16.526700
1937.000000	16.494300
1936.000000	16.517600
1935.000000	16.486900
1934.000000	16.467600
1933.000000	16.465000
1932.000000	16.446800
1931.000000	16.438100
1930.000000	16.381700
1929.000000	16.344300
1928.000000	16.375700
1927.000000	16.374200
1926.000000	16.418600
1925.000000	16.498800
1924.000000	16.590800
1923.000000	16.549600
1922.000000	16.475800
1921.000000	16.567100
1920.000000	16.756000
1919.000000	16.829400
1918.000000	16.923200
1917.000000	17.116000
1916.000000	17.193000
1915.000000	17.182500
1914.000000	17.284300
1913.000000	17.477300
1912.000000	17.650300
1911.000000	17.869400
1910.000000	18.099800
1909.000000	18.184700
1908.000000	18.246100
1907.000000	18.318100
1906.000000	18.459000
1905.000000	18.670400
1904.000000	18.951800
1903.000000	19.205500
1902.000000	19.408400
1901.000000	19.484800
1900.000000	19.728200
1899.000000	20.091900
1898.000000	20.438200
1897.000000	20.840100
1896.000000	21.092400
1895.000000	21.181500
1894.000000	21.382900
1893.000000	21.540900
1892.000000	21.713000
1891.000000	21.913300
1890.000000	22.120000
1889.000000	22.321200
1888.000000	22.530300
1887.000000	22.674300
1886.000000	22.821300
1885.000000	22.944200
1884.000000	23.161000
1883.000000	23.287300
1882.000000	23.421900
1881.000000	23.582300
1880.000000	23.688400
1879.000000	23.704200
1878.000000	23.736300
1877.000000	23.732800
1876.000000	23.668600
1875.000000	23.578400
1874.000000	23.549500
1873.000000	23.552800
1872.000000	23.564000
1871.000000	23.711100
1870.000000	23.956100
1869.000000	24.160100
1868.000000	24.425300
1867.000000	24.658500
1866.000000	24.705100
1865.000000	24.834100
1864.000000	24.892700
1863.000000	24.841700
1862.000000	24.800700
1861.000000	24.755700
1860.000000	24.743200
1859.000000	24.747300
1858.000000	24.789300
1857.000000	24.873700
1856.000000	24.837600
1855.000000	24.817200
1854.000000	24.944500
1853.000000	25.022100
1852.000000	25.003200
1851.000000	24.942900
1850.000000	24.725900
1849.000000	24.519100
1848.000000	24.616300
1847.000000	24.873200
1846.000000	25.010800
1845.000000	24.985900
1844.000000	24.845000
1843.000000	24.652400
1842.000000	24.654800
1841.000000	24.738300
1840.000000	24.741700
1839.000000	24.670700
1838.000000	24.511500
1837.000000	24.540800
1836.000000	24.725400
1835.000000	24.910000
1834.000000	24.932200
1833.000000	24.834700
1832.000000	24.775600
1831.000000	24.772300
1830.000000	24.822300
1829.000000	24.839400
1828.000000	24.804100
1827.000000	24.769900
1826.000000	24.840400
1825.000000	24.924200
1824.000000	24.937900
1823.000000	24.797200
1822.000000	24.689900
1821.000000	24.744900
1820.000000	24.838600
1819.000000	24.881900
1818.000000	24.853400
1817.000000	24.813700
1816.000000	24.895300
1815.000000	24.981700
1814.000000	24.967200
1813.000000	24.924200
1812.000000	24.910600
1811.000000	24.964700
1810.000000	25.007200
1809.000000	25.007000
1808.000000	24.970900
1807.000000	24.954900
1806.000000	24.990400
1805.000000	25.016800
1804.000000	25.007200
1803.000000	24.942800
1802.000000	24.924700
1801.000000	24.958000
1800.000000	24.994500
1799.000000	24.983400
1798.000000	24.980900
1797.000000	24.961700
1796.000000	24.958100
1795.000000	24.972900
1794.000000	24.950500
1793.000000	24.915200
1792.000000	24.883700
1791.000000	24.876600
1790.000000	24.882400
1789.000000	24.863000
1788.000000	24.830000
1787.000000	24.809200
1786.000000	24.785600
1785.000000	24.781000
1784.000000	24.777600
1783.000000	24.752400
1782.000000	24.682500
1781.000000	24.635500
1780.000000	24.623200
1779.000000	24.651000
1778.000000	24.650300
1777.000000	24.644000
1776.000000	24.602700
1775.000000	24.587900
1774.000000	24.574900
1773.000000	24.560300
1772.000000	24.586000
1771.000000	24.579400
1770.000000	24.558800
1769.000000	24.535300
1768.000000	24.508600
1767.000000	24.498800
1766.000000	24.461500
1765.000000	24.479700
1764.000000	24.475400
1763.000000	24.549000
1762.000000	24.568600
1761.000000	24.562000
1760.000000	24.574800
1759.000000	24.592700
1758.000000	24.615800
1757.000000	24.607700
1756.000000	24.628100
1755.000000	24.636900
1754.000000	24.659500
1753.000000	24.676000
1752.000000	24.700300
1751.000000	24.706500
1750.000000	24.739800
1749.000000	24.730100
1748.000000	24.715200
1747.000000	24.713100
1746.000000	24.710400
1745.000000	24.696600
1744.000000	24.672900
1743.000000	24.670800
1742.000000	24.648000
1741.000000	24.620900
1740.000000	24.597800
1739.000000	24.584500
1738.000000	24.573400
1737.000000	24.571600
1736.000000	24.566700
1735.000000	24.540100
1734.000000	24.507500
1733.000000	24.497000
1732.000000	24.504800
1731.000000	24.507800
1730.000000	24.540100
1729.000000	24.554400
1728.000000	24.612800
1727.000000	24.623600
1726.000000	24.629200
1725.000000	24.636700
1724.000000	24.638500
1723.000000	24.665900
1722.000000	24.657000
1721.000000	24.664800
1720.000000	24.673800
1719.000000	24.690700
1718.000000	24.713800
1717.000000	24.722900
1716.000000	24.726800
1715.000000	24.719000
1714.000000	24.742700
1713.000000	24.743200
1712.000000	24.755100
1711.000000	24.764000
1710.000000	24.764200
1709.000000	24.770200
1708.000000	24.796800
1707.000000	24.770300
1706.000000	24.766900
1705.000000	24.777600
1704.000000	24.761900
1703.000000	24.791900
1702.000000	24.792800
1701.000000	24.788200
1700.000000	24.820300
1699.000000	24.786200
1698.000000	24.784800
1697.000000	24.791700
1696.000000	24.797600
1695.000000	24.781200
1694.000000	24.836000
1693.000000	24.886000
1692.000000	24.923700
1691.000000	24.982000
1690.000000	25.025100
1689.000000	25.029100
1688.000000	25.037700
1687.000000	25.032000
1686.000000	25.028300
1685.000000	25.059700
1684.000000	25.099700
1683.000000	25.135900
1682.000000	25.184000
1681.000000	25.272900
1680.000000	25.333000
1679.000000	25.407900
1678.000000	25.470500
1677.000000	25.518700
1676.000000	25.579600
1675.000000	25.607300
1674.000000	25.703700
1673.000000	25.736600
1672.000000	25.736900
1671.000000	25.777500
1670.000000	25.811100
1669.000000	25.835200
1668.000000	25.895100
1667.000000	25.957100
1666.000000	25.968300
1665.000000	25.978400
1664.000000	25.960400
1663.000000	25.973500
1662.000000	25.963600
1661.000000	26.002800
1660.000000	26.014100
1659.000000	26.015800
1658.000000	26.026500
1657.000000	26.036600
1656.000000	26.025100
1655.000000	26.016800
1654.000000	26.008900
1653.000000	26.022400
1652.000000	26.038000
1651.000000	26.013600
1650.000000	26.000500
1649.000000	25.958000
1648.000000	25.922700
1647.000000	25.921600
1646.000000	25.929300
1645.000000	25.916000
1644.000000	25.909300
1643.000000	25.898100
1642.000000	25.897200
1641.000000	25.869800
1640.000000	25.837300
1639.000000	25.798100
1638.000000	25.780900
1637.000000	25.752200
1636.000000	25.713400
1635.000000	25.695900
1634.000000	25.681900
1633.000000	25.642500
1632.000000	25.630300
1631.000000	25.612500
1630.000000	25.564600
1629.000000	25.535600
1628.000000	25.530800
1627.000000	25.507800
1626.000000	25.496000
1625.000000	25.453700
1624.000000	25.413400
1623.000000	25.394200
1622.000000	25.379800
1621.000000	25.312800
1620.000000	25.272400
1619.000000	25.248700
1618.000000	25.233000
1617.000000	25.206400
