PE UV       SUBTECH     SPECTRUM    ASCII       PEDS        4.00        
   -1
CICIMAUCR0001-3.Sample.ASC
24/04/11
16:53:49.00
24/04/11
16:53:49.00
Vinicio Soto Monge
C. kalinini
250,000000
1
Lambda 1050
1050L1511233
PerkinElmer UV WinLab 6.3.2.0749 / 2.02.05 Lambda 900 UV/VIS/NIR, Aug  7 2015 09:38:08

0
0
3350/2 860,8/2
0
0
UV/VIS
1
1
1
DoubleDePol,CommonBeamDepol,RBeamAtt,SBeamAtt,60mm sphere, WB InGaAs Detector
0
0
0
0
Program
Program
3350/2 860,8/2
3350/0,2 860,8/0,2
3350/0,2 860,8/0,2
0
15.00
 
 
 
0
 
860,8
319,2
860,8
Front
100
on
S:100 R:100
0
0
0
0
 
0
 
 
 
0
 
 
0
0
0
0
0
 
 
 
 
0
0


0
0
#HDR
-1
-1
#GR
nm
%R
1.0
0.0
2400,000000
-1,000000
2151
8
102,016800
5,507100
#DATA
2400.000000	24.073100
2399.000000	23.695600
2398.000000	24.594700
2397.000000	23.768800
2396.000000	24.303700
2395.000000	24.272900
2394.000000	23.422800
2393.000000	23.999900
2392.000000	23.353000
2391.000000	24.024400
2390.000000	23.349700
2389.000000	24.114100
2388.000000	24.211700
2387.000000	23.749000
2386.000000	23.900200
2385.000000	24.276200
2384.000000	23.868700
2383.000000	23.504000
2382.000000	24.684900
2381.000000	23.651100
2380.000000	23.182200
2379.000000	23.777300
2378.000000	24.284500
2377.000000	23.856200
2376.000000	23.196000
2375.000000	23.482400
2374.000000	22.923000
2373.000000	23.998400
2372.000000	23.339400
2371.000000	23.453200
2370.000000	23.753900
2369.000000	23.643800
2368.000000	24.318300
2367.000000	23.389800
2366.000000	23.483200
2365.000000	23.396100
2364.000000	23.500000
2363.000000	23.803600
2362.000000	23.723100
2361.000000	23.155100
2360.000000	23.361400
2359.000000	23.615000
2358.000000	23.202400
2357.000000	22.560800
2356.000000	23.445600
2355.000000	23.181200
2354.000000	23.154400
2353.000000	23.461500
2352.000000	23.237000
2351.000000	22.315800
2350.000000	23.517900
2349.000000	23.577200
2348.000000	23.787200
2347.000000	23.732600
2346.000000	23.380700
2345.000000	22.880700
2344.000000	23.246800
2343.000000	22.986000
2342.000000	22.792600
2341.000000	23.167700
2340.000000	23.143500
2339.000000	22.742800
2338.000000	22.765700
2337.000000	22.821300
2336.000000	22.777800
2335.000000	22.685900
2334.000000	22.622600
2333.000000	22.595200
2332.000000	22.577100
2331.000000	22.646500
2330.000000	22.680800
2329.000000	22.257400
2328.000000	22.392700
2327.000000	22.289100
2326.000000	22.762600
2325.000000	22.875800
2324.000000	22.961200
2323.000000	22.762700
2322.000000	23.047100
2321.000000	22.799000
2320.000000	22.812900
2319.000000	22.950700
2318.000000	22.903400
2317.000000	22.739800
2316.000000	22.572800
2315.000000	22.488900
2314.000000	22.638700
2313.000000	22.290300
2312.000000	22.285700
2311.000000	22.344200
2310.000000	22.250600
2309.000000	22.635800
2308.000000	22.553100
2307.000000	22.598700
2306.000000	22.313800
2305.000000	21.892400
2304.000000	21.761800
2303.000000	21.971200
2302.000000	21.709700
2301.000000	21.940700
2300.000000	21.900600
2299.000000	21.847800
2298.000000	21.730600
2297.000000	21.961700
2296.000000	22.064500
2295.000000	21.936100
2294.000000	21.747300
2293.000000	21.624100
2292.000000	21.681800
2291.000000	21.881900
2290.000000	21.877900
2289.000000	21.898500
2288.000000	21.575100
2287.000000	21.653300
2286.000000	21.816200
2285.000000	21.745300
2284.000000	21.852800
2283.000000	21.933300
2282.000000	22.085700
2281.000000	22.281800
2280.000000	22.330100
2279.000000	22.271600
2278.000000	22.288600
2277.000000	22.311600
2276.000000	22.282300
2275.000000	22.170200
2274.000000	22.004300
2273.000000	22.003600
2272.000000	22.017600
2271.000000	22.179100
2270.000000	22.386200
2269.000000	22.488100
2268.000000	22.284200
2267.000000	22.194000
2266.000000	22.251400
2265.000000	22.550600
2264.000000	22.885400
2263.000000	23.113200
2262.000000	22.891300
2261.000000	22.397300
2260.000000	22.704900
2259.000000	23.121100
2258.000000	23.110200
2257.000000	23.204600
2256.000000	23.395200
2255.000000	23.542400
2254.000000	23.772000
2253.000000	23.820900
2252.000000	23.807700
2251.000000	24.159500
2250.000000	24.427300
2249.000000	24.558800
2248.000000	24.853400
2247.000000	24.856200
2246.000000	25.022300
2245.000000	25.212700
2244.000000	25.087500
2243.000000	25.265200
2242.000000	25.340400
2241.000000	25.398900
2240.000000	25.525500
2239.000000	25.442400
2238.000000	25.585700
2237.000000	25.686900
2236.000000	25.674000
2235.000000	25.608200
2234.000000	25.587900
2233.000000	25.593800
2232.000000	25.651000
2231.000000	25.954900
2230.000000	25.977400
2229.000000	25.913000
2228.000000	25.717700
2227.000000	25.677900
2226.000000	25.432300
2225.000000	25.340800
2224.000000	25.292400
2223.000000	25.115700
2222.000000	25.350100
2221.000000	25.235100
2220.000000	25.198200
2219.000000	25.211100
2218.000000	25.395600
2217.000000	25.130200
2216.000000	24.988700
2215.000000	24.854400
2214.000000	24.653200
2213.000000	24.313900
2212.000000	24.497700
2211.000000	24.476400
2210.000000	24.408700
2209.000000	24.518600
2208.000000	24.499200
2207.000000	24.371400
2206.000000	24.555000
2205.000000	23.900800
2204.000000	23.972300
2203.000000	24.206300
2202.000000	24.063800
2201.000000	23.838700
2200.000000	24.038500
2199.000000	23.957600
2198.000000	23.754200
2197.000000	23.958300
2196.000000	23.933600
2195.000000	23.930400
2194.000000	24.024900
2193.000000	23.997300
2192.000000	23.689500
2191.000000	23.768300
2190.000000	23.768200
2189.000000	23.600200
2188.000000	23.351900
2187.000000	23.770800
2186.000000	23.347900
2185.000000	23.977900
2184.000000	23.727100
2183.000000	24.010700
2182.000000	23.783700
2181.000000	23.742200
2180.000000	23.730200
2179.000000	23.878600
2178.000000	23.979100
2177.000000	24.096700
2176.000000	23.737100
2175.000000	23.815800
2174.000000	23.671400
2173.000000	23.570000
2172.000000	23.806000
2171.000000	23.833700
2170.000000	24.104200
2169.000000	24.112300
2168.000000	23.607100
2167.000000	23.961500
2166.000000	23.999000
2165.000000	24.165200
2164.000000	24.235000
2163.000000	24.288600
2162.000000	24.337800
2161.000000	24.309900
2160.000000	24.248500
2159.000000	24.398800
2158.000000	24.707600
2157.000000	24.439900
2156.000000	24.701600
2155.000000	25.060700
2154.000000	24.707000
2153.000000	25.066600
2152.000000	25.409500
2151.000000	25.140900
2150.000000	25.295900
2149.000000	25.522100
2148.000000	25.891100
2147.000000	25.794200
2146.000000	26.069700
2145.000000	25.543500
2144.000000	26.062100
2143.000000	25.990300
2142.000000	26.532500
2141.000000	26.719900
2140.000000	26.377800
2139.000000	26.182800
2138.000000	26.420900
2137.000000	26.987500
2136.000000	26.563000
2135.000000	26.615200
2134.000000	27.226200
2133.000000	26.913800
2132.000000	26.832500
2131.000000	27.136700
2130.000000	27.643200
2129.000000	27.383800
2128.000000	27.633700
2127.000000	27.235500
2126.000000	27.202200
2125.000000	27.308300
2124.000000	27.754600
2123.000000	27.264500
2122.000000	27.680500
2121.000000	27.785400
2120.000000	27.487600
2119.000000	28.021800
2118.000000	27.638500
2117.000000	27.438000
2116.000000	27.594500
2115.000000	27.704600
2114.000000	27.616200
2113.000000	27.631800
2112.000000	27.687200
2111.000000	27.723900
2110.000000	27.696000
2109.000000	27.758900
2108.000000	27.747600
2107.000000	27.576500
2106.000000	27.398000
2105.000000	27.647900
2104.000000	27.619400
2103.000000	27.685000
2102.000000	27.849600
2101.000000	27.753600
2100.000000	27.667000
2099.000000	27.575000
2098.000000	27.562400
2097.000000	28.000800
2096.000000	27.557900
2095.000000	27.270900
2094.000000	27.065900
2093.000000	27.407000
2092.000000	27.512200
2091.000000	27.485700
2090.000000	27.577200
2089.000000	27.586100
2088.000000	27.499100
2087.000000	27.605100
2086.000000	27.422700
2085.000000	27.585800
2084.000000	27.436500
2083.000000	27.509900
2082.000000	27.384100
2081.000000	27.403000
2080.000000	27.315100
2079.000000	27.267900
2078.000000	27.186100
2077.000000	27.070700
2076.000000	27.007700
2075.000000	27.057800
2074.000000	27.054300
2073.000000	26.723600
2072.000000	26.723300
2071.000000	26.644900
2070.000000	26.645600
2069.000000	26.454100
2068.000000	26.313800
2067.000000	26.263000
2066.000000	26.079700
2065.000000	25.647500
2064.000000	25.664800
2063.000000	25.731100
2062.000000	25.528900
2061.000000	25.486100
2060.000000	25.404400
2059.000000	25.192900
2058.000000	25.152000
2057.000000	25.102200
2056.000000	25.061000
2055.000000	25.034800
2054.000000	24.936100
2053.000000	24.951500
2052.000000	25.043400
2051.000000	25.077000
2050.000000	25.254100
2049.000000	25.308400
2048.000000	25.327700
2047.000000	25.502900
2046.000000	25.534600
2045.000000	25.666300
2044.000000	25.890600
2043.000000	26.073400
2042.000000	26.135200
2041.000000	26.240600
2040.000000	26.407600
2039.000000	26.655300
2038.000000	26.754000
2037.000000	26.800100
2036.000000	26.979800
2035.000000	27.017100
2034.000000	27.125400
2033.000000	27.332700
2032.000000	27.501200
2031.000000	27.516500
2030.000000	27.514900
2029.000000	27.683100
2028.000000	27.858800
2027.000000	27.848100
2026.000000	27.838200
2025.000000	27.931500
2024.000000	28.069900
2023.000000	28.060700
2022.000000	28.031700
2021.000000	28.114900
2020.000000	28.236500
2019.000000	28.267000
2018.000000	28.332800
2017.000000	28.306400
2016.000000	28.317800
2015.000000	28.272600
2014.000000	28.210300
2013.000000	28.219200
2012.000000	28.310900
2011.000000	28.364000
2010.000000	28.323100
2009.000000	28.244500
2008.000000	28.185100
2007.000000	28.194100
2006.000000	28.161700
2005.000000	28.102000
2004.000000	28.076700
2003.000000	28.066600
2002.000000	27.930100
2001.000000	27.840300
2000.000000	27.813000
1999.000000	27.784100
1998.000000	27.736600
1997.000000	27.670600
1996.000000	27.581300
1995.000000	27.410800
1994.000000	27.338100
1993.000000	27.300500
1992.000000	27.159500
1991.000000	27.012100
1990.000000	26.937700
1989.000000	26.792300
1988.000000	26.628700
1987.000000	26.638800
1986.000000	26.588900
1985.000000	26.404700
1984.000000	26.273600
1983.000000	26.161300
1982.000000	26.065300
1981.000000	25.969000
1980.000000	25.819900
1979.000000	25.674400
1978.000000	25.568700
1977.000000	25.471700
1976.000000	25.375300
1975.000000	25.247100
1974.000000	25.204300
1973.000000	25.127300
1972.000000	24.977000
1971.000000	24.824600
1970.000000	24.722100
1969.000000	24.666500
1968.000000	24.595000
1967.000000	24.483500
1966.000000	24.378200
1965.000000	24.262900
1964.000000	24.127300
1963.000000	24.022100
1962.000000	23.969100
1961.000000	23.841100
1960.000000	23.723900
1959.000000	23.662000
1958.000000	23.543600
1957.000000	23.402100
1956.000000	23.255100
1955.000000	23.211400
1954.000000	23.176100
1953.000000	23.041600
1952.000000	22.874700
1951.000000	22.783200
1950.000000	22.685900
1949.000000	22.554900
1948.000000	22.487500
1947.000000	22.407100
1946.000000	22.321800
1945.000000	22.288800
1944.000000	22.194600
1943.000000	22.073600
1942.000000	22.032000
1941.000000	22.048900
1940.000000	22.051900
1939.000000	21.999500
1938.000000	21.972100
1937.000000	21.923600
1936.000000	21.829000
1935.000000	21.794400
1934.000000	21.860000
1933.000000	21.967300
1932.000000	21.948900
1931.000000	22.052400
1930.000000	22.203100
1929.000000	22.175200
1928.000000	22.245900
1927.000000	22.436400
1926.000000	22.445500
1925.000000	22.535000
1924.000000	22.663100
1923.000000	22.778500
1922.000000	22.905000
1921.000000	23.427300
1920.000000	23.602100
1919.000000	23.379400
1918.000000	23.584000
1917.000000	24.004100
1916.000000	24.334300
1915.000000	24.454600
1914.000000	24.834500
1913.000000	25.130700
1912.000000	25.377900
1911.000000	25.621600
1910.000000	26.018900
1909.000000	26.339800
1908.000000	26.732100
1907.000000	27.259100
1906.000000	27.908500
1905.000000	28.343800
1904.000000	28.626000
1903.000000	29.098000
1902.000000	29.542400
1901.000000	30.224000
1900.000000	30.900300
1899.000000	31.624600
1898.000000	31.983800
1897.000000	32.459000
1896.000000	32.985400
1895.000000	33.691900
1894.000000	34.322200
1893.000000	35.041100
1892.000000	35.746100
1891.000000	36.330300
1890.000000	36.873600
1889.000000	37.463500
1888.000000	37.954200
1887.000000	38.644600
1886.000000	39.240400
1885.000000	39.814800
1884.000000	40.415000
1883.000000	40.773600
1882.000000	41.204100
1881.000000	41.653700
1880.000000	42.078400
1879.000000	42.436800
1878.000000	42.826100
1877.000000	43.503700
1876.000000	43.597500
1875.000000	43.980100
1874.000000	44.376900
1873.000000	44.747800
1872.000000	44.791500
1871.000000	45.083400
1870.000000	45.247600
1869.000000	45.403900
1868.000000	45.777700
1867.000000	45.651600
1866.000000	45.574500
1865.000000	45.854200
1864.000000	46.141400
1863.000000	45.984900
1862.000000	46.122300
1861.000000	46.481000
1860.000000	46.855800
1859.000000	46.591400
1858.000000	46.505000
1857.000000	46.915200
1856.000000	46.829700
1855.000000	46.774400
1854.000000	47.026000
1853.000000	47.102900
1852.000000	46.747500
1851.000000	46.907700
1850.000000	47.144400
1849.000000	47.288500
1848.000000	47.656200
1847.000000	47.423800
1846.000000	46.902100
1845.000000	46.838500
1844.000000	46.981700
1843.000000	47.224500
1842.000000	47.401800
1841.000000	47.253200
1840.000000	47.048200
1839.000000	46.985800
1838.000000	47.120200
1837.000000	47.275600
1836.000000	47.153500
1835.000000	46.833200
1834.000000	46.652700
1833.000000	46.684100
1832.000000	46.867700
1831.000000	46.832600
1830.000000	46.677500
1829.000000	46.667800
1828.000000	46.678600
1827.000000	46.661800
1826.000000	46.693800
1825.000000	46.432100
1824.000000	46.388100
1823.000000	46.547300
1822.000000	46.707400
1821.000000	46.784000
1820.000000	46.683100
1819.000000	46.447100
1818.000000	46.491000
1817.000000	46.547000
1816.000000	46.571500
1815.000000	46.565500
1814.000000	46.437700
1813.000000	46.454100
1812.000000	46.528400
1811.000000	46.459300
1810.000000	46.331100
1809.000000	46.282200
1808.000000	46.308900
1807.000000	46.325000
1806.000000	46.296100
1805.000000	46.162800
1804.000000	46.145200
1803.000000	46.224000
1802.000000	46.207500
1801.000000	46.174900
1800.000000	46.074900
1799.000000	46.007500
1798.000000	45.974300
1797.000000	45.955900
1796.000000	45.952400
1795.000000	45.932800
1794.000000	45.883900
1793.000000	45.869200
1792.000000	45.850100
1791.000000	45.838400
1790.000000	45.798700
1789.000000	45.765100
1788.000000	45.779500
1787.000000	45.800400
1786.000000	45.785800
1785.000000	45.783600
1784.000000	45.799200
1783.000000	45.753200
1782.000000	45.753300
1781.000000	45.735800
1780.000000	45.688700
1779.000000	45.675600
1778.000000	45.635600
1777.000000	45.601900
1776.000000	45.551100
1775.000000	45.510700
1774.000000	45.462500
1773.000000	45.408300
1772.000000	45.355900
1771.000000	45.307100
1770.000000	45.239300
1769.000000	45.206100
1768.000000	45.147700
1767.000000	45.100400
1766.000000	45.076400
1765.000000	45.011400
1764.000000	44.968800
1763.000000	44.984100
1762.000000	44.959400
1761.000000	44.899600
1760.000000	44.892800
1759.000000	44.840500
1758.000000	44.813800
1757.000000	44.853900
1756.000000	44.863800
1755.000000	44.839100
1754.000000	44.817300
1753.000000	44.806800
1752.000000	44.811400
1751.000000	44.787900
1750.000000	44.728100
1749.000000	44.728800
1748.000000	44.679500
1747.000000	44.617000
1746.000000	44.584500
1745.000000	44.520100
1744.000000	44.472200
1743.000000	44.416200
1742.000000	44.354600
1741.000000	44.280200
1740.000000	44.183600
1739.000000	44.104600
1738.000000	44.039300
1737.000000	43.997400
1736.000000	43.958500
1735.000000	43.898600
1734.000000	43.853400
1733.000000	43.817000
1732.000000	43.795400
1731.000000	43.742600
1730.000000	43.715900
1729.000000	43.687100
1728.000000	43.639200
1727.000000	43.622800
1726.000000	43.624600
1725.000000	43.625800
1724.000000	43.621600
1723.000000	43.646800
1722.000000	43.715500
1721.000000	43.826800
1720.000000	44.001800
1719.000000	44.204000
1718.000000	44.426700
1717.000000	44.664300
1716.000000	44.876700
1715.000000	45.111900
1714.000000	45.316200
1713.000000	45.499600
1712.000000	45.689200
1711.000000	45.849300
1710.000000	45.980500
1709.000000	46.096900
1708.000000	46.186700
1707.000000	46.309300
1706.000000	46.367800
1705.000000	46.429000
1704.000000	46.520200
1703.000000	46.573900
1702.000000	46.568200
1701.000000	46.580100
1700.000000	46.624800
1699.000000	46.630000
1698.000000	46.618700
1697.000000	46.618200
1696.000000	46.618500
1695.000000	46.615300
1694.000000	46.534700
1693.000000	46.472200
1692.000000	46.439900
1691.000000	46.391200
1690.000000	46.290400
1689.000000	46.254100
1688.000000	46.265800
1687.000000	46.361900
1686.000000	46.474500
1685.000000	46.624900
1684.000000	46.799600
1683.000000	47.003200
1682.000000	47.228800
1681.000000	47.452400
1680.000000	47.662200
1679.000000	47.868100
1678.000000	48.088800
1677.000000	48.297100
1676.000000	48.462200
1675.000000	48.582000
1674.000000	48.756600
1673.000000	48.954800
1672.000000	49.142800
1671.000000	49.340600
1670.000000	49.506700
1669.000000	49.651600
1668.000000	49.814600
1667.000000	50.011300
1666.000000	50.153400
1665.000000	50.301000
1664.000000	50.434600
1663.000000	50.559900
1662.000000	50.684600
1661.000000	50.790900
1660.000000	50.906500
1659.000000	50.975900
1658.000000	51.089900
1657.000000	51.187000
1656.000000	51.225000
1655.000000	51.252200
1654.000000	51.307300
1653.000000	51.343900
1652.000000	51.361100
1651.000000	51.359500
1650.000000	51.385800
1649.000000	51.420300
1648.000000	51.378300
1647.000000	51.354100
1646.000000	51.348400
1645.000000	51.314200
1644.000000	51.280700
1643.000000	51.264200
1642.000000	51.233500
1641.000000	51.258500
1640.000000	51.229300
1639.000000	51.226200
1638.000000	51.187900
1637.000000	51.191700
1636.000000	51.171200
1635.000000	51.134700
1634.000000	51.095900
1633.000000	51.097000
1632.000000	51.056700
1631.000000	51.009900
1630.000000	50.924100
1629.000000	50.904500
1628.000000	50.874200
1627.000000	50.849600
1626.000000	50.795600
1625.000000	50.779600
1624.000000	50.722700
1623.000000	50.690500
1622.000000	50.622200
1621.000000	50.620900
1620.000000	50.590400
1619.000000	50.547800
1618.000000	50.528000
1617.000000	50.469900
1616.000000	50.450200
1615.000000	50.441000
1614.000000	50.405100
1613.000000	50.353600
1612.000000	50.301100
1611.000000	50.267400
1610.000000	50.232100
1609.000000	50.164700
1608.000000	50.118900
1607.000000	50.097800
1606.000000	50.003200
1605.000000	49.953600
1604.000000	49.872700
1603.000000	49.843600
1602.000000	49.748600
1601.000000	49.699200
1600.000000	49.631100
1599.000000	49.590000
1598.000000	49.523300
1597.000000	49.451700
1596.000000	49.395100
1595.000000	49.335200
1594.000000	49.298900
1593.000000	49.296200
1592.000000	49.211300
1591.000000	49.187000
1590.000000	49.139600
1589.000000	49.096700
1588.000000	49.063700
1587.000000	49.024300
1586.000000	48.978700
1585.000000	48.979000
1584.000000	48.916500
1583.000000	48.873800
1582.000000	48.830400
1581.000000	48.826200
1580.000000	48.806300
1579.000000	48.780700
1578.000000	48.755500
1577.000000	48.723500
1576.000000	48.738900
1575.000000	48.742500
1574.000000	48.723700
1573.000000	48.741900
1572.000000	48.736100
1571.000000	48.732700
1570.000000	48.755600
1569.000000	48.782900
1568.000000	48.790600
1567.000000	48.813300
1566.000000	48.831000
1565.000000	48.820700
1564.000000	48.830600
1563.000000	48.838900
1562.000000	48.829200
1561.000000	48.830500
1560.000000	48.822300
1559.000000	48.789800
1558.000000	48.772600
1557.000000	48.754900
1556.000000	48.683900
1555.000000	48.630900
1554.000000	48.567600
1553.000000	48.498700
1552.000000	48.408000
1551.000000	48.327600
1550.000000	48.256400
1549.000000	48.139300
1548.000000	48.061900
1547.000000	47.967200
1546.000000	47.900500
1545.000000	47.838800
1544.000000	47.773100
1543.000000	47.712900
1542.000000	47.660600
1541.000000	47.614000
1540.000000	47.562600
1539.000000	47.522900
1538.000000	47.479000
1537.000000	47.446300
1536.000000	47.406300
1535.000000	47.360600
1534.000000	47.295300
1533.000000	47.236900
1532.000000	47.188100
1531.000000	47.123700
1530.000000	47.063900
1529.000000	47.016100
1528.000000	46.963500
1527.000000	46.879400
1526.000000	46.848100
1525.000000	46.794900
1524.000000	46.724400
