PE UV       SUBTECH     SPECTRUM    ASCII       PEDS        4.00        
   -1
CICIMAUCR0008-3.Sample.ASC
24/04/17
09:22:08.00
24/04/17
09:22:08.00
Vinicio Soto Monge
C. kalinini
250,000000
1
Lambda 1050
1050L1511233
PerkinElmer UV WinLab 6.3.2.0749 / 2.02.05 Lambda 900 UV/VIS/NIR, Aug  7 2015 09:38:08

0
0
3350/servo 860,8/2
0
0
UV/VIS
1
1
1
DoubleDePol,CommonBeamDepol,RBeamAtt,SBeamAtt,60mm sphere, WB InGaAs Detector
0
0
0
0
Program
Program
3350/servo 860,8/2
3350/0,2 860,8/0,2
3350/0,2 860,8/0,2
0
15.00
 
 
 
0
 
860,8
319,2
860,8
Front
100
on
S:100 R:100
0
0
0
0
 
0
 
 
 
0
 
 
0
0
0
0
0
 
 
 
 
0
0


0
0
#HDR
-1
-1
#GR
nm
%R
1.0
0.0
2500,000000
-1,000000
2251
8
72,513700
4,506200
#DATA
2500.000000	14.222700
2499.000000	14.196800
2498.000000	14.162300
2497.000000	14.156800
2496.000000	14.191700
2495.000000	14.193700
2494.000000	14.114100
2493.000000	14.143300
2492.000000	14.114500
2491.000000	14.059200
2490.000000	14.106900
2489.000000	14.061400
2488.000000	14.118500
2487.000000	14.113900
2486.000000	14.117500
2485.000000	14.131300
2484.000000	14.159600
2483.000000	14.187700
2482.000000	14.158900
2481.000000	14.155900
2480.000000	14.177400
2479.000000	14.213600
2478.000000	14.224300
2477.000000	14.306600
2476.000000	14.287900
2475.000000	14.345400
2474.000000	14.417900
2473.000000	14.431100
2472.000000	14.499800
2471.000000	14.506400
2470.000000	14.564700
2469.000000	14.637400
2468.000000	14.662100
2467.000000	14.716800
2466.000000	14.775800
2465.000000	14.855600
2464.000000	14.929100
2463.000000	14.994900
2462.000000	15.026300
2461.000000	15.110500
2460.000000	15.173200
2459.000000	15.231400
2458.000000	15.341800
2457.000000	15.449200
2456.000000	15.525800
2455.000000	15.609900
2454.000000	15.700000
2453.000000	15.790000
2452.000000	15.897300
2451.000000	16.001800
2450.000000	16.103100
2449.000000	16.219900
2448.000000	16.322100
2447.000000	16.440100
2446.000000	16.533600
2445.000000	16.646000
2444.000000	16.758600
2443.000000	16.851400
2442.000000	16.972500
2441.000000	17.070800
2440.000000	17.176300
2439.000000	17.293300
2438.000000	17.405700
2437.000000	17.502600
2436.000000	17.602800
2435.000000	17.698500
2434.000000	17.802100
2433.000000	17.911900
2432.000000	17.999300
2431.000000	18.090900
2430.000000	18.188700
2429.000000	18.274100
2428.000000	18.370100
2427.000000	18.464300
2426.000000	18.539900
2425.000000	18.623200
2424.000000	18.697500
2423.000000	18.758500
2422.000000	18.815900
2421.000000	18.844100
2420.000000	18.905700
2419.000000	18.955700
2418.000000	19.002000
2417.000000	19.071800
2416.000000	19.123200
2415.000000	19.159700
2414.000000	19.206700
2413.000000	19.257800
2412.000000	19.300000
2411.000000	19.344100
2410.000000	19.383800
2409.000000	19.400400
2408.000000	19.421600
2407.000000	19.451600
2406.000000	19.484600
2405.000000	19.512900
2404.000000	19.533600
2403.000000	19.553200
2402.000000	19.571700
2401.000000	19.594200
2400.000000	19.617500
2399.000000	19.624700
2398.000000	19.652400
2397.000000	19.667100
2396.000000	19.662200
2395.000000	19.679100
2394.000000	19.695600
2393.000000	19.695100
2392.000000	19.702200
2391.000000	19.706500
2390.000000	19.712900
2389.000000	19.711700
2388.000000	19.716100
2387.000000	19.722100
2386.000000	19.716000
2385.000000	19.711700
2384.000000	19.707100
2383.000000	19.682500
2382.000000	19.672200
2381.000000	19.667500
2380.000000	19.642400
2379.000000	19.630600
2378.000000	19.625800
2377.000000	19.607100
2376.000000	19.586600
2375.000000	19.570100
2374.000000	19.556100
2373.000000	19.549900
2372.000000	19.530500
2371.000000	19.508900
2370.000000	19.492700
2369.000000	19.489400
2368.000000	19.486800
2367.000000	19.479300
2366.000000	19.479100
2365.000000	19.469500
2364.000000	19.458300
2363.000000	19.457300
2362.000000	19.453900
2361.000000	19.441400
2360.000000	19.426600
2359.000000	19.422700
2358.000000	19.412500
2357.000000	19.402700
2356.000000	19.390800
2355.000000	19.379100
2354.000000	19.368300
2353.000000	19.344900
2352.000000	19.335500
2351.000000	19.336500
2350.000000	19.318200
2349.000000	19.307800
2348.000000	19.297500
2347.000000	19.281600
2346.000000	19.284800
2345.000000	19.280300
2344.000000	19.270300
2343.000000	19.265400
2342.000000	19.264800
2341.000000	19.259400
2340.000000	19.240100
2339.000000	19.237700
2338.000000	19.249000
2337.000000	19.240900
2336.000000	19.243500
2335.000000	19.254300
2334.000000	19.262000
2333.000000	19.292800
2332.000000	19.310200
2331.000000	19.310200
2330.000000	19.323700
2329.000000	19.355800
2328.000000	19.380700
2327.000000	19.388800
2326.000000	19.423300
2325.000000	19.450100
2324.000000	19.458900
2323.000000	19.480700
2322.000000	19.489900
2321.000000	19.503800
2320.000000	19.506700
2319.000000	19.498600
2318.000000	19.485800
2317.000000	19.461500
2316.000000	19.448000
2315.000000	19.413300
2314.000000	19.413300
2313.000000	19.384300
2312.000000	19.344100
2311.000000	19.311100
2310.000000	19.283900
2309.000000	19.258400
2308.000000	19.234700
2307.000000	19.199000
2306.000000	19.187900
2305.000000	19.201700
2304.000000	19.175700
2303.000000	19.156600
2302.000000	19.149400
2301.000000	19.143800
2300.000000	19.163100
2299.000000	19.170500
2298.000000	19.180800
2297.000000	19.192400
2296.000000	19.212100
2295.000000	19.232100
2294.000000	19.272700
2293.000000	19.289300
2292.000000	19.309300
2291.000000	19.341900
2290.000000	19.370800
2289.000000	19.397800
2288.000000	19.436500
2287.000000	19.466400
2286.000000	19.511800
2285.000000	19.543800
2284.000000	19.576300
2283.000000	19.631700
2282.000000	19.636900
2281.000000	19.699700
2280.000000	19.709800
2279.000000	19.743000
2278.000000	19.789100
2277.000000	19.790300
2276.000000	19.806600
2275.000000	19.851700
2274.000000	19.896200
2273.000000	19.897300
2272.000000	19.914100
2271.000000	19.938300
2270.000000	20.002100
2269.000000	20.031600
2268.000000	20.078700
2267.000000	20.141000
2266.000000	20.228100
2265.000000	20.306300
2264.000000	20.388700
2263.000000	20.502300
2262.000000	20.620000
2261.000000	20.735300
2260.000000	20.872700
2259.000000	21.003600
2258.000000	21.153500
2257.000000	21.336000
2256.000000	21.483900
2255.000000	21.657800
2254.000000	21.831000
2253.000000	21.974000
2252.000000	22.179200
2251.000000	22.331200
2250.000000	22.470500
2249.000000	22.610900
2248.000000	22.742400
2247.000000	22.913600
2246.000000	23.041400
2245.000000	23.148700
2244.000000	23.248300
2243.000000	23.353700
2242.000000	23.451300
2241.000000	23.521100
2240.000000	23.568800
2239.000000	23.648400
2238.000000	23.673300
2237.000000	23.716200
2236.000000	23.753700
2235.000000	23.786400
2234.000000	23.795600
2233.000000	23.785700
2232.000000	23.794300
2231.000000	23.782600
2230.000000	23.763300
2229.000000	23.734100
2228.000000	23.655700
2227.000000	23.625700
2226.000000	23.580700
2225.000000	23.525900
2224.000000	23.471500
2223.000000	23.402700
2222.000000	23.347000
2221.000000	23.262100
2220.000000	23.183600
2219.000000	23.105800
2218.000000	23.031900
2217.000000	22.931900
2216.000000	22.886700
2215.000000	22.796600
2214.000000	22.727900
2213.000000	22.663400
2212.000000	22.603700
2211.000000	22.536600
2210.000000	22.490400
2209.000000	22.428500
2208.000000	22.395800
2207.000000	22.370700
2206.000000	22.309700
2205.000000	22.261400
2204.000000	22.241100
2203.000000	22.199600
2202.000000	22.157800
2201.000000	22.127000
2200.000000	22.093600
2199.000000	22.098200
2198.000000	22.036600
2197.000000	22.006300
2196.000000	21.981800
2195.000000	21.952400
2194.000000	21.952200
2193.000000	21.925300
2192.000000	21.922900
2191.000000	21.897500
2190.000000	21.861200
2189.000000	21.850400
2188.000000	21.851200
2187.000000	21.841400
2186.000000	21.821000
2185.000000	21.815800
2184.000000	21.778900
2183.000000	21.767800
2182.000000	21.752400
2181.000000	21.721000
2180.000000	21.711100
2179.000000	21.714500
2178.000000	21.698600
2177.000000	21.704300
2176.000000	21.689100
2175.000000	21.683900
2174.000000	21.667600
2173.000000	21.690000
2172.000000	21.704700
2171.000000	21.706300
2170.000000	21.720100
2169.000000	21.746300
2168.000000	21.769600
2167.000000	21.804700
2166.000000	21.832100
2165.000000	21.882600
2164.000000	21.924500
2163.000000	21.948300
2162.000000	22.009000
2161.000000	22.066200
2160.000000	22.129600
2159.000000	22.191500
2158.000000	22.276100
2157.000000	22.353800
2156.000000	22.434900
2155.000000	22.520200
2154.000000	22.623100
2153.000000	22.725000
2152.000000	22.842600
2151.000000	22.944900
2150.000000	23.035100
2149.000000	23.126000
2148.000000	23.229900
2147.000000	23.336300
2146.000000	23.452000
2145.000000	23.558800
2144.000000	23.648900
2143.000000	23.740600
2142.000000	23.848500
2141.000000	23.954500
2140.000000	24.067900
2139.000000	24.180100
2138.000000	24.263400
2137.000000	24.359100
2136.000000	24.455500
2135.000000	24.555300
2134.000000	24.642000
2133.000000	24.716100
2132.000000	24.815600
2131.000000	24.890400
2130.000000	24.967400
2129.000000	25.039300
2128.000000	25.091300
2127.000000	25.154000
2126.000000	25.218600
2125.000000	25.295400
2124.000000	25.342400
2123.000000	25.395300
2122.000000	25.443400
2121.000000	25.472600
2120.000000	25.535000
2119.000000	25.594600
2118.000000	25.621000
2117.000000	25.639900
2116.000000	25.660200
2115.000000	25.696700
2114.000000	25.734900
2113.000000	25.760000
2112.000000	25.784200
2111.000000	25.776400
2110.000000	25.791900
2109.000000	25.810700
2108.000000	25.830800
2107.000000	25.844400
2106.000000	25.832400
2105.000000	25.855000
2104.000000	25.885600
2103.000000	25.893600
2102.000000	25.911700
2101.000000	25.920400
2100.000000	25.925700
2099.000000	25.941100
2098.000000	25.945500
2097.000000	25.956500
2096.000000	25.991700
2095.000000	26.008400
2094.000000	26.030800
2093.000000	26.064800
2092.000000	26.076600
2091.000000	26.082600
2090.000000	26.112400
2089.000000	26.143000
2088.000000	26.141700
2087.000000	26.149000
2086.000000	26.152000
2085.000000	26.152300
2084.000000	26.158000
2083.000000	26.158800
2082.000000	26.148300
2081.000000	26.118500
2080.000000	26.078100
2079.000000	26.024600
2078.000000	25.989200
2077.000000	25.930900
2076.000000	25.868600
2075.000000	25.797900
2074.000000	25.710400
2073.000000	25.619400
2072.000000	25.560600
2071.000000	25.479400
2070.000000	25.384900
2069.000000	25.289400
2068.000000	25.179000
2067.000000	25.056100
2066.000000	24.951000
2065.000000	24.844800
2064.000000	24.734300
2063.000000	24.648200
2062.000000	24.571100
2061.000000	24.480100
2060.000000	24.408900
2059.000000	24.333600
2058.000000	24.270700
2057.000000	24.221000
2056.000000	24.189400
2055.000000	24.192000
2054.000000	24.202200
2053.000000	24.236300
2052.000000	24.279400
2051.000000	24.354900
2050.000000	24.443000
2049.000000	24.543400
2048.000000	24.670200
2047.000000	24.798600
2046.000000	24.937700
2045.000000	25.105900
2044.000000	25.249600
2043.000000	25.422300
2042.000000	25.576000
2041.000000	25.732100
2040.000000	25.876800
2039.000000	26.056100
2038.000000	26.182300
2037.000000	26.323800
2036.000000	26.481800
2035.000000	26.594500
2034.000000	26.726800
2033.000000	26.833200
2032.000000	26.941500
2031.000000	27.073600
2030.000000	27.186500
2029.000000	27.267300
2028.000000	27.341900
2027.000000	27.431000
2026.000000	27.519200
2025.000000	27.620900
2024.000000	27.674000
2023.000000	27.724800
2022.000000	27.791400
2021.000000	27.876000
2020.000000	27.930700
2019.000000	27.979500
2018.000000	28.016800
2017.000000	28.055300
2016.000000	28.085100
2015.000000	28.116300
2014.000000	28.130900
2013.000000	28.156300
2012.000000	28.171800
2011.000000	28.185000
2010.000000	28.189000
2009.000000	28.173300
2008.000000	28.148100
2007.000000	28.133000
2006.000000	28.121200
2005.000000	28.091100
2004.000000	28.059100
2003.000000	28.009700
2002.000000	27.975600
2001.000000	27.933900
2000.000000	27.885700
1999.000000	27.819200
1998.000000	27.749500
1997.000000	27.688200
1996.000000	27.626000
1995.000000	27.559700
1994.000000	27.481900
1993.000000	27.382500
1992.000000	27.315200
1991.000000	27.220000
1990.000000	27.137600
1989.000000	27.057500
1988.000000	26.936300
1987.000000	26.846400
1986.000000	26.756100
1985.000000	26.679600
1984.000000	26.584100
1983.000000	26.467700
1982.000000	26.366400
1981.000000	26.280500
1980.000000	26.218600
1979.000000	26.079900
1978.000000	26.007600
1977.000000	25.886900
1976.000000	25.803600
1975.000000	25.697900
1974.000000	25.624900
1973.000000	25.559200
1972.000000	25.460500
1971.000000	25.346800
1970.000000	25.258900
1969.000000	25.160400
1968.000000	25.098700
1967.000000	24.983900
1966.000000	24.907400
1965.000000	24.805600
1964.000000	24.736700
1963.000000	24.634600
1962.000000	24.546900
1961.000000	24.450800
1960.000000	24.344400
1959.000000	24.232400
1958.000000	24.146200
1957.000000	24.047200
1956.000000	23.962700
1955.000000	23.860800
1954.000000	23.783800
1953.000000	23.690100
1952.000000	23.595500
1951.000000	23.486500
1950.000000	23.376600
1949.000000	23.283000
1948.000000	23.216400
1947.000000	23.148000
1946.000000	23.063900
1945.000000	23.014100
1944.000000	22.953600
1943.000000	22.880400
1942.000000	22.787200
1941.000000	22.748800
1940.000000	22.694700
1939.000000	22.674100
1938.000000	22.666600
1937.000000	22.666400
1936.000000	22.662000
1935.000000	22.669500
1934.000000	22.649400
1933.000000	22.671400
1932.000000	22.665400
1931.000000	22.723300
1930.000000	22.762300
1929.000000	22.855700
1928.000000	22.945900
1927.000000	23.065700
1926.000000	23.196900
1925.000000	23.305600
1924.000000	23.377300
1923.000000	23.473700
1922.000000	23.654100
1921.000000	23.936200
1920.000000	24.226200
1919.000000	24.411500
1918.000000	24.632100
1917.000000	24.815100
1916.000000	24.963300
1915.000000	25.175700
1914.000000	25.550000
1913.000000	25.968800
1912.000000	26.353000
1911.000000	26.686500
1910.000000	27.002200
1909.000000	27.196600
1908.000000	27.489500
1907.000000	27.895400
1906.000000	28.409600
1905.000000	29.036200
1904.000000	29.553900
1903.000000	30.002000
1902.000000	30.434200
1901.000000	30.896600
1900.000000	31.547000
1899.000000	32.267100
1898.000000	32.853200
1897.000000	33.461800
1896.000000	33.893700
1895.000000	34.286900
1894.000000	34.793700
1893.000000	35.341400
1892.000000	35.986400
1891.000000	36.650500
1890.000000	37.245800
1889.000000	37.734900
1888.000000	38.254200
1887.000000	38.698700
1886.000000	39.134600
1885.000000	39.651800
1884.000000	40.177600
1883.000000	40.586000
1882.000000	40.970500
1881.000000	41.345200
1880.000000	41.587900
1879.000000	41.853700
1878.000000	42.130300
1877.000000	42.356500
1876.000000	42.578100
1875.000000	42.818000
1874.000000	43.061300
1873.000000	43.335100
1872.000000	43.612700
1871.000000	43.919700
1870.000000	44.217700
1869.000000	44.494400
1868.000000	44.738200
1867.000000	44.872900
1866.000000	44.890400
1865.000000	44.960500
1864.000000	44.985800
1863.000000	44.966200
1862.000000	45.010800
1861.000000	45.097900
1860.000000	45.232300
1859.000000	45.340800
1858.000000	45.449000
1857.000000	45.513200
1856.000000	45.483400
1855.000000	45.525800
1854.000000	45.631900
1853.000000	45.670700
1852.000000	45.685000
1851.000000	45.635900
1850.000000	45.524300
1849.000000	45.511700
1848.000000	45.704200
1847.000000	45.934700
1846.000000	45.953300
1845.000000	45.793900
1844.000000	45.564500
1843.000000	45.470200
1842.000000	45.561900
1841.000000	45.690900
1840.000000	45.694100
1839.000000	45.598800
1838.000000	45.538000
1837.000000	45.594400
1836.000000	45.678400
1835.000000	45.701400
1834.000000	45.600000
1833.000000	45.452200
1832.000000	45.359900
1831.000000	45.361200
1830.000000	45.420000
1829.000000	45.412200
1828.000000	45.337500
1827.000000	45.335200
1826.000000	45.380200
1825.000000	45.354900
1824.000000	45.282500
1823.000000	45.175000
1822.000000	45.186100
1821.000000	45.322500
1820.000000	45.420800
1819.000000	45.391600
1818.000000	45.309000
1817.000000	45.265000
1816.000000	45.313200
1815.000000	45.343300
1814.000000	45.311000
1813.000000	45.283300
1812.000000	45.273200
1811.000000	45.284400
1810.000000	45.238900
1809.000000	45.170800
1808.000000	45.144400
1807.000000	45.157900
1806.000000	45.147900
1805.000000	45.133800
1804.000000	45.105200
1803.000000	45.063800
1802.000000	45.055500
1801.000000	45.071400
1800.000000	45.059300
1799.000000	45.028800
1798.000000	44.991200
1797.000000	44.975500
1796.000000	44.974500
1795.000000	44.978000
1794.000000	44.952200
1793.000000	44.935800
1792.000000	44.909300
1791.000000	44.888100
1790.000000	44.878500
1789.000000	44.872300
1788.000000	44.881700
1787.000000	44.885900
1786.000000	44.883900
1785.000000	44.901300
1784.000000	44.907900
1783.000000	44.874600
1782.000000	44.869100
1781.000000	44.851900
1780.000000	44.836800
1779.000000	44.820600
1778.000000	44.775500
1777.000000	44.744600
1776.000000	44.692000
1775.000000	44.655400
1774.000000	44.619300
1773.000000	44.588400
1772.000000	44.551100
1771.000000	44.512900
1770.000000	44.481400
1769.000000	44.442200
1768.000000	44.391000
1767.000000	44.353500
1766.000000	44.323300
1765.000000	44.283300
1764.000000	44.285900
1763.000000	44.237600
1762.000000	44.242300
1761.000000	44.245100
1760.000000	44.249000
1759.000000	44.235500
1758.000000	44.201600
1757.000000	44.191700
1756.000000	44.221500
1755.000000	44.215700
1754.000000	44.199800
1753.000000	44.190600
1752.000000	44.170800
1751.000000	44.161200
1750.000000	44.135500
1749.000000	44.121600
1748.000000	44.072500
1747.000000	44.031200
1746.000000	43.968900
1745.000000	43.935600
1744.000000	43.867600
1743.000000	43.812500
1742.000000	43.744300
1741.000000	43.674500
1740.000000	43.612500
1739.000000	43.562400
1738.000000	43.493200
1737.000000	43.423600
1736.000000	43.369200
1735.000000	43.356900
1734.000000	43.306800
1733.000000	43.265400
1732.000000	43.229200
1731.000000	43.211200
1730.000000	43.191200
1729.000000	43.161000
1728.000000	43.122000
1727.000000	43.093400
1726.000000	43.062300
1725.000000	43.053800
1724.000000	43.070400
1723.000000	43.126100
1722.000000	43.173200
1721.000000	43.293800
1720.000000	43.435800
1719.000000	43.625600
1718.000000	43.807700
1717.000000	44.008100
1716.000000	44.192600
1715.000000	44.399900
1714.000000	44.590300
1713.000000	44.740800
1712.000000	44.883400
1711.000000	44.991400
1710.000000	45.108600
1709.000000	45.220900
1708.000000	45.312800
1707.000000	45.390200
1706.000000	45.469700
1705.000000	45.494200
1704.000000	45.537900
1703.000000	45.574300
1702.000000	45.585000
1701.000000	45.601500
1700.000000	45.618700
1699.000000	45.602200
1698.000000	45.603200
1697.000000	45.569400
1696.000000	45.570500
1695.000000	45.538800
1694.000000	45.502000
1693.000000	45.434700
1692.000000	45.360600
1691.000000	45.317600
1690.000000	45.289700
1689.000000	45.284000
1688.000000	45.332500
1687.000000	45.389300
1686.000000	45.508900
1685.000000	45.692400
1684.000000	45.868700
1683.000000	46.080300
1682.000000	46.282900
1681.000000	46.499700
1680.000000	46.721400
1679.000000	46.914000
1678.000000	47.107200
1677.000000	47.299400
1676.000000	47.480600
1675.000000	47.690200
1674.000000	47.825400
1673.000000	47.997200
1672.000000	48.185400
1671.000000	48.342500
1670.000000	48.533400
1669.000000	48.742100
1668.000000	48.897100
1667.000000	49.070900
1666.000000	49.200900
1665.000000	49.350500
1664.000000	49.487300
1663.000000	49.636300
1662.000000	49.727900
1661.000000	49.871900
1660.000000	49.974700
1659.000000	50.075600
1658.000000	50.151000
1657.000000	50.222800
1656.000000	50.277500
1655.000000	50.319900
1654.000000	50.375700
1653.000000	50.400500
1652.000000	50.423100
1651.000000	50.446100
1650.000000	50.431000
1649.000000	50.442800
1648.000000	50.432200
1647.000000	50.469400
1646.000000	50.464400
1645.000000	50.457000
1644.000000	50.450800
1643.000000	50.468800
1642.000000	50.455100
1641.000000	50.427800
1640.000000	50.441500
1639.000000	50.411800
1638.000000	50.401000
1637.000000	50.389500
1636.000000	50.377400
1635.000000	50.363300
1634.000000	50.361100
1633.000000	50.344100
1632.000000	50.310000
1631.000000	50.297300
1630.000000	50.279300
1629.000000	50.227000
1628.000000	50.178100
1627.000000	50.124800
1626.000000	50.100000
1625.000000	50.053600
1624.000000	50.038500
