PE UV       SUBTECH     SPECTRUM    ASCII       PEDS        4.00        
   -1
CICIMAUCR0116-2.Sample.ASC
24/04/11
13:25:38.00
24/04/11
13:25:38.00
Vinicio Soto Monge
C. kalinini
250,000000
1
Lambda 1050
1050L1511233
PerkinElmer UV WinLab 6.3.2.0749 / 2.02.05 Lambda 900 UV/VIS/NIR, Aug  7 2015 09:38:08

0
0
3350/2 860,8/2
0
0
UV/VIS
1
1
1
DoubleDePol,CommonBeamDepol,RBeamAtt,SBeamAtt,60mm sphere, WB InGaAs Detector
0
0
0
0
Program
Program
3350/2 860,8/2
3350/0,2 860,8/0,2
3350/0,2 860,8/0,2
0
15.00
 
 
 
0
 
860,8
319,2
860,8
Front
100
on
S:100 R:100
0
0
0
0
 
0
 
 
 
0
 
 
0
0
0
0
0
 
 
 
 
0
0


0
0
#HDR
-1
-1
#GR
nm
%R
1.0
0.0
2400,000000
-1,000000
2151
8
101,733400
5,666500
#DATA
2400.000000	18.593820
2399.000000	19.116622
2398.000000	18.420185
2397.000000	18.214699
2396.000000	18.305460
2395.000000	19.104441
2394.000000	18.688675
2393.000000	18.852725
2392.000000	18.690473
2391.000000	19.008088
2390.000000	19.409076
2389.000000	19.175133
2388.000000	19.983100
2387.000000	18.139813
2386.000000	19.131200
2385.000000	18.606501
2384.000000	18.302066
2383.000000	18.740696
2382.000000	19.021068
2381.000000	19.383515
2380.000000	18.605602
2379.000000	18.763361
2378.000000	19.683257
2377.000000	19.238536
2376.000000	18.220889
2375.000000	18.180351
2374.000000	18.272611
2373.000000	18.661517
2372.000000	18.272411
2371.000000	18.435462
2370.000000	18.282595
2369.000000	18.307158
2368.000000	17.608125
2367.000000	17.851553
2366.000000	18.180152
2365.000000	18.656824
2364.000000	18.700258
2363.000000	17.705576
2362.000000	18.260729
2361.000000	17.733533
2360.000000	17.004646
2359.000000	17.377776
2358.000000	17.813012
2357.000000	17.200347
2356.000000	17.105791
2355.000000	17.638678
2354.000000	17.295901
2353.000000	16.024741
2352.000000	16.755626
2351.000000	17.062158
2350.000000	16.867256
2349.000000	16.647990
2348.000000	17.008140
2347.000000	16.529271
2346.000000	16.743544
2345.000000	17.290210
2344.000000	17.415718
2343.000000	17.500090
2342.000000	17.695491
2341.000000	17.786153
2340.000000	17.734532
2339.000000	16.830512
2338.000000	16.898508
2337.000000	17.734432
2336.000000	17.748111
2335.000000	17.439183
2334.000000	17.038794
2333.000000	17.189863
2332.000000	17.066152
2331.000000	16.986474
2330.000000	16.932256
2329.000000	16.835903
2328.000000	16.823822
2327.000000	16.731263
2326.000000	17.227006
2325.000000	16.259283
2324.000000	16.119697
2323.000000	16.036324
2322.000000	16.537659
2321.000000	16.361527
2320.000000	15.629245
2319.000000	15.954349
2318.000000	15.869778
2317.000000	15.651411
2316.000000	15.183625
2315.000000	14.761270
2314.000000	14.994913
2313.000000	15.097856
2312.000000	15.285170
2311.000000	14.831762
2310.000000	14.416696
2309.000000	14.260334
2308.000000	14.094887
2307.000000	14.543103
2306.000000	14.398024
2305.000000	14.120847
2304.000000	14.234374
2303.000000	14.556582
2302.000000	14.359683
2301.000000	14.270319
2300.000000	14.460928
2299.000000	14.712145
2298.000000	15.120322
2297.000000	15.103547
2296.000000	15.071197
2295.000000	14.950082
2294.000000	15.012986
2293.000000	14.867008
2292.000000	15.174839
2291.000000	15.720306
2290.000000	15.450518
2289.000000	15.275585
2288.000000	15.283373
2287.000000	15.278580
2286.000000	15.201997
2285.000000	15.176836
2284.000000	15.027663
2283.000000	15.229855
2282.000000	15.379027
2281.000000	14.961664
2280.000000	14.983231
2279.000000	15.218772
2278.000000	15.023669
2277.000000	14.946587
2276.000000	14.850434
2275.000000	14.621184
2274.000000	14.136523
2273.000000	14.030985
2272.000000	14.535215
2271.000000	14.757675
2270.000000	14.386242
2269.000000	14.439261
2268.000000	14.701960
2267.000000	14.952578
2266.000000	14.983730
2265.000000	14.871901
2264.000000	14.669610
2263.000000	14.863514
2262.000000	15.352967
2261.000000	15.580020
2260.000000	16.036224
2259.000000	16.388187
2258.000000	16.633512
2257.000000	17.238389
2256.000000	17.456057
2255.000000	17.736030
2254.000000	18.008114
2253.000000	18.170766
2252.000000	18.439855
2251.000000	18.776042
2250.000000	18.897057
2249.000000	19.280273
2248.000000	19.439629
2247.000000	19.624946
2246.000000	19.891440
2245.000000	19.873467
2244.000000	20.005566
2243.000000	19.940365
2242.000000	19.917500
2241.000000	20.240707
2240.000000	20.376899
2239.000000	20.444496
2238.000000	20.654475
2237.000000	20.890814
2236.000000	20.753025
2235.000000	20.674944
2234.000000	20.707294
2233.000000	20.955116
2232.000000	21.011730
2231.000000	21.145725
2230.000000	21.061554
2229.000000	21.041085
2228.000000	20.940039
2227.000000	20.740644
2226.000000	21.018320
2225.000000	21.135042
2224.000000	20.811935
2223.000000	20.664859
2222.000000	20.591471
2221.000000	20.775790
2220.000000	20.604052
2219.000000	20.875238
2218.000000	20.635404
2217.000000	20.463866
2216.000000	20.203663
2215.000000	19.976610
2214.000000	20.403358
2213.000000	20.359725
2212.000000	20.040213
2211.000000	19.970120
2210.000000	19.990289
2209.000000	20.064775
2208.000000	20.053492
2207.000000	19.925188
2206.000000	20.004966
2205.000000	20.221536
2204.000000	19.993384
2203.000000	19.972915
2202.000000	19.987892
2201.000000	19.679164
2200.000000	19.870572
2199.000000	19.716507
2198.000000	19.717505
2197.000000	19.910211
2196.000000	20.014252
2195.000000	20.093032
2194.000000	19.853198
2193.000000	19.691046
2192.000000	19.857891
2191.000000	19.734280
2190.000000	19.460198
2189.000000	19.517710
2188.000000	19.732283
2187.000000	19.712912
2186.000000	20.020543
2185.000000	20.021641
2184.000000	19.984098
2183.000000	19.755647
2182.000000	19.305434
2181.000000	19.663188
2180.000000	19.642819
2179.000000	19.597888
2178.000000	19.624447
2177.000000	19.757744
2176.000000	19.880357
2175.000000	19.558847
2174.000000	19.515114
2173.000000	19.788697
2172.000000	19.871969
2171.000000	19.681660
2170.000000	19.773620
2169.000000	19.876463
2168.000000	19.789495
2167.000000	19.919397
2166.000000	19.312523
2165.000000	19.509223
2164.000000	20.042809
2163.000000	19.774718
2162.000000	20.009060
2161.000000	19.706522
2160.000000	20.089438
2159.000000	20.388781
2158.000000	19.937270
2157.000000	19.958238
2156.000000	19.789196
2155.000000	20.299018
2154.000000	20.519881
2153.000000	20.835099
2152.000000	20.886122
2151.000000	20.809439
2150.000000	21.057660
2149.000000	21.256356
2148.000000	20.688323
2147.000000	21.115471
2146.000000	20.873641
2145.000000	21.255558
2144.000000	21.028904
2143.000000	21.432488
2142.000000	21.570078
2141.000000	21.457949
2140.000000	21.775963
2139.000000	21.530438
2138.000000	21.385160
2137.000000	21.538027
2136.000000	21.523049
2135.000000	21.886894
2134.000000	22.283189
2133.000000	21.821993
2132.000000	22.065322
2131.000000	22.178349
2130.000000	21.950896
2129.000000	22.144601
2128.000000	21.772269
2127.000000	21.773068
2126.000000	22.013201
2125.000000	22.244948
2124.000000	21.958385
2123.000000	22.068916
2122.000000	21.850350
2121.000000	21.759189
2120.000000	21.980451
2119.000000	21.725940
2118.000000	21.740318
2117.000000	21.915450
2116.000000	21.757092
2115.000000	21.883300
2114.000000	21.307578
2113.000000	21.830979
2112.000000	21.812308
2111.000000	21.887693
2110.000000	21.523549
2109.000000	21.653450
2108.000000	21.632083
2107.000000	21.625393
2106.000000	21.374476
2105.000000	21.670524
2104.000000	21.329345
2103.000000	21.340828
2102.000000	21.333439
2101.000000	21.325751
2100.000000	21.396842
2099.000000	21.296795
2098.000000	21.323154
2097.000000	21.286910
2096.000000	21.425698
2095.000000	21.246372
2094.000000	20.941936
2093.000000	21.015324
2092.000000	21.230296
2091.000000	21.307978
2090.000000	20.984471
2089.000000	21.057660
2088.000000	21.132246
2087.000000	21.202339
2086.000000	21.032298
2085.000000	21.105587
2084.000000	21.038189
2083.000000	21.043881
2082.000000	21.172684
2081.000000	20.985869
2080.000000	20.655474
2079.000000	20.986668
2078.000000	20.922266
2077.000000	20.568806
2076.000000	20.777088
2075.000000	20.537154
2074.000000	20.438305
2073.000000	20.572700
2072.000000	20.459473
2071.000000	20.256782
2070.000000	20.199969
2069.000000	20.157234
2068.000000	20.073961
2067.000000	19.740470
2066.000000	19.852000
2065.000000	19.875963
2064.000000	19.855095
2063.000000	19.781208
2062.000000	19.443923
2061.000000	19.302738
2060.000000	19.536082
2059.000000	19.658795
2058.000000	19.478969
2057.000000	19.322209
2056.000000	19.296648
2055.000000	19.524100
2054.000000	19.321410
2053.000000	19.407279
2052.000000	19.514515
2051.000000	19.626145
2050.000000	19.757844
2049.000000	19.747759
2048.000000	19.889942
2047.000000	19.957938
2046.000000	20.210453
2045.000000	20.395071
2044.000000	20.631610
2043.000000	20.725567
2042.000000	20.786673
2041.000000	20.955416
2040.000000	21.059058
2039.000000	21.211325
2038.000000	21.330643
2037.000000	21.603327
2036.000000	21.810011
2035.000000	21.797031
2034.000000	21.841963
2033.000000	21.888392
2032.000000	22.015598
2031.000000	22.246345
2030.000000	22.365064
2029.000000	22.499359
2028.000000	22.565359
2027.000000	22.682779
2026.000000	22.776137
2025.000000	22.855116
2024.000000	22.771444
2023.000000	22.792911
2022.000000	22.991608
2021.000000	23.067193
2020.000000	23.093053
2019.000000	23.095949
2018.000000	23.165143
2017.000000	23.285659
2016.000000	23.350660
2015.000000	23.327096
2014.000000	23.296642
2013.000000	23.390299
2012.000000	23.457497
2011.000000	23.460792
2010.000000	23.423549
2009.000000	23.432136
2008.000000	23.427642
2007.000000	23.420154
2006.000000	23.412466
2005.000000	23.381213
2004.000000	23.392995
2003.000000	23.386705
2002.000000	23.358448
2001.000000	23.318509
2000.000000	23.226250
1999.000000	23.172332
1998.000000	23.115020
1997.000000	23.089958
1996.000000	23.085465
1995.000000	23.006485
1994.000000	22.943481
1993.000000	22.941684
1992.000000	22.858711
1991.000000	22.771144
1990.000000	22.650029
1989.000000	22.526318
1988.000000	22.559468
1987.000000	22.536702
1986.000000	22.385833
1985.000000	22.352483
1984.000000	22.305056
1983.000000	22.216791
1982.000000	22.041658
1981.000000	21.958585
1980.000000	21.906065
1979.000000	21.829382
1978.000000	21.764281
1977.000000	21.717253
1976.000000	21.613411
1975.000000	21.457949
1974.000000	21.366988
1973.000000	21.325351
1972.000000	21.222408
1971.000000	21.217516
1970.000000	21.100694
1969.000000	20.992359
1968.000000	20.903595
1967.000000	20.851474
1966.000000	20.804846
1965.000000	20.726465
1964.000000	20.653077
1963.000000	20.574996
1962.000000	20.451884
1961.000000	20.384986
1960.000000	20.373704
1959.000000	20.227627
1958.000000	20.184992
1957.000000	20.060482
1956.000000	19.962032
1955.000000	19.941364
1954.000000	19.850303
1953.000000	19.812360
1952.000000	19.814557
1951.000000	19.605376
1950.000000	19.572726
1949.000000	19.516612
1948.000000	19.484461
1947.000000	19.454507
1946.000000	19.327001
1945.000000	19.355458
1944.000000	19.324006
1943.000000	19.192606
1942.000000	19.186516
1941.000000	19.216071
1940.000000	19.199096
1939.000000	19.155862
1938.000000	19.181024
1937.000000	19.138788
1936.000000	19.197099
1935.000000	19.279673
1934.000000	19.325504
1933.000000	19.252814
1932.000000	19.373231
1931.000000	19.472180
1930.000000	19.524500
1929.000000	19.503033
1928.000000	19.716906
1927.000000	19.887446
1926.000000	19.875564
1925.000000	19.977908
1924.000000	20.268864
1923.000000	20.300815
1922.000000	20.377797
1921.000000	20.721073
1920.000000	20.979878
1919.000000	20.883326
1918.000000	21.057660
1917.000000	21.269536
1916.000000	21.539824
1915.000000	21.799627
1914.000000	22.143602
1913.000000	22.404304
1912.000000	22.466110
1911.000000	22.779332
1910.000000	22.880877
1909.000000	23.116917
1908.000000	23.438626
1907.000000	23.804168
1906.000000	24.341348
1905.000000	24.519476
1904.000000	24.687619
1903.000000	25.043376
1902.000000	25.281713
1901.000000	25.623091
1900.000000	26.085785
1899.000000	26.422471
1898.000000	26.620469
1897.000000	26.789611
1896.000000	27.242520
1895.000000	27.519697
1894.000000	27.927874
1893.000000	28.272947
1892.000000	28.554318
1891.000000	28.965490
1890.000000	29.227191
1889.000000	29.577755
1888.000000	29.784041
1887.000000	30.269699
1886.000000	30.739982
1885.000000	31.082259
1884.000000	31.520590
1883.000000	31.882038
1882.000000	32.279632
1881.000000	32.822204
1880.000000	33.244459
1879.000000	33.543702
1878.000000	34.146482
1877.000000	34.562248
1876.000000	34.851207
1875.000000	35.123691
1874.000000	35.566914
1873.000000	35.936151
1872.000000	36.045184
1871.000000	36.360303
1870.000000	36.552909
1869.000000	36.694393
1868.000000	36.885701
1867.000000	37.033476
1866.000000	36.782759
1865.000000	36.988245
1864.000000	37.169868
1863.000000	37.142310
1862.000000	37.209607
1861.000000	37.411499
1860.000000	37.566862
1859.000000	37.443849
1858.000000	37.442352
1857.000000	37.595318
1856.000000	37.563567
1855.000000	37.437060
1854.000000	37.599612
1853.000000	37.516838
1852.000000	37.341306
1851.000000	37.312450
1850.000000	37.370362
1849.000000	37.464318
1848.000000	37.674597
1847.000000	37.458827
1846.000000	37.141711
1845.000000	37.016801
1844.000000	37.053046
1843.000000	37.158086
1842.000000	37.313349
1841.000000	37.228878
1840.000000	37.068423
1839.000000	36.964681
1838.000000	36.911762
1837.000000	37.038768
1836.000000	37.111956
1835.000000	36.773373
1834.000000	36.574377
1833.000000	36.593447
1832.000000	36.572779
1831.000000	36.580967
1830.000000	36.435289
1829.000000	36.394251
1828.000000	36.390158
1827.000000	36.312177
1826.000000	36.273536
1825.000000	36.080830
1824.000000	36.024815
1823.000000	36.101598
1822.000000	36.125562
1821.000000	36.163903
1820.000000	36.199549
1819.000000	36.032404
1818.000000	35.959116
1817.000000	35.959415
1816.000000	36.004546
1815.000000	36.027112
1814.000000	35.975990
1813.000000	35.996658
1812.000000	35.998955
1811.000000	35.963110
1810.000000	35.880935
1809.000000	35.849084
1808.000000	35.829713
1807.000000	35.744643
1806.000000	35.746141
1805.000000	35.691824
1804.000000	35.641500
1803.000000	35.586884
1802.000000	35.598865
1801.000000	35.521683
1800.000000	35.477451
1799.000000	35.395276
1798.000000	35.369715
1797.000000	35.314200
1796.000000	35.250797
1795.000000	35.201472
1794.000000	35.154244
1793.000000	35.158338
1792.000000	35.080157
1791.000000	34.999081
1790.000000	34.929287
1789.000000	34.904126
1788.000000	34.875769
1787.000000	34.826345
1786.000000	34.793195
1785.000000	34.741175
1784.000000	34.656504
1783.000000	34.565343
1782.000000	34.482469
1781.000000	34.422361
1780.000000	34.333297
1779.000000	34.255116
1778.000000	34.206291
1777.000000	34.084277
1776.000000	33.961165
1775.000000	33.886479
1774.000000	33.743397
1773.000000	33.595823
1772.000000	33.512650
1771.000000	33.387041
1770.000000	33.268023
1769.000000	33.148106
1768.000000	33.001330
1767.000000	32.894194
1766.000000	32.773977
1765.000000	32.703485
1764.000000	32.659951
1763.000000	32.614720
1762.000000	32.616617
1761.000000	32.645074
1760.000000	32.678822
1759.000000	32.735136
1758.000000	32.801435
1757.000000	32.816512
1756.000000	32.842672
1755.000000	32.888303
1754.000000	32.897489
1753.000000	32.913265
1752.000000	32.893894
1751.000000	32.827096
1750.000000	32.786358
1749.000000	32.741327
1748.000000	32.682017
1747.000000	32.590158
1746.000000	32.485418
1745.000000	32.331353
1744.000000	32.158616
1743.000000	32.007447
1742.000000	31.819234
1741.000000	31.599070
1740.000000	31.366725
1739.000000	31.122598
1738.000000	30.913517
1737.000000	30.765543
1736.000000	30.596501
1735.000000	30.478181
1734.000000	30.448526
1733.000000	30.436345
1732.000000	30.461107
1731.000000	30.518719
1730.000000	30.600694
1729.000000	30.712524
1728.000000	30.797793
1727.000000	30.875075
1726.000000	30.926397
1725.000000	30.977918
1724.000000	31.027443
1723.000000	31.070477
1722.000000	31.107720
1721.000000	31.156745
1720.000000	31.205271
1719.000000	31.268675
1718.000000	31.394782
1717.000000	31.505913
1716.000000	31.610353
1715.000000	31.739456
1714.000000	31.864765
1713.000000	31.991671
1712.000000	32.065459
1711.000000	32.107494
1710.000000	32.173494
1709.000000	32.207941
1708.000000	32.226413
1707.000000	32.231605
1706.000000	32.218026
1705.000000	32.183978
1704.000000	32.146734
1703.000000	32.084430
1702.000000	32.002155
1701.000000	31.874151
1700.000000	31.766016
1699.000000	31.652988
1698.000000	31.504615
1697.000000	31.395481
1696.000000	31.351948
1695.000000	31.321194
1694.000000	31.352347
1693.000000	31.444906
1692.000000	31.576405
1691.000000	31.700715
1690.000000	31.873651
1689.000000	31.964313
1688.000000	32.024920
1687.000000	32.083531
1686.000000	32.114184
1685.000000	32.175491
1684.000000	32.338242
1683.000000	32.523659
1682.000000	32.838579
1681.000000	33.271518
1680.000000	33.749189
1679.000000	34.270193
1678.000000	34.845216
1677.000000	35.338563
1676.000000	35.757523
1675.000000	36.151622
1674.000000	36.462547
1673.000000	36.751007
1672.000000	37.038069
1671.000000	37.271313
1670.000000	37.466415
1669.000000	37.680588
1668.000000	37.836650
1667.000000	37.988818
1666.000000	38.158559
1665.000000	38.283768
1664.000000	38.395697
1663.000000	38.474576
1662.000000	38.546467
1661.000000	38.641422
1660.000000	38.680362
1659.000000	38.746961
1658.000000	38.816255
1657.000000	38.850003
1656.000000	38.893038
1655.000000	38.888944
1654.000000	38.904919
1653.000000	38.910810
1652.000000	38.890342
1651.000000	38.890841
1650.000000	38.849204
1649.000000	38.770125
1648.000000	38.777015
1647.000000	38.759741
1646.000000	38.698534
1645.000000	38.657497
1644.000000	38.624647
1643.000000	38.570330
1642.000000	38.527895
1641.000000	38.466389
1640.000000	38.419760
1639.000000	38.357655
1638.000000	38.307631
1637.000000	38.251517
1636.000000	38.175033
1635.000000	38.136492
1634.000000	38.076384
1633.000000	37.993311
1632.000000	37.944086
1631.000000	37.862910
1630.000000	37.773846
1629.000000	37.705650
1628.000000	37.628867
1627.000000	37.577246
1626.000000	37.476400
1625.000000	37.385838
1624.000000	37.346398
1623.000000	37.296974
1622.000000	37.188839
1621.000000	37.102071
1620.000000	37.030580
1619.000000	36.989044
1618.000000	36.919450
1617.000000	36.824295
1616.000000	36.735431
1615.000000	36.713664
1614.000000	36.667934
1613.000000	36.589054
1612.000000	36.543024
1611.000000	36.481119
1610.000000	36.367492
1609.000000	36.343928
1608.000000	36.278928
1607.000000	36.207437
1606.000000	36.170293
1605.000000	36.101299
1604.000000	35.996359
1603.000000	35.926465
1602.000000	35.886327
1601.000000	35.795166
1600.000000	35.752531
1599.000000	35.708298
1598.000000	35.615840
1597.000000	35.595271
1596.000000	35.534763
1595.000000	35.427028
1594.000000	35.384992
1593.000000	35.367818
1592.000000	35.368018
1591.000000	35.280352
1590.000000	35.258685
1589.000000	35.205366
1588.000000	35.143361
1587.000000	35.123291
1586.000000	35.073567
1585.000000	35.060387
1584.000000	35.039519
1583.000000	35.001078
1582.000000	34.986300
1581.000000	34.992291
1580.000000	34.943765
1579.000000	34.927191
1578.000000	34.947060
1577.000000	34.934380
1576.000000	34.919003
1575.000000	34.934080
1574.000000	34.970724
1573.000000	34.981907
1572.000000	34.969227
1571.000000	34.996086
1570.000000	35.020748
1569.000000	35.027538
1568.000000	35.092039
1567.000000	35.128783
1566.000000	35.154444
1565.000000	35.201372
1564.000000	35.198477
1563.000000	35.256887
1562.000000	35.256189
1561.000000	35.290536
1560.000000	35.274061
1559.000000	35.274760
1558.000000	35.316696
1557.000000	35.305813
1556.000000	35.266972
1555.000000	35.269169
1554.000000	35.268070
1553.000000	35.236918
1552.000000	35.205965
1551.000000	35.191288
1550.000000	35.178807
1549.000000	35.101525
1548.000000	35.071670
1547.000000	35.058890
1546.000000	35.046908
1545.000000	35.016954
1544.000000	34.967928
1543.000000	34.943166
1542.000000	34.946262
1541.000000	34.914210
1540.000000	34.900032
1539.000000	34.889049
1538.000000	34.895040
1537.000000	34.883058
1536.000000	34.879563
1535.000000	34.853403
1534.000000	34.814662
1533.000000	34.809770
1532.000000	34.794793
1531.000000	34.766436
1530.000000	34.737780
1529.000000	34.706627
1528.000000	34.673178
1527.000000	34.628347
1526.000000	34.620259
1525.000000	34.599591
1524.000000	34.554959
