PE UV       SUBTECH     SPECTRUM    ASCII       PEDS        4.00        
   -1
CICIMAUCR0112-2.Sample.ASC
24/04/19
17:16:39.00
24/04/19
17:16:39.00
Vinicio Soto Monge
C. resplendens
250,000000
1
Lambda 1050
1050L1511233
PerkinElmer UV WinLab 6.3.2.0749 / 2.02.05 Lambda 900 UV/VIS/NIR, Aug  7 2015 09:38:08

0
0
3350/servo 860,8/2
0
0
UV/VIS
1
1
1
DoubleDePol,CommonBeamDepol,RBeamAtt,SBeamAtt,60mm sphere, WB InGaAs Detector
0
0
0
0
Program
Program
3350/servo 860,8/2
3350/0,2 860,8/0,2
3350/0,2 860,8/0,2
0
15.00
 
 
 
0
 
860,8
319,2
860,8
Front
100
on
S:100 R:100
0
0
0
0
 
0
 
 
 
0
 
 
0
0
0
0
0
 
 
 
 
0
0


0
0
#HDR
-1
-1
#GR
nm
%R
1.0
0.0
2500,000000
-1,000000
2251
8
89,711800
5,376500
#DATA
2500.000000	9.024000
2499.000000	9.091600
2498.000000	9.027100
2497.000000	9.008300
2496.000000	8.984500
2495.000000	8.939900
2494.000000	8.956200
2493.000000	8.964400
2492.000000	8.908200
2491.000000	8.891600
2490.000000	8.756900
2489.000000	8.862000
2488.000000	8.826000
2487.000000	8.786000
2486.000000	8.783500
2485.000000	8.724000
2484.000000	8.796600
2483.000000	8.814500
2482.000000	8.751100
2481.000000	8.772600
2480.000000	8.747700
2479.000000	8.710800
2478.000000	8.745300
2477.000000	8.723600
2476.000000	8.695600
2475.000000	8.760500
2474.000000	8.726600
2473.000000	8.753600
2472.000000	8.740300
2471.000000	8.716300
2470.000000	8.758700
2469.000000	8.774200
2468.000000	8.766300
2467.000000	8.782600
2466.000000	8.817000
2465.000000	8.818000
2464.000000	8.860200
2463.000000	8.880700
2462.000000	8.927800
2461.000000	8.962400
2460.000000	8.990900
2459.000000	9.058900
2458.000000	9.136500
2457.000000	9.186200
2456.000000	9.275100
2455.000000	9.325700
2454.000000	9.391500
2453.000000	9.464800
2452.000000	9.533300
2451.000000	9.631100
2450.000000	9.733900
2449.000000	9.824000
2448.000000	9.887700
2447.000000	9.979300
2446.000000	10.073000
2445.000000	10.169200
2444.000000	10.245900
2443.000000	10.335800
2442.000000	10.423400
2441.000000	10.531800
2440.000000	10.601000
2439.000000	10.681000
2438.000000	10.777200
2437.000000	10.848900
2436.000000	10.914900
2435.000000	10.994100
2434.000000	11.077200
2433.000000	11.135700
2432.000000	11.198900
2431.000000	11.265700
2430.000000	11.327400
2429.000000	11.391800
2428.000000	11.439100
2427.000000	11.490400
2426.000000	11.534900
2425.000000	11.585900
2424.000000	11.629900
2423.000000	11.663400
2422.000000	11.679800
2421.000000	11.702200
2420.000000	11.729400
2419.000000	11.782400
2418.000000	11.818400
2417.000000	11.830300
2416.000000	11.865500
2415.000000	11.888800
2414.000000	11.910100
2413.000000	11.923300
2412.000000	11.958700
2411.000000	11.970700
2410.000000	11.995300
2409.000000	12.036300
2408.000000	12.056400
2407.000000	12.065400
2406.000000	12.102500
2405.000000	12.113300
2404.000000	12.139200
2403.000000	12.175000
2402.000000	12.202600
2401.000000	12.225000
2400.000000	12.234200
2399.000000	12.259700
2398.000000	12.289900
2397.000000	12.316600
2396.000000	12.332400
2395.000000	12.369500
2394.000000	12.407700
2393.000000	12.406300
2392.000000	12.427100
2391.000000	12.452800
2390.000000	12.457700
2389.000000	12.468200
2388.000000	12.477800
2387.000000	12.475000
2386.000000	12.470500
2385.000000	12.468400
2384.000000	12.454400
2383.000000	12.433100
2382.000000	12.424200
2381.000000	12.414900
2380.000000	12.388100
2379.000000	12.359800
2378.000000	12.333800
2377.000000	12.302000
2376.000000	12.270200
2375.000000	12.236400
2374.000000	12.208300
2373.000000	12.173100
2372.000000	12.124400
2371.000000	12.081600
2370.000000	12.038700
2369.000000	11.988300
2368.000000	11.926600
2367.000000	11.855100
2366.000000	11.791000
2365.000000	11.721500
2364.000000	11.640000
2363.000000	11.562600
2362.000000	11.490500
2361.000000	11.415300
2360.000000	11.338200
2359.000000	11.258300
2358.000000	11.167500
2357.000000	11.105200
2356.000000	11.073800
2355.000000	11.019000
2354.000000	10.972300
2353.000000	10.955000
2352.000000	10.943100
2351.000000	10.948400
2350.000000	10.964100
2349.000000	10.968100
2348.000000	10.988400
2347.000000	11.033600
2346.000000	11.068300
2345.000000	11.118000
2344.000000	11.169900
2343.000000	11.208200
2342.000000	11.240200
2341.000000	11.269600
2340.000000	11.294100
2339.000000	11.310100
2338.000000	11.314500
2337.000000	11.316800
2336.000000	11.295200
2335.000000	11.266800
2334.000000	11.247200
2333.000000	11.197600
2332.000000	11.165700
2331.000000	11.115500
2330.000000	11.055400
2329.000000	10.979300
2328.000000	10.886400
2327.000000	10.817000
2326.000000	10.764600
2325.000000	10.671600
2324.000000	10.566700
2323.000000	10.475900
2322.000000	10.360600
2321.000000	10.254200
2320.000000	10.117700
2319.000000	10.013000
2318.000000	9.896000
2317.000000	9.756000
2316.000000	9.631100
2315.000000	9.493400
2314.000000	9.377300
2313.000000	9.259600
2312.000000	9.164600
2311.000000	9.067200
2310.000000	8.988000
2309.000000	8.909200
2308.000000	8.855500
2307.000000	8.830800
2306.000000	8.799700
2305.000000	8.816600
2304.000000	8.845900
2303.000000	8.889300
2302.000000	8.955600
2301.000000	9.042200
2300.000000	9.135100
2299.000000	9.211400
2298.000000	9.331000
2297.000000	9.434000
2296.000000	9.519400
2295.000000	9.603700
2294.000000	9.700000
2293.000000	9.769000
2292.000000	9.802000
2291.000000	9.848800
2290.000000	9.876500
2289.000000	9.901900
2288.000000	9.889000
2287.000000	9.901600
2286.000000	9.877300
2285.000000	9.844100
2284.000000	9.813600
2283.000000	9.771100
2282.000000	9.714000
2281.000000	9.679400
2280.000000	9.624600
2279.000000	9.563300
2278.000000	9.528300
2277.000000	9.473600
2276.000000	9.453200
2275.000000	9.412000
2274.000000	9.392500
2273.000000	9.395800
2272.000000	9.374700
2271.000000	9.404600
2270.000000	9.432100
2269.000000	9.515300
2268.000000	9.566900
2267.000000	9.655600
2266.000000	9.756700
2265.000000	9.902500
2264.000000	10.064300
2263.000000	10.262900
2262.000000	10.473800
2261.000000	10.697500
2260.000000	10.960100
2259.000000	11.227500
2258.000000	11.502000
2257.000000	11.793400
2256.000000	12.093300
2255.000000	12.381800
2254.000000	12.686300
2253.000000	12.995300
2252.000000	13.262600
2251.000000	13.513400
2250.000000	13.759100
2249.000000	14.012600
2248.000000	14.234700
2247.000000	14.454400
2246.000000	14.636800
2245.000000	14.814600
2244.000000	15.014200
2243.000000	15.149400
2242.000000	15.307500
2241.000000	15.431200
2240.000000	15.579700
2239.000000	15.688900
2238.000000	15.800400
2237.000000	15.887900
2236.000000	15.993100
2235.000000	16.073400
2234.000000	16.164500
2233.000000	16.209700
2232.000000	16.282800
2231.000000	16.329800
2230.000000	16.349000
2229.000000	16.381900
2228.000000	16.412200
2227.000000	16.430300
2226.000000	16.425300
2225.000000	16.416500
2224.000000	16.414400
2223.000000	16.397500
2222.000000	16.371100
2221.000000	16.339700
2220.000000	16.325300
2219.000000	16.293700
2218.000000	16.263800
2217.000000	16.230000
2216.000000	16.195700
2215.000000	16.152400
2214.000000	16.121900
2213.000000	16.081800
2212.000000	16.057900
2211.000000	16.019900
2210.000000	15.983300
2209.000000	15.975800
2208.000000	15.926000
2207.000000	15.924000
2206.000000	15.887500
2205.000000	15.869800
2204.000000	15.845500
2203.000000	15.824900
2202.000000	15.834200
2201.000000	15.791900
2200.000000	15.791700
2199.000000	15.784100
2198.000000	15.770700
2197.000000	15.769900
2196.000000	15.757900
2195.000000	15.755300
2194.000000	15.765100
2193.000000	15.733100
2192.000000	15.755200
2191.000000	15.748000
2190.000000	15.733400
2189.000000	15.719500
2188.000000	15.704300
2187.000000	15.710800
2186.000000	15.688200
2185.000000	15.660100
2184.000000	15.677000
2183.000000	15.647300
2182.000000	15.627800
2181.000000	15.612000
2180.000000	15.606800
2179.000000	15.581800
2178.000000	15.577700
2177.000000	15.584800
2176.000000	15.587900
2175.000000	15.574000
2174.000000	15.572900
2173.000000	15.590400
2172.000000	15.602500
2171.000000	15.601900
2170.000000	15.622900
2169.000000	15.648300
2168.000000	15.658900
2167.000000	15.689300
2166.000000	15.720400
2165.000000	15.740300
2164.000000	15.770600
2163.000000	15.807400
2162.000000	15.843600
2161.000000	15.874000
2160.000000	15.913500
2159.000000	15.945200
2158.000000	15.983800
2157.000000	16.047500
2156.000000	16.088500
2155.000000	16.127300
2154.000000	16.199200
2153.000000	16.252400
2152.000000	16.295700
2151.000000	16.371200
2150.000000	16.437900
2149.000000	16.487600
2148.000000	16.531600
2147.000000	16.572100
2146.000000	16.623600
2145.000000	16.676600
2144.000000	16.717500
2143.000000	16.759000
2142.000000	16.811900
2141.000000	16.836000
2140.000000	16.869400
2139.000000	16.914400
2138.000000	16.944900
2137.000000	16.976800
2136.000000	17.012800
2135.000000	17.029200
2134.000000	17.045500
2133.000000	17.073100
2132.000000	17.099000
2131.000000	17.104900
2130.000000	17.108300
2129.000000	17.110600
2128.000000	17.130700
2127.000000	17.124200
2126.000000	17.120700
2125.000000	17.116700
2124.000000	17.095000
2123.000000	17.083600
2122.000000	17.073600
2121.000000	17.064600
2120.000000	17.040700
2119.000000	17.016700
2118.000000	16.977200
2117.000000	16.957400
2116.000000	16.937300
2115.000000	16.891700
2114.000000	16.861700
2113.000000	16.839400
2112.000000	16.814600
2111.000000	16.776800
2110.000000	16.726300
2109.000000	16.700600
2108.000000	16.682400
2107.000000	16.662600
2106.000000	16.628600
2105.000000	16.590900
2104.000000	16.558000
2103.000000	16.519700
2102.000000	16.489900
2101.000000	16.458000
2100.000000	16.424400
2099.000000	16.397800
2098.000000	16.362700
2097.000000	16.341100
2096.000000	16.330700
2095.000000	16.303800
2094.000000	16.289900
2093.000000	16.268700
2092.000000	16.238900
2091.000000	16.222900
2090.000000	16.213600
2089.000000	16.205600
2088.000000	16.196100
2087.000000	16.199100
2086.000000	16.186700
2085.000000	16.149400
2084.000000	16.136600
2083.000000	16.125800
2082.000000	16.108700
2081.000000	16.085100
2080.000000	16.060100
2079.000000	16.021000
2078.000000	15.992400
2077.000000	15.970000
2076.000000	15.938900
2075.000000	15.906700
2074.000000	15.866300
2073.000000	15.836500
2072.000000	15.793900
2071.000000	15.754100
2070.000000	15.729500
2069.000000	15.701300
2068.000000	15.652800
2067.000000	15.613500
2066.000000	15.576600
2065.000000	15.551700
2064.000000	15.522500
2063.000000	15.478100
2062.000000	15.459800
2061.000000	15.444900
2060.000000	15.438600
2059.000000	15.435000
2058.000000	15.433300
2057.000000	15.452500
2056.000000	15.503900
2055.000000	15.546700
2054.000000	15.595500
2053.000000	15.677800
2052.000000	15.752000
2051.000000	15.859300
2050.000000	15.995400
2049.000000	16.101400
2048.000000	16.231900
2047.000000	16.400900
2046.000000	16.568200
2045.000000	16.760400
2044.000000	16.924300
2043.000000	17.091200
2042.000000	17.284000
2041.000000	17.470700
2040.000000	17.658800
2039.000000	17.836300
2038.000000	18.000300
2037.000000	18.160700
2036.000000	18.336900
2035.000000	18.481200
2034.000000	18.630000
2033.000000	18.802300
2032.000000	18.919400
2031.000000	19.067700
2030.000000	19.195100
2029.000000	19.329900
2028.000000	19.445100
2027.000000	19.552900
2026.000000	19.679800
2025.000000	19.779200
2024.000000	19.879300
2023.000000	19.993700
2022.000000	20.082100
2021.000000	20.181700
2020.000000	20.270400
2019.000000	20.333500
2018.000000	20.436700
2017.000000	20.529500
2016.000000	20.591900
2015.000000	20.669300
2014.000000	20.737700
2013.000000	20.776900
2012.000000	20.839300
2011.000000	20.872300
2010.000000	20.913800
2009.000000	20.962900
2008.000000	21.002800
2007.000000	21.021900
2006.000000	21.025800
2005.000000	21.027900
2004.000000	21.053100
2003.000000	21.052500
2002.000000	21.036400
2001.000000	21.020500
2000.000000	21.011200
1999.000000	20.999900
1998.000000	20.956300
1997.000000	20.946400
1996.000000	20.897700
1995.000000	20.854900
1994.000000	20.813000
1993.000000	20.759000
1992.000000	20.720900
1991.000000	20.632400
1990.000000	20.565000
1989.000000	20.498100
1988.000000	20.438900
1987.000000	20.368900
1986.000000	20.284900
1985.000000	20.216800
1984.000000	20.134100
1983.000000	20.069500
1982.000000	19.973900
1981.000000	19.879700
1980.000000	19.819500
1979.000000	19.700100
1978.000000	19.619200
1977.000000	19.548300
1976.000000	19.473500
1975.000000	19.379300
1974.000000	19.303900
1973.000000	19.212200
1972.000000	19.150600
1971.000000	19.048500
1970.000000	18.968100
1969.000000	18.907000
1968.000000	18.797700
1967.000000	18.739800
1966.000000	18.654100
1965.000000	18.577200
1964.000000	18.513200
1963.000000	18.425300
1962.000000	18.352000
1961.000000	18.273600
1960.000000	18.170500
1959.000000	18.108100
1958.000000	18.046700
1957.000000	17.946800
1956.000000	17.882500
1955.000000	17.799000
1954.000000	17.720400
1953.000000	17.643100
1952.000000	17.576400
1951.000000	17.502100
1950.000000	17.449700
1949.000000	17.384400
1948.000000	17.341800
1947.000000	17.290400
1946.000000	17.238000
1945.000000	17.179400
1944.000000	17.156500
1943.000000	17.139600
1942.000000	17.140000
1941.000000	17.129100
1940.000000	17.115900
1939.000000	17.116400
1938.000000	17.117500
1937.000000	17.136400
1936.000000	17.154800
1935.000000	17.198100
1934.000000	17.262000
1933.000000	17.318000
1932.000000	17.434400
1931.000000	17.518500
1930.000000	17.618000
1929.000000	17.712200
1928.000000	17.835400
1927.000000	17.933700
1926.000000	18.075600
1925.000000	18.232900
1924.000000	18.410300
1923.000000	18.581700
1922.000000	18.752900
1921.000000	18.952300
1920.000000	19.157000
1919.000000	19.327400
1918.000000	19.562800
1917.000000	19.805300
1916.000000	20.063900
1915.000000	20.315800
1914.000000	20.604400
1913.000000	20.845900
1912.000000	21.114300
1911.000000	21.371000
1910.000000	21.657000
1909.000000	21.954000
1908.000000	22.265900
1907.000000	22.592400
1906.000000	22.928500
1905.000000	23.252200
1904.000000	23.572500
1903.000000	23.900500
1902.000000	24.224200
1901.000000	24.576500
1900.000000	24.929300
1899.000000	25.256900
1898.000000	25.588200
1897.000000	25.951900
1896.000000	26.275600
1895.000000	26.620700
1894.000000	26.981000
1893.000000	27.324900
1892.000000	27.660600
1891.000000	27.978800
1890.000000	28.314700
1889.000000	28.656200
1888.000000	29.001900
1887.000000	29.370200
1886.000000	29.775400
1885.000000	30.222600
1884.000000	30.715500
1883.000000	31.199300
1882.000000	31.695400
1881.000000	32.226300
1880.000000	32.703700
1879.000000	33.179300
1878.000000	33.634700
1877.000000	34.047900
1876.000000	34.436600
1875.000000	34.787500
1874.000000	35.106100
1873.000000	35.390500
1872.000000	35.641100
1871.000000	35.840700
1870.000000	35.967800
1869.000000	36.099100
1868.000000	36.240300
1867.000000	36.321600
1866.000000	36.374100
1865.000000	36.433600
1864.000000	36.502600
1863.000000	36.574200
1862.000000	36.618000
1861.000000	36.651500
1860.000000	36.655000
1859.000000	36.609100
1858.000000	36.567400
1857.000000	36.551200
1856.000000	36.508400
1855.000000	36.445500
1854.000000	36.360700
1853.000000	36.248700
1852.000000	36.180500
1851.000000	36.154000
1850.000000	36.149900
1849.000000	36.105100
1848.000000	35.949200
1847.000000	35.773100
1846.000000	35.634400
1845.000000	35.574800
1844.000000	35.574300
1843.000000	35.601100
1842.000000	35.567000
1841.000000	35.469100
1840.000000	35.382400
1839.000000	35.325300
1838.000000	35.266800
1837.000000	35.175100
1836.000000	35.059200
1835.000000	34.932300
1834.000000	34.827400
1833.000000	34.763500
1832.000000	34.708000
1831.000000	34.619700
1830.000000	34.510700
1829.000000	34.406200
1828.000000	34.279200
1827.000000	34.177100
1826.000000	34.100600
1825.000000	34.017500
1824.000000	33.971600
1823.000000	34.012000
1822.000000	34.018400
1821.000000	33.959600
1820.000000	33.879400
1819.000000	33.814800
1818.000000	33.795300
1817.000000	33.805500
1816.000000	33.812600
1815.000000	33.784500
1814.000000	33.772400
1813.000000	33.762100
1812.000000	33.723800
1811.000000	33.668700
1810.000000	33.607800
1809.000000	33.554000
1808.000000	33.518800
1807.000000	33.478300
1806.000000	33.408500
1805.000000	33.324700
1804.000000	33.259000
1803.000000	33.209900
1802.000000	33.159800
1801.000000	33.081200
1800.000000	32.996600
1799.000000	32.949400
1798.000000	32.889300
1797.000000	32.824800
1796.000000	32.761100
1795.000000	32.705600
1794.000000	32.644800
1793.000000	32.562100
1792.000000	32.497600
1791.000000	32.416000
1790.000000	32.329100
1789.000000	32.259600
1788.000000	32.195000
1787.000000	32.109900
1786.000000	32.014000
1785.000000	31.920000
1784.000000	31.802400
1783.000000	31.708300
1782.000000	31.618400
1781.000000	31.504500
1780.000000	31.405100
1779.000000	31.287300
1778.000000	31.163900
1777.000000	31.020700
1776.000000	30.883300
1775.000000	30.726200
1774.000000	30.572000
1773.000000	30.390800
1772.000000	30.220100
1771.000000	30.044300
1770.000000	29.884100
1769.000000	29.731700
1768.000000	29.579300
1767.000000	29.436500
1766.000000	29.331600
1765.000000	29.232900
1764.000000	29.195900
1763.000000	29.189800
1762.000000	29.215400
1761.000000	29.258100
1760.000000	29.303600
1759.000000	29.387700
1758.000000	29.477600
1757.000000	29.543200
1756.000000	29.592000
1755.000000	29.610700
1754.000000	29.614300
1753.000000	29.603900
1752.000000	29.566500
1751.000000	29.510500
1750.000000	29.430200
1749.000000	29.341300
1748.000000	29.230300
1747.000000	29.083200
1746.000000	28.912500
1745.000000	28.743100
1744.000000	28.509800
1743.000000	28.244300
1742.000000	27.972600
1741.000000	27.682700
1740.000000	27.399300
1739.000000	27.117400
1738.000000	26.868000
1737.000000	26.653400
1736.000000	26.484700
1735.000000	26.375800
1734.000000	26.347700
1733.000000	26.369200
1732.000000	26.424300
1731.000000	26.525100
1730.000000	26.643600
1729.000000	26.777000
1728.000000	26.893600
1727.000000	27.013600
1726.000000	27.091300
1725.000000	27.175900
1724.000000	27.234400
1723.000000	27.255400
1722.000000	27.277000
1721.000000	27.315700
1720.000000	27.353700
1719.000000	27.410900
1718.000000	27.451200
1717.000000	27.552400
1716.000000	27.650700
1715.000000	27.728300
1714.000000	27.816700
1713.000000	27.915400
1712.000000	27.964200
1711.000000	27.997400
1710.000000	28.062800
1709.000000	28.042200
1708.000000	28.043500
1707.000000	28.026700
1706.000000	28.011400
1705.000000	27.945200
1704.000000	27.875500
1703.000000	27.781400
1702.000000	27.648800
1701.000000	27.479800
1700.000000	27.296000
1699.000000	27.119700
1698.000000	26.952200
1697.000000	26.820700
1696.000000	26.762500
1695.000000	26.773000
1694.000000	26.834600
1693.000000	26.980800
1692.000000	27.196200
1691.000000	27.376200
1690.000000	27.515600
1689.000000	27.667900
1688.000000	27.722500
1687.000000	27.756000
1686.000000	27.763100
1685.000000	27.825600
1684.000000	27.992100
1683.000000	28.309300
1682.000000	28.749700
1681.000000	29.353800
1680.000000	29.999900
1679.000000	30.694300
1678.000000	31.355200
1677.000000	31.956500
1676.000000	32.490900
1675.000000	32.982900
1674.000000	33.391400
1673.000000	33.734700
1672.000000	34.048500
1671.000000	34.314400
1670.000000	34.553300
1669.000000	34.760800
1668.000000	34.934600
1667.000000	35.085400
1666.000000	35.192800
1665.000000	35.313000
1664.000000	35.406400
1663.000000	35.503000
1662.000000	35.559700
1661.000000	35.638400
1660.000000	35.677400
1659.000000	35.700900
1658.000000	35.707400
1657.000000	35.715000
1656.000000	35.727700
1655.000000	35.744100
1654.000000	35.701600
1653.000000	35.671200
1652.000000	35.644200
1651.000000	35.615900
1650.000000	35.573500
1649.000000	35.515800
1648.000000	35.462100
1647.000000	35.392200
1646.000000	35.342200
1645.000000	35.277400
1644.000000	35.185900
1643.000000	35.116500
1642.000000	35.053100
1641.000000	34.962900
1640.000000	34.880800
1639.000000	34.799900
1638.000000	34.718600
1637.000000	34.620700
1636.000000	34.528900
1635.000000	34.445600
1634.000000	34.362600
1633.000000	34.282400
1632.000000	34.171100
1631.000000	34.067400
1630.000000	33.969400
1629.000000	33.871500
1628.000000	33.774800
1627.000000	33.676700
1626.000000	33.552800
1625.000000	33.448200
1624.000000	33.363600
1623.000000	33.255800
1622.000000	33.136900
1621.000000	33.047200
1620.000000	32.952600
1619.000000	32.866200
