PE UV       SUBTECH     SPECTRUM    ASCII       PEDS        4.00        
   -1
CICIMAUCR0071-2.Sample.ASC
24/04/18
15:50:28.00
24/04/18
15:50:28.00
Vinicio Soto Monge
C. resplendens
250,000000
1
Lambda 1050
1050L1511233
PerkinElmer UV WinLab 6.3.2.0749 / 2.02.05 Lambda 900 UV/VIS/NIR, Aug  7 2015 09:38:08

0
0
3350/servo 860,8/2
0
0
UV/VIS
1
1
1
DoubleDePol,CommonBeamDepol,RBeamAtt,SBeamAtt,60mm sphere, WB InGaAs Detector
0
0
0
0
Program
Program
3350/servo 860,8/2
3350/0,2 860,8/0,2
3350/0,2 860,8/0,2
0
15.00
 
 
 
0
 
860,8
319,2
860,8
Front
100
on
S:100 R:100
0
0
0
0
 
0
 
 
 
0
 
 
0
0
0
0
0
 
 
 
 
0
0


0
0
#HDR
-1
-1
#GR
nm
%R
1.0
0.0
2500,000000
-1,000000
2251
8
94,034700
5,881900
#DATA
2500.000000	14.522723
2499.000000	14.453385
2498.000000	14.397353
2497.000000	14.341322
2496.000000	14.351301
2495.000000	14.415650
2494.000000	14.369701
2493.000000	14.295374
2492.000000	14.306497
2491.000000	14.325625
2490.000000	14.233105
2489.000000	14.323026
2488.000000	14.257846
2487.000000	14.279053
2486.000000	14.227595
2485.000000	14.337371
2484.000000	14.268033
2483.000000	14.264083
2482.000000	14.273023
2481.000000	14.281132
2480.000000	14.295374
2479.000000	14.316165
2478.000000	14.363672
2477.000000	14.368974
2476.000000	14.371469
2475.000000	14.462117
2474.000000	14.455672
2473.000000	14.468043
2472.000000	14.502972
2471.000000	14.542059
2470.000000	14.578859
2469.000000	14.585720
2468.000000	14.660879
2467.000000	14.666181
2466.000000	14.717847
2465.000000	14.770136
2464.000000	14.833341
2463.000000	14.901327
2462.000000	14.941974
2461.000000	14.995303
2460.000000	15.069735
2459.000000	15.154042
2458.000000	15.193857
2457.000000	15.285233
2456.000000	15.375466
2455.000000	15.428483
2454.000000	15.500420
2453.000000	15.628493
2452.000000	15.697935
2451.000000	15.802202
2450.000000	15.891395
2449.000000	15.987034
2448.000000	16.092028
2447.000000	16.210433
2446.000000	16.306591
2445.000000	16.408883
2444.000000	16.513670
2443.000000	16.608269
2442.000000	16.724075
2441.000000	16.830940
2440.000000	16.926059
2439.000000	17.030118
2438.000000	17.151434
2437.000000	17.254141
2436.000000	17.357888
2435.000000	17.456230
2434.000000	17.557066
2433.000000	17.662165
2432.000000	17.770486
2431.000000	17.867892
2430.000000	17.980059
2429.000000	18.060208
2428.000000	18.157302
2427.000000	18.258762
2426.000000	18.340991
2425.000000	18.434550
2424.000000	18.527902
2423.000000	18.600982
2422.000000	18.675102
2421.000000	18.752445
2420.000000	18.825317
2419.000000	18.890497
2418.000000	18.957340
2417.000000	19.014515
2416.000000	19.085101
2415.000000	19.153191
2414.000000	19.207040
2413.000000	19.255587
2412.000000	19.278873
2411.000000	19.338959
2410.000000	19.376903
2409.000000	19.414222
2408.000000	19.448320
2407.000000	19.482833
2406.000000	19.507366
2405.000000	19.539904
2404.000000	19.577536
2403.000000	19.601237
2402.000000	19.624523
2401.000000	19.630241
2400.000000	19.647497
2399.000000	19.667769
2398.000000	19.688248
2397.000000	19.723593
2396.000000	19.730038
2395.000000	19.738042
2394.000000	19.756858
2393.000000	19.769021
2392.000000	19.775778
2391.000000	19.775882
2390.000000	19.794386
2389.000000	19.817568
2388.000000	19.821102
2387.000000	19.822246
2386.000000	19.838671
2385.000000	19.840022
2384.000000	19.831602
2383.000000	19.830770
2382.000000	19.827444
2381.000000	19.812058
2380.000000	19.797712
2379.000000	19.795529
2378.000000	19.794906
2377.000000	19.782847
2376.000000	19.749165
2375.000000	19.730350
2374.000000	19.737107
2373.000000	19.731077
2372.000000	19.702698
2371.000000	19.690119
2370.000000	19.684298
2369.000000	19.675357
2368.000000	19.674110
2367.000000	19.669016
2366.000000	19.646874
2365.000000	19.634607
2364.000000	19.646562
2363.000000	19.654255
2362.000000	19.623380
2361.000000	19.595624
2360.000000	19.596144
2359.000000	19.596144
2358.000000	19.574729
2357.000000	19.552483
2356.000000	19.542711
2355.000000	19.519633
2354.000000	19.496971
2353.000000	19.466928
2352.000000	19.453621
2351.000000	19.414534
2350.000000	19.378774
2349.000000	19.365364
2348.000000	19.343117
2347.000000	19.315569
2346.000000	19.305797
2345.000000	19.285318
2344.000000	19.261097
2343.000000	19.243944
2342.000000	19.226999
2341.000000	19.222841
2340.000000	19.218267
2339.000000	19.211094
2338.000000	19.201842
2337.000000	19.206520
2336.000000	19.199971
2335.000000	19.206832
2334.000000	19.197580
2333.000000	19.200907
2332.000000	19.210990
2331.000000	19.233029
2330.000000	19.231573
2329.000000	19.245503
2328.000000	19.269621
2327.000000	19.276170
2326.000000	19.299144
2325.000000	19.312762
2324.000000	19.330331
2323.000000	19.340518
2322.000000	19.335736
2321.000000	19.334905
2320.000000	19.338231
2319.000000	19.323574
2318.000000	19.286981
2317.000000	19.260161
2316.000000	19.231366
2315.000000	19.195605
2314.000000	19.160260
2313.000000	19.127099
2312.000000	19.076784
2311.000000	19.036242
2310.000000	18.999026
2309.000000	18.949544
2308.000000	18.912120
2307.000000	18.887898
2306.000000	18.855984
2305.000000	18.842886
2304.000000	18.818352
2303.000000	18.814090
2302.000000	18.813570
2301.000000	18.800680
2300.000000	18.811907
2299.000000	18.806709
2298.000000	18.810971
2297.000000	18.823342
2296.000000	18.836960
2295.000000	18.863157
2294.000000	18.883324
2293.000000	18.890185
2292.000000	18.903387
2291.000000	18.952766
2290.000000	18.976676
2289.000000	18.996843
2288.000000	19.027718
2287.000000	19.059424
2286.000000	19.092897
2285.000000	19.135103
2284.000000	19.173463
2283.000000	19.204753
2282.000000	19.234172
2281.000000	19.278561
2280.000000	19.319727
2279.000000	19.351538
2278.000000	19.374408
2277.000000	19.420668
2276.000000	19.448424
2275.000000	19.473061
2274.000000	19.488966
2273.000000	19.524519
2272.000000	19.532627
2271.000000	19.567868
2270.000000	19.593857
2269.000000	19.626810
2268.000000	19.663922
2267.000000	19.731389
2266.000000	19.759769
2265.000000	19.823909
2264.000000	19.890440
2263.000000	19.994811
2262.000000	20.065397
2261.000000	20.177356
2260.000000	20.278816
2259.000000	20.421858
2258.000000	20.527269
2257.000000	20.672078
2256.000000	20.820006
2255.000000	20.963984
2254.000000	21.133638
2253.000000	21.274497
2252.000000	21.434900
2251.000000	21.570977
2250.000000	21.742607
2249.000000	21.909143
2248.000000	22.048442
2247.000000	22.184831
2246.000000	22.308538
2245.000000	22.440873
2244.000000	22.569881
2243.000000	22.662401
2242.000000	22.753257
2241.000000	22.811576
2240.000000	22.912101
2239.000000	22.986948
2238.000000	23.035703
2237.000000	23.063147
2236.000000	23.095477
2235.000000	23.125208
2234.000000	23.154940
2233.000000	23.156187
2232.000000	23.151821
2231.000000	23.155771
2230.000000	23.130822
2229.000000	23.111590
2228.000000	23.075622
2227.000000	23.035495
2226.000000	22.997656
2225.000000	22.946302
2224.000000	22.891518
2223.000000	22.809705
2222.000000	22.756376
2221.000000	22.684647
2220.000000	22.625393
2219.000000	22.531521
2218.000000	22.457090
2217.000000	22.394301
2216.000000	22.308122
2215.000000	22.227869
2214.000000	22.132022
2213.000000	22.057487
2212.000000	22.002286
2211.000000	21.914133
2210.000000	21.837414
2209.000000	21.777744
2208.000000	21.727637
2207.000000	21.659131
2206.000000	21.611312
2205.000000	21.533657
2204.000000	21.488645
2203.000000	21.466502
2202.000000	21.421282
2201.000000	21.372631
2200.000000	21.323980
2199.000000	21.273042
2198.000000	21.258696
2197.000000	21.210461
2196.000000	21.150271
2195.000000	21.118149
2194.000000	21.115134
2193.000000	21.074800
2192.000000	21.056192
2191.000000	21.031658
2190.000000	21.028852
2189.000000	20.991532
2188.000000	20.976043
2187.000000	20.935396
2186.000000	20.925105
2185.000000	20.905665
2184.000000	20.880300
2183.000000	20.868345
2182.000000	20.839654
2181.000000	20.831129
2180.000000	20.788508
2179.000000	20.762831
2178.000000	20.743807
2177.000000	20.741416
2176.000000	20.732268
2175.000000	20.728838
2174.000000	20.720729
2173.000000	20.731644
2172.000000	20.734451
2171.000000	20.736218
2170.000000	20.757529
2169.000000	20.791107
2168.000000	20.833520
2167.000000	20.849010
2166.000000	20.883419
2165.000000	20.919595
2164.000000	20.952861
2163.000000	21.013466
2162.000000	21.066068
2161.000000	21.106922
2160.000000	21.175012
2159.000000	21.254018
2158.000000	21.328138
2157.000000	21.406208
2156.000000	21.489684
2155.000000	21.577734
2154.000000	21.675556
2153.000000	21.773066
2152.000000	21.885649
2151.000000	22.002702
2150.000000	22.101563
2149.000000	22.198450
2148.000000	22.319245
2147.000000	22.427670
2146.000000	22.534224
2145.000000	22.649510
2144.000000	22.755752
2143.000000	22.860955
2142.000000	22.965118
2141.000000	23.058365
2140.000000	23.170117
2139.000000	23.286443
2138.000000	23.388007
2137.000000	23.489987
2136.000000	23.571695
2135.000000	23.652260
2134.000000	23.744468
2133.000000	23.816301
2132.000000	23.907262
2131.000000	23.993025
2130.000000	24.061323
2129.000000	24.122449
2128.000000	24.185654
2127.000000	24.258942
2126.000000	24.322146
2125.000000	24.368303
2124.000000	24.430883
2123.000000	24.462902
2122.000000	24.511656
2121.000000	24.554486
2120.000000	24.580891
2119.000000	24.624032
2118.000000	24.630893
2117.000000	24.660104
2116.000000	24.690147
2115.000000	24.708235
2114.000000	24.723309
2113.000000	24.747738
2112.000000	24.764683
2111.000000	24.762812
2110.000000	24.755743
2109.000000	24.771336
2108.000000	24.784954
2107.000000	24.781108
2106.000000	24.786825
2105.000000	24.777573
2104.000000	24.768945
2103.000000	24.766034
2102.000000	24.778509
2101.000000	24.787761
2100.000000	24.776014
2099.000000	24.785578
2098.000000	24.806889
2097.000000	24.811671
2096.000000	24.807824
2095.000000	24.803978
2094.000000	24.821027
2093.000000	24.836724
2092.000000	24.861881
2091.000000	24.882672
2090.000000	24.884855
2089.000000	24.910116
2088.000000	24.929140
2087.000000	24.938600
2086.000000	24.942862
2085.000000	24.935273
2084.000000	24.926437
2083.000000	24.918432
2082.000000	24.891716
2081.000000	24.871757
2080.000000	24.838803
2079.000000	24.783915
2078.000000	24.724868
2077.000000	24.688380
2076.000000	24.628502
2075.000000	24.559892
2074.000000	24.480678
2073.000000	24.380361
2072.000000	24.291688
2071.000000	24.197297
2070.000000	24.098539
2069.000000	23.986268
2068.000000	23.886055
2067.000000	23.770665
2066.000000	23.659329
2065.000000	23.539885
2064.000000	23.423871
2063.000000	23.302348
2062.000000	23.186022
2061.000000	23.074686
2060.000000	22.972914
2059.000000	22.887151
2058.000000	22.810849
2057.000000	22.744629
2056.000000	22.681736
2055.000000	22.631838
2054.000000	22.624041
2053.000000	22.634541
2052.000000	22.644728
2051.000000	22.681632
2050.000000	22.742030
2049.000000	22.806690
2048.000000	22.901809
2047.000000	23.027491
2046.000000	23.145480
2045.000000	23.278958
2044.000000	23.409733
2043.000000	23.539781
2042.000000	23.702159
2041.000000	23.842810
2040.000000	23.985748
2039.000000	24.130246
2038.000000	24.268922
2037.000000	24.388574
2036.000000	24.524963
2035.000000	24.643367
2034.000000	24.759589
2033.000000	24.869574
2032.000000	24.970826
2031.000000	25.068024
2030.000000	25.163454
2029.000000	25.249945
2028.000000	25.337579
2027.000000	25.406813
2026.000000	25.483740
2025.000000	25.551726
2024.000000	25.610045
2023.000000	25.672314
2022.000000	25.730529
2021.000000	25.753503
2020.000000	25.805065
2019.000000	25.851845
2018.000000	25.877625
2017.000000	25.910995
2016.000000	25.916712
2015.000000	25.933657
2014.000000	25.948627
2013.000000	25.942597
2012.000000	25.957047
2011.000000	25.950186
2010.000000	25.945924
2009.000000	25.922846
2008.000000	25.910683
2007.000000	25.883447
2006.000000	25.834692
2005.000000	25.789471
2004.000000	25.757141
2003.000000	25.689467
2002.000000	25.628653
2001.000000	25.564721
2000.000000	25.511392
1999.000000	25.424693
1998.000000	25.368142
1997.000000	25.299947
1996.000000	25.200670
1995.000000	25.110229
1994.000000	25.034030
1993.000000	24.944941
1992.000000	24.848263
1991.000000	24.763539
1990.000000	24.647318
1989.000000	24.556669
1988.000000	24.471426
1987.000000	24.353333
1986.000000	24.243556
1985.000000	24.120266
1984.000000	24.025771
1983.000000	23.931276
1982.000000	23.822435
1981.000000	23.700184
1980.000000	23.587704
1979.000000	23.495184
1978.000000	23.383745
1977.000000	23.264612
1976.000000	23.175835
1975.000000	23.092878
1974.000000	22.966573
1973.000000	22.884968
1972.000000	22.781325
1971.000000	22.674979
1970.000000	22.569985
1969.000000	22.488484
1968.000000	22.392222
1967.000000	22.310409
1966.000000	22.202920
1965.000000	22.112479
1964.000000	22.034097
1963.000000	21.939290
1962.000000	21.830553
1961.000000	21.760487
1960.000000	21.613079
1959.000000	21.525133
1958.000000	21.429286
1957.000000	21.341756
1956.000000	21.266181
1955.000000	21.171478
1954.000000	21.062845
1953.000000	20.973859
1952.000000	20.871256
1951.000000	20.821150
1950.000000	20.745366
1949.000000	20.655341
1948.000000	20.577167
1947.000000	20.506062
1946.000000	20.440570
1945.000000	20.383291
1944.000000	20.312602
1943.000000	20.275386
1942.000000	20.234739
1941.000000	20.225072
1940.000000	20.201682
1939.000000	20.172262
1938.000000	20.153966
1937.000000	20.153343
1936.000000	20.144402
1935.000000	20.140868
1934.000000	20.170911
1933.000000	20.209374
1932.000000	20.262183
1931.000000	20.318527
1930.000000	20.409592
1929.000000	20.451901
1928.000000	20.539639
1927.000000	20.630912
1926.000000	20.740792
1925.000000	20.865746
1924.000000	20.987582
1923.000000	21.137589
1922.000000	21.312961
1921.000000	21.473883
1920.000000	21.671813
1919.000000	21.853007
1918.000000	22.046259
1917.000000	22.271738
1916.000000	22.542852
1915.000000	22.769059
1914.000000	23.070736
1913.000000	23.369087
1912.000000	23.693115
1911.000000	23.997599
1910.000000	24.318404
1909.000000	24.655530
1908.000000	25.044738
1907.000000	25.465756
1906.000000	25.935944
1905.000000	26.440542
1904.000000	26.943580
1903.000000	27.409818
1902.000000	27.934791
1901.000000	28.469744
1900.000000	29.060104
1899.000000	29.675414
1898.000000	30.248310
1897.000000	30.862164
1896.000000	31.434852
1895.000000	31.997561
1894.000000	32.596758
1893.000000	33.230259
1892.000000	33.882473
1891.000000	34.545810
1890.000000	35.149269
1889.000000	35.714888
1888.000000	36.301610
1887.000000	36.828974
1886.000000	37.357689
1885.000000	37.888692
1884.000000	38.420006
1883.000000	38.894768
1882.000000	39.316202
1881.000000	39.731606
1880.000000	40.137342
1879.000000	40.508046
1878.000000	40.880309
1877.000000	41.244775
1876.000000	41.580966
1875.000000	41.907696
1874.000000	42.191286
1873.000000	42.489532
1872.000000	42.747965
1871.000000	42.995274
1870.000000	43.172621
1869.000000	43.330632
1868.000000	43.510163
1867.000000	43.625657
1866.000000	43.711836
1865.000000	43.809033
1864.000000	43.915483
1863.000000	44.017775
1862.000000	44.132853
1861.000000	44.273193
1860.000000	44.401993
1859.000000	44.469460
1858.000000	44.532248
1857.000000	44.599092
1856.000000	44.655539
1855.000000	44.715417
1854.000000	44.751698
1853.000000	44.757311
1852.000000	44.764380
1851.000000	44.804922
1850.000000	44.875612
1849.000000	44.946613
1848.000000	44.953370
1847.000000	44.920936
1846.000000	44.828000
1845.000000	44.765835
1844.000000	44.780597
1843.000000	44.797022
1842.000000	44.840891
1841.000000	44.848688
1840.000000	44.798893
1839.000000	44.753985
1838.000000	44.710635
1837.000000	44.669989
1836.000000	44.629758
1835.000000	44.557821
1834.000000	44.480895
1833.000000	44.436610
1832.000000	44.410309
1831.000000	44.406255
1830.000000	44.375692
1829.000000	44.328497
1828.000000	44.288266
1827.000000	44.241278
1826.000000	44.212691
1825.000000	44.186390
1824.000000	44.162688
1823.000000	44.172668
1822.000000	44.248451
1821.000000	44.288682
1820.000000	44.243669
1819.000000	44.184103
1818.000000	44.152085
1817.000000	44.157179
1816.000000	44.159362
1815.000000	44.140026
1814.000000	44.107592
1813.000000	44.102187
1812.000000	44.090752
1811.000000	44.044284
1810.000000	43.976193
1809.000000	43.957585
1808.000000	43.942512
1807.000000	43.926295
1806.000000	43.894796
1805.000000	43.846353
1804.000000	43.814751
1803.000000	43.808202
1802.000000	43.806954
1801.000000	43.778159
1800.000000	43.750403
1799.000000	43.696866
1798.000000	43.669734
1797.000000	43.651750
1796.000000	43.631790
1795.000000	43.604970
1794.000000	43.578981
1793.000000	43.571288
1792.000000	43.546027
1791.000000	43.524093
1790.000000	43.516608
1789.000000	43.508603
1788.000000	43.502782
1787.000000	43.521182
1786.000000	43.525964
1785.000000	43.527731
1784.000000	43.505693
1783.000000	43.501638
1782.000000	43.507460
1781.000000	43.483031
1780.000000	43.454235
1779.000000	43.427207
1778.000000	43.392590
1777.000000	43.355894
1776.000000	43.319405
1775.000000	43.269507
1774.000000	43.218465
1773.000000	43.151206
1772.000000	43.110976
1771.000000	43.046316
1770.000000	43.005461
1769.000000	42.950781
1768.000000	42.890591
1767.000000	42.835703
1766.000000	42.764701
1765.000000	42.724991
1764.000000	42.701809
1763.000000	42.677379
1762.000000	42.650663
1761.000000	42.662202
1760.000000	42.664593
1759.000000	42.663969
1758.000000	42.676132
1757.000000	42.702432
1756.000000	42.698690
1755.000000	42.722184
1754.000000	42.725510
1753.000000	42.728005
1752.000000	42.728733
1751.000000	42.713556
1750.000000	42.704823
1749.000000	42.686631
1748.000000	42.654717
1747.000000	42.604299
1746.000000	42.550138
1745.000000	42.484127
1744.000000	42.392958
1743.000000	42.321645
1742.000000	42.235051
1741.000000	42.132343
1740.000000	42.040239
1739.000000	41.922978
1738.000000	41.832433
1737.000000	41.735235
1736.000000	41.633983
1735.000000	41.548428
1734.000000	41.453309
1733.000000	41.359645
1732.000000	41.280640
1731.000000	41.202050
1730.000000	41.134375
1729.000000	41.067324
1728.000000	41.002872
1727.000000	40.947152
1726.000000	40.913782
1725.000000	40.899541
1724.000000	40.875631
1723.000000	40.917733
1722.000000	40.991437
1721.000000	41.112440
1720.000000	41.306628
1719.000000	41.495619
1718.000000	41.710390
1717.000000	41.967470
1716.000000	42.211557
1715.000000	42.443792
1714.000000	42.675196
1713.000000	42.896724
1712.000000	43.081868
1711.000000	43.247572
1710.000000	43.401530
1709.000000	43.546859
1708.000000	43.675139
1707.000000	43.792193
1706.000000	43.880866
1705.000000	43.965174
1704.000000	44.039710
1703.000000	44.100627
1702.000000	44.154892
1701.000000	44.192523
1700.000000	44.231715
1699.000000	44.267267
1698.000000	44.290449
1697.000000	44.296063
1696.000000	44.284940
1695.000000	44.233794
1694.000000	44.187534
1693.000000	44.115805
1692.000000	44.030769
1691.000000	43.940121
1690.000000	43.882842
1689.000000	43.838765
1688.000000	43.844898
1687.000000	43.893861
1686.000000	44.005924
1685.000000	44.144496
1684.000000	44.332447
1683.000000	44.559589
1682.000000	44.823426
1681.000000	45.035703
1680.000000	45.273552
1679.000000	45.505475
1678.000000	45.694050
1677.000000	45.910588
1676.000000	46.090326
1675.000000	46.263827
1674.000000	46.428596
1673.000000	46.616962
1672.000000	46.779964
1671.000000	46.946916
1670.000000	47.142871
1669.000000	47.343296
1668.000000	47.518044
1667.000000	47.690922
1666.000000	47.858497
1665.000000	48.000915
1664.000000	48.175248
1663.000000	48.346150
1662.000000	48.476094
1661.000000	48.624334
1660.000000	48.752198
1659.000000	48.870395
1658.000000	49.006888
1657.000000	49.086933
1656.000000	49.156375
1655.000000	49.235277
1654.000000	49.281433
1653.000000	49.325406
1652.000000	49.368548
1651.000000	49.404828
1650.000000	49.420629
1649.000000	49.438197
1648.000000	49.436534
1647.000000	49.449840
1646.000000	49.435599
1645.000000	49.423540
1644.000000	49.417198
1643.000000	49.415015
1642.000000	49.427698
1641.000000	49.421876
1640.000000	49.398487
1639.000000	49.386740
1638.000000	49.377384
1637.000000	49.356593
1636.000000	49.348484
1635.000000	49.312204
1634.000000	49.284864
1633.000000	49.250663
1632.000000	49.223322
1631.000000	49.187146
1630.000000	49.154712
1629.000000	49.109492
1628.000000	49.060321
1627.000000	49.011878
1626.000000	48.965722
1625.000000	48.935263
1624.000000	48.889939
