PE UV       SUBTECH     SPECTRUM    ASCII       PEDS        4.00        
   -1
CICIMAUCR0071-1.Sample.ASC
24/04/18
15:05:09.00
24/04/18
15:05:09.00
Vinicio Soto Monge
C. resplendens
250,000000
1
Lambda 1050
1050L1511233
PerkinElmer UV WinLab 6.3.2.0749 / 2.02.05 Lambda 900 UV/VIS/NIR, Aug  7 2015 09:38:08

0
0
3350/servo 860,8/2
0
0
UV/VIS
1
1
1
DoubleDePol,CommonBeamDepol,RBeamAtt,SBeamAtt,60mm sphere, WB InGaAs Detector
0
0
0
0
Program
Program
3350/servo 860,8/2
3350/0,2 860,8/0,2
3350/0,2 860,8/0,2
0
15.00
 
 
 
0
 
860,8
319,2
860,8
Front
100
on
S:100 R:100
0
0
0
0
 
0
 
 
 
0
 
 
0
0
0
0
0
 
 
 
 
0
0


0
0
#HDR
-1
-1
#GR
nm
%R
1.0
0.0
2500,000000
-1,000000
2251
8
93,363700
5,885500
#DATA
2500.000000	15.271200
2499.000000	15.242000
2498.000000	15.216200
2497.000000	15.153800
2496.000000	15.142600
2495.000000	15.075500
2494.000000	15.024500
2493.000000	15.111800
2492.000000	15.052100
2491.000000	15.010700
2490.000000	14.993400
2489.000000	15.041600
2488.000000	14.944000
2487.000000	14.872400
2486.000000	14.925400
2485.000000	14.968900
2484.000000	14.998800
2483.000000	15.002900
2482.000000	14.958800
2481.000000	14.953400
2480.000000	14.985000
2479.000000	15.014000
2478.000000	15.016900
2477.000000	15.040300
2476.000000	15.071100
2475.000000	15.072000
2474.000000	15.120400
2473.000000	15.140500
2472.000000	15.138700
2471.000000	15.206000
2470.000000	15.240300
2469.000000	15.256900
2468.000000	15.305800
2467.000000	15.343600
2466.000000	15.377200
2465.000000	15.403400
2464.000000	15.473700
2463.000000	15.524100
2462.000000	15.566700
2461.000000	15.623300
2460.000000	15.670300
2459.000000	15.738400
2458.000000	15.809700
2457.000000	15.887200
2456.000000	15.953400
2455.000000	16.026300
2454.000000	16.119400
2453.000000	16.191100
2452.000000	16.285600
2451.000000	16.354400
2450.000000	16.446600
2449.000000	16.563400
2448.000000	16.667100
2447.000000	16.759900
2446.000000	16.850500
2445.000000	16.958700
2444.000000	17.052900
2443.000000	17.141700
2442.000000	17.263800
2441.000000	17.365100
2440.000000	17.480800
2439.000000	17.585000
2438.000000	17.674900
2437.000000	17.789200
2436.000000	17.898000
2435.000000	17.989200
2434.000000	18.067900
2433.000000	18.165300
2432.000000	18.277200
2431.000000	18.373400
2430.000000	18.463000
2429.000000	18.563300
2428.000000	18.625900
2427.000000	18.727500
2426.000000	18.817900
2425.000000	18.904000
2424.000000	18.984200
2423.000000	19.054000
2422.000000	19.085600
2421.000000	19.121400
2420.000000	19.139000
2419.000000	19.181700
2418.000000	19.242600
2417.000000	19.298700
2416.000000	19.354400
2415.000000	19.397700
2414.000000	19.426400
2413.000000	19.470900
2412.000000	19.517900
2411.000000	19.546800
2410.000000	19.562700
2409.000000	19.590600
2408.000000	19.619300
2407.000000	19.652200
2406.000000	19.670500
2405.000000	19.677300
2404.000000	19.688100
2403.000000	19.721000
2402.000000	19.757600
2401.000000	19.755400
2400.000000	19.767800
2399.000000	19.789100
2398.000000	19.794100
2397.000000	19.822800
2396.000000	19.811800
2395.000000	19.804800
2394.000000	19.841000
2393.000000	19.844400
2392.000000	19.825900
2391.000000	19.841800
2390.000000	19.843700
2389.000000	19.834200
2388.000000	19.848000
2387.000000	19.856600
2386.000000	19.845400
2385.000000	19.835000
2384.000000	19.847100
2383.000000	19.838100
2382.000000	19.814600
2381.000000	19.816600
2380.000000	19.798500
2379.000000	19.788300
2378.000000	19.780600
2377.000000	19.774000
2376.000000	19.761500
2375.000000	19.727900
2374.000000	19.711100
2373.000000	19.708800
2372.000000	19.674500
2371.000000	19.650800
2370.000000	19.650800
2369.000000	19.642300
2368.000000	19.633600
2367.000000	19.625500
2366.000000	19.616500
2365.000000	19.592900
2364.000000	19.582100
2363.000000	19.571400
2362.000000	19.558300
2361.000000	19.561000
2360.000000	19.546600
2359.000000	19.522400
2358.000000	19.492800
2357.000000	19.462600
2356.000000	19.452100
2355.000000	19.434400
2354.000000	19.413400
2353.000000	19.390800
2352.000000	19.362200
2351.000000	19.338300
2350.000000	19.289200
2349.000000	19.258100
2348.000000	19.241100
2347.000000	19.228300
2346.000000	19.193600
2345.000000	19.166100
2344.000000	19.165700
2343.000000	19.154600
2342.000000	19.130400
2341.000000	19.130600
2340.000000	19.115400
2339.000000	19.095900
2338.000000	19.083400
2337.000000	19.072200
2336.000000	19.066300
2335.000000	19.062400
2334.000000	19.073100
2333.000000	19.074000
2332.000000	19.069900
2331.000000	19.072500
2330.000000	19.091600
2329.000000	19.089900
2328.000000	19.091800
2327.000000	19.089800
2326.000000	19.107000
2325.000000	19.126400
2324.000000	19.140200
2323.000000	19.145200
2322.000000	19.130600
2321.000000	19.143400
2320.000000	19.127800
2319.000000	19.110200
2318.000000	19.085800
2317.000000	19.038600
2316.000000	19.003500
2315.000000	18.977900
2314.000000	18.929000
2313.000000	18.877400
2312.000000	18.837500
2311.000000	18.796500
2310.000000	18.734900
2309.000000	18.713400
2308.000000	18.680300
2307.000000	18.648500
2306.000000	18.620700
2305.000000	18.601800
2304.000000	18.584500
2303.000000	18.564500
2302.000000	18.559500
2301.000000	18.551200
2300.000000	18.543800
2299.000000	18.544600
2298.000000	18.540100
2297.000000	18.550700
2296.000000	18.557800
2295.000000	18.561700
2294.000000	18.574900
2293.000000	18.603600
2292.000000	18.618700
2291.000000	18.644700
2290.000000	18.673100
2289.000000	18.704100
2288.000000	18.731300
2287.000000	18.753500
2286.000000	18.798700
2285.000000	18.828200
2284.000000	18.857600
2283.000000	18.881300
2282.000000	18.923400
2281.000000	18.935700
2280.000000	19.001800
2279.000000	19.016500
2278.000000	19.035200
2277.000000	19.054700
2276.000000	19.076300
2275.000000	19.096800
2274.000000	19.106800
2273.000000	19.149900
2272.000000	19.164100
2271.000000	19.199400
2270.000000	19.209500
2269.000000	19.255600
2268.000000	19.287600
2267.000000	19.325700
2266.000000	19.386100
2265.000000	19.434100
2264.000000	19.511800
2263.000000	19.577500
2262.000000	19.657500
2261.000000	19.745200
2260.000000	19.849500
2259.000000	19.980500
2258.000000	20.089400
2257.000000	20.208800
2256.000000	20.363800
2255.000000	20.504300
2254.000000	20.667600
2253.000000	20.798400
2252.000000	20.936800
2251.000000	21.101000
2250.000000	21.274500
2249.000000	21.410900
2248.000000	21.516600
2247.000000	21.656900
2246.000000	21.784300
2245.000000	21.900200
2244.000000	22.014400
2243.000000	22.122600
2242.000000	22.196500
2241.000000	22.274400
2240.000000	22.343300
2239.000000	22.404300
2238.000000	22.452300
2237.000000	22.475500
2236.000000	22.521700
2235.000000	22.551100
2234.000000	22.558100
2233.000000	22.568200
2232.000000	22.568100
2231.000000	22.550600
2230.000000	22.523000
2229.000000	22.473700
2228.000000	22.455600
2227.000000	22.412800
2226.000000	22.378000
2225.000000	22.340400
2224.000000	22.289400
2223.000000	22.217000
2222.000000	22.130900
2221.000000	22.050100
2220.000000	21.973400
2219.000000	21.905700
2218.000000	21.825900
2217.000000	21.754900
2216.000000	21.657800
2215.000000	21.594700
2214.000000	21.485700
2213.000000	21.412500
2212.000000	21.365400
2211.000000	21.291500
2210.000000	21.218800
2209.000000	21.144900
2208.000000	21.085800
2207.000000	21.007900
2206.000000	20.953300
2205.000000	20.904300
2204.000000	20.845200
2203.000000	20.788400
2202.000000	20.751500
2201.000000	20.708700
2200.000000	20.650100
2199.000000	20.599900
2198.000000	20.565000
2197.000000	20.516600
2196.000000	20.478000
2195.000000	20.437500
2194.000000	20.405100
2193.000000	20.380400
2192.000000	20.347700
2191.000000	20.326000
2190.000000	20.285300
2189.000000	20.258600
2188.000000	20.252200
2187.000000	20.240900
2186.000000	20.202100
2185.000000	20.169300
2184.000000	20.155900
2183.000000	20.123700
2182.000000	20.099300
2181.000000	20.092300
2180.000000	20.059000
2179.000000	20.030100
2178.000000	20.024500
2177.000000	20.019300
2176.000000	20.014900
2175.000000	20.007200
2174.000000	20.007400
2173.000000	19.998600
2172.000000	20.018600
2171.000000	20.031800
2170.000000	20.052800
2169.000000	20.074000
2168.000000	20.091800
2167.000000	20.114000
2166.000000	20.175200
2165.000000	20.204800
2164.000000	20.248200
2163.000000	20.307300
2162.000000	20.353600
2161.000000	20.400500
2160.000000	20.477400
2159.000000	20.540900
2158.000000	20.614300
2157.000000	20.703600
2156.000000	20.778300
2155.000000	20.879500
2154.000000	20.971000
2153.000000	21.066900
2152.000000	21.168500
2151.000000	21.272800
2150.000000	21.373200
2149.000000	21.498900
2148.000000	21.627600
2147.000000	21.717200
2146.000000	21.825900
2145.000000	21.938100
2144.000000	22.048800
2143.000000	22.152600
2142.000000	22.262700
2141.000000	22.362100
2140.000000	22.462600
2139.000000	22.558900
2138.000000	22.659100
2137.000000	22.749700
2136.000000	22.833500
2135.000000	22.935600
2134.000000	23.031500
2133.000000	23.106700
2132.000000	23.165000
2131.000000	23.236900
2130.000000	23.324900
2129.000000	23.392900
2128.000000	23.440000
2127.000000	23.507000
2126.000000	23.550500
2125.000000	23.597700
2124.000000	23.657700
2123.000000	23.697800
2122.000000	23.738100
2121.000000	23.769100
2120.000000	23.798800
2119.000000	23.829700
2118.000000	23.865700
2117.000000	23.879700
2116.000000	23.900400
2115.000000	23.914400
2114.000000	23.923400
2113.000000	23.937200
2112.000000	23.941400
2111.000000	23.951700
2110.000000	23.963100
2109.000000	23.967600
2108.000000	23.965400
2107.000000	23.957800
2106.000000	23.964900
2105.000000	23.960800
2104.000000	23.956700
2103.000000	23.953700
2102.000000	23.948000
2101.000000	23.945500
2100.000000	23.948000
2099.000000	23.938800
2098.000000	23.936800
2097.000000	23.943100
2096.000000	23.951500
2095.000000	23.958100
2094.000000	23.969700
2093.000000	23.989400
2092.000000	24.003500
2091.000000	24.024100
2090.000000	24.035400
2089.000000	24.048700
2088.000000	24.069300
2087.000000	24.066900
2086.000000	24.074900
2085.000000	24.079400
2084.000000	24.063600
2083.000000	24.030900
2082.000000	24.007400
2081.000000	23.987900
2080.000000	23.962800
2079.000000	23.929100
2078.000000	23.877300
2077.000000	23.817300
2076.000000	23.744000
2075.000000	23.674800
2074.000000	23.597800
2073.000000	23.500800
2072.000000	23.404600
2071.000000	23.316200
2070.000000	23.208100
2069.000000	23.090000
2068.000000	22.987700
2067.000000	22.881400
2066.000000	22.751600
2065.000000	22.631400
2064.000000	22.519800
2063.000000	22.404800
2062.000000	22.291600
2061.000000	22.177300
2060.000000	22.059300
2059.000000	21.996000
2058.000000	21.913900
2057.000000	21.836100
2056.000000	21.774500
2055.000000	21.738000
2054.000000	21.702400
2053.000000	21.704000
2052.000000	21.720800
2051.000000	21.761300
2050.000000	21.796500
2049.000000	21.873800
2048.000000	21.965800
2047.000000	22.060300
2046.000000	22.170100
2045.000000	22.297200
2044.000000	22.421200
2043.000000	22.559800
2042.000000	22.699900
2041.000000	22.826400
2040.000000	22.967100
2039.000000	23.108400
2038.000000	23.226600
2037.000000	23.356100
2036.000000	23.473100
2035.000000	23.572900
2034.000000	23.695600
2033.000000	23.801400
2032.000000	23.896100
2031.000000	23.982000
2030.000000	24.068000
2029.000000	24.153300
2028.000000	24.216700
2027.000000	24.276700
2026.000000	24.352100
2025.000000	24.409100
2024.000000	24.468700
2023.000000	24.535400
2022.000000	24.574100
2021.000000	24.613600
2020.000000	24.660000
2019.000000	24.685200
2018.000000	24.706900
2017.000000	24.721600
2016.000000	24.727700
2015.000000	24.754600
2014.000000	24.755000
2013.000000	24.728500
2012.000000	24.724200
2011.000000	24.702400
2010.000000	24.700300
2009.000000	24.670700
2008.000000	24.624100
2007.000000	24.598800
2006.000000	24.573100
2005.000000	24.519400
2004.000000	24.470800
2003.000000	24.388700
2002.000000	24.318300
2001.000000	24.261800
2000.000000	24.164300
1999.000000	24.092900
1998.000000	24.027600
1997.000000	23.929000
1996.000000	23.842600
1995.000000	23.749900
1994.000000	23.661000
1993.000000	23.550400
1992.000000	23.427800
1991.000000	23.345200
1990.000000	23.235000
1989.000000	23.128000
1988.000000	23.011700
1987.000000	22.924200
1986.000000	22.801700
1985.000000	22.687300
1984.000000	22.581700
1983.000000	22.473500
1982.000000	22.320500
1981.000000	22.222400
1980.000000	22.124500
1979.000000	22.015800
1978.000000	21.892800
1977.000000	21.790700
1976.000000	21.684400
1975.000000	21.572900
1974.000000	21.457300
1973.000000	21.359600
1972.000000	21.281300
1971.000000	21.160700
1970.000000	21.080500
1969.000000	20.969200
1968.000000	20.848500
1967.000000	20.763700
1966.000000	20.682300
1965.000000	20.576600
1964.000000	20.486200
1963.000000	20.410600
1962.000000	20.309300
1961.000000	20.233200
1960.000000	20.126700
1959.000000	20.031300
1958.000000	19.946600
1957.000000	19.850600
1956.000000	19.763800
1955.000000	19.672200
1954.000000	19.588700
1953.000000	19.498400
1952.000000	19.421000
1951.000000	19.324600
1950.000000	19.250500
1949.000000	19.151600
1948.000000	19.130600
1947.000000	19.047400
1946.000000	18.986700
1945.000000	18.943500
1944.000000	18.885500
1943.000000	18.850200
1942.000000	18.815500
1941.000000	18.779200
1940.000000	18.775100
1939.000000	18.761100
1938.000000	18.751500
1937.000000	18.742000
1936.000000	18.743200
1935.000000	18.770000
1934.000000	18.787000
1933.000000	18.829800
1932.000000	18.860400
1931.000000	18.953600
1930.000000	19.024800
1929.000000	19.111100
1928.000000	19.227000
1927.000000	19.314200
1926.000000	19.428600
1925.000000	19.532200
1924.000000	19.654000
1923.000000	19.790200
1922.000000	19.993000
1921.000000	20.180200
1920.000000	20.399700
1919.000000	20.590200
1918.000000	20.780500
1917.000000	20.956200
1916.000000	21.187700
1915.000000	21.438500
1914.000000	21.738400
1913.000000	22.079100
1912.000000	22.395700
1911.000000	22.705100
1910.000000	23.022300
1909.000000	23.315300
1908.000000	23.681500
1907.000000	24.091200
1906.000000	24.563100
1905.000000	25.126900
1904.000000	25.651200
1903.000000	26.100000
1902.000000	26.613000
1901.000000	27.129900
1900.000000	27.729500
1899.000000	28.353800
1898.000000	28.933600
1897.000000	29.546900
1896.000000	30.105300
1895.000000	30.640700
1894.000000	31.231000
1893.000000	31.846000
1892.000000	32.514400
1891.000000	33.190300
1890.000000	33.798500
1889.000000	34.366400
1888.000000	34.953200
1887.000000	35.495200
1886.000000	36.023100
1885.000000	36.542200
1884.000000	37.077900
1883.000000	37.574100
1882.000000	37.999200
1881.000000	38.430100
1880.000000	38.835100
1879.000000	39.219600
1878.000000	39.584400
1877.000000	39.944100
1876.000000	40.301200
1875.000000	40.631400
1874.000000	40.931600
1873.000000	41.221600
1872.000000	41.492200
1871.000000	41.721700
1870.000000	41.906200
1869.000000	42.051900
1868.000000	42.203500
1867.000000	42.324100
1866.000000	42.400700
1865.000000	42.479100
1864.000000	42.580200
1863.000000	42.704200
1862.000000	42.829900
1861.000000	42.943700
1860.000000	43.060100
1859.000000	43.150300
1858.000000	43.211900
1857.000000	43.260100
1856.000000	43.313300
1855.000000	43.360200
1854.000000	43.395900
1853.000000	43.389100
1852.000000	43.399100
1851.000000	43.451300
1850.000000	43.536300
1849.000000	43.603600
1848.000000	43.589400
1847.000000	43.520500
1846.000000	43.428300
1845.000000	43.375700
1844.000000	43.395500
1843.000000	43.437600
1842.000000	43.472100
1841.000000	43.446700
1840.000000	43.388400
1839.000000	43.337900
1838.000000	43.299900
1837.000000	43.246700
1836.000000	43.172400
1835.000000	43.101100
1834.000000	43.022500
1833.000000	42.969900
1832.000000	42.948800
1831.000000	42.939600
1830.000000	42.899400
1829.000000	42.857800
1828.000000	42.807400
1827.000000	42.750800
1826.000000	42.717400
1825.000000	42.672900
1824.000000	42.654500
1823.000000	42.694500
1822.000000	42.755200
1821.000000	42.764100
1820.000000	42.727200
1819.000000	42.676600
1818.000000	42.636500
1817.000000	42.633500
1816.000000	42.635900
1815.000000	42.612300
1814.000000	42.582400
1813.000000	42.576400
1812.000000	42.567500
1811.000000	42.531000
1810.000000	42.483100
1809.000000	42.454100
1808.000000	42.430800
1807.000000	42.409800
1806.000000	42.384900
1805.000000	42.333000
1804.000000	42.297400
1803.000000	42.302800
1802.000000	42.313900
1801.000000	42.281200
1800.000000	42.218900
1799.000000	42.171400
1798.000000	42.154400
1797.000000	42.143400
1796.000000	42.122600
1795.000000	42.108800
1794.000000	42.077600
1793.000000	42.053100
1792.000000	42.033800
1791.000000	42.027200
1790.000000	42.025700
1789.000000	42.028000
1788.000000	42.016400
1787.000000	42.029200
1786.000000	42.042600
1785.000000	42.041500
1784.000000	42.031800
1783.000000	42.025900
1782.000000	42.023000
1781.000000	42.009100
1780.000000	41.988100
1779.000000	41.964100
1778.000000	41.936700
1777.000000	41.900800
1776.000000	41.858700
1775.000000	41.809800
1774.000000	41.765700
1773.000000	41.722300
1772.000000	41.658000
1771.000000	41.619000
1770.000000	41.559700
1769.000000	41.519300
1768.000000	41.465600
1767.000000	41.425700
1766.000000	41.363500
1765.000000	41.309300
1764.000000	41.290300
1763.000000	41.281900
1762.000000	41.262400
1761.000000	41.272700
1760.000000	41.279000
1759.000000	41.287900
1758.000000	41.287400
1757.000000	41.300000
1756.000000	41.323800
1755.000000	41.338900
1754.000000	41.345700
1753.000000	41.346500
1752.000000	41.357900
1751.000000	41.352700
1750.000000	41.338500
1749.000000	41.315900
1748.000000	41.290200
1747.000000	41.253600
1746.000000	41.192200
1745.000000	41.115300
1744.000000	41.030100
1743.000000	40.964600
1742.000000	40.861400
1741.000000	40.762000
1740.000000	40.657200
1739.000000	40.550400
1738.000000	40.447200
1737.000000	40.333500
1736.000000	40.250900
1735.000000	40.162300
1734.000000	40.044800
1733.000000	39.967000
1732.000000	39.868800
1731.000000	39.778400
1730.000000	39.703500
1729.000000	39.629100
1728.000000	39.565500
1727.000000	39.513600
1726.000000	39.470600
1725.000000	39.445300
1724.000000	39.430900
1723.000000	39.456300
1722.000000	39.535400
1721.000000	39.655700
1720.000000	39.821300
1719.000000	40.023600
1718.000000	40.250600
1717.000000	40.503500
1716.000000	40.743300
1715.000000	40.970900
1714.000000	41.208800
1713.000000	41.421600
1712.000000	41.611800
1711.000000	41.768900
1710.000000	41.912500
1709.000000	42.065800
1708.000000	42.188600
1707.000000	42.297100
1706.000000	42.388200
1705.000000	42.471000
1704.000000	42.531500
1703.000000	42.586500
1702.000000	42.643400
1701.000000	42.677700
1700.000000	42.697200
1699.000000	42.726500
1698.000000	42.750500
1697.000000	42.733800
1696.000000	42.712200
1695.000000	42.644400
1694.000000	42.579900
1693.000000	42.508500
1692.000000	42.417000
1691.000000	42.308600
1690.000000	42.233700
1689.000000	42.173400
1688.000000	42.165500
1687.000000	42.204700
1686.000000	42.317000
1685.000000	42.448400
1684.000000	42.637300
1683.000000	42.850600
1682.000000	43.079800
1681.000000	43.319700
1680.000000	43.568200
1679.000000	43.790800
1678.000000	43.981600
1677.000000	44.185500
1676.000000	44.372800
1675.000000	44.550900
1674.000000	44.717300
1673.000000	44.891300
1672.000000	45.079000
1671.000000	45.255600
1670.000000	45.430400
1669.000000	45.612600
1668.000000	45.837200
1667.000000	46.000500
1666.000000	46.160800
1665.000000	46.340400
1664.000000	46.494100
1663.000000	46.661500
1662.000000	46.812800
1661.000000	46.941000
1660.000000	47.087900
1659.000000	47.216100
1658.000000	47.334800
1657.000000	47.424600
1656.000000	47.517600
1655.000000	47.603900
1654.000000	47.654200
1653.000000	47.702100
1652.000000	47.741900
1651.000000	47.784600
1650.000000	47.813800
1649.000000	47.825800
1648.000000	47.835000
1647.000000	47.833000
1646.000000	47.827500
1645.000000	47.832100
1644.000000	47.828000
1643.000000	47.819900
1642.000000	47.825700
1641.000000	47.831800
1640.000000	47.827700
1639.000000	47.821200
1638.000000	47.816200
1637.000000	47.788900
1636.000000	47.779300
1635.000000	47.768600
1634.000000	47.743300
1633.000000	47.716700
1632.000000	47.685100
1631.000000	47.638100
1630.000000	47.615000
1629.000000	47.576000
1628.000000	47.547900
1627.000000	47.498600
1626.000000	47.450500
1625.000000	47.414100
1624.000000	47.373500
