PE UV       SUBTECH     SPECTRUM    ASCII       PEDS        4.00        
   -1
CICIMAUCR0108-2.Sample.ASC
24/04/19
17:04:33.00
24/04/19
17:04:33.00
Vinicio Soto Monge
C. resplendens
250,000000
1
Lambda 1050
1050L1511233
PerkinElmer UV WinLab 6.3.2.0749 / 2.02.05 Lambda 900 UV/VIS/NIR, Aug  7 2015 09:38:08

0
0
3350/servo 860,8/2
0
0
UV/VIS
1
1
1
DoubleDePol,CommonBeamDepol,RBeamAtt,SBeamAtt,60mm sphere, WB InGaAs Detector
0
0
0
0
Program
Program
3350/servo 860,8/2
3350/0,2 860,8/0,2
3350/0,2 860,8/0,2
0
15.00
 
 
 
0
 
860,8
319,2
860,8
Front
100
on
S:100 R:100
0
0
0
0
 
0
 
 
 
0
 
 
0
0
0
0
0
 
 
 
 
0
0


0
0
#HDR
-1
-1
#GR
nm
%R
1.0
0.0
2500,000000
-1,000000
2251
8
90,331100
5,360400
#DATA
2500.000000	10.569600
2499.000000	10.525600
2498.000000	10.572200
2497.000000	10.421400
2496.000000	10.436700
2495.000000	10.429000
2494.000000	10.359200
2493.000000	10.397100
2492.000000	10.310800
2491.000000	10.329100
2490.000000	10.316800
2489.000000	10.236300
2488.000000	10.271600
2487.000000	10.209500
2486.000000	10.285200
2485.000000	10.234600
2484.000000	10.189500
2483.000000	10.181100
2482.000000	10.213500
2481.000000	10.239500
2480.000000	10.180700
2479.000000	10.151300
2478.000000	10.145200
2477.000000	10.172800
2476.000000	10.230500
2475.000000	10.255700
2474.000000	10.242900
2473.000000	10.224700
2472.000000	10.232200
2471.000000	10.216200
2470.000000	10.180400
2469.000000	10.247700
2468.000000	10.286200
2467.000000	10.277100
2466.000000	10.275500
2465.000000	10.319700
2464.000000	10.364200
2463.000000	10.386200
2462.000000	10.406400
2461.000000	10.454800
2460.000000	10.511400
2459.000000	10.602400
2458.000000	10.665000
2457.000000	10.710900
2456.000000	10.793600
2455.000000	10.897300
2454.000000	10.959000
2453.000000	11.037200
2452.000000	11.119400
2451.000000	11.210700
2450.000000	11.301800
2449.000000	11.407300
2448.000000	11.512400
2447.000000	11.617400
2446.000000	11.678400
2445.000000	11.783800
2444.000000	11.875200
2443.000000	11.955800
2442.000000	12.059200
2441.000000	12.161400
2440.000000	12.233300
2439.000000	12.314900
2438.000000	12.412800
2437.000000	12.472700
2436.000000	12.571600
2435.000000	12.664800
2434.000000	12.721500
2433.000000	12.778800
2432.000000	12.857900
2431.000000	12.920200
2430.000000	12.953300
2429.000000	13.031700
2428.000000	13.096000
2427.000000	13.149100
2426.000000	13.196700
2425.000000	13.233700
2424.000000	13.277700
2423.000000	13.279500
2422.000000	13.294900
2421.000000	13.311900
2420.000000	13.317200
2419.000000	13.326400
2418.000000	13.353700
2417.000000	13.385700
2416.000000	13.413800
2415.000000	13.440000
2414.000000	13.459300
2413.000000	13.468700
2412.000000	13.489900
2411.000000	13.521800
2410.000000	13.534200
2409.000000	13.545400
2408.000000	13.552900
2407.000000	13.570900
2406.000000	13.586200
2405.000000	13.608800
2404.000000	13.630400
2403.000000	13.642200
2402.000000	13.648200
2401.000000	13.666600
2400.000000	13.704900
2399.000000	13.720600
2398.000000	13.729800
2397.000000	13.737600
2396.000000	13.765600
2395.000000	13.790800
2394.000000	13.799100
2393.000000	13.813000
2392.000000	13.827200
2391.000000	13.834100
2390.000000	13.860700
2389.000000	13.870000
2388.000000	13.861100
2387.000000	13.860800
2386.000000	13.859200
2385.000000	13.860200
2384.000000	13.847500
2383.000000	13.824000
2382.000000	13.808800
2381.000000	13.799700
2380.000000	13.780800
2379.000000	13.744700
2378.000000	13.714600
2377.000000	13.695100
2376.000000	13.647900
2375.000000	13.613700
2374.000000	13.601100
2373.000000	13.556800
2372.000000	13.490700
2371.000000	13.443500
2370.000000	13.391400
2369.000000	13.337300
2368.000000	13.270800
2367.000000	13.191500
2366.000000	13.131100
2365.000000	13.048300
2364.000000	12.951100
2363.000000	12.850400
2362.000000	12.758100
2361.000000	12.684600
2360.000000	12.588100
2359.000000	12.493200
2358.000000	12.425300
2357.000000	12.340100
2356.000000	12.263400
2355.000000	12.229300
2354.000000	12.189400
2353.000000	12.150800
2352.000000	12.138900
2351.000000	12.148200
2350.000000	12.165400
2349.000000	12.174700
2348.000000	12.214000
2347.000000	12.283600
2346.000000	12.331300
2345.000000	12.364700
2344.000000	12.408000
2343.000000	12.444700
2342.000000	12.491700
2341.000000	12.526700
2340.000000	12.544600
2339.000000	12.566700
2338.000000	12.569200
2337.000000	12.557400
2336.000000	12.541300
2335.000000	12.505500
2334.000000	12.467600
2333.000000	12.433800
2332.000000	12.365200
2331.000000	12.306700
2330.000000	12.247500
2329.000000	12.167800
2328.000000	12.078700
2327.000000	11.989400
2326.000000	11.882800
2325.000000	11.772300
2324.000000	11.671300
2323.000000	11.564900
2322.000000	11.430500
2321.000000	11.280100
2320.000000	11.150700
2319.000000	10.995400
2318.000000	10.848600
2317.000000	10.711400
2316.000000	10.547100
2315.000000	10.407300
2314.000000	10.272600
2313.000000	10.132900
2312.000000	10.021400
2311.000000	9.915300
2310.000000	9.837000
2309.000000	9.765200
2308.000000	9.702700
2307.000000	9.669700
2306.000000	9.644500
2305.000000	9.653700
2304.000000	9.703100
2303.000000	9.761000
2302.000000	9.824300
2301.000000	9.917100
2300.000000	10.026500
2299.000000	10.123300
2298.000000	10.227100
2297.000000	10.335200
2296.000000	10.445500
2295.000000	10.538900
2294.000000	10.630100
2293.000000	10.690900
2292.000000	10.741600
2291.000000	10.798500
2290.000000	10.835500
2289.000000	10.865700
2288.000000	10.857200
2287.000000	10.839400
2286.000000	10.829400
2285.000000	10.763300
2284.000000	10.721600
2283.000000	10.703600
2282.000000	10.645600
2281.000000	10.577800
2280.000000	10.519300
2279.000000	10.468200
2278.000000	10.419100
2277.000000	10.353800
2276.000000	10.325000
2275.000000	10.302000
2274.000000	10.257400
2273.000000	10.272300
2272.000000	10.262300
2271.000000	10.282700
2270.000000	10.326700
2269.000000	10.354300
2268.000000	10.427400
2267.000000	10.528300
2266.000000	10.665500
2265.000000	10.805600
2264.000000	10.977100
2263.000000	11.151000
2262.000000	11.395500
2261.000000	11.619100
2260.000000	11.881200
2259.000000	12.150700
2258.000000	12.440600
2257.000000	12.729100
2256.000000	13.014100
2255.000000	13.339500
2254.000000	13.593100
2253.000000	13.882700
2252.000000	14.136100
2251.000000	14.396200
2250.000000	14.627000
2249.000000	14.841100
2248.000000	15.054300
2247.000000	15.250300
2246.000000	15.434900
2245.000000	15.598800
2244.000000	15.770100
2243.000000	15.928300
2242.000000	16.038800
2241.000000	16.165900
2240.000000	16.257100
2239.000000	16.359800
2238.000000	16.475300
2237.000000	16.553300
2236.000000	16.611200
2235.000000	16.698100
2234.000000	16.772200
2233.000000	16.835100
2232.000000	16.865600
2231.000000	16.904500
2230.000000	16.920800
2229.000000	16.952700
2228.000000	16.987200
2227.000000	16.999300
2226.000000	16.974400
2225.000000	16.994000
2224.000000	16.972000
2223.000000	16.967500
2222.000000	16.956200
2221.000000	16.930300
2220.000000	16.886700
2219.000000	16.862700
2218.000000	16.852900
2217.000000	16.780700
2216.000000	16.774000
2215.000000	16.727500
2214.000000	16.697500
2213.000000	16.670600
2212.000000	16.648800
2211.000000	16.605300
2210.000000	16.606300
2209.000000	16.560700
2208.000000	16.553900
2207.000000	16.509500
2206.000000	16.502400
2205.000000	16.465200
2204.000000	16.437800
2203.000000	16.411100
2202.000000	16.396900
2201.000000	16.403000
2200.000000	16.361800
2199.000000	16.339400
2198.000000	16.304900
2197.000000	16.304600
2196.000000	16.296000
2195.000000	16.267800
2194.000000	16.278700
2193.000000	16.266300
2192.000000	16.268200
2191.000000	16.253400
2190.000000	16.242800
2189.000000	16.200200
2188.000000	16.193000
2187.000000	16.183100
2186.000000	16.164100
2185.000000	16.133800
2184.000000	16.141300
2183.000000	16.104300
2182.000000	16.107600
2181.000000	16.081400
2180.000000	16.072500
2179.000000	16.065600
2178.000000	16.063700
2177.000000	16.045100
2176.000000	16.073000
2175.000000	16.067500
2174.000000	16.057600
2173.000000	16.074100
2172.000000	16.078000
2171.000000	16.085300
2170.000000	16.096900
2169.000000	16.133200
2168.000000	16.135600
2167.000000	16.172000
2166.000000	16.191400
2165.000000	16.211500
2164.000000	16.254400
2163.000000	16.270100
2162.000000	16.325400
2161.000000	16.350300
2160.000000	16.375000
2159.000000	16.428900
2158.000000	16.479500
2157.000000	16.531200
2156.000000	16.576500
2155.000000	16.618100
2154.000000	16.661900
2153.000000	16.717200
2152.000000	16.774100
2151.000000	16.824200
2150.000000	16.882600
2149.000000	16.934800
2148.000000	16.985300
2147.000000	17.033100
2146.000000	17.085300
2145.000000	17.127200
2144.000000	17.164300
2143.000000	17.211400
2142.000000	17.257700
2141.000000	17.299800
2140.000000	17.355100
2139.000000	17.378100
2138.000000	17.396900
2137.000000	17.429700
2136.000000	17.475700
2135.000000	17.492800
2134.000000	17.510300
2133.000000	17.529700
2132.000000	17.542900
2131.000000	17.560500
2130.000000	17.569300
2129.000000	17.583500
2128.000000	17.584600
2127.000000	17.576600
2126.000000	17.577900
2125.000000	17.566700
2124.000000	17.558300
2123.000000	17.546400
2122.000000	17.525700
2121.000000	17.510900
2120.000000	17.507000
2119.000000	17.480700
2118.000000	17.453700
2117.000000	17.424400
2116.000000	17.402600
2115.000000	17.380900
2114.000000	17.347700
2113.000000	17.317700
2112.000000	17.284100
2111.000000	17.242100
2110.000000	17.220700
2109.000000	17.189300
2108.000000	17.152100
2107.000000	17.123000
2106.000000	17.093600
2105.000000	17.059900
2104.000000	17.029400
2103.000000	16.992200
2102.000000	16.964300
2101.000000	16.943400
2100.000000	16.905100
2099.000000	16.873400
2098.000000	16.843900
2097.000000	16.822900
2096.000000	16.802400
2095.000000	16.783600
2094.000000	16.753800
2093.000000	16.729400
2092.000000	16.715000
2091.000000	16.699600
2090.000000	16.685400
2089.000000	16.666800
2088.000000	16.655700
2087.000000	16.633000
2086.000000	16.622200
2085.000000	16.608600
2084.000000	16.578800
2083.000000	16.568800
2082.000000	16.535300
2081.000000	16.508600
2080.000000	16.503200
2079.000000	16.461200
2078.000000	16.424600
2077.000000	16.393800
2076.000000	16.363100
2075.000000	16.318700
2074.000000	16.289300
2073.000000	16.260000
2072.000000	16.209200
2071.000000	16.153200
2070.000000	16.118900
2069.000000	16.086000
2068.000000	16.053500
2067.000000	16.016100
2066.000000	15.967900
2065.000000	15.927400
2064.000000	15.887200
2063.000000	15.852700
2062.000000	15.822000
2061.000000	15.798200
2060.000000	15.791000
2059.000000	15.772500
2058.000000	15.780600
2057.000000	15.782900
2056.000000	15.785000
2055.000000	15.832700
2054.000000	15.869900
2053.000000	15.915100
2052.000000	15.985100
2051.000000	16.063500
2050.000000	16.162600
2049.000000	16.254700
2048.000000	16.402300
2047.000000	16.522100
2046.000000	16.638000
2045.000000	16.794700
2044.000000	16.939600
2043.000000	17.096400
2042.000000	17.242000
2041.000000	17.396100
2040.000000	17.553200
2039.000000	17.700000
2038.000000	17.831100
2037.000000	17.984700
2036.000000	18.109900
2035.000000	18.236200
2034.000000	18.382600
2033.000000	18.499000
2032.000000	18.606300
2031.000000	18.707900
2030.000000	18.812000
2029.000000	18.911700
2028.000000	19.008600
2027.000000	19.101700
2026.000000	19.194800
2025.000000	19.281900
2024.000000	19.364200
2023.000000	19.441000
2022.000000	19.519500
2021.000000	19.600000
2020.000000	19.684300
2019.000000	19.724800
2018.000000	19.787200
2017.000000	19.844300
2016.000000	19.906600
2015.000000	19.971300
2014.000000	19.999200
2013.000000	20.028100
2012.000000	20.070500
2011.000000	20.123100
2010.000000	20.126100
2009.000000	20.159800
2008.000000	20.171600
2007.000000	20.179400
2006.000000	20.176300
2005.000000	20.183300
2004.000000	20.174600
2003.000000	20.160200
2002.000000	20.160200
2001.000000	20.136400
2000.000000	20.126600
1999.000000	20.093300
1998.000000	20.051000
1997.000000	20.009900
1996.000000	19.965200
1995.000000	19.925200
1994.000000	19.890200
1993.000000	19.846800
1992.000000	19.777800
1991.000000	19.715900
1990.000000	19.654000
1989.000000	19.600400
1988.000000	19.494800
1987.000000	19.431200
1986.000000	19.365100
1985.000000	19.274700
1984.000000	19.208000
1983.000000	19.123300
1982.000000	19.064000
1981.000000	18.964200
1980.000000	18.906800
1979.000000	18.833400
1978.000000	18.748200
1977.000000	18.633800
1976.000000	18.562200
1975.000000	18.502700
1974.000000	18.398700
1973.000000	18.309200
1972.000000	18.232000
1971.000000	18.169500
1970.000000	18.091800
1969.000000	18.005400
1968.000000	17.931600
1967.000000	17.857400
1966.000000	17.814700
1965.000000	17.721500
1964.000000	17.653600
1963.000000	17.567600
1962.000000	17.512300
1961.000000	17.435600
1960.000000	17.338800
1959.000000	17.263600
1958.000000	17.209700
1957.000000	17.139000
1956.000000	17.064500
1955.000000	16.977000
1954.000000	16.909000
1953.000000	16.846700
1952.000000	16.765000
1951.000000	16.706800
1950.000000	16.641300
1949.000000	16.560900
1948.000000	16.513800
1947.000000	16.473700
1946.000000	16.413500
1945.000000	16.370400
1944.000000	16.320700
1943.000000	16.312100
1942.000000	16.297900
1941.000000	16.291000
1940.000000	16.292800
1939.000000	16.279800
1938.000000	16.272500
1937.000000	16.279900
1936.000000	16.296700
1935.000000	16.327300
1934.000000	16.383800
1933.000000	16.442800
1932.000000	16.514600
1931.000000	16.579900
1930.000000	16.660300
1929.000000	16.783900
1928.000000	16.866700
1927.000000	16.978200
1926.000000	17.082000
1925.000000	17.223500
1924.000000	17.360600
1923.000000	17.510800
1922.000000	17.680200
1921.000000	17.847000
1920.000000	18.028500
1919.000000	18.185900
1918.000000	18.390500
1917.000000	18.586200
1916.000000	18.793400
1915.000000	19.014500
1914.000000	19.263800
1913.000000	19.507200
1912.000000	19.750700
1911.000000	19.999100
1910.000000	20.226900
1909.000000	20.470700
1908.000000	20.741500
1907.000000	21.017800
1906.000000	21.321700
1905.000000	21.624300
1904.000000	21.916000
1903.000000	22.211500
1902.000000	22.494000
1901.000000	22.777000
1900.000000	23.098700
1899.000000	23.400100
1898.000000	23.725400
1897.000000	24.034500
1896.000000	24.313900
1895.000000	24.601600
1894.000000	24.889100
1893.000000	25.206600
1892.000000	25.530100
1891.000000	25.847200
1890.000000	26.150700
1889.000000	26.441600
1888.000000	26.760600
1887.000000	27.078300
1886.000000	27.456400
1885.000000	27.864400
1884.000000	28.325400
1883.000000	28.747900
1882.000000	29.202300
1881.000000	29.675800
1880.000000	30.075300
1879.000000	30.493200
1878.000000	30.910700
1877.000000	31.283900
1876.000000	31.634000
1875.000000	31.977200
1874.000000	32.291600
1873.000000	32.568100
1872.000000	32.838100
1871.000000	33.047000
1870.000000	33.196200
1869.000000	33.349500
1868.000000	33.489200
1867.000000	33.562900
1866.000000	33.616500
1865.000000	33.671000
1864.000000	33.709400
1863.000000	33.754200
1862.000000	33.803200
1861.000000	33.839200
1860.000000	33.869500
1859.000000	33.865200
1858.000000	33.854400
1857.000000	33.836300
1856.000000	33.797800
1855.000000	33.761000
1854.000000	33.709300
1853.000000	33.629200
1852.000000	33.558400
1851.000000	33.514700
1850.000000	33.469000
1849.000000	33.439300
1848.000000	33.403600
1847.000000	33.317100
1846.000000	33.218400
1845.000000	33.121700
1844.000000	33.050700
1843.000000	33.051900
1842.000000	33.054500
1841.000000	33.019600
1840.000000	32.974000
1839.000000	32.915700
1838.000000	32.860200
1837.000000	32.814500
1836.000000	32.747000
1835.000000	32.649800
1834.000000	32.554200
1833.000000	32.468800
1832.000000	32.390300
1831.000000	32.315300
1830.000000	32.245200
1829.000000	32.166300
1828.000000	32.069800
1827.000000	31.993000
1826.000000	31.922300
1825.000000	31.861400
1824.000000	31.821100
1823.000000	31.797800
1822.000000	31.816900
1821.000000	31.807100
1820.000000	31.771900
1819.000000	31.727400
1818.000000	31.682900
1817.000000	31.682400
1816.000000	31.687500
1815.000000	31.672600
1814.000000	31.656000
1813.000000	31.640400
1812.000000	31.626400
1811.000000	31.593400
1810.000000	31.530700
1809.000000	31.486900
1808.000000	31.458400
1807.000000	31.425200
1806.000000	31.367500
1805.000000	31.305300
1804.000000	31.253800
1803.000000	31.223900
1802.000000	31.176000
1801.000000	31.116400
1800.000000	31.059900
1799.000000	31.015200
1798.000000	30.961700
1797.000000	30.920900
1796.000000	30.868500
1795.000000	30.818500
1794.000000	30.769000
1793.000000	30.722100
1792.000000	30.658700
1791.000000	30.592100
1790.000000	30.525800
1789.000000	30.472400
1788.000000	30.419800
1787.000000	30.362800
1786.000000	30.286300
1785.000000	30.223300
1784.000000	30.126700
1783.000000	30.041900
1782.000000	29.966200
1781.000000	29.891100
1780.000000	29.798700
1779.000000	29.707700
1778.000000	29.600800
1777.000000	29.505900
1776.000000	29.395800
1775.000000	29.258100
1774.000000	29.142000
1773.000000	29.003400
1772.000000	28.840800
1771.000000	28.713600
1770.000000	28.590100
1769.000000	28.454300
1768.000000	28.329900
1767.000000	28.227100
1766.000000	28.133000
1765.000000	28.076200
1764.000000	28.034200
1763.000000	28.028300
1762.000000	28.040300
1761.000000	28.067900
1760.000000	28.138400
1759.000000	28.206800
1758.000000	28.274000
1757.000000	28.347400
1756.000000	28.392900
1755.000000	28.404500
1754.000000	28.414600
1753.000000	28.413400
1752.000000	28.392800
1751.000000	28.366400
1750.000000	28.306500
1749.000000	28.219900
1748.000000	28.150400
1747.000000	28.049000
1746.000000	27.908800
1745.000000	27.754600
1744.000000	27.585500
1743.000000	27.372200
1742.000000	27.145600
1741.000000	26.898500
1740.000000	26.655100
1739.000000	26.412500
1738.000000	26.191100
1737.000000	26.002600
1736.000000	25.857200
1735.000000	25.756600
1734.000000	25.712100
1733.000000	25.710900
1732.000000	25.768400
1731.000000	25.839500
1730.000000	25.931700
1729.000000	26.034100
1728.000000	26.147100
1727.000000	26.245200
1726.000000	26.328200
1725.000000	26.376100
1724.000000	26.439500
1723.000000	26.444600
1722.000000	26.481900
1721.000000	26.519100
1720.000000	26.551700
1719.000000	26.601600
1718.000000	26.633900
1717.000000	26.709200
1716.000000	26.783000
1715.000000	26.863300
1714.000000	26.958700
1713.000000	27.027300
1712.000000	27.084100
1711.000000	27.122800
1710.000000	27.149200
1709.000000	27.145800
1708.000000	27.164900
1707.000000	27.117300
1706.000000	27.100400
1705.000000	27.065000
1704.000000	26.995200
1703.000000	26.905200
1702.000000	26.816000
1701.000000	26.671900
1700.000000	26.510400
1699.000000	26.355200
1698.000000	26.219100
1697.000000	26.096500
1696.000000	26.034100
1695.000000	26.023000
1694.000000	26.085200
1693.000000	26.194600
1692.000000	26.347900
1691.000000	26.485800
1690.000000	26.617800
1689.000000	26.718500
1688.000000	26.769900
1687.000000	26.764600
1686.000000	26.796900
1685.000000	26.812900
1684.000000	26.932400
1683.000000	27.191800
1682.000000	27.551400
1681.000000	28.008200
1680.000000	28.529700
1679.000000	29.089400
1678.000000	29.618900
1677.000000	30.110500
1676.000000	30.574600
1675.000000	30.944100
1674.000000	31.255600
1673.000000	31.536900
1672.000000	31.800600
1671.000000	32.017700
1670.000000	32.209800
1669.000000	32.384600
1668.000000	32.541400
1667.000000	32.638700
1666.000000	32.755900
1665.000000	32.849200
1664.000000	32.931000
1663.000000	33.017900
1662.000000	33.076100
1661.000000	33.125200
1660.000000	33.193600
1659.000000	33.239500
1658.000000	33.268400
1657.000000	33.282400
1656.000000	33.302700
1655.000000	33.291100
1654.000000	33.281800
1653.000000	33.292300
1652.000000	33.278800
1651.000000	33.250800
1650.000000	33.217100
1649.000000	33.186600
1648.000000	33.152800
1647.000000	33.101500
1646.000000	33.059000
1645.000000	33.002500
1644.000000	32.942600
1643.000000	32.903000
1642.000000	32.856600
1641.000000	32.784900
1640.000000	32.728300
1639.000000	32.655700
1638.000000	32.580400
1637.000000	32.534200
1636.000000	32.455600
1635.000000	32.377500
1634.000000	32.301700
1633.000000	32.238000
1632.000000	32.156300
1631.000000	32.055900
1630.000000	31.994400
1629.000000	31.911800
1628.000000	31.824500
1627.000000	31.731300
1626.000000	31.648200
1625.000000	31.569400
1624.000000	31.490900
