PE UV       SUBTECH     SPECTRUM    ASCII       PEDS        4.00        
   -1
CICIMAUCR0116-1.Sample.ASC
24/04/19
09:46:45.00
24/04/19
09:46:45.00
Vinicio Soto Monge
C. kalinini
250,000000
1
Lambda 1050
1050L1511233
PerkinElmer UV WinLab 6.3.2.0749 / 2.02.05 Lambda 900 UV/VIS/NIR, Aug  7 2015 09:38:08

0
0
3350/servo 860,8/2
0
0
UV/VIS
1
1
1
DoubleDePol,CommonBeamDepol,RBeamAtt,SBeamAtt,60mm sphere, WB InGaAs Detector
0
0
0
0
Program
Program
3350/servo 860,8/2
3350/0,2 860,8/0,2
3350/0,2 860,8/0,2
0
15.00
 
 
 
0
 
860,8
319,2
860,8
Front
100
on
S:100 R:100
0
0
0
0
 
0
 
 
 
0
 
 
0
0
0
0
0
 
 
 
 
0
0


0
0
#HDR
-1
-1
#GR
nm
%R
1.0
0.0
2500,000000
-1,000000
2251
8
96,409700
5,351700
#DATA
2500.000000	10.356700
2499.000000	10.205500
2498.000000	10.337400
2497.000000	10.208600
2496.000000	10.178200
2495.000000	10.145700
2494.000000	10.095200
2493.000000	10.080400
2492.000000	10.074900
2491.000000	10.004900
2490.000000	10.100900
2489.000000	10.023600
2488.000000	10.001800
2487.000000	10.044000
2486.000000	9.993800
2485.000000	10.010500
2484.000000	9.974600
2483.000000	9.972000
2482.000000	9.987800
2481.000000	9.994200
2480.000000	9.951300
2479.000000	9.952500
2478.000000	9.954100
2477.000000	10.015500
2476.000000	10.018000
2475.000000	10.001700
2474.000000	10.024300
2473.000000	10.015100
2472.000000	10.029300
2471.000000	10.028200
2470.000000	10.032400
2469.000000	10.119600
2468.000000	10.124900
2467.000000	10.175400
2466.000000	10.159600
2465.000000	10.189800
2464.000000	10.246600
2463.000000	10.279000
2462.000000	10.307100
2461.000000	10.364900
2460.000000	10.457100
2459.000000	10.498800
2458.000000	10.551900
2457.000000	10.615200
2456.000000	10.696400
2455.000000	10.767600
2454.000000	10.869400
2453.000000	10.937500
2452.000000	11.023200
2451.000000	11.115100
2450.000000	11.220300
2449.000000	11.313600
2448.000000	11.396100
2447.000000	11.493400
2446.000000	11.585600
2445.000000	11.683900
2444.000000	11.781500
2443.000000	11.880500
2442.000000	11.980400
2441.000000	12.067700
2440.000000	12.171000
2439.000000	12.259500
2438.000000	12.347300
2437.000000	12.427200
2436.000000	12.530700
2435.000000	12.616400
2434.000000	12.703500
2433.000000	12.762300
2432.000000	12.847400
2431.000000	12.908800
2430.000000	12.958000
2429.000000	13.041700
2428.000000	13.125000
2427.000000	13.171500
2426.000000	13.257600
2425.000000	13.323600
2424.000000	13.386500
2423.000000	13.444000
2422.000000	13.513100
2421.000000	13.575600
2420.000000	13.607300
2419.000000	13.652100
2418.000000	13.693700
2417.000000	13.765200
2416.000000	13.814600
2415.000000	13.847400
2414.000000	13.875100
2413.000000	13.918200
2412.000000	13.959700
2411.000000	13.995700
2410.000000	14.027400
2409.000000	14.070700
2408.000000	14.106600
2407.000000	14.136700
2406.000000	14.160600
2405.000000	14.212300
2404.000000	14.239600
2403.000000	14.268800
2402.000000	14.302400
2401.000000	14.330500
2400.000000	14.355400
2399.000000	14.377900
2398.000000	14.421500
2397.000000	14.444500
2396.000000	14.466700
2395.000000	14.510100
2394.000000	14.541700
2393.000000	14.558800
2392.000000	14.574100
2391.000000	14.598000
2390.000000	14.615100
2389.000000	14.615000
2388.000000	14.613000
2387.000000	14.622300
2386.000000	14.644000
2385.000000	14.634200
2384.000000	14.631300
2383.000000	14.630500
2382.000000	14.611700
2381.000000	14.596900
2380.000000	14.575000
2379.000000	14.563600
2378.000000	14.537300
2377.000000	14.501400
2376.000000	14.487100
2375.000000	14.471600
2374.000000	14.440600
2373.000000	14.406300
2372.000000	14.378700
2371.000000	14.334500
2370.000000	14.287400
2369.000000	14.243100
2368.000000	14.198100
2367.000000	14.150100
2366.000000	14.102800
2365.000000	14.053100
2364.000000	13.988700
2363.000000	13.914100
2362.000000	13.840200
2361.000000	13.776200
2360.000000	13.711500
2359.000000	13.648500
2358.000000	13.603200
2357.000000	13.548600
2356.000000	13.489800
2355.000000	13.449700
2354.000000	13.432500
2353.000000	13.421700
2352.000000	13.414400
2351.000000	13.415400
2350.000000	13.427000
2349.000000	13.440900
2348.000000	13.464400
2347.000000	13.497000
2346.000000	13.548800
2345.000000	13.590600
2344.000000	13.618500
2343.000000	13.655000
2342.000000	13.702400
2341.000000	13.729000
2340.000000	13.745800
2339.000000	13.770100
2338.000000	13.776200
2337.000000	13.773200
2336.000000	13.764200
2335.000000	13.742900
2334.000000	13.718200
2333.000000	13.695400
2332.000000	13.673500
2331.000000	13.639500
2330.000000	13.574500
2329.000000	13.532700
2328.000000	13.474800
2327.000000	13.408800
2326.000000	13.339500
2325.000000	13.256800
2324.000000	13.161600
2323.000000	13.073600
2322.000000	12.968000
2321.000000	12.859900
2320.000000	12.747500
2319.000000	12.622400
2318.000000	12.500300
2317.000000	12.371700
2316.000000	12.239400
2315.000000	12.094600
2314.000000	11.975800
2313.000000	11.876800
2312.000000	11.771100
2311.000000	11.670000
2310.000000	11.598600
2309.000000	11.550600
2308.000000	11.512000
2307.000000	11.478200
2306.000000	11.458100
2305.000000	11.488600
2304.000000	11.528000
2303.000000	11.579600
2302.000000	11.640300
2301.000000	11.723700
2300.000000	11.803200
2299.000000	11.902500
2298.000000	11.992600
2297.000000	12.093200
2296.000000	12.185400
2295.000000	12.273700
2294.000000	12.346900
2293.000000	12.409900
2292.000000	12.470200
2291.000000	12.520300
2290.000000	12.560900
2289.000000	12.571700
2288.000000	12.575600
2287.000000	12.589700
2286.000000	12.571800
2285.000000	12.556300
2284.000000	12.536100
2283.000000	12.520100
2282.000000	12.467600
2281.000000	12.459900
2280.000000	12.424000
2279.000000	12.404700
2278.000000	12.355000
2277.000000	12.335600
2276.000000	12.330300
2275.000000	12.308800
2274.000000	12.293800
2273.000000	12.273300
2272.000000	12.295700
2271.000000	12.351900
2270.000000	12.393700
2269.000000	12.463900
2268.000000	12.530900
2267.000000	12.634800
2266.000000	12.790400
2265.000000	12.925300
2264.000000	13.099600
2263.000000	13.306600
2262.000000	13.531700
2261.000000	13.759700
2260.000000	14.008000
2259.000000	14.271000
2258.000000	14.567900
2257.000000	14.823000
2256.000000	15.113900
2255.000000	15.382800
2254.000000	15.669100
2253.000000	15.943800
2252.000000	16.188200
2251.000000	16.428700
2250.000000	16.676000
2249.000000	16.903500
2248.000000	17.101700
2247.000000	17.312400
2246.000000	17.484100
2245.000000	17.632500
2244.000000	17.791500
2243.000000	17.932400
2242.000000	18.068800
2241.000000	18.184500
2240.000000	18.277600
2239.000000	18.401400
2238.000000	18.481600
2237.000000	18.534700
2236.000000	18.631700
2235.000000	18.663100
2234.000000	18.723700
2233.000000	18.734300
2232.000000	18.773500
2231.000000	18.786600
2230.000000	18.794100
2229.000000	18.794600
2228.000000	18.782000
2227.000000	18.772300
2226.000000	18.729600
2225.000000	18.717700
2224.000000	18.666000
2223.000000	18.634400
2222.000000	18.581300
2221.000000	18.516800
2220.000000	18.484400
2219.000000	18.419000
2218.000000	18.346300
2217.000000	18.302700
2216.000000	18.236800
2215.000000	18.180100
2214.000000	18.128700
2213.000000	18.081400
2212.000000	18.025600
2211.000000	17.957500
2210.000000	17.926100
2209.000000	17.888900
2208.000000	17.841400
2207.000000	17.796000
2206.000000	17.783500
2205.000000	17.753700
2204.000000	17.712500
2203.000000	17.687000
2202.000000	17.661500
2201.000000	17.627600
2200.000000	17.606000
2199.000000	17.579300
2198.000000	17.554700
2197.000000	17.542100
2196.000000	17.541000
2195.000000	17.521200
2194.000000	17.506200
2193.000000	17.471300
2192.000000	17.459700
2191.000000	17.432800
2190.000000	17.427500
2189.000000	17.428700
2188.000000	17.407900
2187.000000	17.387200
2186.000000	17.369500
2185.000000	17.339900
2184.000000	17.317200
2183.000000	17.293300
2182.000000	17.277500
2181.000000	17.285300
2180.000000	17.262900
2179.000000	17.239400
2178.000000	17.235100
2177.000000	17.228400
2176.000000	17.225100
2175.000000	17.224100
2174.000000	17.237900
2173.000000	17.257000
2172.000000	17.267000
2171.000000	17.269800
2170.000000	17.304300
2169.000000	17.313700
2168.000000	17.335200
2167.000000	17.376500
2166.000000	17.416200
2165.000000	17.445900
2164.000000	17.490900
2163.000000	17.531600
2162.000000	17.568000
2161.000000	17.626200
2160.000000	17.670200
2159.000000	17.730200
2158.000000	17.789800
2157.000000	17.864400
2156.000000	17.942000
2155.000000	18.001300
2154.000000	18.085000
2153.000000	18.155700
2152.000000	18.222800
2151.000000	18.308200
2150.000000	18.395100
2149.000000	18.469100
2148.000000	18.548100
2147.000000	18.632400
2146.000000	18.701000
2145.000000	18.756200
2144.000000	18.839100
2143.000000	18.915200
2142.000000	18.975600
2141.000000	19.042600
2140.000000	19.127200
2139.000000	19.192700
2138.000000	19.238800
2137.000000	19.298400
2136.000000	19.349000
2135.000000	19.406300
2134.000000	19.461400
2133.000000	19.501300
2132.000000	19.544300
2131.000000	19.572700
2130.000000	19.599600
2129.000000	19.641600
2128.000000	19.674000
2127.000000	19.691300
2126.000000	19.717600
2125.000000	19.723900
2124.000000	19.733300
2123.000000	19.742800
2122.000000	19.756200
2121.000000	19.752700
2120.000000	19.740000
2119.000000	19.746600
2118.000000	19.746900
2117.000000	19.740500
2116.000000	19.718200
2115.000000	19.702400
2114.000000	19.683500
2113.000000	19.663400
2112.000000	19.631300
2111.000000	19.614100
2110.000000	19.593700
2109.000000	19.566200
2108.000000	19.547100
2107.000000	19.527400
2106.000000	19.508700
2105.000000	19.483600
2104.000000	19.455000
2103.000000	19.428000
2102.000000	19.394900
2101.000000	19.368000
2100.000000	19.351600
2099.000000	19.336200
2098.000000	19.323500
2097.000000	19.310400
2096.000000	19.291800
2095.000000	19.274200
2094.000000	19.262700
2093.000000	19.248000
2092.000000	19.246700
2091.000000	19.242500
2090.000000	19.231900
2089.000000	19.221800
2088.000000	19.208900
2087.000000	19.202800
2086.000000	19.188800
2085.000000	19.174400
2084.000000	19.145700
2083.000000	19.108400
2082.000000	19.079700
2081.000000	19.050700
2080.000000	19.005500
2079.000000	18.951500
2078.000000	18.899400
2077.000000	18.840700
2076.000000	18.777400
2075.000000	18.718900
2074.000000	18.656600
2073.000000	18.593900
2072.000000	18.512600
2071.000000	18.419600
2070.000000	18.339800
2069.000000	18.264900
2068.000000	18.181000
2067.000000	18.096200
2066.000000	18.014600
2065.000000	17.932800
2064.000000	17.857600
2063.000000	17.771800
2062.000000	17.684900
2061.000000	17.622100
2060.000000	17.559500
2059.000000	17.511000
2058.000000	17.470200
2057.000000	17.437000
2056.000000	17.428200
2055.000000	17.435100
2054.000000	17.466900
2053.000000	17.495200
2052.000000	17.559700
2051.000000	17.640000
2050.000000	17.736900
2049.000000	17.854800
2048.000000	17.986300
2047.000000	18.133200
2046.000000	18.300900
2045.000000	18.445500
2044.000000	18.634600
2043.000000	18.808600
2042.000000	18.985000
2041.000000	19.157900
2040.000000	19.348500
2039.000000	19.522900
2038.000000	19.688200
2037.000000	19.843400
2036.000000	19.990600
2035.000000	20.149300
2034.000000	20.276300
2033.000000	20.412900
2032.000000	20.548100
2031.000000	20.674200
2030.000000	20.763100
2029.000000	20.860800
2028.000000	20.976700
2027.000000	21.071400
2026.000000	21.173200
2025.000000	21.259100
2024.000000	21.350300
2023.000000	21.421700
2022.000000	21.500000
2021.000000	21.569900
2020.000000	21.640700
2019.000000	21.697300
2018.000000	21.755100
2017.000000	21.782300
2016.000000	21.813800
2015.000000	21.877600
2014.000000	21.916200
2013.000000	21.965200
2012.000000	21.996000
2011.000000	22.020800
2010.000000	22.027900
2009.000000	22.039600
2008.000000	22.050600
2007.000000	22.061000
2006.000000	22.045600
2005.000000	22.043800
2004.000000	22.026100
2003.000000	21.996800
2002.000000	21.979200
2001.000000	21.939800
2000.000000	21.895200
1999.000000	21.849600
1998.000000	21.790900
1997.000000	21.760900
1996.000000	21.690500
1995.000000	21.630100
1994.000000	21.579800
1993.000000	21.520400
1992.000000	21.429300
1991.000000	21.354300
1990.000000	21.270500
1989.000000	21.178600
1988.000000	21.111800
1987.000000	21.007600
1986.000000	20.903000
1985.000000	20.821000
1984.000000	20.734700
1983.000000	20.635200
1982.000000	20.535700
1981.000000	20.439800
1980.000000	20.351400
1979.000000	20.254900
1978.000000	20.153900
1977.000000	20.058100
1976.000000	19.959500
1975.000000	19.877600
1974.000000	19.769500
1973.000000	19.675300
1972.000000	19.606300
1971.000000	19.501900
1970.000000	19.413500
1969.000000	19.324000
1968.000000	19.255200
1967.000000	19.158600
1966.000000	19.060600
1965.000000	18.980700
1964.000000	18.898600
1963.000000	18.826200
1962.000000	18.714400
1961.000000	18.641300
1960.000000	18.556000
1959.000000	18.470900
1958.000000	18.359900
1957.000000	18.286500
1956.000000	18.200000
1955.000000	18.138800
1954.000000	18.040600
1953.000000	17.960500
1952.000000	17.859700
1951.000000	17.811000
1950.000000	17.703200
1949.000000	17.659000
1948.000000	17.604800
1947.000000	17.528900
1946.000000	17.495700
1945.000000	17.435100
1944.000000	17.409000
1943.000000	17.361700
1942.000000	17.358300
1941.000000	17.319300
1940.000000	17.312700
1939.000000	17.318900
1938.000000	17.304400
1937.000000	17.332900
1936.000000	17.329700
1935.000000	17.372700
1934.000000	17.418300
1933.000000	17.456700
1932.000000	17.527700
1931.000000	17.608000
1930.000000	17.694500
1929.000000	17.810300
1928.000000	17.906200
1927.000000	18.013100
1926.000000	18.137800
1925.000000	18.276600
1924.000000	18.421900
1923.000000	18.579400
1922.000000	18.764500
1921.000000	18.968500
1920.000000	19.193700
1919.000000	19.366600
1918.000000	19.570900
1917.000000	19.758700
1916.000000	19.986600
1915.000000	20.256300
1914.000000	20.572300
1913.000000	20.868500
1912.000000	21.148100
1911.000000	21.413900
1910.000000	21.649700
1909.000000	21.925100
1908.000000	22.248500
1907.000000	22.615600
1906.000000	23.025400
1905.000000	23.437100
1904.000000	23.785200
1903.000000	24.151700
1902.000000	24.522900
1901.000000	24.948300
1900.000000	25.384300
1899.000000	25.813400
1898.000000	26.251200
1897.000000	26.632900
1896.000000	26.995400
1895.000000	27.389400
1894.000000	27.809400
1893.000000	28.275100
1892.000000	28.776800
1891.000000	29.235000
1890.000000	29.669400
1889.000000	30.134500
1888.000000	30.553700
1887.000000	31.012700
1886.000000	31.508000
1885.000000	32.047000
1884.000000	32.586200
1883.000000	33.108600
1882.000000	33.604600
1881.000000	34.101400
1880.000000	34.538800
1879.000000	34.993100
1878.000000	35.439900
1877.000000	35.820000
1876.000000	36.201100
1875.000000	36.578700
1874.000000	36.912900
1873.000000	37.231600
1872.000000	37.523900
1871.000000	37.776000
1870.000000	37.999100
1869.000000	38.196100
1868.000000	38.351500
1867.000000	38.457600
1866.000000	38.552300
1865.000000	38.650300
1864.000000	38.760300
1863.000000	38.861800
1862.000000	38.955100
1861.000000	39.035900
1860.000000	39.116200
1859.000000	39.168100
1858.000000	39.187700
1857.000000	39.208600
1856.000000	39.217000
1855.000000	39.237900
1854.000000	39.233700
1853.000000	39.186700
1852.000000	39.180100
1851.000000	39.168000
1850.000000	39.152200
1849.000000	39.149900
1848.000000	39.121900
1847.000000	39.024800
1846.000000	38.932300
1845.000000	38.912200
1844.000000	38.887700
1843.000000	38.914100
1842.000000	38.927600
1841.000000	38.862200
1840.000000	38.794200
1839.000000	38.738900
1838.000000	38.705300
1837.000000	38.651000
1836.000000	38.589000
1835.000000	38.505900
1834.000000	38.412500
1833.000000	38.357200
1832.000000	38.315200
1831.000000	38.263500
1830.000000	38.195900
1829.000000	38.128800
1828.000000	38.061900
1827.000000	38.000400
1826.000000	37.940900
1825.000000	37.892000
1824.000000	37.863500
1823.000000	37.901900
1822.000000	37.923000
1821.000000	37.896900
1820.000000	37.859400
1819.000000	37.817000
1818.000000	37.806300
1817.000000	37.806900
1816.000000	37.812500
1815.000000	37.789400
1814.000000	37.782000
1813.000000	37.774800
1812.000000	37.754600
1811.000000	37.704600
1810.000000	37.661900
1809.000000	37.630700
1808.000000	37.588800
1807.000000	37.545500
1806.000000	37.498300
1805.000000	37.445500
1804.000000	37.399600
1803.000000	37.371300
1802.000000	37.347200
1801.000000	37.296300
1800.000000	37.221800
1799.000000	37.158500
1798.000000	37.124300
1797.000000	37.092800
1796.000000	37.061200
1795.000000	37.004700
1794.000000	36.949100
1793.000000	36.902500
1792.000000	36.862500
1791.000000	36.810400
1790.000000	36.759400
1789.000000	36.708400
1788.000000	36.662100
1787.000000	36.627000
1786.000000	36.575300
1785.000000	36.501400
1784.000000	36.432400
1783.000000	36.346900
1782.000000	36.273300
1781.000000	36.196700
1780.000000	36.117600
1779.000000	36.036000
1778.000000	35.933800
1777.000000	35.805700
1776.000000	35.706200
1775.000000	35.592200
1774.000000	35.455000
1773.000000	35.311200
1772.000000	35.184700
1771.000000	35.047000
1770.000000	34.882600
1769.000000	34.756300
1768.000000	34.646400
1767.000000	34.523600
1766.000000	34.436100
1765.000000	34.385300
1764.000000	34.343000
1763.000000	34.330700
1762.000000	34.359100
1761.000000	34.399400
1760.000000	34.456300
1759.000000	34.512500
1758.000000	34.574100
1757.000000	34.619200
1756.000000	34.667500
1755.000000	34.725400
1754.000000	34.731400
1753.000000	34.737500
1752.000000	34.715100
1751.000000	34.682900
1750.000000	34.640400
1749.000000	34.565700
1748.000000	34.481300
1747.000000	34.371500
1746.000000	34.236800
1745.000000	34.076600
1744.000000	33.896700
1743.000000	33.688500
1742.000000	33.455400
1741.000000	33.217100
1740.000000	32.974200
1739.000000	32.733700
1738.000000	32.500400
1737.000000	32.324200
1736.000000	32.168500
1735.000000	32.077000
1734.000000	32.008400
1733.000000	31.993600
1732.000000	32.014400
1731.000000	32.046200
1730.000000	32.118300
1729.000000	32.203800
1728.000000	32.253100
1727.000000	32.314800
1726.000000	32.394800
1725.000000	32.436400
1724.000000	32.480500
1723.000000	32.544100
1722.000000	32.655100
1721.000000	32.738500
1720.000000	32.859800
1719.000000	33.012300
1718.000000	33.162000
1717.000000	33.344500
1716.000000	33.501900
1715.000000	33.671800
1714.000000	33.832400
1713.000000	33.958500
1712.000000	34.077100
1711.000000	34.199700
1710.000000	34.259500
1709.000000	34.301900
1708.000000	34.342500
1707.000000	34.381600
1706.000000	34.391700
1705.000000	34.368900
1704.000000	34.344200
1703.000000	34.284000
1702.000000	34.179400
1701.000000	34.061600
1700.000000	33.952900
1699.000000	33.852200
1698.000000	33.728700
1697.000000	33.675900
1696.000000	33.639000
1695.000000	33.650900
1694.000000	33.703100
1693.000000	33.799600
1692.000000	33.907400
1691.000000	34.011900
1690.000000	34.089900
1689.000000	34.174300
1688.000000	34.225300
1687.000000	34.293400
1686.000000	34.387400
1685.000000	34.518900
1684.000000	34.749300
1683.000000	35.094300
1682.000000	35.512500
1681.000000	36.025400
1680.000000	36.553400
1679.000000	37.097200
1678.000000	37.587100
1677.000000	38.017500
1676.000000	38.432100
1675.000000	38.789100
1674.000000	39.125600
1673.000000	39.415100
1672.000000	39.687500
1671.000000	39.924100
1670.000000	40.168200
1669.000000	40.371300
1668.000000	40.561400
1667.000000	40.752000
1666.000000	40.892900
1665.000000	41.031600
1664.000000	41.157300
1663.000000	41.275600
1662.000000	41.377000
1661.000000	41.477500
1660.000000	41.566500
1659.000000	41.623700
1658.000000	41.702200
1657.000000	41.738900
1656.000000	41.778100
1655.000000	41.794200
1654.000000	41.801500
1653.000000	41.818800
1652.000000	41.818800
1651.000000	41.801900
1650.000000	41.792700
1649.000000	41.767800
1648.000000	41.741100
1647.000000	41.726100
1646.000000	41.690200
1645.000000	41.627900
1644.000000	41.594100
1643.000000	41.558300
1642.000000	41.512700
1641.000000	41.461900
1640.000000	41.423300
1639.000000	41.370000
1638.000000	41.327700
1637.000000	41.284300
1636.000000	41.226600
1635.000000	41.161800
1634.000000	41.092400
1633.000000	41.019700
1632.000000	40.960000
1631.000000	40.872900
1630.000000	40.813100
1629.000000	40.725500
1628.000000	40.652100
1627.000000	40.570900
1626.000000	40.502400
1625.000000	40.423300
1624.000000	40.335100
