PE UV       SUBTECH     SPECTRUM    ASCII       PEDS        4.00        
   -1
CICIMAUCR0070-3.Sample.ASC
24/04/18
13:44:03.00
24/04/18
13:44:03.00
Vinicio Soto Monge
C. resplendens
250,000000
1
Lambda 1050
1050L1511233
PerkinElmer UV WinLab 6.3.2.0749 / 2.02.05 Lambda 900 UV/VIS/NIR, Aug  7 2015 09:38:08

0
0
3350/servo 860,8/2
0
0
UV/VIS
1
1
1
DoubleDePol,CommonBeamDepol,RBeamAtt,SBeamAtt,60mm sphere, WB InGaAs Detector
0
0
0
0
Program
Program
3350/servo 860,8/2
3350/0,2 860,8/0,2
3350/0,2 860,8/0,2
0
15.00
 
 
 
0
 
860,8
319,2
860,8
Front
100
on
S:100 R:100
0
0
0
0
 
0
 
 
 
0
 
 
0
0
0
0
0
 
 
 
 
0
0


0
0
#HDR
-1
-1
#GR
nm
%R
1.0
0.0
2500,000000
-1,000000
2251
8
85,171500
5,254500
#DATA
2500.000000	22.591007
2499.000000	22.597342
2498.000000	22.487262
2497.000000	22.562270
2496.000000	22.442234
2495.000000	22.479229
2494.000000	22.355346
2493.000000	22.497670
2492.000000	22.394264
2491.000000	22.346182
2490.000000	22.336452
2489.000000	22.418362
2488.000000	22.412592
2487.000000	22.384761
2486.000000	22.488506
2485.000000	22.495747
2484.000000	22.460335
2483.000000	22.439518
2482.000000	22.553220
2481.000000	22.552654
2480.000000	22.562157
2479.000000	22.570077
2478.000000	22.577770
2477.000000	22.638071
2476.000000	22.730503
2475.000000	22.738309
2474.000000	22.763086
2473.000000	22.863324
2472.000000	22.889798
2471.000000	22.944103
2470.000000	23.008703
2469.000000	23.045698
2468.000000	23.148878
2467.000000	23.217438
2466.000000	23.285885
2465.000000	23.354106
2464.000000	23.397437
2463.000000	23.473351
2462.000000	23.606058
2461.000000	23.645316
2460.000000	23.734920
2459.000000	23.819206
2458.000000	23.903944
2457.000000	24.007011
2456.000000	24.107249
2455.000000	24.228304
2454.000000	24.340987
2453.000000	24.460118
2452.000000	24.585133
2451.000000	24.744201
2450.000000	24.848512
2449.000000	24.971830
2448.000000	25.109742
2447.000000	25.258063
2446.000000	25.420073
2445.000000	25.564660
2444.000000	25.669989
2443.000000	25.825098
2442.000000	25.952488
2441.000000	26.113367
2440.000000	26.246867
2439.000000	26.397111
2438.000000	26.532195
2437.000000	26.682212
2436.000000	26.826347
2435.000000	26.936654
2434.000000	27.060085
2433.000000	27.215986
2432.000000	27.334325
2431.000000	27.463526
2430.000000	27.600080
2429.000000	27.707559
2428.000000	27.838457
2427.000000	27.939261
2426.000000	28.055451
2425.000000	28.154444
2424.000000	28.289528
2423.000000	28.439546
2422.000000	28.659255
2421.000000	28.878738
2420.000000	29.071860
2419.000000	29.229005
2418.000000	29.307748
2417.000000	29.405044
2416.000000	29.527004
2415.000000	29.660051
2414.000000	29.750220
2413.000000	29.885757
2412.000000	29.980225
2411.000000	30.078087
2410.000000	30.140538
2409.000000	30.226068
2408.000000	30.364433
2407.000000	30.469762
2406.000000	30.514677
2405.000000	30.543300
2404.000000	30.606995
2403.000000	30.721262
2402.000000	30.808037
2401.000000	30.849445
2400.000000	30.893228
2399.000000	30.951154
2398.000000	31.038607
2397.000000	31.117463
2396.000000	31.145860
2395.000000	31.163396
2394.000000	31.203446
2393.000000	31.244627
2392.000000	31.308096
2391.000000	31.375185
2390.000000	31.432206
2389.000000	31.439899
2388.000000	31.450420
2387.000000	31.495335
2386.000000	31.537761
2385.000000	31.540024
2384.000000	31.574191
2383.000000	31.614806
2382.000000	31.605077
2381.000000	31.583468
2380.000000	31.611073
2379.000000	31.636981
2378.000000	31.622952
2377.000000	31.610394
2376.000000	31.627704
2375.000000	31.657232
2374.000000	31.636981
2373.000000	31.652820
2372.000000	31.665378
2371.000000	31.652480
2370.000000	31.645127
2369.000000	31.664247
2368.000000	31.699205
2367.000000	31.706333
2366.000000	31.697056
2365.000000	31.724774
2364.000000	31.748532
2363.000000	31.728168
2362.000000	31.763014
2361.000000	31.793560
2360.000000	31.789148
2359.000000	31.798538
2358.000000	31.822749
2357.000000	31.832479
2356.000000	31.812228
2355.000000	31.798312
2354.000000	31.814038
2353.000000	31.817432
2352.000000	31.796728
2351.000000	31.778627
2350.000000	31.802611
2349.000000	31.804195
2348.000000	31.770028
2347.000000	31.795936
2346.000000	31.810983
2345.000000	31.786772
2344.000000	31.763579
2343.000000	31.777382
2342.000000	31.815282
2341.000000	31.826935
2340.000000	31.816187
2339.000000	31.793221
2338.000000	31.818903
2337.000000	31.856464
2336.000000	31.833950
2335.000000	31.881354
2334.000000	31.937129
2333.000000	31.946067
2332.000000	31.955231
2331.000000	31.962245
2330.000000	32.027977
2329.000000	32.089410
2328.000000	32.131496
2327.000000	32.163513
2326.000000	32.181502
2325.000000	32.220873
2324.000000	32.257982
2323.000000	32.305159
2322.000000	32.328352
2321.000000	32.359351
2320.000000	32.387974
2319.000000	32.376095
2318.000000	32.364555
2317.000000	32.381186
2316.000000	32.371570
2315.000000	32.334122
2314.000000	32.327447
2313.000000	32.290338
2312.000000	32.254474
2311.000000	32.226304
2310.000000	32.186706
2309.000000	32.142470
2308.000000	32.096085
2307.000000	32.088278
2306.000000	32.068253
2305.000000	32.023225
2304.000000	32.031484
2303.000000	32.004445
2302.000000	31.975595
2301.000000	31.991547
2300.000000	31.986117
2299.000000	31.972541
2298.000000	31.968468
2297.000000	31.999580
2296.000000	32.014288
2295.000000	32.024809
2294.000000	32.066217
2293.000000	32.079227
2292.000000	32.101402
2291.000000	32.140094
2290.000000	32.199264
2289.000000	32.248931
2288.000000	32.268956
2287.000000	32.304028
2286.000000	32.370551
2285.000000	32.416145
2284.000000	32.473392
2283.000000	32.560506
2282.000000	32.592863
2281.000000	32.642190
2280.000000	32.714596
2279.000000	32.760756
2278.000000	32.823998
2277.000000	32.869931
2276.000000	32.899912
2275.000000	32.960666
2274.000000	33.015650
2273.000000	33.059773
2272.000000	33.091451
2271.000000	33.137271
2270.000000	33.217144
2269.000000	33.280048
2268.000000	33.335371
2267.000000	33.398840
2266.000000	33.500662
2265.000000	33.585061
2264.000000	33.686996
2263.000000	33.797982
2262.000000	33.954674
2261.000000	34.097338
2260.000000	34.219751
2259.000000	34.389794
2258.000000	34.557913
2257.000000	34.767892
2256.000000	34.952190
2255.000000	35.143389
2254.000000	35.348390
2253.000000	35.523072
2252.000000	35.796746
2251.000000	35.967468
2250.000000	36.168623
2249.000000	36.342173
2248.000000	36.504635
2247.000000	36.720385
2246.000000	36.846644
2245.000000	37.009898
2244.000000	37.146792
2243.000000	37.309142
2242.000000	37.396256
2241.000000	37.489706
2240.000000	37.581232
2239.000000	37.632370
2238.000000	37.742111
2237.000000	37.770056
2236.000000	37.809427
2235.000000	37.841105
2234.000000	37.833298
2233.000000	37.831714
2232.000000	37.841897
2231.000000	37.825266
2230.000000	37.771300
2229.000000	37.746637
2228.000000	37.691879
2227.000000	37.641081
2226.000000	37.586550
2225.000000	37.516971
2224.000000	37.436532
2223.000000	37.341838
2222.000000	37.250877
2221.000000	37.146226
2220.000000	37.032412
2219.000000	36.933871
2218.000000	36.826845
2217.000000	36.733282
2216.000000	36.616866
2215.000000	36.518211
2214.000000	36.423064
2213.000000	36.326220
2212.000000	36.228698
2211.000000	36.140452
2210.000000	36.081282
2209.000000	35.995752
2208.000000	35.921648
2207.000000	35.834421
2206.000000	35.766766
2205.000000	35.711555
2204.000000	35.629419
2203.000000	35.602719
2202.000000	35.536422
2201.000000	35.468767
2200.000000	35.437541
2199.000000	35.400885
2198.000000	35.362532
2197.000000	35.322482
2196.000000	35.286392
2195.000000	35.237970
2194.000000	35.213872
2193.000000	35.187399
2192.000000	35.153006
2191.000000	35.128795
2190.000000	35.109448
2189.000000	35.084559
2188.000000	35.027878
2187.000000	35.006156
2186.000000	35.007287
2185.000000	34.969500
2184.000000	34.951172
2183.000000	34.931373
2182.000000	34.900487
2181.000000	34.879331
2180.000000	34.839507
2179.000000	34.842222
2178.000000	34.823102
2177.000000	34.795158
2176.000000	34.775472
2175.000000	34.778301
2174.000000	34.770947
2173.000000	34.756013
2172.000000	34.787352
2171.000000	34.807603
2170.000000	34.823668
2169.000000	34.856930
2168.000000	34.897432
2167.000000	34.924472
2166.000000	34.961693
2165.000000	35.007061
2164.000000	35.097343
2163.000000	35.154250
2162.000000	35.218850
2161.000000	35.285487
2160.000000	35.390024
2159.000000	35.467748
2158.000000	35.579413
2157.000000	35.694359
2156.000000	35.778758
2155.000000	35.903773
2154.000000	36.052206
2153.000000	36.175298
2152.000000	36.316151
2151.000000	36.457797
2150.000000	36.581567
2149.000000	36.729662
2148.000000	36.850490
2147.000000	36.993267
2146.000000	37.149507
2145.000000	37.274862
2144.000000	37.400668
2143.000000	37.543558
2142.000000	37.663369
2141.000000	37.791778
2140.000000	37.921205
2139.000000	38.046332
2138.000000	38.167840
2137.000000	38.293420
2136.000000	38.408932
2135.000000	38.521162
2134.000000	38.627283
2133.000000	38.741550
2132.000000	38.844843
2131.000000	38.918833
2130.000000	39.022465
2129.000000	39.118404
2128.000000	39.178027
2127.000000	39.249415
2126.000000	39.337548
2125.000000	39.407465
2124.000000	39.472858
2123.000000	39.543115
2122.000000	39.569589
2121.000000	39.615635
2120.000000	39.677294
2119.000000	39.732051
2118.000000	39.760901
2117.000000	39.774251
2116.000000	39.807513
2115.000000	39.844734
2114.000000	39.879919
2113.000000	39.894401
2112.000000	39.890893
2111.000000	39.896324
2110.000000	39.910240
2109.000000	39.914878
2108.000000	39.919177
2107.000000	39.916349
2106.000000	39.909334
2105.000000	39.920195
2104.000000	39.930604
2103.000000	39.933206
2102.000000	39.935695
2101.000000	39.921214
2100.000000	39.918272
2099.000000	39.937279
2098.000000	39.946103
2097.000000	39.953005
2096.000000	39.955720
2095.000000	39.960924
2094.000000	39.972803
2093.000000	39.997580
2092.000000	40.024620
2091.000000	40.043513
2090.000000	40.060370
2089.000000	40.078019
2088.000000	40.109019
2087.000000	40.111734
2086.000000	40.081074
2085.000000	40.093632
2084.000000	40.105172
2083.000000	40.078925
2082.000000	40.055392
2081.000000	40.018736
2080.000000	39.958548
2079.000000	39.914312
2078.000000	39.855595
2077.000000	39.777871
2076.000000	39.704559
2075.000000	39.607150
2074.000000	39.502726
2073.000000	39.403506
2072.000000	39.293991
2071.000000	39.171917
2070.000000	39.044979
2069.000000	38.913403
2068.000000	38.769947
2067.000000	38.629659
2066.000000	38.487221
2065.000000	38.349649
2064.000000	38.206645
2063.000000	38.057985
2062.000000	37.922336
2061.000000	37.802073
2060.000000	37.682941
2059.000000	37.570937
2058.000000	37.473641
2057.000000	37.423861
2056.000000	37.350662
2055.000000	37.309594
2054.000000	37.319776
2053.000000	37.315930
2052.000000	37.343874
2051.000000	37.426916
2050.000000	37.510636
2049.000000	37.621169
2048.000000	37.727177
2047.000000	37.862940
2046.000000	38.027665
2045.000000	38.231761
2044.000000	38.424771
2043.000000	38.591872
2042.000000	38.744831
2041.000000	38.938179
2040.000000	39.141597
2039.000000	39.316278
2038.000000	39.495145
2037.000000	39.667903
2036.000000	39.813735
2035.000000	39.978573
2034.000000	40.137642
2033.000000	40.267069
2032.000000	40.396835
2031.000000	40.522868
2030.000000	40.636004
2029.000000	40.761018
2028.000000	40.869968
2027.000000	40.945769
2026.000000	41.027452
2025.000000	41.112530
2024.000000	41.211976
2023.000000	41.292642
2022.000000	41.340725
2021.000000	41.383603
2020.000000	41.462232
2019.000000	41.534413
2018.000000	41.580232
2017.000000	41.601615
2016.000000	41.602294
2015.000000	41.633406
2014.000000	41.676624
2013.000000	41.682394
2012.000000	41.672890
2011.000000	41.667686
2010.000000	41.669270
2009.000000	41.652639
2008.000000	41.601615
2007.000000	41.577291
2006.000000	41.538146
2005.000000	41.508391
2004.000000	41.434175
2003.000000	41.392767
2002.000000	41.317079
2001.000000	41.242070
2000.000000	41.157106
1999.000000	41.080966
1998.000000	41.004373
1997.000000	40.894518
1996.000000	40.816568
1995.000000	40.710334
1994.000000	40.617110
1993.000000	40.484289
1992.000000	40.382580
1991.000000	40.283134
1990.000000	40.152689
1989.000000	40.017831
1988.000000	39.911823
1987.000000	39.790655
1986.000000	39.671524
1985.000000	39.535648
1984.000000	39.395699
1983.000000	39.262878
1982.000000	39.152911
1981.000000	39.025633
1980.000000	38.886703
1979.000000	38.740871
1978.000000	38.616309
1977.000000	38.500571
1976.000000	38.396713
1975.000000	38.247827
1974.000000	38.123943
1973.000000	38.018275
1972.000000	37.907741
1971.000000	37.792456
1970.000000	37.665971
1969.000000	37.550460
1968.000000	37.409945
1967.000000	37.286514
1966.000000	37.183787
1965.000000	37.070878
1964.000000	36.945411
1963.000000	36.834991
1962.000000	36.714841
1961.000000	36.593899
1960.000000	36.480764
1959.000000	36.359595
1958.000000	36.245102
1957.000000	36.101760
1956.000000	36.003671
1955.000000	35.876846
1954.000000	35.739952
1953.000000	35.646729
1952.000000	35.510174
1951.000000	35.393532
1950.000000	35.285940
1949.000000	35.161378
1948.000000	35.078110
1947.000000	35.001404
1946.000000	34.901618
1945.000000	34.827515
1944.000000	34.736667
1943.000000	34.686774
1942.000000	34.620703
1941.000000	34.576580
1940.000000	34.522954
1939.000000	34.513677
1938.000000	34.493312
1937.000000	34.466839
1936.000000	34.472722
1935.000000	34.492181
1934.000000	34.521596
1933.000000	34.555537
1932.000000	34.620477
1931.000000	34.685303
1930.000000	34.779432
1929.000000	34.868130
1928.000000	35.013623
1927.000000	35.145652
1926.000000	35.277341
1925.000000	35.420910
1924.000000	35.629872
1923.000000	35.790863
1922.000000	36.015890
1921.000000	36.295221
1920.000000	36.558375
1919.000000	36.799806
1918.000000	37.067824
1917.000000	37.361976
1916.000000	37.632483
1915.000000	37.971097
1914.000000	38.383363
1913.000000	38.831945
1912.000000	39.242514
1911.000000	39.639959
1910.000000	40.076436
1909.000000	40.436772
1908.000000	40.855713
1907.000000	41.391409
1906.000000	42.002567
1905.000000	42.660224
1904.000000	43.299892
1903.000000	43.855613
1902.000000	44.461793
1901.000000	45.032562
1900.000000	45.730042
1899.000000	46.452752
1898.000000	47.162111
1897.000000	47.868190
1896.000000	48.492924
1895.000000	49.047853
1894.000000	49.685711
1893.000000	50.351061
1892.000000	51.080672
1891.000000	51.806096
1890.000000	52.460472
1889.000000	53.028752
1888.000000	53.637873
1887.000000	54.165876
1886.000000	54.695577
1885.000000	55.224372
1884.000000	55.784279
1883.000000	56.264992
1882.000000	56.669112
1881.000000	57.087148
1880.000000	57.471695
1879.000000	57.819134
1878.000000	58.176529
1877.000000	58.515483
1876.000000	58.832489
1875.000000	59.154812
1874.000000	59.448285
1873.000000	59.754656
1872.000000	60.030820
1871.000000	60.265124
1870.000000	60.464016
1869.000000	60.627496
1868.000000	60.784868
1867.000000	60.884427
1866.000000	60.920744
1865.000000	60.976633
1864.000000	61.051076
1863.000000	61.132081
1862.000000	61.233337
1861.000000	61.346473
1860.000000	61.473184
1859.000000	61.572065
1858.000000	61.640059
1857.000000	61.702170
1856.000000	61.742220
1855.000000	61.768581
1854.000000	61.819605
1853.000000	61.831597
1852.000000	61.833860
1851.000000	61.858637
1850.000000	61.891446
1849.000000	61.961364
1848.000000	62.023249
1847.000000	62.051307
1846.000000	61.995870
1845.000000	61.890654
1844.000000	61.812138
1843.000000	61.817456
1842.000000	61.895858
1841.000000	61.954689
1840.000000	61.925161
1839.000000	61.865312
1838.000000	61.826167
1837.000000	61.805576
1836.000000	61.770278
1835.000000	61.705678
1834.000000	61.613359
1833.000000	61.521946
1832.000000	61.467527
1831.000000	61.470243
1830.000000	61.466396
1829.000000	61.421368
1828.000000	61.349980
1827.000000	61.319207
1826.000000	61.315813
1825.000000	61.271690
1824.000000	61.229264
1823.000000	61.221797
1822.000000	61.271577
1821.000000	61.346246
1820.000000	61.356089
1819.000000	61.270219
1818.000000	61.222815
1817.000000	61.217272
1816.000000	61.216819
1815.000000	61.210936
1814.000000	61.187065
1813.000000	61.185028
1812.000000	61.169981
1811.000000	61.145091
1810.000000	61.083093
1809.000000	61.042025
1808.000000	61.027996
1807.000000	61.018719
1806.000000	61.012157
1805.000000	60.973125
1804.000000	60.931492
1803.000000	60.930021
1802.000000	60.941900
1801.000000	60.928776
1800.000000	60.874019
1799.000000	60.833290
1798.000000	60.818130
1797.000000	60.798218
1796.000000	60.783171
1795.000000	60.769482
1794.000000	60.744931
1793.000000	60.726943
1792.000000	60.720381
1791.000000	60.704768
1790.000000	60.683725
1789.000000	60.690739
1788.000000	60.696170
1787.000000	60.707031
1786.000000	60.726377
1785.000000	60.747986
1784.000000	60.737577
1783.000000	60.712914
1782.000000	60.711896
1781.000000	60.704202
1780.000000	60.701261
1779.000000	60.683499
1778.000000	60.659514
1777.000000	60.634511
1776.000000	60.608150
1775.000000	60.575115
1774.000000	60.550791
1773.000000	60.515153
1772.000000	60.485059
1771.000000	60.450666
1770.000000	60.412539
1769.000000	60.386631
1768.000000	60.357442
1767.000000	60.332779
1766.000000	60.301553
1765.000000	60.274174
1764.000000	60.247927
1763.000000	60.253810
1762.000000	60.232767
1761.000000	60.235369
1760.000000	60.233672
1759.000000	60.248606
1758.000000	60.249511
1757.000000	60.259240
1756.000000	60.265237
1755.000000	60.276098
1754.000000	60.287185
1753.000000	60.273609
1752.000000	60.301779
1751.000000	60.278700
1750.000000	60.257657
1749.000000	60.237066
1748.000000	60.209913
1747.000000	60.162623
1746.000000	60.137959
1745.000000	60.078676
1744.000000	60.015886
1743.000000	59.946308
1742.000000	59.874693
1741.000000	59.836114
1740.000000	59.769816
1739.000000	59.692432
1738.000000	59.646159
1737.000000	59.579862
1736.000000	59.541848
1735.000000	59.510170
1734.000000	59.469781
1733.000000	59.423509
1732.000000	59.385608
1731.000000	59.341033
1730.000000	59.316709
1729.000000	59.298946
1728.000000	59.275414
1727.000000	59.248714
1726.000000	59.244415
1725.000000	59.261046
1724.000000	59.267721
1723.000000	59.325307
1722.000000	59.393528
1721.000000	59.525896
1720.000000	59.721508
1719.000000	59.914064
1718.000000	60.144295
1717.000000	60.375883
1716.000000	60.605209
1715.000000	60.828991
1714.000000	61.015099
1713.000000	61.237297
1712.000000	61.409715
1711.000000	61.570820
1710.000000	61.721969
1709.000000	61.829674
1708.000000	61.920974
1707.000000	62.049270
1706.000000	62.125297
1705.000000	62.193178
1704.000000	62.227345
1703.000000	62.241148
1702.000000	62.283800
1701.000000	62.296924
1700.000000	62.324868
1699.000000	62.322605
1698.000000	62.321927
1697.000000	62.333240
1696.000000	62.308124
1695.000000	62.301789
1694.000000	62.229495
1693.000000	62.194536
1692.000000	62.118170
1691.000000	62.057868
1690.000000	62.018045
1689.000000	61.995078
1688.000000	62.033431
1687.000000	62.095656
1686.000000	62.232210
1685.000000	62.372951
1684.000000	62.555665
1683.000000	62.780012
1682.000000	62.986824
1681.000000	63.199179
1680.000000	63.430541
1679.000000	63.651382
1678.000000	63.830701
1677.000000	64.042831
1676.000000	64.218077
1675.000000	64.374883
1674.000000	64.574794
1673.000000	64.732165
1672.000000	64.900850
1671.000000	65.069874
1670.000000	65.243085
1669.000000	65.395818
1668.000000	65.581813
1667.000000	65.742465
1666.000000	65.890107
1665.000000	66.022588
1664.000000	66.161971
1663.000000	66.297734
1662.000000	66.423541
1661.000000	66.538260
1660.000000	66.656034
1659.000000	66.747221
1658.000000	66.816347
1657.000000	66.887962
1656.000000	66.948715
1655.000000	67.004944
1654.000000	67.045107
1653.000000	67.087306
1652.000000	67.108237
1651.000000	67.122492
1650.000000	67.130977
1649.000000	67.140820
1648.000000	67.143874
1647.000000	67.135389
1646.000000	67.116043
1645.000000	67.117514
1644.000000	67.101448
1643.000000	67.098620
1642.000000	67.082328
1641.000000	67.082102
1640.000000	67.069092
1639.000000	67.058683
1638.000000	67.058796
1637.000000	67.029268
1636.000000	67.003360
1635.000000	66.999174
1634.000000	66.951544
1633.000000	66.935365
1632.000000	66.895316
1631.000000	66.855152
1630.000000	66.820646
1629.000000	66.779352
1628.000000	66.740886
1627.000000	66.692350
1626.000000	66.645626
1625.000000	66.616210
1624.000000	66.578423
