PE UV       SUBTECH     SPECTRUM    ASCII       PEDS        4.00        
   -1
CICIMAUCR0003-1.Sample.ASC
24/05/03
10:03:20.00
24/05/03
10:03:20.00
Vinicio Soto Monge
C. kalinini
250,000000
1
Lambda 1050
1050L1511233
PerkinElmer UV WinLab 6.3.2.0749 / 2.02.05 Lambda 900 UV/VIS/NIR, Aug  7 2015 09:38:08

0
0
3350/servo 860,8/2
0
0
UV/VIS
1
1
1
DoubleDePol,CommonBeamDepol,RBeamAtt,SBeamAtt,60mm sphere, WB InGaAs Detector
0
0
0
0
Program
Program
3350/servo 860,8/2
3350/0,2 860,8/0,2
3350/0,2 860,8/0,2
0
15.00
 
 
 
0
 
860,8
319,2
860,8
Front
100
on
S:100 R:100
0
0
0
0
 
0
 
 
 
0
 
 
0
0
0
0
0
 
 
 
 
0
0


0
0
#HDR
-1
-1
#GR
nm
%R
1.0
0.0
2500,000000
-1,000000
2251
8
96,293800
5,389400
#DATA
2500.000000	8.229477
2499.000000	8.125292
2498.000000	7.974747
2497.000000	8.083256
2496.000000	8.057814
2495.000000	8.063847
2494.000000	7.990134
2493.000000	8.026639
2492.000000	7.946992
2491.000000	7.963887
2490.000000	7.915817
2489.000000	7.854975
2488.000000	7.931304
2487.000000	7.859501
2486.000000	7.871367
2485.000000	7.826214
2484.000000	7.788201
2483.000000	7.858495
2482.000000	7.763965
2481.000000	7.821588
2480.000000	7.815353
2479.000000	7.829734
2478.000000	7.838986
2477.000000	7.825711
2476.000000	7.804291
2475.000000	7.850048
2474.000000	7.763060
2473.000000	7.752500
2472.000000	7.795844
2471.000000	7.815253
2470.000000	7.834360
2469.000000	7.810124
2468.000000	7.777038
2467.000000	7.818772
2466.000000	7.884541
2465.000000	7.845724
2464.000000	7.879312
2463.000000	7.931706
2462.000000	7.929996
2461.000000	7.955942
2460.000000	7.987620
2459.000000	8.072395
2458.000000	8.092307
2457.000000	8.130723
2456.000000	8.216705
2455.000000	8.243455
2454.000000	8.309627
2453.000000	8.397620
2452.000000	8.455948
2451.000000	8.533985
2450.000000	8.581452
2449.000000	8.639980
2448.000000	8.708163
2447.000000	8.780871
2446.000000	8.881435
2445.000000	8.968926
2444.000000	9.029164
2443.000000	9.072205
2442.000000	9.139483
2441.000000	9.214605
2440.000000	9.264082
2439.000000	9.344131
2438.000000	9.432427
2437.000000	9.469535
2436.000000	9.532086
2435.000000	9.599263
2434.000000	9.639991
2433.000000	9.706867
2432.000000	9.760870
2431.000000	9.817789
2430.000000	9.850171
2429.000000	9.891503
2428.000000	9.918655
2427.000000	9.969541
2426.000000	10.014895
2425.000000	10.044260
2424.000000	10.083279
2423.000000	10.104598
2422.000000	10.133762
2421.000000	10.170066
2420.000000	10.197821
2419.000000	10.223767
2418.000000	10.245489
2417.000000	10.277167
2416.000000	10.309347
2415.000000	10.326544
2414.000000	10.354903
2413.000000	10.366669
2412.000000	10.391609
2411.000000	10.416147
2410.000000	10.421074
2409.000000	10.449836
2408.000000	10.485335
2407.000000	10.499816
2406.000000	10.533606
2405.000000	10.557842
2404.000000	10.569105
2403.000000	10.594648
2402.000000	10.632661
2401.000000	10.647847
2400.000000	10.659814
2399.000000	10.685458
2398.000000	10.693101
2397.000000	10.711303
2396.000000	10.723773
2395.000000	10.730913
2394.000000	10.747305
2393.000000	10.781195
2392.000000	10.801308
2391.000000	10.810861
2390.000000	10.806638
2389.000000	10.814381
2388.000000	10.826147
2387.000000	10.823734
2386.000000	10.833086
2385.000000	10.832885
2384.000000	10.828460
2383.000000	10.819108
2382.000000	10.792659
2381.000000	10.775060
2380.000000	10.768926
2379.000000	10.748109
2378.000000	10.717638
2377.000000	10.697123
2376.000000	10.668865
2375.000000	10.635377
2374.000000	10.614158
2373.000000	10.568501
2372.000000	10.529181
2371.000000	10.507660
2370.000000	10.452953
2369.000000	10.399553
2368.000000	10.351283
2367.000000	10.286620
2366.000000	10.225678
2365.000000	10.155685
2364.000000	10.084787
2363.000000	10.028572
2362.000000	9.957272
2361.000000	9.884363
2360.000000	9.822918
2359.000000	9.751014
2358.000000	9.695000
2357.000000	9.628829
2356.000000	9.569094
2355.000000	9.546768
2354.000000	9.523639
2353.000000	9.504732
2352.000000	9.497391
2351.000000	9.492061
2350.000000	9.497794
2349.000000	9.522331
2348.000000	9.560445
2347.000000	9.593933
2346.000000	9.621488
2345.000000	9.658093
2344.000000	9.702844
2343.000000	9.750210
2342.000000	9.804716
2341.000000	9.823622
2340.000000	9.834282
2339.000000	9.854897
2338.000000	9.856406
2337.000000	9.856909
2336.000000	9.854093
2335.000000	9.836494
2334.000000	9.806727
2333.000000	9.764591
2332.000000	9.726778
2331.000000	9.675088
2330.000000	9.609621
2329.000000	9.544053
2328.000000	9.467423
2327.000000	9.394112
2326.000000	9.315169
2325.000000	9.222549
2324.000000	9.131840
2323.000000	9.032382
2322.000000	8.935438
2321.000000	8.823711
2320.000000	8.696296
2319.000000	8.594022
2318.000000	8.487424
2317.000000	8.365641
2316.000000	8.257132
2315.000000	8.134142
2314.000000	8.038706
2313.000000	7.939852
2312.000000	7.863021
2311.000000	7.775429
2310.000000	7.728767
2309.000000	7.677077
2308.000000	7.644394
2307.000000	7.625588
2306.000000	7.633734
2305.000000	7.676273
2304.000000	7.681804
2303.000000	7.718811
2302.000000	7.784178
2301.000000	7.857590
2300.000000	7.949003
2299.000000	8.032773
2298.000000	8.093614
2297.000000	8.171954
2296.000000	8.244159
2295.000000	8.333159
2294.000000	8.392492
2293.000000	8.438751
2292.000000	8.504118
2291.000000	8.545450
2290.000000	8.581452
2289.000000	8.594324
2288.000000	8.602671
2287.000000	8.599352
2286.000000	8.595832
2285.000000	8.575820
2284.000000	8.549472
2283.000000	8.510152
2282.000000	8.481189
2281.000000	8.439153
2280.000000	8.417633
2279.000000	8.394503
2278.000000	8.368155
2277.000000	8.352567
2276.000000	8.322499
2275.000000	8.311236
2274.000000	8.312543
2273.000000	8.333661
2272.000000	8.326421
2271.000000	8.348746
2270.000000	8.388972
2269.000000	8.458562
2268.000000	8.531572
2267.000000	8.605386
2266.000000	8.709772
2265.000000	8.842818
2264.000000	8.976770
2263.000000	9.147629
2262.000000	9.337695
2261.000000	9.550087
2260.000000	9.747495
2259.000000	9.987441
2258.000000	10.227890
2257.000000	10.468339
2256.000000	10.707481
2255.000000	10.966535
2254.000000	11.228203
2253.000000	11.448539
2252.000000	11.691905
2251.000000	11.913348
2250.000000	12.130868
2249.000000	12.314800
2248.000000	12.502051
2247.000000	12.676128
2246.000000	12.868407
2245.000000	13.031723
2244.000000	13.156925
2243.000000	13.311794
2242.000000	13.419298
2241.000000	13.547316
2240.000000	13.653110
2239.000000	13.760915
2238.000000	13.844886
2237.000000	13.909448
2236.000000	13.993620
2235.000000	14.077692
2234.000000	14.127371
2233.000000	14.187609
2232.000000	14.236382
2231.000000	14.281234
2230.000000	14.314823
2229.000000	14.312208
2228.000000	14.339260
2227.000000	14.375664
2226.000000	14.375262
2225.000000	14.341271
2224.000000	14.353640
2223.000000	14.351026
2222.000000	14.311906
2221.000000	14.310599
2220.000000	14.294911
2219.000000	14.265345
2218.000000	14.230550
2217.000000	14.230349
2216.000000	14.217175
2215.000000	14.173530
2214.000000	14.138936
2213.000000	14.127874
2212.000000	14.070049
2211.000000	14.051746
2210.000000	14.058283
2209.000000	14.024192
2208.000000	14.008604
2207.000000	13.980145
2206.000000	13.951584
2205.000000	13.950981
2204.000000	13.933684
2203.000000	13.919203
2202.000000	13.914174
2201.000000	13.899090
2200.000000	13.894564
2199.000000	13.873144
2198.000000	13.876765
2197.000000	13.866608
2196.000000	13.863792
2195.000000	13.839154
2194.000000	13.828494
2193.000000	13.829399
2192.000000	13.825075
2191.000000	13.817130
2190.000000	13.806370
2189.000000	13.784044
2188.000000	13.778614
2187.000000	13.766647
2186.000000	13.751663
2185.000000	13.733460
2184.000000	13.721594
2183.000000	13.718979
2182.000000	13.701682
2181.000000	13.692832
2180.000000	13.699771
2179.000000	13.677647
2178.000000	13.678955
2177.000000	13.689816
2176.000000	13.680463
2175.000000	13.687100
2174.000000	13.707917
2173.000000	13.713448
2172.000000	13.714756
2171.000000	13.729136
2170.000000	13.753875
2169.000000	13.775697
2168.000000	13.804962
2167.000000	13.816225
2166.000000	13.851825
2165.000000	13.890341
2164.000000	13.923628
2163.000000	13.956210
2162.000000	13.974513
2161.000000	14.013834
2160.000000	14.056674
2159.000000	14.084631
2158.000000	14.122343
2157.000000	14.183284
2156.000000	14.226728
2155.000000	14.261926
2154.000000	14.321058
2153.000000	14.366110
2152.000000	14.411968
2151.000000	14.459434
2150.000000	14.496442
2149.000000	14.549841
2148.000000	14.614202
2147.000000	14.658954
2146.000000	14.693447
2145.000000	14.721605
2144.000000	14.768971
2143.000000	14.824985
2142.000000	14.857065
2141.000000	14.881301
2140.000000	14.916700
2139.000000	14.961753
2138.000000	14.995844
2137.000000	15.019275
2136.000000	15.035768
2135.000000	15.062820
2134.000000	15.091883
2133.000000	15.108476
2132.000000	15.114912
2131.000000	15.127784
2130.000000	15.158255
2129.000000	15.155540
2128.000000	15.149808
2127.000000	15.152724
2126.000000	15.160568
2125.000000	15.153126
2124.000000	15.141159
2123.000000	15.128086
2122.000000	15.123158
2121.000000	15.110387
2120.000000	15.098319
2119.000000	15.070865
2118.000000	15.052160
2117.000000	15.032952
2116.000000	15.006504
2115.000000	14.984782
2114.000000	14.950892
2113.000000	14.920320
2112.000000	14.899101
2111.000000	14.888642
2110.000000	14.872049
2109.000000	14.829108
2108.000000	14.780636
2107.000000	14.754490
2106.000000	14.733874
2105.000000	14.708331
2104.000000	14.678262
2103.000000	14.643768
2102.000000	14.615711
2101.000000	14.598414
2100.000000	14.583329
2099.000000	14.558389
2098.000000	14.539483
2097.000000	14.505291
2096.000000	14.482363
2095.000000	14.471803
2094.000000	14.464965
2093.000000	14.463959
2092.000000	14.438718
2091.000000	14.426851
2090.000000	14.411968
2089.000000	14.409252
2088.000000	14.402515
2087.000000	14.380994
2086.000000	14.366211
2085.000000	14.355752
2084.000000	14.330812
2083.000000	14.321158
2082.000000	14.310398
2081.000000	14.278117
2080.000000	14.260216
2079.000000	14.235176
2078.000000	14.207319
2077.000000	14.173530
2076.000000	14.144668
2075.000000	14.125460
2074.000000	14.091067
2073.000000	14.046215
2072.000000	14.019868
2071.000000	13.994224
2070.000000	13.959328
2069.000000	13.912264
2068.000000	13.887123
2067.000000	13.844785
2066.000000	13.802850
2065.000000	13.760311
2064.000000	13.722298
2063.000000	13.696453
2062.000000	13.646774
2061.000000	13.631488
2060.000000	13.628874
2059.000000	13.620125
2058.000000	13.623443
2057.000000	13.621231
2056.000000	13.643958
2055.000000	13.672116
2054.000000	13.691022
2053.000000	13.741506
2052.000000	13.809085
2051.000000	13.897581
2050.000000	13.983765
2049.000000	14.094888
2048.000000	14.221700
2047.000000	14.348109
2046.000000	14.482765
2045.000000	14.621544
2044.000000	14.788179
2043.000000	14.956222
2042.000000	15.100632
2041.000000	15.267267
2040.000000	15.414191
2039.000000	15.578513
2038.000000	15.742936
2037.000000	15.865624
2036.000000	16.009331
2035.000000	16.157663
2034.000000	16.274820
2033.000000	16.411688
2032.000000	16.525628
2031.000000	16.643891
2030.000000	16.747372
2029.000000	16.843713
2028.000000	16.953931
2027.000000	17.044338
2026.000000	17.136857
2025.000000	17.232393
2024.000000	17.338690
2023.000000	17.409085
2022.000000	17.484307
2021.000000	17.546858
2020.000000	17.631030
2019.000000	17.694587
2018.000000	17.754322
2017.000000	17.817577
2016.000000	17.867055
2015.000000	17.945093
2014.000000	17.994369
2013.000000	18.027656
2012.000000	18.067882
2011.000000	18.100062
2010.000000	18.141092
2009.000000	18.162513
2008.000000	18.198716
2007.000000	18.190972
2006.000000	18.225265
2005.000000	18.225969
2004.000000	18.242159
2003.000000	18.232606
2002.000000	18.212895
2001.000000	18.200425
2000.000000	18.204146
1999.000000	18.176994
1998.000000	18.174882
1997.000000	18.146121
1996.000000	18.108308
1995.000000	18.056618
1994.000000	17.996581
1993.000000	17.975262
1992.000000	17.917940
1991.000000	17.865747
1990.000000	17.815867
1989.000000	17.765485
1988.000000	17.662909
1987.000000	17.625801
1986.000000	17.562546
1985.000000	17.493056
1984.000000	17.431812
1983.000000	17.347741
1982.000000	17.262161
1981.000000	17.200313
1980.000000	17.125594
1979.000000	17.058317
1978.000000	16.975552
1977.000000	16.885246
1976.000000	16.808012
1975.000000	16.756121
1974.000000	16.666015
1973.000000	16.594816
1972.000000	16.532265
1971.000000	16.460261
1970.000000	16.395598
1969.000000	16.317661
1968.000000	16.249679
1967.000000	16.196079
1966.000000	16.129002
1965.000000	16.059814
1964.000000	15.997665
1963.000000	15.926265
1962.000000	15.841791
1961.000000	15.787687
1960.000000	15.692855
1959.000000	15.645891
1958.000000	15.596414
1957.000000	15.527628
1956.000000	15.452909
1955.000000	15.376279
1954.000000	15.331326
1953.000000	15.266161
1952.000000	15.193352
1951.000000	15.153227
1950.000000	15.091983
1949.000000	15.030438
1948.000000	14.997151
1947.000000	14.959037
1946.000000	14.922935
1945.000000	14.894978
1944.000000	14.872954
1943.000000	14.847914
1942.000000	14.835746
1941.000000	14.832527
1940.000000	14.825890
1939.000000	14.813119
1938.000000	14.840070
1937.000000	14.857669
1936.000000	14.884620
1935.000000	14.916599
1934.000000	14.965876
1933.000000	15.014348
1932.000000	15.090575
1931.000000	15.161071
1930.000000	15.263647
1929.000000	15.353752
1928.000000	15.438729
1927.000000	15.549853
1926.000000	15.661479
1925.000000	15.784268
1924.000000	15.929985
1923.000000	16.053680
1922.000000	16.226650
1921.000000	16.406258
1920.000000	16.590592
1919.000000	16.749685
1918.000000	16.910487
1917.000000	17.096431
1916.000000	17.283380
1915.000000	17.510957
1914.000000	17.740947
1913.000000	17.979988
1912.000000	18.213297
1911.000000	18.419756
1910.000000	18.646126
1909.000000	18.881447
1908.000000	19.136679
1907.000000	19.418158
1906.000000	19.692699
1905.000000	19.989263
1904.000000	20.266317
1903.000000	20.534019
1902.000000	20.825254
1901.000000	21.100498
1900.000000	21.408024
1899.000000	21.694933
1898.000000	21.998436
1897.000000	22.259501
1896.000000	22.516544
1895.000000	22.796515
1894.000000	23.079704
1893.000000	23.370536
1892.000000	23.691939
1891.000000	23.992526
1890.000000	24.281748
1889.000000	24.605364
1888.000000	24.906655
1887.000000	25.235299
1886.000000	25.596124
1885.000000	26.022918
1884.000000	26.465502
1883.000000	26.919047
1882.000000	27.390693
1881.000000	27.848160
1880.000000	28.269424
1879.000000	28.733729
1878.000000	29.165150
1877.000000	29.538143
1876.000000	29.897358
1875.000000	30.233344
1874.000000	30.541171
1873.000000	30.822550
1872.000000	31.073257
1871.000000	31.277000
1870.000000	31.459122
1869.000000	31.627969
1868.000000	31.726019
1867.000000	31.806672
1866.000000	31.850216
1865.000000	31.911862
1864.000000	31.967474
1863.000000	32.008907
1862.000000	32.065022
1861.000000	32.090867
1860.000000	32.101225
1859.000000	32.094688
1858.000000	32.070553
1857.000000	32.039780
1856.000000	31.992213
1855.000000	31.941830
1854.000000	31.883503
1853.000000	31.804862
1852.000000	31.737584
1851.000000	31.695247
1850.000000	31.635512
1849.000000	31.562200
1848.000000	31.477726
1847.000000	31.358960
1846.000000	31.253267
1845.000000	31.193632
1844.000000	31.153809
1843.000000	31.151697
1842.000000	31.126153
1841.000000	31.064910
1840.000000	30.997331
1839.000000	30.923919
1838.000000	30.857144
1837.000000	30.780615
1836.000000	30.706298
1835.000000	30.630170
1834.000000	30.536545
1833.000000	30.443121
1832.000000	30.376950
1831.000000	30.298811
1830.000000	30.193420
1829.000000	30.091448
1828.000000	30.001241
1827.000000	29.913348
1826.000000	29.823846
1825.000000	29.766323
1824.000000	29.742389
1823.000000	29.730522
1822.000000	29.703068
1821.000000	29.661234
1820.000000	29.607029
1819.000000	29.572435
1818.000000	29.557552
1817.000000	29.559865
1816.000000	29.565295
1815.000000	29.542065
1814.000000	29.521851
1813.000000	29.497917
1812.000000	29.463021
1811.000000	29.420282
1810.000000	29.374424
1809.000000	29.332087
1808.000000	29.286430
1807.000000	29.246305
1806.000000	29.179631
1805.000000	29.116678
1804.000000	29.058049
1803.000000	29.001331
1802.000000	28.954769
1801.000000	28.903079
1800.000000	28.832483
1799.000000	28.760781
1798.000000	28.705068
1797.000000	28.666854
1796.000000	28.611946
1795.000000	28.563172
1794.000000	28.500420
1793.000000	28.419868
1792.000000	28.355607
1791.000000	28.294967
1790.000000	28.236640
1789.000000	28.163831
1788.000000	28.094744
1787.000000	28.008560
1786.000000	27.917147
1785.000000	27.839210
1784.000000	27.735528
1783.000000	27.646428
1782.000000	27.554512
1781.000000	27.457770
1780.000000	27.367765
1779.000000	27.244171
1778.000000	27.131338
1777.000000	27.009253
1776.000000	26.864641
1775.000000	26.726064
1774.000000	26.556010
1773.000000	26.393799
1772.000000	26.220226
1771.000000	26.058116
1770.000000	25.915918
1769.000000	25.761954
1768.000000	25.605074
1767.000000	25.471625
1766.000000	25.371966
1765.000000	25.311124
1764.000000	25.263055
1763.000000	25.255311
1762.000000	25.277938
1761.000000	25.339986
1760.000000	25.424662
1759.000000	25.489525
1758.000000	25.567463
1757.000000	25.625589
1756.000000	25.692464
1755.000000	25.710566
1754.000000	25.734802
1753.000000	25.720321
1752.000000	25.689347
1751.000000	25.656965
1750.000000	25.596023
1749.000000	25.517281
1748.000000	25.411387
1747.000000	25.297247
1746.000000	25.133226
1745.000000	24.960155
1744.000000	24.744545
1743.000000	24.525818
1742.000000	24.263546
1741.000000	23.981966
1740.000000	23.703001
1739.000000	23.415488
1738.000000	23.180670
1737.000000	22.962848
1736.000000	22.816125
1735.000000	22.714957
1734.000000	22.647881
1733.000000	22.659546
1732.000000	22.720287
1731.000000	22.804861
1730.000000	22.902811
1729.000000	23.038573
1728.000000	23.146579
1727.000000	23.252473
1726.000000	23.350825
1725.000000	23.413879
1724.000000	23.456116
1723.000000	23.494230
1722.000000	23.533952
1721.000000	23.554769
1720.000000	23.610683
1719.000000	23.639243
1718.000000	23.727237
1717.000000	23.805074
1716.000000	23.873457
1715.000000	23.988604
1714.000000	24.053367
1713.000000	24.146490
1712.000000	24.216281
1711.000000	24.236997
1710.000000	24.275312
1709.000000	24.299046
1708.000000	24.289190
1707.000000	24.284765
1706.000000	24.247557
1705.000000	24.211957
1704.000000	24.154334
1703.000000	24.065334
1702.000000	23.941137
1701.000000	23.792403
1700.000000	23.652317
1699.000000	23.496945
1698.000000	23.372848
1697.000000	23.273893
1696.000000	23.247043
1695.000000	23.277312
1694.000000	23.353138
1693.000000	23.510018
1692.000000	23.667502
1691.000000	23.842785
1690.000000	23.969597
1689.000000	24.075391
1688.000000	24.110890
1687.000000	24.137841
1686.000000	24.155339
1685.000000	24.232874
1684.000000	24.400314
1683.000000	24.684609
1682.000000	25.124578
1681.000000	25.638662
1680.000000	26.232394
1679.000000	26.835176
1678.000000	27.453848
1677.000000	27.948926
1676.000000	28.409912
1675.000000	28.807644
1674.000000	29.169675
1673.000000	29.482833
1672.000000	29.746009
1671.000000	29.970469
1670.000000	30.193621
1669.000000	30.402795
1668.000000	30.531416
1667.000000	30.644752
1666.000000	30.777195
1665.000000	30.878061
1664.000000	30.957205
1663.000000	31.041378
1662.000000	31.122835
1661.000000	31.196649
1660.000000	31.234964
1659.000000	31.276899
1658.000000	31.306365
1657.000000	31.316924
1656.000000	31.340456
1655.000000	31.331103
1654.000000	31.332612
1653.000000	31.304253
1652.000000	31.321751
1651.000000	31.300632
1650.000000	31.258295
1649.000000	31.208314
1648.000000	31.166279
1647.000000	31.111672
1646.000000	31.053144
1645.000000	31.004169
1644.000000	30.945741
1643.000000	30.891638
1642.000000	30.835422
1641.000000	30.763720
1640.000000	30.698554
1639.000000	30.632483
1638.000000	30.555753
1637.000000	30.481034
1636.000000	30.409532
1635.000000	30.336724
1634.000000	30.247825
1633.000000	30.152691
1632.000000	30.063290
1631.000000	29.995208
1630.000000	29.907314
1629.000000	29.815298
1628.000000	29.729215
1627.000000	29.627947
1626.000000	29.538545
1625.000000	29.445724
1624.000000	29.352401
1623.000000	29.262094
1622.000000	29.180737
1621.000000	29.085101
1620.000000	29.002236
1619.000000	28.913136
1618.000000	28.832282
1617.000000	28.749618
1616.000000	28.674899
