PE UV       SUBTECH     SPECTRUM    ASCII       PEDS        4.00        
   -1
CICIMAUCR0097-3.Sample.ASC
24/04/18
13:31:23.00
24/04/18
13:31:23.00
Vinicio Soto Monge
C. kalinini
250,000000
1
Lambda 1050
1050L1511233
PerkinElmer UV WinLab 6.3.2.0749 / 2.02.05 Lambda 900 UV/VIS/NIR, Aug  7 2015 09:38:08

0
0
3350/servo 860,8/2
0
0
UV/VIS
1
1
1
DoubleDePol,CommonBeamDepol,RBeamAtt,SBeamAtt,60mm sphere, WB InGaAs Detector
0
0
0
0
Program
Program
3350/servo 860,8/2
3350/0,2 860,8/0,2
3350/0,2 860,8/0,2
0
15.00
 
 
 
0
 
860,8
319,2
860,8
Front
100
on
S:100 R:100
0
0
0
0
 
0
 
 
 
0
 
 
0
0
0
0
0
 
 
 
 
0
0


0
0
#HDR
-1
-1
#GR
nm
%R
1.0
0.0
2500,000000
-1,000000
2251
8
97,988000
5,671400
#DATA
2500.000000	15.488000
2499.000000	15.501800
2498.000000	15.494400
2497.000000	15.519500
2496.000000	15.462300
2495.000000	15.472700
2494.000000	15.413400
2493.000000	15.408800
2492.000000	15.435400
2491.000000	15.400500
2490.000000	15.402900
2489.000000	15.377600
2488.000000	15.428200
2487.000000	15.303000
2486.000000	15.344500
2485.000000	15.393700
2484.000000	15.385800
2483.000000	15.416900
2482.000000	15.415000
2481.000000	15.465700
2480.000000	15.439300
2479.000000	15.474200
2478.000000	15.445400
2477.000000	15.534400
2476.000000	15.499500
2475.000000	15.504300
2474.000000	15.569500
2473.000000	15.589600
2472.000000	15.655100
2471.000000	15.693700
2470.000000	15.719000
2469.000000	15.763200
2468.000000	15.815300
2467.000000	15.861600
2466.000000	15.891700
2465.000000	15.957000
2464.000000	15.977000
2463.000000	16.060300
2462.000000	16.137400
2461.000000	16.218200
2460.000000	16.292400
2459.000000	16.349300
2458.000000	16.404900
2457.000000	16.495600
2456.000000	16.609000
2455.000000	16.667400
2454.000000	16.775600
2453.000000	16.869600
2452.000000	16.973500
2451.000000	17.050200
2450.000000	17.187100
2449.000000	17.285700
2448.000000	17.408400
2447.000000	17.528900
2446.000000	17.624300
2445.000000	17.726300
2444.000000	17.855800
2443.000000	17.983100
2442.000000	18.092200
2441.000000	18.199200
2440.000000	18.329100
2439.000000	18.441100
2438.000000	18.568300
2437.000000	18.671500
2436.000000	18.770200
2435.000000	18.885100
2434.000000	18.992800
2433.000000	19.094100
2432.000000	19.206200
2431.000000	19.307900
2430.000000	19.403100
2429.000000	19.495200
2428.000000	19.584900
2427.000000	19.666800
2426.000000	19.773900
2425.000000	19.861500
2424.000000	19.944400
2423.000000	20.065200
2422.000000	20.181400
2421.000000	20.326800
2420.000000	20.466400
2419.000000	20.557300
2418.000000	20.644400
2417.000000	20.712400
2416.000000	20.799900
2415.000000	20.869500
2414.000000	20.947000
2413.000000	21.023800
2412.000000	21.101900
2411.000000	21.165600
2410.000000	21.236200
2409.000000	21.278000
2408.000000	21.340500
2407.000000	21.423000
2406.000000	21.488000
2405.000000	21.520400
2404.000000	21.552800
2403.000000	21.599400
2402.000000	21.670900
2401.000000	21.728200
2400.000000	21.734300
2399.000000	21.750700
2398.000000	21.807800
2397.000000	21.861400
2396.000000	21.866600
2395.000000	21.889800
2394.000000	21.931000
2393.000000	21.960200
2392.000000	21.977600
2391.000000	21.990300
2390.000000	22.011300
2389.000000	22.022700
2388.000000	22.036100
2387.000000	22.043100
2386.000000	22.057300
2385.000000	22.063300
2384.000000	22.044600
2383.000000	22.041500
2382.000000	22.041500
2381.000000	22.047500
2380.000000	22.028300
2379.000000	22.024500
2378.000000	22.021800
2377.000000	21.990400
2376.000000	21.967400
2375.000000	21.960900
2374.000000	21.954400
2373.000000	21.911800
2372.000000	21.880600
2371.000000	21.886100
2370.000000	21.888300
2369.000000	21.875300
2368.000000	21.861800
2367.000000	21.858400
2366.000000	21.861300
2365.000000	21.843500
2364.000000	21.837200
2363.000000	21.831700
2362.000000	21.817300
2361.000000	21.806800
2360.000000	21.802200
2359.000000	21.790100
2358.000000	21.771300
2357.000000	21.758500
2356.000000	21.767200
2355.000000	21.756000
2354.000000	21.720100
2353.000000	21.703200
2352.000000	21.699700
2351.000000	21.681400
2350.000000	21.661000
2349.000000	21.661400
2348.000000	21.659300
2347.000000	21.638300
2346.000000	21.620700
2345.000000	21.622500
2344.000000	21.611500
2343.000000	21.628400
2342.000000	21.625200
2341.000000	21.601300
2340.000000	21.587900
2339.000000	21.590500
2338.000000	21.607000
2337.000000	21.608000
2336.000000	21.605400
2335.000000	21.602600
2334.000000	21.623000
2333.000000	21.661500
2332.000000	21.664800
2331.000000	21.661700
2330.000000	21.647700
2329.000000	21.691500
2328.000000	21.736800
2327.000000	21.757900
2326.000000	21.785900
2325.000000	21.795600
2324.000000	21.817800
2323.000000	21.840600
2322.000000	21.846700
2321.000000	21.823300
2320.000000	21.808700
2319.000000	21.819200
2318.000000	21.805100
2317.000000	21.776100
2316.000000	21.749600
2315.000000	21.722800
2314.000000	21.669800
2313.000000	21.644300
2312.000000	21.597800
2311.000000	21.544400
2310.000000	21.480100
2309.000000	21.446400
2308.000000	21.417000
2307.000000	21.390900
2306.000000	21.349000
2305.000000	21.334500
2304.000000	21.306100
2303.000000	21.298500
2302.000000	21.290700
2301.000000	21.284400
2300.000000	21.276800
2299.000000	21.284600
2298.000000	21.286200
2297.000000	21.295100
2296.000000	21.338800
2295.000000	21.363400
2294.000000	21.387500
2293.000000	21.402000
2292.000000	21.443700
2291.000000	21.470700
2290.000000	21.495600
2289.000000	21.539000
2288.000000	21.585400
2287.000000	21.617200
2286.000000	21.645200
2285.000000	21.708500
2284.000000	21.728300
2283.000000	21.767800
2282.000000	21.794600
2281.000000	21.864100
2280.000000	21.885000
2279.000000	21.905200
2278.000000	21.944600
2277.000000	21.984600
2276.000000	22.013300
2275.000000	22.034900
2274.000000	22.063100
2273.000000	22.103700
2272.000000	22.129100
2271.000000	22.181200
2270.000000	22.218700
2269.000000	22.295300
2268.000000	22.337900
2267.000000	22.414400
2266.000000	22.477300
2265.000000	22.576800
2264.000000	22.688300
2263.000000	22.797600
2262.000000	22.937500
2261.000000	23.073300
2260.000000	23.228600
2259.000000	23.404900
2258.000000	23.568700
2257.000000	23.774200
2256.000000	23.956400
2255.000000	24.146300
2254.000000	24.321300
2253.000000	24.529800
2252.000000	24.710900
2251.000000	24.936300
2250.000000	25.098300
2249.000000	25.280900
2248.000000	25.445200
2247.000000	25.597700
2246.000000	25.758700
2245.000000	25.880600
2244.000000	26.014000
2243.000000	26.111200
2242.000000	26.206300
2241.000000	26.320100
2240.000000	26.386900
2239.000000	26.467200
2238.000000	26.495300
2237.000000	26.528800
2236.000000	26.585700
2235.000000	26.581300
2234.000000	26.610100
2233.000000	26.603200
2232.000000	26.572000
2231.000000	26.559500
2230.000000	26.542600
2229.000000	26.498300
2228.000000	26.449900
2227.000000	26.389600
2226.000000	26.320100
2225.000000	26.273700
2224.000000	26.214100
2223.000000	26.116800
2222.000000	26.067100
2221.000000	25.978000
2220.000000	25.872000
2219.000000	25.797700
2218.000000	25.717800
2217.000000	25.614400
2216.000000	25.533700
2215.000000	25.428500
2214.000000	25.339700
2213.000000	25.260600
2212.000000	25.182200
2211.000000	25.102100
2210.000000	25.036300
2209.000000	24.947500
2208.000000	24.897000
2207.000000	24.841900
2206.000000	24.801000
2205.000000	24.758000
2204.000000	24.723800
2203.000000	24.658300
2202.000000	24.615800
2201.000000	24.576700
2200.000000	24.532700
2199.000000	24.489100
2198.000000	24.461300
2197.000000	24.433800
2196.000000	24.430400
2195.000000	24.400500
2194.000000	24.369300
2193.000000	24.345700
2192.000000	24.329000
2191.000000	24.305200
2190.000000	24.286500
2189.000000	24.264200
2188.000000	24.249000
2187.000000	24.208900
2186.000000	24.202400
2185.000000	24.186200
2184.000000	24.159700
2183.000000	24.137100
2182.000000	24.118900
2181.000000	24.095300
2180.000000	24.068900
2179.000000	24.060000
2178.000000	24.050000
2177.000000	24.014100
2176.000000	24.020700
2175.000000	24.025300
2174.000000	24.013900
2173.000000	24.027700
2172.000000	24.047000
2171.000000	24.045600
2170.000000	24.056000
2169.000000	24.099800
2168.000000	24.123200
2167.000000	24.149700
2166.000000	24.187100
2165.000000	24.246300
2164.000000	24.301100
2163.000000	24.338600
2162.000000	24.402100
2161.000000	24.478200
2160.000000	24.550300
2159.000000	24.631900
2158.000000	24.705200
2157.000000	24.811800
2156.000000	24.920000
2155.000000	25.005100
2154.000000	25.119300
2153.000000	25.221100
2152.000000	25.314100
2151.000000	25.430600
2150.000000	25.551800
2149.000000	25.651900
2148.000000	25.765600
2147.000000	25.894700
2146.000000	26.003800
2145.000000	26.108500
2144.000000	26.229800
2143.000000	26.337200
2142.000000	26.460000
2141.000000	26.557100
2140.000000	26.663500
2139.000000	26.775100
2138.000000	26.886100
2137.000000	26.990700
2136.000000	27.107600
2135.000000	27.186600
2134.000000	27.273500
2133.000000	27.364000
2132.000000	27.444100
2131.000000	27.522300
2130.000000	27.580900
2129.000000	27.671400
2128.000000	27.740400
2127.000000	27.782600
2126.000000	27.824500
2125.000000	27.876700
2124.000000	27.939300
2123.000000	27.979100
2122.000000	28.030200
2121.000000	28.069100
2120.000000	28.096800
2119.000000	28.128600
2118.000000	28.144800
2117.000000	28.178300
2116.000000	28.196900
2115.000000	28.214300
2114.000000	28.234700
2113.000000	28.226000
2112.000000	28.245800
2111.000000	28.269000
2110.000000	28.277400
2109.000000	28.287500
2108.000000	28.285100
2107.000000	28.287400
2106.000000	28.291600
2105.000000	28.283300
2104.000000	28.289000
2103.000000	28.294300
2102.000000	28.302200
2101.000000	28.316800
2100.000000	28.298500
2099.000000	28.281900
2098.000000	28.297400
2097.000000	28.325000
2096.000000	28.337600
2095.000000	28.340000
2094.000000	28.338500
2093.000000	28.342400
2092.000000	28.384400
2091.000000	28.413200
2090.000000	28.417300
2089.000000	28.427300
2088.000000	28.436200
2087.000000	28.436500
2086.000000	28.438500
2085.000000	28.431100
2084.000000	28.414200
2083.000000	28.400100
2082.000000	28.379300
2081.000000	28.343000
2080.000000	28.303800
2079.000000	28.242600
2078.000000	28.170100
2077.000000	28.121000
2076.000000	28.052500
2075.000000	27.967500
2074.000000	27.879000
2073.000000	27.788300
2072.000000	27.690700
2071.000000	27.580500
2070.000000	27.459800
2069.000000	27.336900
2068.000000	27.227200
2067.000000	27.104400
2066.000000	26.973500
2065.000000	26.852200
2064.000000	26.713600
2063.000000	26.601400
2062.000000	26.496000
2061.000000	26.374400
2060.000000	26.280000
2059.000000	26.196800
2058.000000	26.105200
2057.000000	26.041300
2056.000000	25.999000
2055.000000	25.978800
2054.000000	25.967600
2053.000000	26.001100
2052.000000	26.027500
2051.000000	26.073700
2050.000000	26.177200
2049.000000	26.276400
2048.000000	26.406500
2047.000000	26.540800
2046.000000	26.696000
2045.000000	26.847000
2044.000000	27.031100
2043.000000	27.215100
2042.000000	27.375000
2041.000000	27.550000
2040.000000	27.714700
2039.000000	27.875900
2038.000000	28.051300
2037.000000	28.229800
2036.000000	28.365600
2035.000000	28.511400
2034.000000	28.653400
2033.000000	28.776700
2032.000000	28.899600
2031.000000	29.033600
2030.000000	29.132300
2029.000000	29.228300
2028.000000	29.340000
2027.000000	29.448800
2026.000000	29.533600
2025.000000	29.611900
2024.000000	29.671100
2023.000000	29.750600
2022.000000	29.835700
2021.000000	29.889400
2020.000000	29.921500
2019.000000	29.963000
2018.000000	30.029200
2017.000000	30.057600
2016.000000	30.086800
2015.000000	30.104300
2014.000000	30.138200
2013.000000	30.165700
2012.000000	30.180900
2011.000000	30.165400
2010.000000	30.166000
2009.000000	30.163200
2008.000000	30.143800
2007.000000	30.123500
2006.000000	30.089400
2005.000000	30.046600
2004.000000	30.032300
2003.000000	29.988100
2002.000000	29.936500
2001.000000	29.867000
2000.000000	29.793000
1999.000000	29.759100
1998.000000	29.685800
1997.000000	29.611200
1996.000000	29.523200
1995.000000	29.443000
1994.000000	29.382600
1993.000000	29.292700
1992.000000	29.205500
1991.000000	29.115300
1990.000000	29.016800
1989.000000	28.920500
1988.000000	28.830900
1987.000000	28.728800
1986.000000	28.640600
1985.000000	28.533300
1984.000000	28.423900
1983.000000	28.328700
1982.000000	28.215100
1981.000000	28.117400
1980.000000	28.002700
1979.000000	27.899100
1978.000000	27.799500
1977.000000	27.690800
1976.000000	27.557700
1975.000000	27.470100
1974.000000	27.359900
1973.000000	27.262800
1972.000000	27.155500
1971.000000	27.065300
1970.000000	26.946300
1969.000000	26.855500
1968.000000	26.748000
1967.000000	26.634100
1966.000000	26.541000
1965.000000	26.445600
1964.000000	26.374200
1963.000000	26.234300
1962.000000	26.143600
1961.000000	26.051400
1960.000000	25.927900
1959.000000	25.836800
1958.000000	25.725400
1957.000000	25.609000
1956.000000	25.502500
1955.000000	25.405300
1954.000000	25.300900
1953.000000	25.200800
1952.000000	25.079000
1951.000000	24.996800
1950.000000	24.892300
1949.000000	24.807500
1948.000000	24.729800
1947.000000	24.634000
1946.000000	24.576200
1945.000000	24.499700
1944.000000	24.440800
1943.000000	24.379000
1942.000000	24.308400
1941.000000	24.275100
1940.000000	24.266600
1939.000000	24.236700
1938.000000	24.212600
1937.000000	24.200900
1936.000000	24.213900
1935.000000	24.224000
1934.000000	24.247400
1933.000000	24.294500
1932.000000	24.347500
1931.000000	24.414500
1930.000000	24.496900
1929.000000	24.573000
1928.000000	24.691300
1927.000000	24.795000
1926.000000	24.923900
1925.000000	25.079200
1924.000000	25.235200
1923.000000	25.368000
1922.000000	25.555200
1921.000000	25.799900
1920.000000	26.037500
1919.000000	26.270200
1918.000000	26.503900
1917.000000	26.753100
1916.000000	26.997300
1915.000000	27.270600
1914.000000	27.608800
1913.000000	27.996700
1912.000000	28.354900
1911.000000	28.702800
1910.000000	29.060400
1909.000000	29.385300
1908.000000	29.751200
1907.000000	30.183400
1906.000000	30.677400
1905.000000	31.209800
1904.000000	31.740800
1903.000000	32.224400
1902.000000	32.741000
1901.000000	33.236500
1900.000000	33.818000
1899.000000	34.460000
1898.000000	35.048400
1897.000000	35.648700
1896.000000	36.187400
1895.000000	36.675700
1894.000000	37.233200
1893.000000	37.827600
1892.000000	38.472200
1891.000000	39.113500
1890.000000	39.699600
1889.000000	40.238500
1888.000000	40.793700
1887.000000	41.294400
1886.000000	41.796600
1885.000000	42.303500
1884.000000	42.836800
1883.000000	43.313800
1882.000000	43.708300
1881.000000	44.090600
1880.000000	44.452100
1879.000000	44.783900
1878.000000	45.128100
1877.000000	45.440900
1876.000000	45.735800
1875.000000	46.016300
1874.000000	46.289900
1873.000000	46.573300
1872.000000	46.842800
1871.000000	47.071700
1870.000000	47.288700
1869.000000	47.481000
1868.000000	47.656200
1867.000000	47.769400
1866.000000	47.818100
1865.000000	47.899200
1864.000000	47.970800
1863.000000	48.027400
1862.000000	48.117700
1861.000000	48.235200
1860.000000	48.346600
1859.000000	48.434400
1858.000000	48.515900
1857.000000	48.570000
1856.000000	48.592000
1855.000000	48.622500
1854.000000	48.685000
1853.000000	48.716500
1852.000000	48.714900
1851.000000	48.739200
1850.000000	48.751500
1849.000000	48.785400
1848.000000	48.840600
1847.000000	48.892300
1846.000000	48.855800
1845.000000	48.778500
1844.000000	48.701800
1843.000000	48.674500
1842.000000	48.721300
1841.000000	48.766800
1840.000000	48.744100
1839.000000	48.681200
1838.000000	48.629600
1837.000000	48.615500
1836.000000	48.604500
1835.000000	48.563600
1834.000000	48.475100
1833.000000	48.384800
1832.000000	48.324800
1831.000000	48.307400
1830.000000	48.306100
1829.000000	48.284100
1828.000000	48.225400
1827.000000	48.180600
1826.000000	48.172800
1825.000000	48.142800
1824.000000	48.104300
1823.000000	48.078400
1822.000000	48.105600
1821.000000	48.168700
1820.000000	48.207900
1819.000000	48.169800
1818.000000	48.115000
1817.000000	48.096200
1816.000000	48.106800
1815.000000	48.105300
1814.000000	48.077900
1813.000000	48.070200
1812.000000	48.064400
1811.000000	48.053400
1810.000000	47.999300
1809.000000	47.952100
1808.000000	47.925200
1807.000000	47.912000
1806.000000	47.903100
1805.000000	47.875800
1804.000000	47.842200
1803.000000	47.817300
1802.000000	47.813000
1801.000000	47.820100
1800.000000	47.779800
1799.000000	47.745700
1798.000000	47.725500
1797.000000	47.703500
1796.000000	47.695100
1795.000000	47.671700
1794.000000	47.648600
1793.000000	47.634500
1792.000000	47.618000
1791.000000	47.607600
1790.000000	47.589800
1789.000000	47.601000
1788.000000	47.604400
1787.000000	47.608400
1786.000000	47.621300
1785.000000	47.631400
1784.000000	47.643400
1783.000000	47.626600
1782.000000	47.616300
1781.000000	47.607400
1780.000000	47.591000
1779.000000	47.578900
1778.000000	47.565100
1777.000000	47.538900
1776.000000	47.497000
1775.000000	47.450500
1774.000000	47.417300
1773.000000	47.392800
1772.000000	47.352100
1771.000000	47.304300
1770.000000	47.279800
1769.000000	47.245900
1768.000000	47.206500
1767.000000	47.176500
1766.000000	47.140000
1765.000000	47.129300
1764.000000	47.108600
1763.000000	47.091000
1762.000000	47.086900
1761.000000	47.087300
1760.000000	47.098800
1759.000000	47.104900
1758.000000	47.120200
1757.000000	47.122500
1756.000000	47.123000
1755.000000	47.132900
1754.000000	47.124000
1753.000000	47.130900
1752.000000	47.138500
1751.000000	47.115800
1750.000000	47.100700
1749.000000	47.072700
1748.000000	47.022800
1747.000000	46.977000
1746.000000	46.914500
1745.000000	46.849900
1744.000000	46.768500
1743.000000	46.696600
1742.000000	46.609600
1741.000000	46.526600
1740.000000	46.443900
1739.000000	46.351400
1738.000000	46.297400
1737.000000	46.234300
1736.000000	46.176600
1735.000000	46.119900
1734.000000	46.087700
1733.000000	46.059000
1732.000000	46.025700
1731.000000	45.990100
1730.000000	45.956200
1729.000000	45.913700
1728.000000	45.885700
1727.000000	45.857300
1726.000000	45.817100
1725.000000	45.798300
1724.000000	45.803100
1723.000000	45.831000
1722.000000	45.892000
1721.000000	46.022400
1720.000000	46.176400
1719.000000	46.393100
1718.000000	46.602800
1717.000000	46.840900
1716.000000	47.071200
1715.000000	47.298600
1714.000000	47.496400
1713.000000	47.684600
1712.000000	47.858600
1711.000000	48.007400
1710.000000	48.150300
1709.000000	48.256900
1708.000000	48.368300
1707.000000	48.443700
1706.000000	48.518000
1705.000000	48.563000
1704.000000	48.601700
1703.000000	48.610000
1702.000000	48.612500
1701.000000	48.639500
1700.000000	48.616700
1699.000000	48.612500
1698.000000	48.602400
1697.000000	48.593700
1696.000000	48.585900
1695.000000	48.553600
1694.000000	48.501400
1693.000000	48.439800
1692.000000	48.395300
1691.000000	48.346700
1690.000000	48.299800
1689.000000	48.297000
1688.000000	48.333800
1687.000000	48.424800
1686.000000	48.543800
1685.000000	48.728400
1684.000000	48.954600
1683.000000	49.191400
1682.000000	49.452300
1681.000000	49.712400
1680.000000	49.978400
1679.000000	50.232800
1678.000000	50.478200
1677.000000	50.717900
1676.000000	50.925900
1675.000000	51.135900
1674.000000	51.337500
1673.000000	51.522300
1672.000000	51.717200
1671.000000	51.902000
1670.000000	52.098500
1669.000000	52.286500
1668.000000	52.477200
1667.000000	52.633300
1666.000000	52.769800
1665.000000	52.913100
1664.000000	53.027800
1663.000000	53.165700
1662.000000	53.268100
1661.000000	53.371600
1660.000000	53.451700
1659.000000	53.532000
1658.000000	53.608300
1657.000000	53.658400
1656.000000	53.725100
1655.000000	53.766300
1654.000000	53.808700
1653.000000	53.838200
1652.000000	53.862600
1651.000000	53.865800
1650.000000	53.866500
1649.000000	53.882100
1648.000000	53.872900
1647.000000	53.860500
1646.000000	53.865200
1645.000000	53.854700
1644.000000	53.829900
1643.000000	53.809600
1642.000000	53.800600
1641.000000	53.775500
1640.000000	53.762400
1639.000000	53.761200
1638.000000	53.752600
1637.000000	53.732900
1636.000000	53.746900
1635.000000	53.707100
1634.000000	53.690800
1633.000000	53.650700
1632.000000	53.626300
1631.000000	53.595500
1630.000000	53.543600
1629.000000	53.503300
1628.000000	53.467000
1627.000000	53.432800
1626.000000	53.393500
1625.000000	53.343600
1624.000000	53.322500
