PE UV       SUBTECH     SPECTRUM    ASCII       PEDS        4.00        
   -1
CICIMAUCR0012-3.Sample.ASC
24/04/12
09:39:08.00
24/04/12
09:39:08.00
Vinicio Soto Monge
C. cupreomarginata
250,000000
1
Lambda 1050
1050L1511233
PerkinElmer UV WinLab 6.3.2.0749 / 2.02.05 Lambda 900 UV/VIS/NIR, Aug  7 2015 09:38:08

0
0
3350/servo 860,8/2
0
0
UV/VIS
1
1
1
DoubleDePol,CommonBeamDepol,RBeamAtt,SBeamAtt,60mm sphere, WB InGaAs Detector
0
0
0
0
Program
Program
3350/servo 860,8/2
3350/0,2 860,8/0,2
3350/0,2 860,8/0,2
0
15.00
 
 
 
0
 
860,8
319,2
860,8
Front
100
on
S:100 R:100
0
0
0
0
 
0
 
 
 
0
 
 
0
0
0
0
0
 
 
 
 
0
0


0
0
#HDR
-1
-1
#GR
nm
%R
1.0
0.0
2500,000000
-1,000000
2251
8
59,329800
5,000400
#DATA
2500.000000	6.257500
2499.000000	6.113700
2498.000000	6.230000
2497.000000	6.052600
2496.000000	6.082900
2495.000000	6.041100
2494.000000	6.068500
2493.000000	6.038100
2492.000000	6.073800
2491.000000	5.970200
2490.000000	6.022100
2489.000000	5.995500
2488.000000	5.954200
2487.000000	5.998400
2486.000000	6.007900
2485.000000	6.001500
2484.000000	5.968300
2483.000000	5.984200
2482.000000	5.990300
2481.000000	5.993700
2480.000000	5.956200
2479.000000	5.945100
2478.000000	5.915800
2477.000000	5.913600
2476.000000	5.939000
2475.000000	5.925600
2474.000000	5.905200
2473.000000	5.934700
2472.000000	5.966200
2471.000000	5.895300
2470.000000	5.946500
2469.000000	5.945000
2468.000000	5.916700
2467.000000	5.929700
2466.000000	5.921500
2465.000000	5.929200
2464.000000	5.962800
2463.000000	5.983400
2462.000000	5.995200
2461.000000	5.990000
2460.000000	5.993700
2459.000000	6.009100
2458.000000	6.042100
2457.000000	6.032100
2456.000000	6.042900
2455.000000	6.082600
2454.000000	6.110700
2453.000000	6.135300
2452.000000	6.185800
2451.000000	6.198600
2450.000000	6.218800
2449.000000	6.241700
2448.000000	6.287800
2447.000000	6.289100
2446.000000	6.327300
2445.000000	6.369200
2444.000000	6.414600
2443.000000	6.424500
2442.000000	6.465100
2441.000000	6.489100
2440.000000	6.524600
2439.000000	6.558300
2438.000000	6.565100
2437.000000	6.602000
2436.000000	6.626000
2435.000000	6.642900
2434.000000	6.668200
2433.000000	6.702700
2432.000000	6.733000
2431.000000	6.733500
2430.000000	6.763300
2429.000000	6.785600
2428.000000	6.840500
2427.000000	6.885700
2426.000000	6.946700
2425.000000	6.985100
2424.000000	7.022000
2423.000000	7.040300
2422.000000	7.047700
2421.000000	7.076900
2420.000000	7.076200
2419.000000	7.111500
2418.000000	7.149200
2417.000000	7.151700
2416.000000	7.169200
2415.000000	7.188700
2414.000000	7.226000
2413.000000	7.258000
2412.000000	7.271900
2411.000000	7.280100
2410.000000	7.286200
2409.000000	7.307400
2408.000000	7.337900
2407.000000	7.347500
2406.000000	7.356900
2405.000000	7.400200
2404.000000	7.414700
2403.000000	7.437500
2402.000000	7.465600
2401.000000	7.498900
2400.000000	7.524500
2399.000000	7.532000
2398.000000	7.537200
2397.000000	7.546400
2396.000000	7.583300
2395.000000	7.593500
2394.000000	7.629400
2393.000000	7.660400
2392.000000	7.648400
2391.000000	7.667200
2390.000000	7.701600
2389.000000	7.712100
2388.000000	7.716200
2387.000000	7.712400
2386.000000	7.714200
2385.000000	7.719500
2384.000000	7.737400
2383.000000	7.738300
2382.000000	7.744300
2381.000000	7.737700
2380.000000	7.739000
2379.000000	7.738200
2378.000000	7.728900
2377.000000	7.724200
2376.000000	7.724500
2375.000000	7.712500
2374.000000	7.695600
2373.000000	7.689800
2372.000000	7.681800
2371.000000	7.677700
2370.000000	7.663200
2369.000000	7.635700
2368.000000	7.615000
2367.000000	7.606600
2366.000000	7.569200
2365.000000	7.530700
2364.000000	7.512500
2363.000000	7.493500
2362.000000	7.454800
2361.000000	7.417900
2360.000000	7.399600
2359.000000	7.373900
2358.000000	7.348700
2357.000000	7.326100
2356.000000	7.321000
2355.000000	7.321900
2354.000000	7.310700
2353.000000	7.292200
2352.000000	7.306500
2351.000000	7.326900
2350.000000	7.339700
2349.000000	7.359600
2348.000000	7.389300
2347.000000	7.411800
2346.000000	7.429600
2345.000000	7.469100
2344.000000	7.498200
2343.000000	7.521800
2342.000000	7.556900
2341.000000	7.572800
2340.000000	7.581200
2339.000000	7.603800
2338.000000	7.608300
2337.000000	7.610700
2336.000000	7.604100
2335.000000	7.610600
2334.000000	7.611700
2333.000000	7.580200
2332.000000	7.564600
2331.000000	7.553800
2330.000000	7.532400
2329.000000	7.513900
2328.000000	7.481600
2327.000000	7.441000
2326.000000	7.423400
2325.000000	7.384800
2324.000000	7.350100
2323.000000	7.322300
2322.000000	7.284500
2321.000000	7.247500
2320.000000	7.205500
2319.000000	7.158900
2318.000000	7.110700
2317.000000	7.080100
2316.000000	7.043400
2315.000000	6.987200
2314.000000	6.942000
2313.000000	6.921300
2312.000000	6.883700
2311.000000	6.861100
2310.000000	6.849300
2309.000000	6.830600
2308.000000	6.800300
2307.000000	6.802400
2306.000000	6.814700
2305.000000	6.829400
2304.000000	6.844000
2303.000000	6.875300
2302.000000	6.900500
2301.000000	6.926200
2300.000000	6.984400
2299.000000	7.023300
2298.000000	7.039500
2297.000000	7.084900
2296.000000	7.127600
2295.000000	7.176000
2294.000000	7.200500
2293.000000	7.220100
2292.000000	7.220600
2291.000000	7.250800
2290.000000	7.270800
2289.000000	7.277100
2288.000000	7.257100
2287.000000	7.247100
2286.000000	7.241300
2285.000000	7.239700
2284.000000	7.224500
2283.000000	7.214100
2282.000000	7.182200
2281.000000	7.179400
2280.000000	7.166700
2279.000000	7.146100
2278.000000	7.131600
2277.000000	7.122300
2276.000000	7.115200
2275.000000	7.105100
2274.000000	7.102800
2273.000000	7.101400
2272.000000	7.096200
2271.000000	7.096100
2270.000000	7.115900
2269.000000	7.141600
2268.000000	7.177100
2267.000000	7.225600
2266.000000	7.268500
2265.000000	7.337700
2264.000000	7.422100
2263.000000	7.486800
2262.000000	7.569800
2261.000000	7.686100
2260.000000	7.782100
2259.000000	7.894600
2258.000000	8.040200
2257.000000	8.169100
2256.000000	8.281100
2255.000000	8.449100
2254.000000	8.585200
2253.000000	8.702100
2252.000000	8.841900
2251.000000	8.995200
2250.000000	9.101400
2249.000000	9.212200
2248.000000	9.348500
2247.000000	9.459000
2246.000000	9.585700
2245.000000	9.676800
2244.000000	9.763100
2243.000000	9.859700
2242.000000	9.941800
2241.000000	10.039800
2240.000000	10.117900
2239.000000	10.202600
2238.000000	10.279200
2237.000000	10.345100
2236.000000	10.412900
2235.000000	10.470500
2234.000000	10.512800
2233.000000	10.541900
2232.000000	10.596800
2231.000000	10.661800
2230.000000	10.691000
2229.000000	10.729700
2228.000000	10.753500
2227.000000	10.760300
2226.000000	10.773400
2225.000000	10.767900
2224.000000	10.799400
2223.000000	10.817700
2222.000000	10.820000
2221.000000	10.799100
2220.000000	10.816500
2219.000000	10.805900
2218.000000	10.810800
2217.000000	10.791300
2216.000000	10.780800
2215.000000	10.751200
2214.000000	10.758700
2213.000000	10.749000
2212.000000	10.742700
2211.000000	10.716100
2210.000000	10.725400
2209.000000	10.724400
2208.000000	10.690700
2207.000000	10.687600
2206.000000	10.692400
2205.000000	10.665400
2204.000000	10.673300
2203.000000	10.681100
2202.000000	10.645700
2201.000000	10.639800
2200.000000	10.633200
2199.000000	10.630800
2198.000000	10.625100
2197.000000	10.633400
2196.000000	10.638100
2195.000000	10.616300
2194.000000	10.603700
2193.000000	10.598500
2192.000000	10.586200
2191.000000	10.589500
2190.000000	10.587100
2189.000000	10.551700
2188.000000	10.547000
2187.000000	10.533200
2186.000000	10.542000
2185.000000	10.525500
2184.000000	10.497400
2183.000000	10.502600
2182.000000	10.483400
2181.000000	10.457500
2180.000000	10.467900
2179.000000	10.445000
2178.000000	10.435400
2177.000000	10.429000
2176.000000	10.432600
2175.000000	10.435100
2174.000000	10.438900
2173.000000	10.418500
2172.000000	10.425800
2171.000000	10.445800
2170.000000	10.453700
2169.000000	10.427400
2168.000000	10.443000
2167.000000	10.440100
2166.000000	10.450700
2165.000000	10.465700
2164.000000	10.478200
2163.000000	10.484100
2162.000000	10.505000
2161.000000	10.508200
2160.000000	10.520000
2159.000000	10.525300
2158.000000	10.534700
2157.000000	10.564800
2156.000000	10.605000
2155.000000	10.620000
2154.000000	10.636800
2153.000000	10.662700
2152.000000	10.670400
2151.000000	10.680800
2150.000000	10.704200
2149.000000	10.741400
2148.000000	10.757900
2147.000000	10.754500
2146.000000	10.765700
2145.000000	10.790000
2144.000000	10.820900
2143.000000	10.822900
2142.000000	10.826700
2141.000000	10.847700
2140.000000	10.873200
2139.000000	10.880200
2138.000000	10.895400
2137.000000	10.903900
2136.000000	10.908800
2135.000000	10.912400
2134.000000	10.919600
2133.000000	10.921600
2132.000000	10.921100
2131.000000	10.924200
2130.000000	10.916400
2129.000000	10.927700
2128.000000	10.951400
2127.000000	10.926500
2126.000000	10.909700
2125.000000	10.903900
2124.000000	10.881800
2123.000000	10.876300
2122.000000	10.873600
2121.000000	10.857200
2120.000000	10.823300
2119.000000	10.807000
2118.000000	10.801000
2117.000000	10.794000
2116.000000	10.785100
2115.000000	10.754600
2114.000000	10.737300
2113.000000	10.724800
2112.000000	10.709600
2111.000000	10.687000
2110.000000	10.666000
2109.000000	10.645200
2108.000000	10.622900
2107.000000	10.619800
2106.000000	10.611500
2105.000000	10.587100
2104.000000	10.574900
2103.000000	10.557200
2102.000000	10.536400
2101.000000	10.537600
2100.000000	10.518700
2099.000000	10.488900
2098.000000	10.473900
2097.000000	10.468600
2096.000000	10.478000
2095.000000	10.472600
2094.000000	10.465100
2093.000000	10.463100
2092.000000	10.457000
2091.000000	10.463200
2090.000000	10.467900
2089.000000	10.455600
2088.000000	10.449300
2087.000000	10.450800
2086.000000	10.456100
2085.000000	10.445300
2084.000000	10.419900
2083.000000	10.419900
2082.000000	10.431300
2081.000000	10.413900
2080.000000	10.407100
2079.000000	10.410900
2078.000000	10.398100
2077.000000	10.387700
2076.000000	10.400300
2075.000000	10.381200
2074.000000	10.368100
2073.000000	10.363200
2072.000000	10.357700
2071.000000	10.354800
2070.000000	10.348800
2069.000000	10.343200
2068.000000	10.342900
2067.000000	10.325500
2066.000000	10.325800
2065.000000	10.312400
2064.000000	10.310300
2063.000000	10.325900
2062.000000	10.316500
2061.000000	10.311500
2060.000000	10.337100
2059.000000	10.347800
2058.000000	10.357600
2057.000000	10.377300
2056.000000	10.420000
2055.000000	10.459200
2054.000000	10.485000
2053.000000	10.534000
2052.000000	10.585800
2051.000000	10.635100
2050.000000	10.705800
2049.000000	10.781500
2048.000000	10.862700
2047.000000	10.953900
2046.000000	11.047200
2045.000000	11.132300
2044.000000	11.228300
2043.000000	11.326800
2042.000000	11.416500
2041.000000	11.529500
2040.000000	11.643700
2039.000000	11.738500
2038.000000	11.825900
2037.000000	11.919900
2036.000000	12.039500
2035.000000	12.126100
2034.000000	12.207100
2033.000000	12.283500
2032.000000	12.362900
2031.000000	12.425400
2030.000000	12.513600
2029.000000	12.589800
2028.000000	12.675200
2027.000000	12.738800
2026.000000	12.787700
2025.000000	12.861600
2024.000000	12.915700
2023.000000	12.971400
2022.000000	13.038300
2021.000000	13.086700
2020.000000	13.156100
2019.000000	13.210200
2018.000000	13.247300
2017.000000	13.286700
2016.000000	13.334900
2015.000000	13.379500
2014.000000	13.436300
2013.000000	13.472600
2012.000000	13.492800
2011.000000	13.516100
2010.000000	13.529100
2009.000000	13.544300
2008.000000	13.580700
2007.000000	13.576400
2006.000000	13.573400
2005.000000	13.590200
2004.000000	13.594500
2003.000000	13.581200
2002.000000	13.580100
2001.000000	13.538400
2000.000000	13.534000
1999.000000	13.525000
1998.000000	13.494100
1997.000000	13.483000
1996.000000	13.451000
1995.000000	13.415800
1994.000000	13.384600
1993.000000	13.346600
1992.000000	13.308200
1991.000000	13.270300
1990.000000	13.237500
1989.000000	13.178700
1988.000000	13.144100
1987.000000	13.103000
1986.000000	13.042000
1985.000000	12.992600
1984.000000	12.948100
1983.000000	12.893300
1982.000000	12.850200
1981.000000	12.796500
1980.000000	12.752500
1979.000000	12.667000
1978.000000	12.624200
1977.000000	12.559300
1976.000000	12.530700
1975.000000	12.460800
1974.000000	12.425200
1973.000000	12.374900
1972.000000	12.319800
1971.000000	12.266500
1970.000000	12.241100
1969.000000	12.184000
1968.000000	12.130700
1967.000000	12.111900
1966.000000	12.069300
1965.000000	12.004500
1964.000000	11.942100
1963.000000	11.927200
1962.000000	11.875000
1961.000000	11.826700
1960.000000	11.808000
1959.000000	11.742600
1958.000000	11.693600
1957.000000	11.645100
1956.000000	11.631800
1955.000000	11.577200
1954.000000	11.534500
1953.000000	11.471900
1952.000000	11.445400
1951.000000	11.407100
1950.000000	11.383700
1949.000000	11.367700
1948.000000	11.329900
1947.000000	11.297700
1946.000000	11.257900
1945.000000	11.259600
1944.000000	11.244700
1943.000000	11.220000
1942.000000	11.234200
1941.000000	11.224200
1940.000000	11.242800
1939.000000	11.224400
1938.000000	11.231300
1937.000000	11.230900
1936.000000	11.253800
1935.000000	11.293200
1934.000000	11.343100
1933.000000	11.384000
1932.000000	11.405700
1931.000000	11.474700
1930.000000	11.515800
1929.000000	11.578100
1928.000000	11.651200
1927.000000	11.720500
1926.000000	11.818400
1925.000000	11.895600
1924.000000	12.005600
1923.000000	12.101200
1922.000000	12.192900
1921.000000	12.321200
1920.000000	12.438800
1919.000000	12.543100
1918.000000	12.696000
1917.000000	12.861400
1916.000000	12.993700
1915.000000	13.131400
1914.000000	13.297100
1913.000000	13.452200
1912.000000	13.614400
1911.000000	13.782900
1910.000000	13.982000
1909.000000	14.157400
1908.000000	14.350900
1907.000000	14.530300
1906.000000	14.735100
1905.000000	14.930600
1904.000000	15.131500
1903.000000	15.353700
1902.000000	15.559900
1901.000000	15.795200
1900.000000	16.015800
1899.000000	16.243800
1898.000000	16.481600
1897.000000	16.718100
1896.000000	16.956200
1895.000000	17.201300
1894.000000	17.446900
1893.000000	17.689300
1892.000000	17.931300
1891.000000	18.168000
1890.000000	18.388500
1889.000000	18.665200
1888.000000	18.961300
1887.000000	19.277900
1886.000000	19.624100
1885.000000	20.005100
1884.000000	20.450200
1883.000000	20.866400
1882.000000	21.320700
1881.000000	21.835800
1880.000000	22.277600
1879.000000	22.712200
1878.000000	23.121400
1877.000000	23.508300
1876.000000	23.837200
1875.000000	24.150600
1874.000000	24.457800
1873.000000	24.717200
1872.000000	24.940400
1871.000000	25.162200
1870.000000	25.340700
1869.000000	25.516800
1868.000000	25.686900
1867.000000	25.797800
1866.000000	25.880800
1865.000000	25.970800
1864.000000	26.049200
1863.000000	26.120200
1862.000000	26.167400
1861.000000	26.183200
1860.000000	26.185400
1859.000000	26.152700
1858.000000	26.118800
1857.000000	26.109900
1856.000000	26.086100
1855.000000	26.025500
1854.000000	25.954400
1853.000000	25.874400
1852.000000	25.807500
1851.000000	25.773900
1850.000000	25.736000
1849.000000	25.650800
1848.000000	25.501300
1847.000000	25.356600
1846.000000	25.269000
1845.000000	25.251900
1844.000000	25.251300
1843.000000	25.245500
1842.000000	25.202400
1841.000000	25.111600
1840.000000	25.028500
1839.000000	24.957100
1838.000000	24.893400
1837.000000	24.830200
1836.000000	24.756300
1835.000000	24.659100
1834.000000	24.578900
1833.000000	24.533500
1832.000000	24.471100
1831.000000	24.383400
1830.000000	24.273200
1829.000000	24.159200
1828.000000	24.047500
1827.000000	23.956300
1826.000000	23.883800
1825.000000	23.832900
1824.000000	23.807200
1823.000000	23.818600
1822.000000	23.789700
1821.000000	23.707000
1820.000000	23.635100
1819.000000	23.600400
1818.000000	23.600200
1817.000000	23.626300
1816.000000	23.629000
1815.000000	23.609500
1814.000000	23.601900
1813.000000	23.584100
1812.000000	23.560400
1811.000000	23.511000
1810.000000	23.460100
1809.000000	23.442100
1808.000000	23.423600
1807.000000	23.366500
1806.000000	23.289400
1805.000000	23.229600
1804.000000	23.182100
1803.000000	23.142400
1802.000000	23.087000
1801.000000	23.013600
1800.000000	22.949300
1799.000000	22.889000
1798.000000	22.849800
1797.000000	22.820100
1796.000000	22.773400
1795.000000	22.711700
1794.000000	22.664100
1793.000000	22.594400
1792.000000	22.513400
1791.000000	22.462200
1790.000000	22.397300
1789.000000	22.320200
1788.000000	22.257100
1787.000000	22.171900
1786.000000	22.080800
1785.000000	21.990200
1784.000000	21.888900
1783.000000	21.782400
1782.000000	21.679600
1781.000000	21.586900
1780.000000	21.490600
1779.000000	21.389400
1778.000000	21.255200
1777.000000	21.111900
1776.000000	20.972400
1775.000000	20.823800
1774.000000	20.662800
1773.000000	20.495800
1772.000000	20.339500
1771.000000	20.191600
1770.000000	20.024600
1769.000000	19.883300
1768.000000	19.753500
1767.000000	19.620200
1766.000000	19.504100
1765.000000	19.436600
1764.000000	19.402900
1763.000000	19.379200
1762.000000	19.415200
1761.000000	19.479300
1760.000000	19.551700
1759.000000	19.648200
1758.000000	19.709800
1757.000000	19.779000
1756.000000	19.815700
1755.000000	19.855200
1754.000000	19.870000
1753.000000	19.861300
1752.000000	19.844600
1751.000000	19.784500
1750.000000	19.722800
1749.000000	19.643700
1748.000000	19.531800
1747.000000	19.425100
1746.000000	19.278300
1745.000000	19.112800
1744.000000	18.921100
1743.000000	18.668800
1742.000000	18.428800
1741.000000	18.175100
1740.000000	17.890400
1739.000000	17.623800
1738.000000	17.407500
1737.000000	17.209700
1736.000000	17.062800
1735.000000	17.009100
1734.000000	16.964800
1733.000000	17.004000
1732.000000	17.085400
1731.000000	17.197500
1730.000000	17.306300
1729.000000	17.453500
1728.000000	17.582100
1727.000000	17.711700
1726.000000	17.819300
1725.000000	17.894000
1724.000000	17.937500
1723.000000	17.984000
1722.000000	18.004700
1721.000000	17.975900
1720.000000	17.987600
1719.000000	18.011900
1718.000000	18.054600
1717.000000	18.097000
1716.000000	18.124300
1715.000000	18.212300
1714.000000	18.278800
1713.000000	18.318400
1712.000000	18.373300
1711.000000	18.390300
1710.000000	18.387300
1709.000000	18.386000
1708.000000	18.367200
1707.000000	18.334800
1706.000000	18.278200
1705.000000	18.227400
1704.000000	18.144500
1703.000000	18.057700
1702.000000	17.922500
1701.000000	17.789600
1700.000000	17.620600
1699.000000	17.424900
1698.000000	17.278800
1697.000000	17.182500
1696.000000	17.104100
1695.000000	17.121000
1694.000000	17.216500
1693.000000	17.377800
1692.000000	17.551000
1691.000000	17.759700
1690.000000	17.923600
1689.000000	18.034000
1688.000000	18.074300
1687.000000	18.055300
1686.000000	18.060700
1685.000000	18.094000
1684.000000	18.222600
1683.000000	18.449700
1682.000000	18.867600
1681.000000	19.465400
1680.000000	20.071500
1679.000000	20.720800
1678.000000	21.336900
1677.000000	21.918900
1676.000000	22.416800
1675.000000	22.859100
1674.000000	23.231500
1673.000000	23.591000
1672.000000	23.842900
1671.000000	24.081900
1670.000000	24.286600
1669.000000	24.460200
1668.000000	24.632700
1667.000000	24.784400
1666.000000	24.900500
1665.000000	25.004300
1664.000000	25.077900
1663.000000	25.159900
1662.000000	25.223200
1661.000000	25.268900
1660.000000	25.314900
1659.000000	25.337500
1658.000000	25.368000
1657.000000	25.350000
1656.000000	25.362400
1655.000000	25.368400
1654.000000	25.351800
1653.000000	25.328400
1652.000000	25.283200
1651.000000	25.267200
1650.000000	25.226700
1649.000000	25.181600
1648.000000	25.125100
1647.000000	25.055700
1646.000000	24.984900
1645.000000	24.920400
1644.000000	24.854400
1643.000000	24.774700
1642.000000	24.711400
1641.000000	24.641100
1640.000000	24.565100
1639.000000	24.468800
1638.000000	24.393000
1637.000000	24.326900
1636.000000	24.235700
1635.000000	24.140700
1634.000000	24.026100
1633.000000	23.954000
1632.000000	23.867400
1631.000000	23.762200
1630.000000	23.664400
1629.000000	23.572600
1628.000000	23.469900
1627.000000	23.373000
1626.000000	23.256900
1625.000000	23.162400
1624.000000	23.075800
1623.000000	22.972600
1622.000000	22.878300
1621.000000	22.787600
1620.000000	22.690600
1619.000000	22.602900
1618.000000	22.504200
1617.000000	22.420600
1616.000000	22.341600
1615.000000	22.237000
1614.000000	22.140900
1613.000000	22.062600
