PE UV       SUBTECH     SPECTRUM    ASCII       PEDS        4.00        
   -1
CICIMAUCR0008-2.Sample.ASC
24/04/12
14:36:05.00
24/04/12
14:36:05.00
Vinicio Soto Monge
C. kalinini
250,000000
1
Lambda 1050
1050L1511233
PerkinElmer UV WinLab 6.3.2.0749 / 2.02.05 Lambda 900 UV/VIS/NIR, Aug  7 2015 09:38:08

0
0
3350/servo 860,8/2
0
0
UV/VIS
1
1
1
DoubleDePol,CommonBeamDepol,RBeamAtt,SBeamAtt,60mm sphere, WB InGaAs Detector
0
0
0
0
Program
Program
3350/servo 860,8/2
3350/0,2 860,8/0,2
3350/0,2 860,8/0,2
0
15.00
 
 
 
0
 
860,8
319,2
860,8
Front
100
on
S:100 R:100
0
0
0
0
 
0
 
 
 
0
 
 
0
0
0
0
0
 
 
 
 
0
0


0
0
#HDR
-1
-1
#GR
nm
%R
1.0
0.0
2500,000000
-1,000000
2251
8
20,801700
1,178000
#DATA
2500.000000	5.726500
2499.000000	5.743200
2498.000000	5.890600
2497.000000	5.885300
2496.000000	5.857500
2495.000000	5.887700
2494.000000	5.860600
2493.000000	5.792900
2492.000000	5.750600
2491.000000	5.735500
2490.000000	5.754500
2489.000000	5.729300
2488.000000	5.744800
2487.000000	5.764600
2486.000000	5.685200
2485.000000	5.718000
2484.000000	5.608700
2483.000000	5.685100
2482.000000	5.722400
2481.000000	5.685000
2480.000000	5.733500
2479.000000	5.726000
2478.000000	5.720000
2477.000000	5.697200
2476.000000	5.715000
2475.000000	5.726700
2474.000000	5.797100
2473.000000	5.772500
2472.000000	5.825300
2471.000000	5.809300
2470.000000	5.828100
2469.000000	5.816100
2468.000000	5.839700
2467.000000	5.870900
2466.000000	5.931300
2465.000000	5.979900
2464.000000	6.011700
2463.000000	6.005300
2462.000000	6.039900
2461.000000	6.088800
2460.000000	6.131900
2459.000000	6.162500
2458.000000	6.193300
2457.000000	6.254000
2456.000000	6.281000
2455.000000	6.307400
2454.000000	6.346300
2453.000000	6.387000
2452.000000	6.431900
2451.000000	6.475100
2450.000000	6.491800
2449.000000	6.545400
2448.000000	6.589400
2447.000000	6.647200
2446.000000	6.670500
2445.000000	6.693600
2444.000000	6.738500
2443.000000	6.781300
2442.000000	6.794600
2441.000000	6.848100
2440.000000	6.897000
2439.000000	6.917200
2438.000000	6.944500
2437.000000	6.987200
2436.000000	7.033800
2435.000000	7.061700
2434.000000	7.095200
2433.000000	7.135700
2432.000000	7.212200
2431.000000	7.250300
2430.000000	7.267500
2429.000000	7.276100
2428.000000	7.249600
2427.000000	7.282100
2426.000000	7.308900
2425.000000	7.337900
2424.000000	7.349700
2423.000000	7.373000
2422.000000	7.411500
2421.000000	7.429400
2420.000000	7.430900
2419.000000	7.450000
2418.000000	7.462900
2417.000000	7.479400
2416.000000	7.524300
2415.000000	7.525100
2414.000000	7.525800
2413.000000	7.547600
2412.000000	7.565700
2411.000000	7.568900
2410.000000	7.581500
2409.000000	7.598800
2408.000000	7.608300
2407.000000	7.628800
2406.000000	7.644900
2405.000000	7.655300
2404.000000	7.659700
2403.000000	7.663300
2402.000000	7.668900
2401.000000	7.677100
2400.000000	7.687500
2399.000000	7.698600
2398.000000	7.704100
2397.000000	7.721700
2396.000000	7.729000
2395.000000	7.722700
2394.000000	7.715100
2393.000000	7.713000
2392.000000	7.722100
2391.000000	7.723700
2390.000000	7.722000
2389.000000	7.715500
2388.000000	7.716900
2387.000000	7.720800
2386.000000	7.726000
2385.000000	7.715500
2384.000000	7.699900
2383.000000	7.697300
2382.000000	7.696600
2381.000000	7.702000
2380.000000	7.704100
2379.000000	7.681100
2378.000000	7.675400
2377.000000	7.688700
2376.000000	7.662500
2375.000000	7.634800
2374.000000	7.636500
2373.000000	7.628600
2372.000000	7.615400
2371.000000	7.606100
2370.000000	7.598600
2369.000000	7.582400
2368.000000	7.572700
2367.000000	7.577800
2366.000000	7.562400
2365.000000	7.539000
2364.000000	7.519800
2363.000000	7.505100
2362.000000	7.494700
2361.000000	7.484700
2360.000000	7.477800
2359.000000	7.471900
2358.000000	7.454200
2357.000000	7.428000
2356.000000	7.423300
2355.000000	7.426300
2354.000000	7.412600
2353.000000	7.410400
2352.000000	7.420800
2351.000000	7.426500
2350.000000	7.427900
2349.000000	7.428800
2348.000000	7.424600
2347.000000	7.424400
2346.000000	7.425500
2345.000000	7.436100
2344.000000	7.442100
2343.000000	7.441000
2342.000000	7.439800
2341.000000	7.433400
2340.000000	7.442800
2339.000000	7.434500
2338.000000	7.423100
2337.000000	7.421500
2336.000000	7.412800
2335.000000	7.418800
2334.000000	7.425100
2333.000000	7.422400
2332.000000	7.427400
2331.000000	7.429100
2330.000000	7.427100
2329.000000	7.430200
2328.000000	7.440100
2327.000000	7.439700
2326.000000	7.442300
2325.000000	7.440100
2324.000000	7.445200
2323.000000	7.442000
2322.000000	7.442600
2321.000000	7.444000
2320.000000	7.443900
2319.000000	7.444800
2318.000000	7.438500
2317.000000	7.433500
2316.000000	7.447400
2315.000000	7.439300
2314.000000	7.456300
2313.000000	7.455000
2312.000000	7.461100
2311.000000	7.486500
2310.000000	7.489700
2309.000000	7.512600
2308.000000	7.524700
2307.000000	7.535500
2306.000000	7.568800
2305.000000	7.595100
2304.000000	7.624600
2303.000000	7.668500
2302.000000	7.687100
2301.000000	7.719500
2300.000000	7.763800
2299.000000	7.782100
2298.000000	7.821000
2297.000000	7.838500
2296.000000	7.875300
2295.000000	7.901700
2294.000000	7.905600
2293.000000	7.920600
2292.000000	7.925800
2291.000000	7.932800
2290.000000	7.945100
2289.000000	7.929700
2288.000000	7.913100
2287.000000	7.934200
2286.000000	7.935900
2285.000000	7.919700
2284.000000	7.887200
2283.000000	7.879800
2282.000000	7.867900
2281.000000	7.845200
2280.000000	7.851100
2279.000000	7.802300
2278.000000	7.791300
2277.000000	7.772600
2276.000000	7.776800
2275.000000	7.774000
2274.000000	7.750600
2273.000000	7.773200
2272.000000	7.790600
2271.000000	7.809900
2270.000000	7.833800
2269.000000	7.879600
2268.000000	7.898100
2267.000000	7.923400
2266.000000	7.992100
2265.000000	8.051900
2264.000000	8.119800
2263.000000	8.182500
2262.000000	8.240900
2261.000000	8.339800
2260.000000	8.408200
2259.000000	8.471600
2258.000000	8.565300
2257.000000	8.661200
2256.000000	8.732600
2255.000000	8.814900
2254.000000	8.885600
2253.000000	8.965600
2252.000000	9.045900
2251.000000	9.111400
2250.000000	9.183900
2249.000000	9.229500
2248.000000	9.308700
2247.000000	9.369400
2246.000000	9.430500
2245.000000	9.464700
2244.000000	9.520800
2243.000000	9.566400
2242.000000	9.613700
2241.000000	9.656800
2240.000000	9.708800
2239.000000	9.770400
2238.000000	9.776100
2237.000000	9.805300
2236.000000	9.847200
2235.000000	9.888000
2234.000000	9.914200
2233.000000	9.933500
2232.000000	9.966700
2231.000000	9.994700
2230.000000	9.989600
2229.000000	10.005500
2228.000000	10.048600
2227.000000	10.043800
2226.000000	10.060800
2225.000000	10.054000
2224.000000	10.059500
2223.000000	10.092300
2222.000000	10.084900
2221.000000	10.087400
2220.000000	10.095300
2219.000000	10.087100
2218.000000	10.106500
2217.000000	10.084000
2216.000000	10.074300
2215.000000	10.072300
2214.000000	10.066900
2213.000000	10.030000
2212.000000	10.044700
2211.000000	10.035100
2210.000000	10.002400
2209.000000	9.995500
2208.000000	9.979500
2207.000000	9.982400
2206.000000	9.976800
2205.000000	9.983000
2204.000000	9.955800
2203.000000	9.950400
2202.000000	9.946100
2201.000000	9.946600
2200.000000	9.927500
2199.000000	9.917100
2198.000000	9.915200
2197.000000	9.894900
2196.000000	9.921100
2195.000000	9.891800
2194.000000	9.888200
2193.000000	9.876100
2192.000000	9.871700
2191.000000	9.879000
2190.000000	9.887100
2189.000000	9.858300
2188.000000	9.855700
2187.000000	9.821200
2186.000000	9.840400
2185.000000	9.836500
2184.000000	9.803000
2183.000000	9.797700
2182.000000	9.773200
2181.000000	9.769800
2180.000000	9.763600
2179.000000	9.730100
2178.000000	9.726700
2177.000000	9.702900
2176.000000	9.712500
2175.000000	9.686000
2174.000000	9.672600
2173.000000	9.652900
2172.000000	9.664300
2171.000000	9.641500
2170.000000	9.641100
2169.000000	9.609200
2168.000000	9.603500
2167.000000	9.601200
2166.000000	9.585100
2165.000000	9.577300
2164.000000	9.568200
2163.000000	9.557600
2162.000000	9.540300
2161.000000	9.522600
2160.000000	9.514800
2159.000000	9.506000
2158.000000	9.473000
2157.000000	9.482300
2156.000000	9.480900
2155.000000	9.453700
2154.000000	9.441900
2153.000000	9.438400
2152.000000	9.435300
2151.000000	9.418500
2150.000000	9.393900
2149.000000	9.380700
2148.000000	9.381700
2147.000000	9.369800
2146.000000	9.367800
2145.000000	9.352400
2144.000000	9.338600
2143.000000	9.335200
2142.000000	9.314500
2141.000000	9.298600
2140.000000	9.284800
2139.000000	9.284400
2138.000000	9.274800
2137.000000	9.254000
2136.000000	9.239100
2135.000000	9.230400
2134.000000	9.192400
2133.000000	9.188900
2132.000000	9.183500
2131.000000	9.171800
2130.000000	9.166500
2129.000000	9.152700
2128.000000	9.129500
2127.000000	9.116500
2126.000000	9.083400
2125.000000	9.062900
2124.000000	9.059400
2123.000000	9.033300
2122.000000	9.012500
2121.000000	9.004600
2120.000000	8.985700
2119.000000	8.966100
2118.000000	8.969200
2117.000000	8.948700
2116.000000	8.923600
2115.000000	8.905700
2114.000000	8.905400
2113.000000	8.912700
2112.000000	8.896900
2111.000000	8.881400
2110.000000	8.871000
2109.000000	8.860100
2108.000000	8.864600
2107.000000	8.864800
2106.000000	8.861500
2105.000000	8.864700
2104.000000	8.861200
2103.000000	8.854500
2102.000000	8.865200
2101.000000	8.860400
2100.000000	8.856800
2099.000000	8.861700
2098.000000	8.874900
2097.000000	8.903000
2096.000000	8.918700
2095.000000	8.916000
2094.000000	8.917500
2093.000000	8.918900
2092.000000	8.933500
2091.000000	8.957700
2090.000000	8.963000
2089.000000	8.970100
2088.000000	8.979100
2087.000000	8.986200
2086.000000	9.016400
2085.000000	9.020800
2084.000000	9.022300
2083.000000	9.037700
2082.000000	9.042600
2081.000000	9.061300
2080.000000	9.080000
2079.000000	9.091900
2078.000000	9.114200
2077.000000	9.138100
2076.000000	9.152900
2075.000000	9.172000
2074.000000	9.190100
2073.000000	9.221500
2072.000000	9.232800
2071.000000	9.261800
2070.000000	9.280400
2069.000000	9.296500
2068.000000	9.340900
2067.000000	9.357800
2066.000000	9.380500
2065.000000	9.424600
2064.000000	9.448200
2063.000000	9.462000
2062.000000	9.502300
2061.000000	9.540300
2060.000000	9.549400
2059.000000	9.587900
2058.000000	9.620000
2057.000000	9.656500
2056.000000	9.704300
2055.000000	9.729300
2054.000000	9.761100
2053.000000	9.802600
2052.000000	9.856000
2051.000000	9.889500
2050.000000	9.932200
2049.000000	9.996300
2048.000000	10.040900
2047.000000	10.100700
2046.000000	10.159900
2045.000000	10.196300
2044.000000	10.235100
2043.000000	10.299000
2042.000000	10.363900
2041.000000	10.409300
2040.000000	10.449800
2039.000000	10.488000
2038.000000	10.533800
2037.000000	10.581700
2036.000000	10.655800
2035.000000	10.687000
2034.000000	10.724700
2033.000000	10.761400
2032.000000	10.804900
2031.000000	10.848600
2030.000000	10.866200
2029.000000	10.885600
2028.000000	10.913300
2027.000000	10.938300
2026.000000	10.971300
2025.000000	11.004500
2024.000000	11.020700
2023.000000	11.046500
2022.000000	11.066400
2021.000000	11.090500
2020.000000	11.106800
2019.000000	11.106800
2018.000000	11.132400
2017.000000	11.149200
2016.000000	11.166600
2015.000000	11.177600
2014.000000	11.178200
2013.000000	11.200300
2012.000000	11.205700
2011.000000	11.189600
2010.000000	11.187800
2009.000000	11.180200
2008.000000	11.181400
2007.000000	11.163400
2006.000000	11.180000
2005.000000	11.166500
2004.000000	11.147800
2003.000000	11.130000
2002.000000	11.118300
2001.000000	11.109000
2000.000000	11.089800
1999.000000	11.070800
1998.000000	11.049800
1997.000000	11.036900
1996.000000	11.019600
1995.000000	10.979100
1994.000000	10.943100
1993.000000	10.939100
1992.000000	10.925000
1991.000000	10.895100
1990.000000	10.873300
1989.000000	10.840400
1988.000000	10.806700
1987.000000	10.763100
1986.000000	10.756400
1985.000000	10.721400
1984.000000	10.682600
1983.000000	10.655200
1982.000000	10.628900
1981.000000	10.589500
1980.000000	10.546500
1979.000000	10.520200
1978.000000	10.483600
1977.000000	10.445000
1976.000000	10.413800
1975.000000	10.391400
1974.000000	10.364100
1973.000000	10.332600
1972.000000	10.284100
1971.000000	10.256800
1970.000000	10.209900
1969.000000	10.179400
1968.000000	10.148900
1967.000000	10.124200
1966.000000	10.106700
1965.000000	10.054900
1964.000000	10.028400
1963.000000	9.998200
1962.000000	9.944900
1961.000000	9.915200
1960.000000	9.896400
1959.000000	9.851200
1958.000000	9.816300
1957.000000	9.793600
1956.000000	9.756800
1955.000000	9.725100
1954.000000	9.695900
1953.000000	9.633500
1952.000000	9.584800
1951.000000	9.568600
1950.000000	9.573700
1949.000000	9.547900
1948.000000	9.520300
1947.000000	9.477000
1946.000000	9.438700
1945.000000	9.394300
1944.000000	9.375800
1943.000000	9.361400
1942.000000	9.356600
1941.000000	9.342700
1940.000000	9.291300
1939.000000	9.280300
1938.000000	9.235100
1937.000000	9.215500
1936.000000	9.197000
1935.000000	9.203600
1934.000000	9.205000
1933.000000	9.213300
1932.000000	9.227600
1931.000000	9.253800
1930.000000	9.252200
1929.000000	9.252600
1928.000000	9.244400
1927.000000	9.243200
1926.000000	9.252400
1925.000000	9.297100
1924.000000	9.351300
1923.000000	9.431200
1922.000000	9.469100
1921.000000	9.467400
1920.000000	9.507000
1919.000000	9.520300
1918.000000	9.587900
1917.000000	9.703800
1916.000000	9.836000
1915.000000	9.911100
1914.000000	9.974300
1913.000000	10.011900
1912.000000	10.074100
1911.000000	10.137000
1910.000000	10.288800
1909.000000	10.446700
1908.000000	10.591900
1907.000000	10.695000
1906.000000	10.821800
1905.000000	10.900500
1904.000000	10.985900
1903.000000	11.129500
1902.000000	11.287800
1901.000000	11.458000
1900.000000	11.571900
1899.000000	11.681700
1898.000000	11.784200
1897.000000	11.960300
1896.000000	12.139900
1895.000000	12.318100
1894.000000	12.488400
1893.000000	12.634600
1892.000000	12.751500
1891.000000	12.863900
1890.000000	12.944300
1889.000000	13.038100
1888.000000	13.202300
1887.000000	13.344200
1886.000000	13.501700
1885.000000	13.608300
1884.000000	13.708100
1883.000000	13.801100
1882.000000	13.882900
1881.000000	13.994100
1880.000000	14.130700
1879.000000	14.251300
1878.000000	14.364900
1877.000000	14.463900
1876.000000	14.529600
1875.000000	14.583800
1874.000000	14.650900
1873.000000	14.681300
1872.000000	14.688300
1871.000000	14.707400
1870.000000	14.712800
1869.000000	14.713400
1868.000000	14.749200
1867.000000	14.797300
1866.000000	14.841500
1865.000000	14.893000
1864.000000	14.943300
1863.000000	14.993300
1862.000000	15.049700
1861.000000	15.060500
1860.000000	15.042900
1859.000000	15.025800
1858.000000	14.997100
1857.000000	15.005500
1856.000000	15.044200
1855.000000	15.037800
1854.000000	15.011900
1853.000000	14.987100
1852.000000	14.975500
1851.000000	14.999700
1850.000000	15.055300
1849.000000	15.073300
1848.000000	15.006500
1847.000000	14.896900
1846.000000	14.811900
1845.000000	14.833600
1844.000000	14.926000
1843.000000	14.988500
1842.000000	14.986900
1841.000000	14.924200
1840.000000	14.865200
1839.000000	14.850900
1838.000000	14.849300
1837.000000	14.807500
1836.000000	14.750400
1835.000000	14.722600
1834.000000	14.729600
1833.000000	14.756200
1832.000000	14.765000
1831.000000	14.754400
1830.000000	14.721400
1829.000000	14.685800
1828.000000	14.662300
1827.000000	14.656300
1826.000000	14.625900
1825.000000	14.605200
1824.000000	14.637300
1823.000000	14.678300
1822.000000	14.690500
1821.000000	14.649000
1820.000000	14.578500
1819.000000	14.542100
1818.000000	14.566500
1817.000000	14.606600
1816.000000	14.620000
1815.000000	14.605800
1814.000000	14.603800
1813.000000	14.632300
1812.000000	14.626900
1811.000000	14.594100
1810.000000	14.582100
1809.000000	14.586300
1808.000000	14.590500
1807.000000	14.603300
1806.000000	14.590600
1805.000000	14.560100
1804.000000	14.562300
1803.000000	14.567800
1802.000000	14.563200
1801.000000	14.544200
1800.000000	14.513800
1799.000000	14.500200
1798.000000	14.494400
1797.000000	14.506100
1796.000000	14.492800
1795.000000	14.479700
1794.000000	14.468300
1793.000000	14.456500
1792.000000	14.457700
1791.000000	14.445200
1790.000000	14.451100
1789.000000	14.445400
1788.000000	14.431400
1787.000000	14.418900
1786.000000	14.412400
1785.000000	14.407300
1784.000000	14.376900
1783.000000	14.369900
1782.000000	14.371300
1781.000000	14.349500
1780.000000	14.338000
1779.000000	14.324000
1778.000000	14.304100
1777.000000	14.278900
1776.000000	14.268200
1775.000000	14.241500
1774.000000	14.219200
1773.000000	14.209600
1772.000000	14.191100
1771.000000	14.169100
1770.000000	14.160400
1769.000000	14.141600
1768.000000	14.124000
1767.000000	14.120300
1766.000000	14.098900
1765.000000	14.090300
1764.000000	14.091700
1763.000000	14.093800
1762.000000	14.097000
1761.000000	14.099100
1760.000000	14.109500
1759.000000	14.149500
1758.000000	14.180200
1757.000000	14.176800
1756.000000	14.188600
1755.000000	14.183000
1754.000000	14.197000
1753.000000	14.218600
1752.000000	14.212200
1751.000000	14.216100
1750.000000	14.221800
1749.000000	14.202300
1748.000000	14.192600
1747.000000	14.188100
1746.000000	14.177000
1745.000000	14.149300
1744.000000	14.136600
1743.000000	14.126100
1742.000000	14.089900
1741.000000	14.053000
1740.000000	14.030200
1739.000000	13.999600
1738.000000	13.987200
1737.000000	13.972600
1736.000000	13.939000
1735.000000	13.923200
1734.000000	13.912000
1733.000000	13.915600
1732.000000	13.934800
1731.000000	13.948700
1730.000000	13.941800
1729.000000	13.962700
1728.000000	13.988100
1727.000000	13.989800
1726.000000	14.022100
1725.000000	14.032200
1724.000000	14.029400
1723.000000	14.021200
1722.000000	14.021800
1721.000000	14.030000
1720.000000	14.052900
1719.000000	14.078600
1718.000000	14.088500
1717.000000	14.094000
1716.000000	14.094100
1715.000000	14.137300
1714.000000	14.118900
1713.000000	14.158700
1712.000000	14.154100
1711.000000	14.152400
1710.000000	14.184600
1709.000000	14.167300
1708.000000	14.163900
1707.000000	14.147400
1706.000000	14.152200
1705.000000	14.163700
1704.000000	14.150800
1703.000000	14.137300
1702.000000	14.146100
1701.000000	14.128400
1700.000000	14.134200
1699.000000	14.104800
1698.000000	14.114700
1697.000000	14.101900
1696.000000	14.096200
1695.000000	14.109100
1694.000000	14.128600
1693.000000	14.158500
1692.000000	14.157100
1691.000000	14.186200
1690.000000	14.212200
1689.000000	14.238600
1688.000000	14.262300
1687.000000	14.266200
1686.000000	14.284900
1685.000000	14.290500
1684.000000	14.332800
1683.000000	14.359100
1682.000000	14.404700
1681.000000	14.478300
1680.000000	14.539100
1679.000000	14.616300
1678.000000	14.681500
1677.000000	14.759200
1676.000000	14.800600
1675.000000	14.862800
1674.000000	14.920500
1673.000000	14.963700
1672.000000	15.007900
1671.000000	15.053400
1670.000000	15.072800
1669.000000	15.089400
1668.000000	15.115800
1667.000000	15.163200
1666.000000	15.192200
1665.000000	15.192700
1664.000000	15.194100
1663.000000	15.214200
1662.000000	15.236200
1661.000000	15.230700
1660.000000	15.238300
1659.000000	15.248300
1658.000000	15.239900
1657.000000	15.249100
1656.000000	15.259400
1655.000000	15.249700
1654.000000	15.248900
1653.000000	15.225300
1652.000000	15.239700
1651.000000	15.218200
1650.000000	15.205900
1649.000000	15.193700
1648.000000	15.176400
1647.000000	15.172300
1646.000000	15.171600
1645.000000	15.147400
1644.000000	15.138200
1643.000000	15.121100
1642.000000	15.107700
1641.000000	15.090100
1640.000000	15.067400
1639.000000	15.037500
1638.000000	15.020300
1637.000000	15.010100
1636.000000	14.994100
1635.000000	14.962900
1634.000000	14.943100
1633.000000	14.920700
1632.000000	14.905700
1631.000000	14.888100
1630.000000	14.862100
1629.000000	14.829500
1628.000000	14.821300
1627.000000	14.807200
1626.000000	14.772900
1625.000000	14.741900
1624.000000	14.725600
1623.000000	14.697100
1622.000000	14.686400
1621.000000	14.660300
1620.000000	14.625500
1619.000000	14.607600
1618.000000	14.571900
1617.000000	14.553000
1616.000000	14.529700
1615.000000	14.484900
1614.000000	14.463800
1613.000000	14.445000
1612.000000	14.404200
1611.000000	14.375900
1610.000000	14.355800
1609.000000	14.318300
1608.000000	14.296000
1607.000000	14.256500
1606.000000	14.238000
1605.000000	14.214800
1604.000000	14.189000
1603.000000	14.134400
1602.000000	14.095200
