PE UV       SUBTECH     SPECTRUM    ASCII       PEDS        4.00        
   -1
CICIMAUCR0001-5.Sample.ASC
24/04/23
10:47:46.00
24/04/23
10:47:46.00
Vinicio Soto Monge
C. kalinini
250,000000
1
Lambda 1050
1050L1511233
PerkinElmer UV WinLab 6.3.2.0749 / 2.02.05 Lambda 900 UV/VIS/NIR, Aug  7 2015 09:38:08

0
0
3350/servo 860,8/2
0
0
UV/VIS
1
1
1
DoubleDePol,CommonBeamDepol,RBeamAtt,SBeamAtt,60mm sphere, WB InGaAs Detector
0
0
0
0
Program
Program
3350/servo 860,8/2
3350/0,2 860,8/0,2
3350/0,2 860,8/0,2
0
15.00
 
 
 
0
 
860,8
319,2
860,8
Front
100
on
S:100 R:100
0
0
0
0
 
0
 
 
 
0
 
 
0
0
0
0
0
 
 
 
 
0
0


0
0
#HDR
-1
-1
#GR
nm
%R
1.0
0.0
2500,000000
-1,000000
2251
8
101,472100
5,465400
#DATA
2500.000000	13.434300
2499.000000	13.434600
2498.000000	13.266000
2497.000000	13.315600
2496.000000	13.328500
2495.000000	13.350900
2494.000000	13.356200
2493.000000	13.211800
2492.000000	13.315600
2491.000000	13.217100
2490.000000	13.232700
2489.000000	13.251800
2488.000000	13.247900
2487.000000	13.226600
2486.000000	13.297300
2485.000000	13.189700
2484.000000	13.267100
2483.000000	13.269800
2482.000000	13.242500
2481.000000	13.325600
2480.000000	13.334100
2479.000000	13.292700
2478.000000	13.318800
2477.000000	13.332700
2476.000000	13.376200
2475.000000	13.410700
2474.000000	13.469700
2473.000000	13.440900
2472.000000	13.452100
2471.000000	13.525700
2470.000000	13.557100
2469.000000	13.615100
2468.000000	13.627600
2467.000000	13.686800
2466.000000	13.735900
2465.000000	13.793800
2464.000000	13.823100
2463.000000	13.847900
2462.000000	13.931900
2461.000000	13.984900
2460.000000	14.025300
2459.000000	14.112100
2458.000000	14.168100
2457.000000	14.238700
2456.000000	14.303400
2455.000000	14.371700
2454.000000	14.406700
2453.000000	14.524200
2452.000000	14.598400
2451.000000	14.694800
2450.000000	14.789900
2449.000000	14.871000
2448.000000	14.967200
2447.000000	15.067700
2446.000000	15.156300
2445.000000	15.236300
2444.000000	15.342000
2443.000000	15.435200
2442.000000	15.535300
2441.000000	15.643500
2440.000000	15.742100
2439.000000	15.828000
2438.000000	15.911400
2437.000000	16.016400
2436.000000	16.108400
2435.000000	16.203500
2434.000000	16.299900
2433.000000	16.375800
2432.000000	16.471800
2431.000000	16.557600
2430.000000	16.648500
2429.000000	16.734300
2428.000000	16.808100
2427.000000	16.899900
2426.000000	16.977600
2425.000000	17.053600
2424.000000	17.155600
2423.000000	17.265800
2422.000000	17.368000
2421.000000	17.439400
2420.000000	17.509800
2419.000000	17.579300
2418.000000	17.633900
2417.000000	17.714100
2416.000000	17.808500
2415.000000	17.876000
2414.000000	17.927000
2413.000000	17.982500
2412.000000	18.046800
2411.000000	18.108300
2410.000000	18.129800
2409.000000	18.185300
2408.000000	18.249500
2407.000000	18.293200
2406.000000	18.330600
2405.000000	18.371800
2404.000000	18.420500
2403.000000	18.465600
2402.000000	18.497200
2401.000000	18.520900
2400.000000	18.562900
2399.000000	18.588900
2398.000000	18.619300
2397.000000	18.658000
2396.000000	18.683800
2395.000000	18.709800
2394.000000	18.728400
2393.000000	18.731300
2392.000000	18.773200
2391.000000	18.799000
2390.000000	18.807100
2389.000000	18.836100
2388.000000	18.843200
2387.000000	18.846300
2386.000000	18.848400
2385.000000	18.860800
2384.000000	18.875000
2383.000000	18.862200
2382.000000	18.866200
2381.000000	18.882500
2380.000000	18.873500
2379.000000	18.860100
2378.000000	18.860300
2377.000000	18.861500
2376.000000	18.856000
2375.000000	18.834900
2374.000000	18.827800
2373.000000	18.827800
2372.000000	18.816100
2371.000000	18.828200
2370.000000	18.831100
2369.000000	18.820600
2368.000000	18.821000
2367.000000	18.833300
2366.000000	18.838400
2365.000000	18.839500
2364.000000	18.841400
2363.000000	18.843200
2362.000000	18.844300
2361.000000	18.844000
2360.000000	18.852100
2359.000000	18.851100
2358.000000	18.843100
2357.000000	18.829900
2356.000000	18.825500
2355.000000	18.823300
2354.000000	18.819500
2353.000000	18.806600
2352.000000	18.804700
2351.000000	18.804900
2350.000000	18.787100
2349.000000	18.770700
2348.000000	18.762000
2347.000000	18.758500
2346.000000	18.754800
2345.000000	18.754700
2344.000000	18.748100
2343.000000	18.727500
2342.000000	18.713200
2341.000000	18.717900
2340.000000	18.729300
2339.000000	18.732600
2338.000000	18.730100
2337.000000	18.729500
2336.000000	18.743900
2335.000000	18.773000
2334.000000	18.790400
2333.000000	18.790000
2332.000000	18.796700
2331.000000	18.829600
2330.000000	18.862100
2329.000000	18.878900
2328.000000	18.894800
2327.000000	18.911700
2326.000000	18.953100
2325.000000	18.966600
2324.000000	19.001200
2323.000000	19.031400
2322.000000	19.047100
2321.000000	19.069000
2320.000000	19.067800
2319.000000	19.064500
2318.000000	19.074300
2317.000000	19.077100
2316.000000	19.051800
2315.000000	19.038100
2314.000000	19.014700
2313.000000	18.982100
2312.000000	18.948400
2311.000000	18.911700
2310.000000	18.887900
2309.000000	18.882000
2308.000000	18.843800
2307.000000	18.823400
2306.000000	18.783800
2305.000000	18.745600
2304.000000	18.737600
2303.000000	18.716600
2302.000000	18.705000
2301.000000	18.692100
2300.000000	18.675700
2299.000000	18.678200
2298.000000	18.683600
2297.000000	18.685700
2296.000000	18.706300
2295.000000	18.704800
2294.000000	18.725700
2293.000000	18.739000
2292.000000	18.739100
2291.000000	18.768000
2290.000000	18.798700
2289.000000	18.818100
2288.000000	18.863800
2287.000000	18.902500
2286.000000	18.931100
2285.000000	18.944600
2284.000000	18.978400
2283.000000	19.015200
2282.000000	19.067700
2281.000000	19.115900
2280.000000	19.134600
2279.000000	19.181500
2278.000000	19.214300
2277.000000	19.245000
2276.000000	19.261400
2275.000000	19.296600
2274.000000	19.324600
2273.000000	19.353300
2272.000000	19.365300
2271.000000	19.406000
2270.000000	19.443300
2269.000000	19.468000
2268.000000	19.509700
2267.000000	19.584000
2266.000000	19.614000
2265.000000	19.694300
2264.000000	19.776300
2263.000000	19.854700
2262.000000	19.931100
2261.000000	20.053600
2260.000000	20.168200
2259.000000	20.288200
2258.000000	20.418500
2257.000000	20.557400
2256.000000	20.704800
2255.000000	20.846300
2254.000000	21.004100
2253.000000	21.167300
2252.000000	21.320700
2251.000000	21.465700
2250.000000	21.613600
2249.000000	21.755600
2248.000000	21.897000
2247.000000	22.028000
2246.000000	22.146600
2245.000000	22.266900
2244.000000	22.384300
2243.000000	22.486200
2242.000000	22.566800
2241.000000	22.633100
2240.000000	22.693000
2239.000000	22.776800
2238.000000	22.815100
2237.000000	22.866000
2236.000000	22.889500
2235.000000	22.891100
2234.000000	22.947100
2233.000000	22.946900
2232.000000	22.916300
2231.000000	22.914200
2230.000000	22.889600
2229.000000	22.873000
2228.000000	22.825900
2227.000000	22.780300
2226.000000	22.770700
2225.000000	22.708200
2224.000000	22.631200
2223.000000	22.582100
2222.000000	22.535100
2221.000000	22.456500
2220.000000	22.379600
2219.000000	22.305400
2218.000000	22.237300
2217.000000	22.161600
2216.000000	22.114800
2215.000000	22.033800
2214.000000	21.942400
2213.000000	21.903800
2212.000000	21.840000
2211.000000	21.774100
2210.000000	21.707000
2209.000000	21.657300
2208.000000	21.619500
2207.000000	21.581900
2206.000000	21.522700
2205.000000	21.468800
2204.000000	21.436000
2203.000000	21.407400
2202.000000	21.387400
2201.000000	21.360700
2200.000000	21.345300
2199.000000	21.292000
2198.000000	21.277100
2197.000000	21.261400
2196.000000	21.257000
2195.000000	21.231300
2194.000000	21.220200
2193.000000	21.201300
2192.000000	21.203100
2191.000000	21.157500
2190.000000	21.155100
2189.000000	21.157500
2188.000000	21.149100
2187.000000	21.131400
2186.000000	21.133600
2185.000000	21.120600
2184.000000	21.093300
2183.000000	21.108500
2182.000000	21.082600
2181.000000	21.069800
2180.000000	21.057800
2179.000000	21.063400
2178.000000	21.061500
2177.000000	21.045400
2176.000000	21.051500
2175.000000	21.060800
2174.000000	21.066000
2173.000000	21.063700
2172.000000	21.072800
2171.000000	21.115900
2170.000000	21.136700
2169.000000	21.154500
2168.000000	21.187600
2167.000000	21.216900
2166.000000	21.219900
2165.000000	21.263400
2164.000000	21.322700
2163.000000	21.380700
2162.000000	21.441900
2161.000000	21.500800
2160.000000	21.558400
2159.000000	21.633100
2158.000000	21.692200
2157.000000	21.771200
2156.000000	21.868400
2155.000000	21.953500
2154.000000	22.042200
2153.000000	22.142900
2152.000000	22.243900
2151.000000	22.351600
2150.000000	22.454800
2149.000000	22.551900
2148.000000	22.666000
2147.000000	22.758900
2146.000000	22.859300
2145.000000	22.951600
2144.000000	23.057600
2143.000000	23.156900
2142.000000	23.263600
2141.000000	23.364400
2140.000000	23.458800
2139.000000	23.541900
2138.000000	23.649800
2137.000000	23.728700
2136.000000	23.816100
2135.000000	23.906500
2134.000000	24.002800
2133.000000	24.076600
2132.000000	24.146200
2131.000000	24.216100
2130.000000	24.278500
2129.000000	24.325300
2128.000000	24.403800
2127.000000	24.486100
2126.000000	24.525500
2125.000000	24.567700
2124.000000	24.615700
2123.000000	24.670000
2122.000000	24.715000
2121.000000	24.736600
2120.000000	24.759600
2119.000000	24.792300
2118.000000	24.833200
2117.000000	24.859600
2116.000000	24.876800
2115.000000	24.903500
2114.000000	24.919500
2113.000000	24.929300
2112.000000	24.940500
2111.000000	24.942700
2110.000000	24.957100
2109.000000	24.950800
2108.000000	24.944800
2107.000000	24.952300
2106.000000	24.952600
2105.000000	24.943500
2104.000000	24.953300
2103.000000	24.970700
2102.000000	24.967900
2101.000000	24.963500
2100.000000	24.960600
2099.000000	24.961700
2098.000000	24.963300
2097.000000	24.970300
2096.000000	24.980900
2095.000000	24.984100
2094.000000	24.990100
2093.000000	25.005200
2092.000000	25.023600
2091.000000	25.029000
2090.000000	25.031200
2089.000000	25.042700
2088.000000	25.054400
2087.000000	25.069800
2086.000000	25.075000
2085.000000	25.057600
2084.000000	25.021500
2083.000000	25.011200
2082.000000	24.995000
2081.000000	24.959600
2080.000000	24.921700
2079.000000	24.875400
2078.000000	24.810900
2077.000000	24.738500
2076.000000	24.674500
2075.000000	24.606500
2074.000000	24.520800
2073.000000	24.427400
2072.000000	24.339200
2071.000000	24.253100
2070.000000	24.169700
2069.000000	24.065300
2068.000000	23.958800
2067.000000	23.834400
2066.000000	23.738600
2065.000000	23.638800
2064.000000	23.511200
2063.000000	23.399200
2062.000000	23.315600
2061.000000	23.230200
2060.000000	23.134800
2059.000000	23.063400
2058.000000	23.007400
2057.000000	22.961200
2056.000000	22.932900
2055.000000	22.927200
2054.000000	22.940400
2053.000000	22.958500
2052.000000	22.992700
2051.000000	23.049200
2050.000000	23.128700
2049.000000	23.234400
2048.000000	23.357500
2047.000000	23.474200
2046.000000	23.591800
2045.000000	23.725100
2044.000000	23.884200
2043.000000	24.038200
2042.000000	24.174500
2041.000000	24.305100
2040.000000	24.463400
2039.000000	24.606300
2038.000000	24.733900
2037.000000	24.861900
2036.000000	24.991900
2035.000000	25.103900
2034.000000	25.216900
2033.000000	25.335400
2032.000000	25.452200
2031.000000	25.537300
2030.000000	25.625200
2029.000000	25.709100
2028.000000	25.776900
2027.000000	25.863200
2026.000000	25.963000
2025.000000	26.016800
2024.000000	26.066100
2023.000000	26.150500
2022.000000	26.184000
2021.000000	26.217500
2020.000000	26.284600
2019.000000	26.319800
2018.000000	26.345000
2017.000000	26.357400
2016.000000	26.378200
2015.000000	26.396200
2014.000000	26.430200
2013.000000	26.418200
2012.000000	26.418500
2011.000000	26.426000
2010.000000	26.412500
2009.000000	26.403500
2008.000000	26.374600
2007.000000	26.352300
2006.000000	26.314000
2005.000000	26.278100
2004.000000	26.212200
2003.000000	26.173900
2002.000000	26.128600
2001.000000	26.073700
2000.000000	26.011100
1999.000000	25.946300
1998.000000	25.872500
1997.000000	25.791200
1996.000000	25.717300
1995.000000	25.635900
1994.000000	25.534100
1993.000000	25.459200
1992.000000	25.371600
1991.000000	25.277500
1990.000000	25.170900
1989.000000	25.091100
1988.000000	24.985500
1987.000000	24.894700
1986.000000	24.787400
1985.000000	24.693500
1984.000000	24.581800
1983.000000	24.466100
1982.000000	24.370800
1981.000000	24.285800
1980.000000	24.169000
1979.000000	24.071600
1978.000000	23.976200
1977.000000	23.862100
1976.000000	23.771300
1975.000000	23.660200
1974.000000	23.562500
1973.000000	23.472500
1972.000000	23.366400
1971.000000	23.278300
1970.000000	23.178400
1969.000000	23.099500
1968.000000	23.001400
1967.000000	22.917000
1966.000000	22.829200
1965.000000	22.727800
1964.000000	22.610600
1963.000000	22.522700
1962.000000	22.428600
1961.000000	22.322700
1960.000000	22.223600
1959.000000	22.112600
1958.000000	22.024700
1957.000000	21.925500
1956.000000	21.835700
1955.000000	21.722900
1954.000000	21.636400
1953.000000	21.539200
1952.000000	21.424100
1951.000000	21.332700
1950.000000	21.251800
1949.000000	21.170300
1948.000000	21.113300
1947.000000	21.017000
1946.000000	20.924200
1945.000000	20.870500
1944.000000	20.793500
1943.000000	20.755100
1942.000000	20.701000
1941.000000	20.664000
1940.000000	20.612100
1939.000000	20.603000
1938.000000	20.588100
1937.000000	20.567400
1936.000000	20.543200
1935.000000	20.560200
1934.000000	20.590400
1933.000000	20.603300
1932.000000	20.653800
1931.000000	20.707100
1930.000000	20.753800
1929.000000	20.841700
1928.000000	20.926900
1927.000000	21.011600
1926.000000	21.102700
1925.000000	21.229900
1924.000000	21.368500
1923.000000	21.498300
1922.000000	21.661800
1921.000000	21.853600
1920.000000	22.064900
1919.000000	22.243000
1918.000000	22.464900
1917.000000	22.667000
1916.000000	22.898400
1915.000000	23.178700
1914.000000	23.484000
1913.000000	23.787300
1912.000000	24.115300
1911.000000	24.430700
1910.000000	24.756000
1909.000000	25.065900
1908.000000	25.463000
1907.000000	25.884500
1906.000000	26.385500
1905.000000	26.894200
1904.000000	27.373200
1903.000000	27.843500
1902.000000	28.303500
1901.000000	28.845500
1900.000000	29.440100
1899.000000	30.003700
1898.000000	30.581100
1897.000000	31.149000
1896.000000	31.660300
1895.000000	32.180900
1894.000000	32.760100
1893.000000	33.327700
1892.000000	33.969200
1891.000000	34.564700
1890.000000	35.113400
1889.000000	35.611900
1888.000000	36.134700
1887.000000	36.606500
1886.000000	37.085100
1885.000000	37.581900
1884.000000	38.072600
1883.000000	38.475500
1882.000000	38.851800
1881.000000	39.230800
1880.000000	39.551400
1879.000000	39.878900
1878.000000	40.204500
1877.000000	40.512100
1876.000000	40.801000
1875.000000	41.088700
1874.000000	41.357600
1873.000000	41.629000
1872.000000	41.861400
1871.000000	42.055800
1870.000000	42.221100
1869.000000	42.396100
1868.000000	42.515800
1867.000000	42.611100
1866.000000	42.687500
1865.000000	42.771500
1864.000000	42.861000
1863.000000	42.949600
1862.000000	43.046400
1861.000000	43.158800
1860.000000	43.275000
1859.000000	43.352900
1858.000000	43.413300
1857.000000	43.467000
1856.000000	43.503300
1855.000000	43.558600
1854.000000	43.594400
1853.000000	43.609100
1852.000000	43.639700
1851.000000	43.645400
1850.000000	43.688600
1849.000000	43.773600
1848.000000	43.808100
1847.000000	43.781500
1846.000000	43.726000
1845.000000	43.684000
1844.000000	43.657000
1843.000000	43.689100
1842.000000	43.742700
1841.000000	43.730600
1840.000000	43.696300
1839.000000	43.662500
1838.000000	43.633600
1837.000000	43.611900
1836.000000	43.570200
1835.000000	43.512500
1834.000000	43.442000
1833.000000	43.393700
1832.000000	43.373300
1831.000000	43.359800
1830.000000	43.356100
1829.000000	43.341400
1828.000000	43.286400
1827.000000	43.257800
1826.000000	43.235100
1825.000000	43.198800
1824.000000	43.183600
1823.000000	43.208400
1822.000000	43.245900
1821.000000	43.261100
1820.000000	43.251900
1819.000000	43.218000
1818.000000	43.182700
1817.000000	43.170100
1816.000000	43.168700
1815.000000	43.138900
1814.000000	43.116400
1813.000000	43.107900
1812.000000	43.091600
1811.000000	43.055100
1810.000000	43.025900
1809.000000	42.990300
1808.000000	42.957600
1807.000000	42.953100
1806.000000	42.928000
1805.000000	42.881600
1804.000000	42.850700
1803.000000	42.825400
1802.000000	42.818600
1801.000000	42.790400
1800.000000	42.743900
1799.000000	42.693300
1798.000000	42.674000
1797.000000	42.657300
1796.000000	42.627500
1795.000000	42.604600
1794.000000	42.596700
1793.000000	42.556100
1792.000000	42.521100
1791.000000	42.506000
1790.000000	42.498000
1789.000000	42.482300
1788.000000	42.483800
1787.000000	42.475700
1786.000000	42.480300
1785.000000	42.472900
1784.000000	42.440600
1783.000000	42.426900
1782.000000	42.414300
1781.000000	42.402900
1780.000000	42.382500
1779.000000	42.347900
1778.000000	42.307400
1777.000000	42.276500
1776.000000	42.224100
1775.000000	42.172400
1774.000000	42.134000
1773.000000	42.086000
1772.000000	42.034700
1771.000000	41.996300
1770.000000	41.954200
1769.000000	41.907200
1768.000000	41.857800
1767.000000	41.830700
1766.000000	41.802000
1765.000000	41.765800
1764.000000	41.726800
1763.000000	41.704600
1762.000000	41.679900
1761.000000	41.683200
1760.000000	41.674300
1759.000000	41.648600
1758.000000	41.650100
1757.000000	41.633800
1756.000000	41.635900
1755.000000	41.624900
1754.000000	41.613300
1753.000000	41.607900
1752.000000	41.601700
1751.000000	41.582400
1750.000000	41.557900
1749.000000	41.527100
1748.000000	41.492900
1747.000000	41.433900
1746.000000	41.387200
1745.000000	41.334700
1744.000000	41.263800
1743.000000	41.202200
1742.000000	41.149300
1741.000000	41.091200
1740.000000	41.028900
1739.000000	40.967900
1738.000000	40.920300
1737.000000	40.870100
1736.000000	40.833400
1735.000000	40.795400
1734.000000	40.754500
1733.000000	40.740500
1732.000000	40.705300
1731.000000	40.656200
1730.000000	40.635200
1729.000000	40.620500
1728.000000	40.589800
1727.000000	40.567700
1726.000000	40.551800
1725.000000	40.548400
1724.000000	40.589500
1723.000000	40.632500
1722.000000	40.715400
1721.000000	40.854600
1720.000000	41.011100
1719.000000	41.196600
1718.000000	41.425600
1717.000000	41.615700
1716.000000	41.818000
1715.000000	42.019200
1714.000000	42.185400
1713.000000	42.357400
1712.000000	42.508800
1711.000000	42.640500
1710.000000	42.772300
1709.000000	42.887000
1708.000000	42.979900
1707.000000	43.047700
1706.000000	43.130600
1705.000000	43.187900
1704.000000	43.208300
1703.000000	43.247600
1702.000000	43.268400
1701.000000	43.297500
1700.000000	43.297800
1699.000000	43.309500
1698.000000	43.296000
1697.000000	43.287500
1696.000000	43.261000
1695.000000	43.232000
1694.000000	43.164500
1693.000000	43.115000
1692.000000	43.058800
1691.000000	42.991600
1690.000000	42.952000
1689.000000	42.947000
1688.000000	42.977600
1687.000000	43.055900
1686.000000	43.173900
1685.000000	43.343700
1684.000000	43.493500
1683.000000	43.682000
1682.000000	43.873800
1681.000000	44.104500
1680.000000	44.278900
1679.000000	44.466000
1678.000000	44.638800
1677.000000	44.822300
1676.000000	44.977300
1675.000000	45.118200
1674.000000	45.287600
1673.000000	45.442700
1672.000000	45.603400
1671.000000	45.762800
1670.000000	45.913600
1669.000000	46.101500
1668.000000	46.253100
1667.000000	46.405700
1666.000000	46.525800
1665.000000	46.666800
1664.000000	46.787300
1663.000000	46.918000
1662.000000	47.028100
1661.000000	47.129800
1660.000000	47.233300
1659.000000	47.316700
1658.000000	47.378600
1657.000000	47.456700
1656.000000	47.509100
1655.000000	47.541300
1654.000000	47.570700
1653.000000	47.600800
1652.000000	47.622200
1651.000000	47.633300
1650.000000	47.639500
1649.000000	47.636200
1648.000000	47.646600
1647.000000	47.626200
1646.000000	47.598200
1645.000000	47.600800
1644.000000	47.586600
1643.000000	47.564700
1642.000000	47.563100
1641.000000	47.574000
1640.000000	47.564700
1639.000000	47.547000
1638.000000	47.541900
1637.000000	47.520400
1636.000000	47.505300
1635.000000	47.500900
1634.000000	47.459200
1633.000000	47.430800
1632.000000	47.403700
1631.000000	47.359900
1630.000000	47.331500
1629.000000	47.298300
1628.000000	47.269500
1627.000000	47.244900
1626.000000	47.210200
1625.000000	47.170900
1624.000000	47.142100
