PE UV       SUBTECH     SPECTRUM    ASCII       PEDS        4.00        
   -1
CICIMAUCR0013-2.Sample.ASC
24/04/11
15:59:46.00
24/04/11
15:59:46.00
Vinicio Soto Monge
C. resplendens
250,000000
1
Lambda 1050
1050L1511233
PerkinElmer UV WinLab 6.3.2.0749 / 2.02.05 Lambda 900 UV/VIS/NIR, Aug  7 2015 09:38:08

0
0
3350/2 860,8/2
0
0
UV/VIS
1
1
1
DoubleDePol,CommonBeamDepol,RBeamAtt,SBeamAtt,60mm sphere, WB InGaAs Detector
0
0
0
0
Program
Program
3350/2 860,8/2
3350/0,2 860,8/0,2
3350/0,2 860,8/0,2
0
15.00
 
 
 
0
 
860,8
319,2
860,8
Front
100
on
S:100 R:100
0
0
0
0
 
0
 
 
 
0
 
 
0
0
0
0
0
 
 
 
 
0
0


0
0
#HDR
-1
-1
#GR
nm
%R
1.0
0.0
2400,000000
-1,000000
2151
8
74,743200
5,012800
#DATA
2400.000000	17.747000
2399.000000	18.425200
2398.000000	17.013900
2397.000000	16.884700
2396.000000	17.158500
2395.000000	17.639900
2394.000000	18.292900
2393.000000	17.323600
2392.000000	17.608600
2391.000000	16.950300
2390.000000	17.650200
2389.000000	17.510700
2388.000000	16.972000
2387.000000	18.194800
2386.000000	17.242800
2385.000000	18.129700
2384.000000	16.855400
2383.000000	17.912800
2382.000000	18.227600
2381.000000	18.296100
2380.000000	17.961300
2379.000000	17.264600
2378.000000	17.828500
2377.000000	17.389900
2376.000000	17.162800
2375.000000	17.396000
2374.000000	17.418300
2373.000000	16.985800
2372.000000	17.986200
2371.000000	17.413800
2370.000000	17.399300
2369.000000	17.631900
2368.000000	17.419500
2367.000000	17.173600
2366.000000	17.104300
2365.000000	16.738900
2364.000000	17.232900
2363.000000	17.387500
2362.000000	17.254400
2361.000000	16.525800
2360.000000	16.580600
2359.000000	15.942000
2358.000000	16.485700
2357.000000	16.267200
2356.000000	15.619000
2355.000000	15.863200
2354.000000	16.008500
2353.000000	15.177300
2352.000000	15.716600
2351.000000	16.463700
2350.000000	16.133100
2349.000000	15.326600
2348.000000	15.091900
2347.000000	16.329900
2346.000000	16.101900
2345.000000	15.938500
2344.000000	15.119600
2343.000000	16.409400
2342.000000	16.765900
2341.000000	16.933400
2340.000000	16.667000
2339.000000	16.699800
2338.000000	16.831500
2337.000000	16.651000
2336.000000	16.121400
2335.000000	16.612700
2334.000000	16.232200
2333.000000	16.562900
2332.000000	16.772400
2331.000000	16.277600
2330.000000	16.425900
2329.000000	15.976500
2328.000000	16.002600
2327.000000	15.759700
2326.000000	15.634900
2325.000000	15.792600
2324.000000	15.504800
2323.000000	14.990200
2322.000000	15.115400
2321.000000	15.322400
2320.000000	14.881000
2319.000000	14.830300
2318.000000	14.683100
2317.000000	14.326300
2316.000000	14.439900
2315.000000	14.085700
2314.000000	13.712900
2313.000000	13.419300
2312.000000	13.358000
2311.000000	13.367000
2310.000000	13.266700
2309.000000	13.285700
2308.000000	13.613500
2307.000000	13.243500
2306.000000	12.942700
2305.000000	13.035400
2304.000000	13.375800
2303.000000	13.730900
2302.000000	13.884100
2301.000000	13.677200
2300.000000	13.345300
2299.000000	14.183600
2298.000000	14.089900
2297.000000	13.820200
2296.000000	14.003700
2295.000000	14.174200
2294.000000	14.246700
2293.000000	14.188500
2292.000000	14.365400
2291.000000	14.431500
2290.000000	14.572400
2289.000000	14.545300
2288.000000	14.748300
2287.000000	14.967400
2286.000000	14.927700
2285.000000	14.585700
2284.000000	14.045600
2283.000000	13.945600
2282.000000	14.121100
2281.000000	14.486900
2280.000000	14.415400
2279.000000	14.041600
2278.000000	14.001100
2277.000000	13.898400
2276.000000	13.829900
2275.000000	13.761600
2274.000000	13.680200
2273.000000	13.858900
2272.000000	14.021000
2271.000000	14.081900
2270.000000	13.992800
2269.000000	13.762200
2268.000000	13.680200
2267.000000	13.864000
2266.000000	13.971300
2265.000000	14.134300
2264.000000	14.236300
2263.000000	14.400800
2262.000000	14.684900
2261.000000	14.823000
2260.000000	15.057400
2259.000000	15.525700
2258.000000	15.852300
2257.000000	16.017200
2256.000000	16.261100
2255.000000	16.645700
2254.000000	16.792500
2253.000000	16.984500
2252.000000	16.975900
2251.000000	17.365400
2250.000000	17.809300
2249.000000	17.797500
2248.000000	17.891500
2247.000000	18.566600
2246.000000	18.685200
2245.000000	18.498500
2244.000000	18.835500
2243.000000	19.110300
2242.000000	19.357600
2241.000000	19.472600
2240.000000	19.487100
2239.000000	19.553100
2238.000000	19.450500
2237.000000	19.483000
2236.000000	19.426300
2235.000000	19.773400
2234.000000	19.779300
2233.000000	19.806500
2232.000000	20.001800
2231.000000	20.108300
2230.000000	20.165100
2229.000000	20.108400
2228.000000	20.227800
2227.000000	20.158300
2226.000000	20.094600
2225.000000	20.155000
2224.000000	20.170300
2223.000000	20.184800
2222.000000	20.237400
2221.000000	20.439300
2220.000000	20.299900
2219.000000	20.185200
2218.000000	19.968600
2217.000000	19.937400
2216.000000	19.943000
2215.000000	19.857200
2214.000000	20.051100
2213.000000	19.880400
2212.000000	19.708500
2211.000000	19.711600
2210.000000	20.078300
2209.000000	19.998100
2208.000000	19.839300
2207.000000	19.891200
2206.000000	20.144100
2205.000000	19.915200
2204.000000	19.569600
2203.000000	19.954000
2202.000000	19.962500
2201.000000	19.899400
2200.000000	19.781600
2199.000000	19.756400
2198.000000	19.887900
2197.000000	19.700600
2196.000000	19.538900
2195.000000	19.743400
2194.000000	19.720000
2193.000000	19.429800
2192.000000	19.590400
2191.000000	19.583000
2190.000000	19.558700
2189.000000	19.892400
2188.000000	19.492800
2187.000000	19.548300
2186.000000	19.436000
2185.000000	19.661000
2184.000000	19.398500
2183.000000	19.460100
2182.000000	19.375600
2181.000000	19.797400
2180.000000	19.867000
2179.000000	19.822300
2178.000000	19.701900
2177.000000	19.533100
2176.000000	19.559000
2175.000000	19.724600
2174.000000	19.449500
2173.000000	19.414700
2172.000000	19.478600
2171.000000	19.683800
2170.000000	19.673300
2169.000000	19.805500
2168.000000	19.635500
2167.000000	19.720000
2166.000000	19.793700
2165.000000	19.406600
2164.000000	19.862500
2163.000000	20.055300
2162.000000	19.991400
2161.000000	19.866900
2160.000000	20.080200
2159.000000	19.561400
2158.000000	19.656000
2157.000000	19.859600
2156.000000	19.788700
2155.000000	19.989200
2154.000000	20.173300
2153.000000	20.038100
2152.000000	20.050000
2151.000000	20.364500
2150.000000	20.409200
2149.000000	19.888900
2148.000000	20.078300
2147.000000	19.969500
2146.000000	20.176200
2145.000000	20.223300
2144.000000	20.446500
2143.000000	20.356600
2142.000000	20.835600
2141.000000	20.561800
2140.000000	20.896900
2139.000000	20.673600
2138.000000	20.460700
2137.000000	20.616300
2136.000000	20.613300
2135.000000	20.190000
2134.000000	20.347000
2133.000000	20.679500
2132.000000	20.568600
2131.000000	20.802900
2130.000000	21.049700
2129.000000	20.091400
2128.000000	20.565500
2127.000000	20.753400
2126.000000	20.622500
2125.000000	20.904300
2124.000000	20.547000
2123.000000	20.241000
2122.000000	20.737300
2121.000000	20.785300
2120.000000	20.380600
2119.000000	20.439700
2118.000000	20.426400
2117.000000	20.451000
2116.000000	20.432300
2115.000000	20.498600
2114.000000	20.346300
2113.000000	19.994800
2112.000000	20.162600
2111.000000	20.415700
2110.000000	20.211900
2109.000000	20.499300
2108.000000	20.235100
2107.000000	20.239800
2106.000000	19.986800
2105.000000	19.997100
2104.000000	20.132600
2103.000000	19.518300
2102.000000	19.787100
2101.000000	20.100600
2100.000000	19.637900
2099.000000	19.643500
2098.000000	19.632700
2097.000000	19.511600
2096.000000	19.500600
2095.000000	19.646600
2094.000000	19.675100
2093.000000	19.551800
2092.000000	19.541400
2091.000000	19.390700
2090.000000	19.560800
2089.000000	19.593800
2088.000000	19.277400
2087.000000	19.432800
2086.000000	19.491900
2085.000000	19.777400
2084.000000	19.570900
2083.000000	19.504800
2082.000000	19.213500
2081.000000	19.559200
2080.000000	19.581000
2079.000000	19.310800
2078.000000	19.226700
2077.000000	19.200900
2076.000000	19.320400
2075.000000	19.238000
2074.000000	19.072700
2073.000000	19.007500
2072.000000	19.257100
2071.000000	19.363500
2070.000000	19.062700
2069.000000	18.860400
2068.000000	18.977800
2067.000000	19.105300
2066.000000	18.812200
2065.000000	18.983200
2064.000000	18.811900
2063.000000	18.916800
2062.000000	18.771300
2061.000000	18.737800
2060.000000	19.096800
2059.000000	18.983400
2058.000000	18.812400
2057.000000	18.737900
2056.000000	18.883200
2055.000000	18.895800
2054.000000	18.979600
2053.000000	18.978200
2052.000000	18.972900
2051.000000	19.117200
2050.000000	19.314500
2049.000000	19.226000
2048.000000	19.316400
2047.000000	19.477500
2046.000000	19.740200
2045.000000	19.678600
2044.000000	19.871300
2043.000000	20.021100
2042.000000	20.175400
2041.000000	20.332000
2040.000000	20.406900
2039.000000	20.621700
2038.000000	20.814600
2037.000000	20.889600
2036.000000	20.886700
2035.000000	21.043500
2034.000000	21.196400
2033.000000	21.181400
2032.000000	21.266600
2031.000000	21.428400
2030.000000	21.537500
2029.000000	21.565300
2028.000000	21.622600
2027.000000	21.797000
2026.000000	21.874800
2025.000000	22.063300
2024.000000	22.051000
2023.000000	22.055300
2022.000000	22.049800
2021.000000	22.196200
2020.000000	22.304900
2019.000000	22.299300
2018.000000	22.335300
2017.000000	22.331200
2016.000000	22.428400
2015.000000	22.562300
2014.000000	22.643300
2013.000000	22.579600
2012.000000	22.564200
2011.000000	22.668200
2010.000000	22.747200
2009.000000	22.650700
2008.000000	22.536200
2007.000000	22.611000
2006.000000	22.616400
2005.000000	22.603800
2004.000000	22.617100
2003.000000	22.561200
2002.000000	22.518700
2001.000000	22.491300
2000.000000	22.492600
1999.000000	22.502500
1998.000000	22.519500
1997.000000	22.476100
1996.000000	22.389000
1995.000000	22.318500
1994.000000	22.209100
1993.000000	22.155800
1992.000000	22.138200
1991.000000	22.117900
1990.000000	22.077800
1989.000000	22.011800
1988.000000	21.893700
1987.000000	21.842200
1986.000000	21.793000
1985.000000	21.683800
1984.000000	21.635500
1983.000000	21.597900
1982.000000	21.491600
1981.000000	21.396100
1980.000000	21.346400
1979.000000	21.257000
1978.000000	21.177800
1977.000000	21.050500
1976.000000	20.979500
1975.000000	20.949300
1974.000000	20.855100
1973.000000	20.793400
1972.000000	20.733500
1971.000000	20.612600
1970.000000	20.501700
1969.000000	20.457800
1968.000000	20.375600
1967.000000	20.313900
1966.000000	20.170500
1965.000000	20.135200
1964.000000	20.052600
1963.000000	20.000600
1962.000000	19.881700
1961.000000	19.803900
1960.000000	19.769600
1959.000000	19.687900
1958.000000	19.638600
1957.000000	19.610700
1956.000000	19.465700
1955.000000	19.355000
1954.000000	19.302800
1953.000000	19.212800
1952.000000	19.166000
1951.000000	19.128400
1950.000000	18.982000
1949.000000	18.945600
1948.000000	18.891200
1947.000000	18.837700
1946.000000	18.850600
1945.000000	18.733300
1944.000000	18.728100
1943.000000	18.674000
1942.000000	18.723000
1941.000000	18.743600
1940.000000	18.805600
1939.000000	18.779400
1938.000000	18.720600
1937.000000	18.667000
1936.000000	18.718600
1935.000000	18.799500
1934.000000	18.839300
1933.000000	18.855700
1932.000000	18.882600
1931.000000	19.034700
1930.000000	19.098900
1929.000000	19.187900
1928.000000	19.238800
1927.000000	19.314400
1926.000000	19.431400
1925.000000	19.652000
1924.000000	19.812500
1923.000000	19.942700
1922.000000	20.028400
1921.000000	20.252000
1920.000000	20.575300
1919.000000	20.579400
1918.000000	20.603100
1917.000000	20.879100
1916.000000	21.262900
1915.000000	21.295300
1914.000000	21.564100
1913.000000	21.759000
1912.000000	21.987400
1911.000000	22.247400
1910.000000	22.430500
1909.000000	22.556300
1908.000000	22.870500
1907.000000	23.349400
1906.000000	23.683800
1905.000000	23.938300
1904.000000	23.943500
1903.000000	24.197700
1902.000000	24.492200
1901.000000	24.612300
1900.000000	25.190900
1899.000000	25.405500
1898.000000	25.561100
1897.000000	25.753600
1896.000000	26.084000
1895.000000	26.260500
1894.000000	26.599200
1893.000000	26.993100
1892.000000	27.234800
1891.000000	27.453800
1890.000000	27.784400
1889.000000	27.961000
1888.000000	28.192600
1887.000000	28.482900
1886.000000	28.844100
1885.000000	29.187600
1884.000000	29.566400
1883.000000	29.883700
1882.000000	30.251200
1881.000000	30.792700
1880.000000	31.207200
1879.000000	31.651000
1878.000000	32.013100
1877.000000	32.540300
1876.000000	32.740600
1875.000000	32.955100
1874.000000	33.341400
1873.000000	33.738800
1872.000000	33.763400
1871.000000	33.972200
1870.000000	34.027900
1869.000000	34.175500
1868.000000	34.523000
1867.000000	34.403700
1866.000000	34.179300
1865.000000	34.454800
1864.000000	34.556700
1863.000000	34.519500
1862.000000	34.504400
1861.000000	34.708700
1860.000000	34.925200
1859.000000	34.649000
1858.000000	34.489800
1857.000000	34.568100
1856.000000	34.567200
1855.000000	34.424800
1854.000000	34.612600
1853.000000	34.420600
1852.000000	34.124900
1851.000000	34.221100
1850.000000	34.246600
1849.000000	34.350700
1848.000000	34.547900
1847.000000	34.228800
1846.000000	33.788500
1845.000000	33.650000
1844.000000	33.746000
1843.000000	33.864700
1842.000000	33.988900
1841.000000	33.876800
1840.000000	33.693100
1839.000000	33.626800
1838.000000	33.705200
1837.000000	33.782100
1836.000000	33.703400
1835.000000	33.435500
1834.000000	33.268100
1833.000000	33.251500
1832.000000	33.270400
1831.000000	33.236800
1830.000000	33.073300
1829.000000	32.924000
1828.000000	32.875400
1827.000000	32.858500
1826.000000	32.858900
1825.000000	32.602700
1824.000000	32.488500
1823.000000	32.615900
1822.000000	32.684400
1821.000000	32.707200
1820.000000	32.598600
1819.000000	32.427100
1818.000000	32.416900
1817.000000	32.463000
1816.000000	32.452900
1815.000000	32.489800
1814.000000	32.410400
1813.000000	32.472800
1812.000000	32.483100
1811.000000	32.411600
1810.000000	32.370600
1809.000000	32.298100
1808.000000	32.258800
1807.000000	32.253300
1806.000000	32.200700
1805.000000	32.103100
1804.000000	32.013200
1803.000000	32.034800
1802.000000	32.004000
1801.000000	31.983400
1800.000000	31.908900
1799.000000	31.793500
1798.000000	31.757800
1797.000000	31.780200
1796.000000	31.706800
1795.000000	31.659600
1794.000000	31.603700
1793.000000	31.569700
1792.000000	31.509700
1791.000000	31.419000
1790.000000	31.391600
1789.000000	31.345600
1788.000000	31.245300
1787.000000	31.189900
1786.000000	31.134600
1785.000000	31.063600
1784.000000	30.975700
1783.000000	30.882400
1782.000000	30.779700
1781.000000	30.714000
1780.000000	30.648000
1779.000000	30.568000
1778.000000	30.443800
1777.000000	30.350400
1776.000000	30.249000
1775.000000	30.165300
1774.000000	30.039000
1773.000000	29.908000
1772.000000	29.754200
1771.000000	29.595300
1770.000000	29.489900
1769.000000	29.349700
1768.000000	29.205100
1767.000000	29.082400
1766.000000	29.002000
1765.000000	28.940900
1764.000000	28.906900
1763.000000	28.904300
1762.000000	28.909900
1761.000000	28.931300
1760.000000	28.942800
1759.000000	28.984900
1758.000000	29.092300
1757.000000	29.147600
1756.000000	29.177700
1755.000000	29.202600
1754.000000	29.222800
1753.000000	29.214900
1752.000000	29.209700
1751.000000	29.181100
1750.000000	29.134800
1749.000000	29.064600
1748.000000	28.965200
1747.000000	28.864500
1746.000000	28.744400
1745.000000	28.611900
1744.000000	28.483200
1743.000000	28.321900
1742.000000	28.119600
1741.000000	27.883400
1740.000000	27.633700
1739.000000	27.408400
1738.000000	27.178600
1737.000000	26.997300
1736.000000	26.836300
1735.000000	26.729500
1734.000000	26.707300
1733.000000	26.707600
1732.000000	26.742200
1731.000000	26.836900
1730.000000	26.962500
1729.000000	27.071700
1728.000000	27.188500
1727.000000	27.324300
1726.000000	27.420500
1725.000000	27.510900
1724.000000	27.581300
1723.000000	27.601900
1722.000000	27.654100
1721.000000	27.688000
1720.000000	27.639600
1719.000000	27.648400
1718.000000	27.695900
1717.000000	27.734600
1716.000000	27.800200
1715.000000	27.885300
1714.000000	27.931100
1713.000000	27.982100
1712.000000	28.028800
1711.000000	28.070100
1710.000000	28.068700
1709.000000	28.051900
1708.000000	28.075400
1707.000000	28.056700
1706.000000	28.018500
1705.000000	27.989100
1704.000000	27.987000
1703.000000	27.908000
1702.000000	27.791400
1701.000000	27.668400
1700.000000	27.553100
1699.000000	27.395300
1698.000000	27.202300
1697.000000	27.070500
1696.000000	27.049300
1695.000000	27.027200
1694.000000	27.042900
1693.000000	27.194800
1692.000000	27.367000
1691.000000	27.530000
1690.000000	27.696000
1689.000000	27.815600
1688.000000	27.891800
1687.000000	27.945100
1686.000000	27.951300
1685.000000	27.926200
1684.000000	27.973200
1683.000000	28.116800
1682.000000	28.406000
1681.000000	28.811200
1680.000000	29.354800
1679.000000	29.914600
1678.000000	30.449500
1677.000000	30.973700
1676.000000	31.423900
1675.000000	31.804600
1674.000000	32.158000
1673.000000	32.430700
1672.000000	32.667600
1671.000000	32.884000
1670.000000	33.074500
1669.000000	33.219200
1668.000000	33.341400
1667.000000	33.497800
1666.000000	33.585600
1665.000000	33.679500
1664.000000	33.772100
1663.000000	33.815500
1662.000000	33.887700
1661.000000	33.916900
1660.000000	33.978300
1659.000000	33.978500
1658.000000	34.009400
1657.000000	34.040700
1656.000000	34.066600
1655.000000	34.059700
1654.000000	34.063400
1653.000000	34.050300
1652.000000	34.002800
1651.000000	33.978600
1650.000000	33.980900
1649.000000	33.932200
1648.000000	33.863900
1647.000000	33.844100
1646.000000	33.791600
1645.000000	33.723500
1644.000000	33.681600
1643.000000	33.651500
1642.000000	33.564600
1641.000000	33.526900
1640.000000	33.471700
1639.000000	33.411600
1638.000000	33.326000
1637.000000	33.287000
1636.000000	33.236700
1635.000000	33.126400
1634.000000	33.077400
1633.000000	32.988400
1632.000000	32.948000
1631.000000	32.873800
1630.000000	32.772500
1629.000000	32.669000
1628.000000	32.615200
1627.000000	32.543900
1626.000000	32.461400
1625.000000	32.395300
1624.000000	32.280700
1623.000000	32.250100
1622.000000	32.141700
1621.000000	32.093500
1620.000000	32.003100
1619.000000	31.915000
1618.000000	31.875600
1617.000000	31.788700
1616.000000	31.722900
1615.000000	31.642000
1614.000000	31.566600
1613.000000	31.527000
1612.000000	31.436200
1611.000000	31.393700
1610.000000	31.319700
1609.000000	31.270100
1608.000000	31.169000
1607.000000	31.117300
1606.000000	31.114500
1605.000000	31.023100
1604.000000	30.975800
1603.000000	30.905500
1602.000000	30.807400
1601.000000	30.766300
1600.000000	30.723300
1599.000000	30.677000
1598.000000	30.635400
1597.000000	30.538800
1596.000000	30.511000
1595.000000	30.499400
1594.000000	30.461400
1593.000000	30.413600
1592.000000	30.377300
1591.000000	30.294500
1590.000000	30.283200
1589.000000	30.263400
1588.000000	30.231400
1587.000000	30.199900
1586.000000	30.175100
1585.000000	30.130800
1584.000000	30.118200
1583.000000	30.114000
1582.000000	30.137100
1581.000000	30.112300
1580.000000	30.094600
1579.000000	30.057000
1578.000000	30.084300
1577.000000	30.099700
1576.000000	30.122200
1575.000000	30.162400
1574.000000	30.154400
1573.000000	30.130000
1572.000000	30.170000
1571.000000	30.185000
1570.000000	30.188300
1569.000000	30.246400
1568.000000	30.313700
1567.000000	30.304800
1566.000000	30.349100
1565.000000	30.367100
1564.000000	30.410900
1563.000000	30.438800
1562.000000	30.442900
1561.000000	30.526900
1560.000000	30.547200
1559.000000	30.556200
1558.000000	30.563600
1557.000000	30.564200
1556.000000	30.587100
1555.000000	30.616000
1554.000000	30.622400
1553.000000	30.611000
1552.000000	30.632300
1551.000000	30.617400
1550.000000	30.627900
1549.000000	30.611300
1548.000000	30.620000
1547.000000	30.621700
1546.000000	30.616600
1545.000000	30.597100
1544.000000	30.602900
1543.000000	30.635800
1542.000000	30.620700
1541.000000	30.621400
1540.000000	30.600100
1539.000000	30.616700
1538.000000	30.633500
1537.000000	30.632700
1536.000000	30.623600
1535.000000	30.626700
1534.000000	30.644200
1533.000000	30.605500
1532.000000	30.604100
1531.000000	30.593400
1530.000000	30.590000
1529.000000	30.581500
1528.000000	30.551000
1527.000000	30.526000
1526.000000	30.516400
1525.000000	30.509500
1524.000000	30.474700
