PE UV       SUBTECH     SPECTRUM    ASCII       PEDS        4.00        
   -1
CICIMAUCR0070-3.Sample.ASC
24/04/18
13:44:03.00
24/04/18
13:44:03.00
Vinicio Soto Monge
C. resplendens
250,000000
1
Lambda 1050
1050L1511233
PerkinElmer UV WinLab 6.3.2.0749 / 2.02.05 Lambda 900 UV/VIS/NIR, Aug  7 2015 09:38:08

0
0
3350/servo 860,8/2
0
0
UV/VIS
1
1
1
DoubleDePol,CommonBeamDepol,RBeamAtt,SBeamAtt,60mm sphere, WB InGaAs Detector
0
0
0
0
Program
Program
3350/servo 860,8/2
3350/0,2 860,8/0,2
3350/0,2 860,8/0,2
0
15.00
 
 
 
0
 
860,8
319,2
860,8
Front
100
on
S:100 R:100
0
0
0
0
 
0
 
 
 
0
 
 
0
0
0
0
0
 
 
 
 
0
0


0
0
#HDR
-1
-1
#GR
nm
%R
1.0
0.0
2500,000000
-1,000000
2251
8
85,171500
5,254500
#DATA
2500.000000	19.968100
2499.000000	19.973700
2498.000000	19.876400
2497.000000	19.942700
2496.000000	19.836600
2495.000000	19.869300
2494.000000	19.759800
2493.000000	19.885600
2492.000000	19.794200
2491.000000	19.751700
2490.000000	19.743100
2489.000000	19.815500
2488.000000	19.810400
2487.000000	19.785800
2486.000000	19.877500
2485.000000	19.883900
2484.000000	19.852600
2483.000000	19.834200
2482.000000	19.934700
2481.000000	19.934200
2480.000000	19.942600
2479.000000	19.949600
2478.000000	19.956400
2477.000000	20.009700
2476.000000	20.091400
2475.000000	20.098300
2474.000000	20.120200
2473.000000	20.208800
2472.000000	20.232200
2471.000000	20.280200
2470.000000	20.337300
2469.000000	20.370000
2468.000000	20.461200
2467.000000	20.521800
2466.000000	20.582300
2465.000000	20.642600
2464.000000	20.680900
2463.000000	20.748000
2462.000000	20.865300
2461.000000	20.900000
2460.000000	20.979200
2459.000000	21.053700
2458.000000	21.128600
2457.000000	21.219700
2456.000000	21.308300
2455.000000	21.415300
2454.000000	21.514900
2453.000000	21.620200
2452.000000	21.730700
2451.000000	21.871300
2450.000000	21.963500
2449.000000	22.072500
2448.000000	22.194400
2447.000000	22.325500
2446.000000	22.468700
2445.000000	22.596500
2444.000000	22.689600
2443.000000	22.826700
2442.000000	22.939300
2441.000000	23.081500
2440.000000	23.199500
2439.000000	23.332300
2438.000000	23.451700
2437.000000	23.584300
2436.000000	23.711700
2435.000000	23.809200
2434.000000	23.918300
2433.000000	24.056100
2432.000000	24.160700
2431.000000	24.274900
2430.000000	24.395600
2429.000000	24.490600
2428.000000	24.606300
2427.000000	24.695400
2426.000000	24.798100
2425.000000	24.885600
2424.000000	25.005000
2423.000000	25.137600
2422.000000	25.331800
2421.000000	25.525800
2420.000000	25.696500
2419.000000	25.835400
2418.000000	25.905000
2417.000000	25.991000
2416.000000	26.098800
2415.000000	26.216400
2414.000000	26.296100
2413.000000	26.415900
2412.000000	26.499400
2411.000000	26.585900
2410.000000	26.641100
2409.000000	26.716700
2408.000000	26.839000
2407.000000	26.932100
2406.000000	26.971800
2405.000000	26.997100
2404.000000	27.053400
2403.000000	27.154400
2402.000000	27.231100
2401.000000	27.267700
2400.000000	27.306400
2399.000000	27.357600
2398.000000	27.434900
2397.000000	27.504600
2396.000000	27.529700
2395.000000	27.545200
2394.000000	27.580600
2393.000000	27.617000
2392.000000	27.673100
2391.000000	27.732400
2390.000000	27.782800
2389.000000	27.789600
2388.000000	27.798900
2387.000000	27.838600
2386.000000	27.876100
2385.000000	27.878100
2384.000000	27.908300
2383.000000	27.944200
2382.000000	27.935600
2381.000000	27.916500
2380.000000	27.940900
2379.000000	27.963800
2378.000000	27.951400
2377.000000	27.940300
2376.000000	27.955600
2375.000000	27.981700
2374.000000	27.963800
2373.000000	27.977800
2372.000000	27.988900
2371.000000	27.977500
2370.000000	27.971000
2369.000000	27.987900
2368.000000	28.018800
2367.000000	28.025100
2366.000000	28.016900
2365.000000	28.041400
2364.000000	28.062400
2363.000000	28.044400
2362.000000	28.075200
2361.000000	28.102200
2360.000000	28.098300
2359.000000	28.106600
2358.000000	28.128000
2357.000000	28.136600
2356.000000	28.118700
2355.000000	28.106400
2354.000000	28.120300
2353.000000	28.123300
2352.000000	28.105000
2351.000000	28.089000
2350.000000	28.110200
2349.000000	28.111600
2348.000000	28.081400
2347.000000	28.104300
2346.000000	28.117600
2345.000000	28.096200
2344.000000	28.075700
2343.000000	28.087900
2342.000000	28.121400
2341.000000	28.131700
2340.000000	28.122200
2339.000000	28.101900
2338.000000	28.124600
2337.000000	28.157800
2336.000000	28.137900
2335.000000	28.179800
2334.000000	28.229100
2333.000000	28.237000
2332.000000	28.245100
2331.000000	28.251300
2330.000000	28.309400
2329.000000	28.363700
2328.000000	28.400900
2327.000000	28.429200
2326.000000	28.445100
2325.000000	28.479900
2324.000000	28.512700
2323.000000	28.554400
2322.000000	28.574900
2321.000000	28.602300
2320.000000	28.627600
2319.000000	28.617100
2318.000000	28.606900
2317.000000	28.621600
2316.000000	28.613100
2315.000000	28.580000
2314.000000	28.574100
2313.000000	28.541300
2312.000000	28.509600
2311.000000	28.484700
2310.000000	28.449700
2309.000000	28.410600
2308.000000	28.369600
2307.000000	28.362700
2306.000000	28.345000
2305.000000	28.305200
2304.000000	28.312500
2303.000000	28.288600
2302.000000	28.263100
2301.000000	28.277200
2300.000000	28.272400
2299.000000	28.260400
2298.000000	28.256800
2297.000000	28.284300
2296.000000	28.297300
2295.000000	28.306600
2294.000000	28.343200
2293.000000	28.354700
2292.000000	28.374300
2291.000000	28.408500
2290.000000	28.460800
2289.000000	28.504700
2288.000000	28.522400
2287.000000	28.553400
2286.000000	28.612200
2285.000000	28.652500
2284.000000	28.703100
2283.000000	28.780100
2282.000000	28.808700
2281.000000	28.852300
2280.000000	28.916300
2279.000000	28.957100
2278.000000	29.013000
2277.000000	29.053600
2276.000000	29.080100
2275.000000	29.133800
2274.000000	29.182400
2273.000000	29.221400
2272.000000	29.249400
2271.000000	29.289900
2270.000000	29.360500
2269.000000	29.416100
2268.000000	29.465000
2267.000000	29.521100
2266.000000	29.611100
2265.000000	29.685700
2264.000000	29.775800
2263.000000	29.873900
2262.000000	30.012400
2261.000000	30.138500
2260.000000	30.246700
2259.000000	30.397000
2258.000000	30.545600
2257.000000	30.731200
2256.000000	30.894100
2255.000000	31.063100
2254.000000	31.244300
2253.000000	31.398700
2252.000000	31.640600
2251.000000	31.791500
2250.000000	31.969300
2249.000000	32.122700
2248.000000	32.266300
2247.000000	32.457000
2246.000000	32.568600
2245.000000	32.712900
2244.000000	32.833900
2243.000000	32.977400
2242.000000	33.054400
2241.000000	33.137000
2240.000000	33.217900
2239.000000	33.263100
2238.000000	33.360100
2237.000000	33.384800
2236.000000	33.419600
2235.000000	33.447600
2234.000000	33.440700
2233.000000	33.439300
2232.000000	33.448300
2231.000000	33.433600
2230.000000	33.385900
2229.000000	33.364100
2228.000000	33.315700
2227.000000	33.270800
2226.000000	33.222600
2225.000000	33.161100
2224.000000	33.090000
2223.000000	33.006300
2222.000000	32.925900
2221.000000	32.833400
2220.000000	32.732800
2219.000000	32.645700
2218.000000	32.551100
2217.000000	32.468400
2216.000000	32.365500
2215.000000	32.278300
2214.000000	32.194200
2213.000000	32.108600
2212.000000	32.022400
2211.000000	31.944400
2210.000000	31.892100
2209.000000	31.816500
2208.000000	31.751000
2207.000000	31.673900
2206.000000	31.614100
2205.000000	31.565300
2204.000000	31.492700
2203.000000	31.469100
2202.000000	31.410500
2201.000000	31.350700
2200.000000	31.323100
2199.000000	31.290700
2198.000000	31.256800
2197.000000	31.221400
2196.000000	31.189500
2195.000000	31.146700
2194.000000	31.125400
2193.000000	31.102000
2192.000000	31.071600
2191.000000	31.050200
2190.000000	31.033100
2189.000000	31.011100
2188.000000	30.961000
2187.000000	30.941800
2186.000000	30.942800
2185.000000	30.909400
2184.000000	30.893200
2183.000000	30.875700
2182.000000	30.848400
2181.000000	30.829700
2180.000000	30.794500
2179.000000	30.796900
2178.000000	30.780000
2177.000000	30.755300
2176.000000	30.737900
2175.000000	30.740400
2174.000000	30.733900
2173.000000	30.720700
2172.000000	30.748400
2171.000000	30.766300
2170.000000	30.780500
2169.000000	30.809900
2168.000000	30.845700
2167.000000	30.869600
2166.000000	30.902500
2165.000000	30.942600
2164.000000	31.022400
2163.000000	31.072700
2162.000000	31.129800
2161.000000	31.188700
2160.000000	31.281100
2159.000000	31.349800
2158.000000	31.448500
2157.000000	31.550100
2156.000000	31.624700
2155.000000	31.735200
2154.000000	31.866400
2153.000000	31.975200
2152.000000	32.099700
2151.000000	32.224900
2150.000000	32.334300
2149.000000	32.465200
2148.000000	32.572000
2147.000000	32.698200
2146.000000	32.836300
2145.000000	32.947100
2144.000000	33.058300
2143.000000	33.184600
2142.000000	33.290500
2141.000000	33.404000
2140.000000	33.518400
2139.000000	33.629000
2138.000000	33.736400
2137.000000	33.847400
2136.000000	33.949500
2135.000000	34.048700
2134.000000	34.142500
2133.000000	34.243500
2132.000000	34.334800
2131.000000	34.400200
2130.000000	34.491800
2129.000000	34.576600
2128.000000	34.629300
2127.000000	34.692400
2126.000000	34.770300
2125.000000	34.832100
2124.000000	34.889900
2123.000000	34.952000
2122.000000	34.975400
2121.000000	35.016100
2120.000000	35.070600
2119.000000	35.119000
2118.000000	35.144500
2117.000000	35.156300
2116.000000	35.185700
2115.000000	35.218600
2114.000000	35.249700
2113.000000	35.262500
2112.000000	35.259400
2111.000000	35.264200
2110.000000	35.276500
2109.000000	35.280600
2108.000000	35.284400
2107.000000	35.281900
2106.000000	35.275700
2105.000000	35.285300
2104.000000	35.294500
2103.000000	35.296800
2102.000000	35.299000
2101.000000	35.286200
2100.000000	35.283600
2099.000000	35.300400
2098.000000	35.308200
2097.000000	35.314300
2096.000000	35.316700
2095.000000	35.321300
2094.000000	35.331800
2093.000000	35.353700
2092.000000	35.377600
2091.000000	35.394300
2090.000000	35.409200
2089.000000	35.424800
2088.000000	35.452200
2087.000000	35.454600
2086.000000	35.427500
2085.000000	35.438600
2084.000000	35.448800
2083.000000	35.425600
2082.000000	35.404800
2081.000000	35.372400
2080.000000	35.319200
2079.000000	35.280100
2078.000000	35.228200
2077.000000	35.159500
2076.000000	35.094700
2075.000000	35.008600
2074.000000	34.916300
2073.000000	34.828600
2072.000000	34.731800
2071.000000	34.623900
2070.000000	34.511700
2069.000000	34.395400
2068.000000	34.268600
2067.000000	34.144600
2066.000000	34.018700
2065.000000	33.897100
2064.000000	33.770700
2063.000000	33.639300
2062.000000	33.519400
2061.000000	33.413100
2060.000000	33.307800
2059.000000	33.208800
2058.000000	33.122800
2057.000000	33.078800
2056.000000	33.014100
2055.000000	32.977800
2054.000000	32.986800
2053.000000	32.983400
2052.000000	33.008100
2051.000000	33.081500
2050.000000	33.155500
2049.000000	33.253200
2048.000000	33.346900
2047.000000	33.466900
2046.000000	33.612500
2045.000000	33.792900
2044.000000	33.963500
2043.000000	34.111200
2042.000000	34.246400
2041.000000	34.417300
2040.000000	34.597100
2039.000000	34.751500
2038.000000	34.909600
2037.000000	35.062300
2036.000000	35.191200
2035.000000	35.336900
2034.000000	35.477500
2033.000000	35.591900
2032.000000	35.706600
2031.000000	35.818000
2030.000000	35.918000
2029.000000	36.028500
2028.000000	36.124800
2027.000000	36.191800
2026.000000	36.264000
2025.000000	36.339200
2024.000000	36.427100
2023.000000	36.498400
2022.000000	36.540900
2021.000000	36.578800
2020.000000	36.648300
2019.000000	36.712100
2018.000000	36.752600
2017.000000	36.771500
2016.000000	36.772100
2015.000000	36.799600
2014.000000	36.837800
2013.000000	36.842900
2012.000000	36.834500
2011.000000	36.829900
2010.000000	36.831300
2009.000000	36.816600
2008.000000	36.771500
2007.000000	36.750000
2006.000000	36.715400
2005.000000	36.689100
2004.000000	36.623500
2003.000000	36.586900
2002.000000	36.520000
2001.000000	36.453700
2000.000000	36.378600
1999.000000	36.311300
1998.000000	36.243600
1997.000000	36.146500
1996.000000	36.077600
1995.000000	35.983700
1994.000000	35.901300
1993.000000	35.783900
1992.000000	35.694000
1991.000000	35.606100
1990.000000	35.490800
1989.000000	35.371600
1988.000000	35.277900
1987.000000	35.170800
1986.000000	35.065500
1985.000000	34.945400
1984.000000	34.821700
1983.000000	34.704300
1982.000000	34.607100
1981.000000	34.494600
1980.000000	34.371800
1979.000000	34.242900
1978.000000	34.132800
1977.000000	34.030500
1976.000000	33.938700
1975.000000	33.807100
1974.000000	33.697600
1973.000000	33.604200
1972.000000	33.506500
1971.000000	33.404600
1970.000000	33.292800
1969.000000	33.190700
1968.000000	33.066500
1967.000000	32.957400
1966.000000	32.866600
1965.000000	32.766800
1964.000000	32.655900
1963.000000	32.558300
1962.000000	32.452100
1961.000000	32.345200
1960.000000	32.245200
1959.000000	32.138100
1958.000000	32.036900
1957.000000	31.910200
1956.000000	31.823500
1955.000000	31.711400
1954.000000	31.590400
1953.000000	31.508000
1952.000000	31.387300
1951.000000	31.284200
1950.000000	31.189100
1949.000000	31.079000
1948.000000	31.005400
1947.000000	30.937600
1946.000000	30.849400
1945.000000	30.783900
1944.000000	30.703600
1943.000000	30.659500
1942.000000	30.601100
1941.000000	30.562100
1940.000000	30.514700
1939.000000	30.506500
1938.000000	30.488500
1937.000000	30.465100
1936.000000	30.470300
1935.000000	30.487500
1934.000000	30.513500
1933.000000	30.543500
1932.000000	30.600900
1931.000000	30.658200
1930.000000	30.741400
1929.000000	30.819800
1928.000000	30.948400
1927.000000	31.065100
1926.000000	31.181500
1925.000000	31.308400
1924.000000	31.493100
1923.000000	31.635400
1922.000000	31.834300
1921.000000	32.081200
1920.000000	32.313800
1919.000000	32.527200
1918.000000	32.764100
1917.000000	33.024100
1916.000000	33.263200
1915.000000	33.562500
1914.000000	33.926900
1913.000000	34.323400
1912.000000	34.686300
1911.000000	35.037600
1910.000000	35.423400
1909.000000	35.741900
1908.000000	36.112200
1907.000000	36.585700
1906.000000	37.125900
1905.000000	37.707200
1904.000000	38.272600
1903.000000	38.763800
1902.000000	39.299600
1901.000000	39.804100
1900.000000	40.420600
1899.000000	41.059400
1898.000000	41.686400
1897.000000	42.310500
1896.000000	42.862700
1895.000000	43.353200
1894.000000	43.917000
1893.000000	44.505100
1892.000000	45.150000
1891.000000	45.791200
1890.000000	46.369600
1889.000000	46.871900
1888.000000	47.410300
1887.000000	47.877000
1886.000000	48.345200
1885.000000	48.812600
1884.000000	49.307500
1883.000000	49.732400
1882.000000	50.089600
1881.000000	50.459100
1880.000000	50.799000
1879.000000	51.106100
1878.000000	51.422000
1877.000000	51.721600
1876.000000	52.001800
1875.000000	52.286700
1874.000000	52.546100
1873.000000	52.816900
1872.000000	53.061000
1871.000000	53.268100
1870.000000	53.443900
1869.000000	53.588400
1868.000000	53.727500
1867.000000	53.815500
1866.000000	53.847600
1865.000000	53.897000
1864.000000	53.962800
1863.000000	54.034400
1862.000000	54.123900
1861.000000	54.223900
1860.000000	54.335900
1859.000000	54.423300
1858.000000	54.483400
1857.000000	54.538300
1856.000000	54.573700
1855.000000	54.597000
1854.000000	54.642100
1853.000000	54.652700
1852.000000	54.654700
1851.000000	54.676600
1850.000000	54.705600
1849.000000	54.767400
1848.000000	54.822100
1847.000000	54.846900
1846.000000	54.797900
1845.000000	54.704900
1844.000000	54.635500
1843.000000	54.640200
1842.000000	54.709500
1841.000000	54.761500
1840.000000	54.735400
1839.000000	54.682500
1838.000000	54.647900
1837.000000	54.629700
1836.000000	54.598500
1835.000000	54.541400
1834.000000	54.459800
1833.000000	54.379000
1832.000000	54.330900
1831.000000	54.333300
1830.000000	54.329900
1829.000000	54.290100
1828.000000	54.227000
1827.000000	54.199800
1826.000000	54.196800
1825.000000	54.157800
1824.000000	54.120300
1823.000000	54.113700
1822.000000	54.157700
1821.000000	54.223700
1820.000000	54.232400
1819.000000	54.156500
1818.000000	54.114600
1817.000000	54.109700
1816.000000	54.109300
1815.000000	54.104100
1814.000000	54.083000
1813.000000	54.081200
1812.000000	54.067900
1811.000000	54.045900
1810.000000	53.991100
1809.000000	53.954800
1808.000000	53.942400
1807.000000	53.934200
1806.000000	53.928400
1805.000000	53.893900
1804.000000	53.857100
1803.000000	53.855800
1802.000000	53.866300
1801.000000	53.854700
1800.000000	53.806300
1799.000000	53.770300
1798.000000	53.756900
1797.000000	53.739300
1796.000000	53.726000
1795.000000	53.713900
1794.000000	53.692200
1793.000000	53.676300
1792.000000	53.670500
1791.000000	53.656700
1790.000000	53.638100
1789.000000	53.644300
1788.000000	53.649100
1787.000000	53.658700
1786.000000	53.675800
1785.000000	53.694900
1784.000000	53.685700
1783.000000	53.663900
1782.000000	53.663000
1781.000000	53.656200
1780.000000	53.653600
1779.000000	53.637900
1778.000000	53.616700
1777.000000	53.594600
1776.000000	53.571300
1775.000000	53.542100
1774.000000	53.520600
1773.000000	53.489100
1772.000000	53.462500
1771.000000	53.432100
1770.000000	53.398400
1769.000000	53.375500
1768.000000	53.349700
1767.000000	53.327900
1766.000000	53.300300
1765.000000	53.276100
1764.000000	53.252900
1763.000000	53.258100
1762.000000	53.239500
1761.000000	53.241800
1760.000000	53.240300
1759.000000	53.253500
1758.000000	53.254300
1757.000000	53.262900
1756.000000	53.268200
1755.000000	53.277800
1754.000000	53.287600
1753.000000	53.275600
1752.000000	53.300500
1751.000000	53.280100
1750.000000	53.261500
1749.000000	53.243300
1748.000000	53.219300
1747.000000	53.177500
1746.000000	53.155700
1745.000000	53.103300
1744.000000	53.047800
1743.000000	52.986300
1742.000000	52.923000
1741.000000	52.888900
1740.000000	52.830300
1739.000000	52.761900
1738.000000	52.721000
1737.000000	52.662400
1736.000000	52.628800
1735.000000	52.600800
1734.000000	52.565100
1733.000000	52.524200
1732.000000	52.490700
1731.000000	52.451300
1730.000000	52.429800
1729.000000	52.414100
1728.000000	52.393300
1727.000000	52.369700
1726.000000	52.365900
1725.000000	52.380600
1724.000000	52.386500
1723.000000	52.437400
1722.000000	52.497700
1721.000000	52.614700
1720.000000	52.787600
1719.000000	52.957800
1718.000000	53.161300
1717.000000	53.366000
1716.000000	53.568700
1715.000000	53.766500
1714.000000	53.931000
1713.000000	54.127400
1712.000000	54.279800
1711.000000	54.422200
1710.000000	54.555800
1709.000000	54.651000
1708.000000	54.731700
1707.000000	54.845100
1706.000000	54.912300
1705.000000	54.972300
1704.000000	55.002500
1703.000000	55.014700
1702.000000	55.052400
1701.000000	55.064000
1700.000000	55.088700
1699.000000	55.086700
1698.000000	55.086100
1697.000000	55.096100
1696.000000	55.073900
1695.000000	55.068300
1694.000000	55.004400
1693.000000	54.973500
1692.000000	54.906000
1691.000000	54.852700
1690.000000	54.817500
1689.000000	54.797200
1688.000000	54.831100
1687.000000	54.886100
1686.000000	55.006800
1685.000000	55.131200
1684.000000	55.292700
1683.000000	55.491000
1682.000000	55.673800
1681.000000	55.861500
1680.000000	56.066000
1679.000000	56.261200
1678.000000	56.419700
1677.000000	56.607200
1676.000000	56.762100
1675.000000	56.900700
1674.000000	57.077400
1673.000000	57.216500
1672.000000	57.365600
1671.000000	57.515000
1670.000000	57.668100
1669.000000	57.803100
1668.000000	57.967500
1667.000000	58.109500
1666.000000	58.240000
1665.000000	58.357100
1664.000000	58.480300
1663.000000	58.600300
1662.000000	58.711500
1661.000000	58.812900
1660.000000	58.917000
1659.000000	58.997600
1658.000000	59.058700
1657.000000	59.122000
1656.000000	59.175700
1655.000000	59.225400
1654.000000	59.260900
1653.000000	59.298200
1652.000000	59.316700
1651.000000	59.329300
1650.000000	59.336800
1649.000000	59.345500
1648.000000	59.348200
1647.000000	59.340700
1646.000000	59.323600
1645.000000	59.324900
1644.000000	59.310700
1643.000000	59.308200
1642.000000	59.293800
1641.000000	59.293600
1640.000000	59.282100
1639.000000	59.272900
1638.000000	59.273000
1637.000000	59.246900
1636.000000	59.224000
1635.000000	59.220300
1634.000000	59.178200
1633.000000	59.163900
1632.000000	59.128500
1631.000000	59.093000
1630.000000	59.062500
1629.000000	59.026000
1628.000000	58.992000
1627.000000	58.949100
1626.000000	58.907800
1625.000000	58.881800
1624.000000	58.848400
