PE UV       SUBTECH     SPECTRUM    ASCII       PEDS        4.00        
   -1
CICIMAUCR0021-1.Sample.ASC
24/04/17
11:15:20.00
24/04/17
11:15:20.00
Vinicio Soto Monge
C. resplendens. 
250,000000
1
Lambda 1050
1050L1511233
PerkinElmer UV WinLab 6.3.2.0749 / 2.02.05 Lambda 900 UV/VIS/NIR, Aug  7 2015 09:38:08

0
0
3350/servo 860,8/2
0
0
UV/VIS
1
1
1
DoubleDePol,CommonBeamDepol,RBeamAtt,SBeamAtt,60mm sphere, WB InGaAs Detector
0
0
0
0
Program
Program
3350/servo 860,8/2
3350/0,2 860,8/0,2
3350/0,2 860,8/0,2
0
15.00
 
 
 
0
 
860,8
319,2
860,8
Front
100
on
S:100 R:100
0
0
0
0
 
0
 
 
 
0
 
 
0
0
0
0
0
 
 
 
 
0
0


0
0
#HDR
-1
-1
#GR
nm
%R
1.0
0.0
2500,000000
-1,000000
2251
8
50,947000
3,696900
#DATA
2500.000000	5.836400
2499.000000	5.847100
2498.000000	5.838100
2497.000000	5.690800
2496.000000	5.752200
2495.000000	5.621000
2494.000000	5.653600
2493.000000	5.613000
2492.000000	5.548200
2491.000000	5.675900
2490.000000	5.647800
2489.000000	5.538300
2488.000000	5.526800
2487.000000	5.618100
2486.000000	5.592200
2485.000000	5.463600
2484.000000	5.513700
2483.000000	5.512700
2482.000000	5.509300
2481.000000	5.509200
2480.000000	5.462800
2479.000000	5.498900
2478.000000	5.504300
2477.000000	5.451600
2476.000000	5.547000
2475.000000	5.490200
2474.000000	5.490000
2473.000000	5.436300
2472.000000	5.475100
2471.000000	5.475600
2470.000000	5.486700
2469.000000	5.460000
2468.000000	5.452100
2467.000000	5.492700
2466.000000	5.528400
2465.000000	5.548200
2464.000000	5.517300
2463.000000	5.547600
2462.000000	5.580200
2461.000000	5.582700
2460.000000	5.605800
2459.000000	5.624200
2458.000000	5.648800
2457.000000	5.679700
2456.000000	5.713200
2455.000000	5.760000
2454.000000	5.774400
2453.000000	5.809400
2452.000000	5.849500
2451.000000	5.884600
2450.000000	5.903400
2449.000000	5.935700
2448.000000	5.973600
2447.000000	5.997900
2446.000000	6.035000
2445.000000	6.066300
2444.000000	6.109300
2443.000000	6.133200
2442.000000	6.163500
2441.000000	6.200400
2440.000000	6.246700
2439.000000	6.264500
2438.000000	6.287400
2437.000000	6.321600
2436.000000	6.342700
2435.000000	6.368500
2434.000000	6.413300
2433.000000	6.417200
2432.000000	6.449100
2431.000000	6.478400
2430.000000	6.479900
2429.000000	6.497200
2428.000000	6.521500
2427.000000	6.527700
2426.000000	6.564600
2425.000000	6.578100
2424.000000	6.577000
2423.000000	6.612700
2422.000000	6.612200
2421.000000	6.602800
2420.000000	6.549000
2419.000000	6.512400
2418.000000	6.487900
2417.000000	6.508000
2416.000000	6.511200
2415.000000	6.536700
2414.000000	6.545700
2413.000000	6.528500
2412.000000	6.529000
2411.000000	6.540900
2410.000000	6.540400
2409.000000	6.537900
2408.000000	6.517100
2407.000000	6.538300
2406.000000	6.566200
2405.000000	6.561800
2404.000000	6.540800
2403.000000	6.549000
2402.000000	6.566400
2401.000000	6.582900
2400.000000	6.580400
2399.000000	6.565600
2398.000000	6.565200
2397.000000	6.580000
2396.000000	6.585700
2395.000000	6.597200
2394.000000	6.604500
2393.000000	6.602200
2392.000000	6.588900
2391.000000	6.578300
2390.000000	6.588600
2389.000000	6.598100
2388.000000	6.589100
2387.000000	6.586000
2386.000000	6.573300
2385.000000	6.570600
2384.000000	6.558200
2383.000000	6.559500
2382.000000	6.550200
2381.000000	6.524600
2380.000000	6.521200
2379.000000	6.514900
2378.000000	6.503100
2377.000000	6.480000
2376.000000	6.468300
2375.000000	6.454600
2374.000000	6.432800
2373.000000	6.414600
2372.000000	6.409500
2371.000000	6.378500
2370.000000	6.341100
2369.000000	6.313300
2368.000000	6.284400
2367.000000	6.268000
2366.000000	6.235900
2365.000000	6.195200
2364.000000	6.165200
2363.000000	6.118400
2362.000000	6.082400
2361.000000	6.056000
2360.000000	6.028100
2359.000000	6.002800
2358.000000	5.982400
2357.000000	5.968400
2356.000000	5.952200
2355.000000	5.933300
2354.000000	5.910700
2353.000000	5.910600
2352.000000	5.909700
2351.000000	5.921400
2350.000000	5.926800
2349.000000	5.940200
2348.000000	5.961700
2347.000000	5.976500
2346.000000	5.995600
2345.000000	5.995500
2344.000000	5.996900
2343.000000	6.014700
2342.000000	6.029700
2341.000000	6.029000
2340.000000	6.022100
2339.000000	6.013200
2338.000000	6.017100
2337.000000	6.003300
2336.000000	5.982900
2335.000000	5.968700
2334.000000	5.945000
2333.000000	5.924600
2332.000000	5.902200
2331.000000	5.852500
2330.000000	5.823600
2329.000000	5.800800
2328.000000	5.767000
2327.000000	5.726500
2326.000000	5.689400
2325.000000	5.643800
2324.000000	5.606200
2323.000000	5.572500
2322.000000	5.541400
2321.000000	5.478400
2320.000000	5.423300
2319.000000	5.393300
2318.000000	5.360500
2317.000000	5.305000
2316.000000	5.266100
2315.000000	5.200600
2314.000000	5.149800
2313.000000	5.137500
2312.000000	5.115400
2311.000000	5.084800
2310.000000	5.039600
2309.000000	5.042100
2308.000000	5.032400
2307.000000	5.027300
2306.000000	5.054000
2305.000000	5.056200
2304.000000	5.072300
2303.000000	5.101300
2302.000000	5.131900
2301.000000	5.152500
2300.000000	5.185600
2299.000000	5.222100
2298.000000	5.252100
2297.000000	5.264800
2296.000000	5.286700
2295.000000	5.331500
2294.000000	5.329900
2293.000000	5.339500
2292.000000	5.357700
2291.000000	5.343800
2290.000000	5.337700
2289.000000	5.358200
2288.000000	5.358400
2287.000000	5.327400
2286.000000	5.296800
2285.000000	5.297700
2284.000000	5.274300
2283.000000	5.243300
2282.000000	5.225000
2281.000000	5.195000
2280.000000	5.167800
2279.000000	5.143000
2278.000000	5.122100
2277.000000	5.125000
2276.000000	5.117600
2275.000000	5.124300
2274.000000	5.095400
2273.000000	5.090800
2272.000000	5.104300
2271.000000	5.107700
2270.000000	5.110100
2269.000000	5.141900
2268.000000	5.173800
2267.000000	5.217300
2266.000000	5.236900
2265.000000	5.291900
2264.000000	5.365800
2263.000000	5.440400
2262.000000	5.496200
2261.000000	5.596200
2260.000000	5.681400
2259.000000	5.777800
2258.000000	5.874500
2257.000000	5.962600
2256.000000	6.069800
2255.000000	6.162800
2254.000000	6.270100
2253.000000	6.368800
2252.000000	6.454900
2251.000000	6.556200
2250.000000	6.630700
2249.000000	6.727200
2248.000000	6.814400
2247.000000	6.878300
2246.000000	6.960300
2245.000000	7.024900
2244.000000	7.079600
2243.000000	7.153300
2242.000000	7.216100
2241.000000	7.291400
2240.000000	7.342400
2239.000000	7.385900
2238.000000	7.465500
2237.000000	7.536300
2236.000000	7.587700
2235.000000	7.611700
2234.000000	7.675200
2233.000000	7.717700
2232.000000	7.776200
2231.000000	7.812300
2230.000000	7.845900
2229.000000	7.875900
2228.000000	7.907200
2227.000000	7.945400
2226.000000	7.980200
2225.000000	7.999000
2224.000000	8.026300
2223.000000	8.033400
2222.000000	8.066900
2221.000000	8.059500
2220.000000	8.076800
2219.000000	8.104000
2218.000000	8.112300
2217.000000	8.089200
2216.000000	8.114500
2215.000000	8.133100
2214.000000	8.122100
2213.000000	8.126700
2212.000000	8.132700
2211.000000	8.149900
2210.000000	8.136700
2209.000000	8.131500
2208.000000	8.129500
2207.000000	8.127500
2206.000000	8.140800
2205.000000	8.168700
2204.000000	8.132000
2203.000000	8.144800
2202.000000	8.127700
2201.000000	8.149500
2200.000000	8.146600
2199.000000	8.137300
2198.000000	8.137400
2197.000000	8.140100
2196.000000	8.124000
2195.000000	8.106100
2194.000000	8.092800
2193.000000	8.111900
2192.000000	8.100400
2191.000000	8.117800
2190.000000	8.105700
2189.000000	8.102900
2188.000000	8.077500
2187.000000	8.053200
2186.000000	8.074000
2185.000000	8.052800
2184.000000	8.044800
2183.000000	8.038500
2182.000000	8.019700
2181.000000	8.031400
2180.000000	8.000800
2179.000000	7.995600
2178.000000	8.003600
2177.000000	7.998100
2176.000000	8.006700
2175.000000	7.995100
2174.000000	7.999100
2173.000000	8.003400
2172.000000	8.002800
2171.000000	8.024000
2170.000000	8.028900
2169.000000	8.023400
2168.000000	8.017200
2167.000000	8.033900
2166.000000	8.032400
2165.000000	8.035800
2164.000000	8.057900
2163.000000	8.068000
2162.000000	8.070800
2161.000000	8.088400
2160.000000	8.096100
2159.000000	8.105500
2158.000000	8.116800
2157.000000	8.102500
2156.000000	8.133700
2155.000000	8.137900
2154.000000	8.132600
2153.000000	8.128100
2152.000000	8.154700
2151.000000	8.169300
2150.000000	8.159200
2149.000000	8.167400
2148.000000	8.179000
2147.000000	8.191100
2146.000000	8.196500
2145.000000	8.200200
2144.000000	8.199400
2143.000000	8.205100
2142.000000	8.198000
2141.000000	8.197300
2140.000000	8.197100
2139.000000	8.193700
2138.000000	8.185400
2137.000000	8.192800
2136.000000	8.180000
2135.000000	8.149800
2134.000000	8.130000
2133.000000	8.133900
2132.000000	8.118800
2131.000000	8.086800
2130.000000	8.062500
2129.000000	8.041200
2128.000000	8.025500
2127.000000	8.005400
2126.000000	7.976500
2125.000000	7.950500
2124.000000	7.919300
2123.000000	7.901700
2122.000000	7.876000
2121.000000	7.845700
2120.000000	7.826000
2119.000000	7.803200
2118.000000	7.781700
2117.000000	7.768800
2116.000000	7.755900
2115.000000	7.742600
2114.000000	7.724900
2113.000000	7.706500
2112.000000	7.706000
2111.000000	7.707200
2110.000000	7.701400
2109.000000	7.694600
2108.000000	7.692600
2107.000000	7.677400
2106.000000	7.663600
2105.000000	7.659800
2104.000000	7.651600
2103.000000	7.646000
2102.000000	7.644000
2101.000000	7.636400
2100.000000	7.618100
2099.000000	7.612300
2098.000000	7.620300
2097.000000	7.623300
2096.000000	7.618700
2095.000000	7.614700
2094.000000	7.622000
2093.000000	7.642100
2092.000000	7.662000
2091.000000	7.669200
2090.000000	7.679200
2089.000000	7.709800
2088.000000	7.731700
2087.000000	7.743400
2086.000000	7.771200
2085.000000	7.798700
2084.000000	7.809700
2083.000000	7.818600
2082.000000	7.833400
2081.000000	7.851600
2080.000000	7.868000
2079.000000	7.876200
2078.000000	7.874700
2077.000000	7.899000
2076.000000	7.900200
2075.000000	7.911400
2074.000000	7.910600
2073.000000	7.905100
2072.000000	7.924300
2071.000000	7.951000
2070.000000	7.958000
2069.000000	7.971500
2068.000000	7.973000
2067.000000	7.968400
2066.000000	7.967300
2065.000000	7.979500
2064.000000	7.980600
2063.000000	8.000600
2062.000000	8.011400
2061.000000	8.017300
2060.000000	8.009800
2059.000000	8.042400
2058.000000	8.074200
2057.000000	8.074900
2056.000000	8.097700
2055.000000	8.136300
2054.000000	8.160700
2053.000000	8.184600
2052.000000	8.239000
2051.000000	8.280200
2050.000000	8.323500
2049.000000	8.365900
2048.000000	8.419000
2047.000000	8.477800
2046.000000	8.530600
2045.000000	8.585800
2044.000000	8.659800
2043.000000	8.734700
2042.000000	8.800100
2041.000000	8.859700
2040.000000	8.923400
2039.000000	8.991000
2038.000000	9.065500
2037.000000	9.120400
2036.000000	9.158200
2035.000000	9.229200
2034.000000	9.284100
2033.000000	9.329300
2032.000000	9.391000
2031.000000	9.438400
2030.000000	9.490200
2029.000000	9.513200
2028.000000	9.554900
2027.000000	9.585100
2026.000000	9.650900
2025.000000	9.691300
2024.000000	9.720900
2023.000000	9.769600
2022.000000	9.803800
2021.000000	9.858400
2020.000000	9.900100
2019.000000	9.933000
2018.000000	9.968000
2017.000000	9.993100
2016.000000	10.020900
2015.000000	10.044500
2014.000000	10.085100
2013.000000	10.105600
2012.000000	10.131200
2011.000000	10.148900
2010.000000	10.164900
2009.000000	10.167900
2008.000000	10.186500
2007.000000	10.193400
2006.000000	10.200800
2005.000000	10.217100
2004.000000	10.211300
2003.000000	10.201000
2002.000000	10.204600
2001.000000	10.232300
2000.000000	10.185900
1999.000000	10.180500
1998.000000	10.183700
1997.000000	10.168600
1996.000000	10.145900
1995.000000	10.149100
1994.000000	10.128900
1993.000000	10.121200
1992.000000	10.069100
1991.000000	10.077600
1990.000000	10.046200
1989.000000	10.009000
1988.000000	10.008600
1987.000000	9.988800
1986.000000	9.926300
1985.000000	9.926500
1984.000000	9.885400
1983.000000	9.873300
1982.000000	9.827100
1981.000000	9.806700
1980.000000	9.782900
1979.000000	9.772200
1978.000000	9.731800
1977.000000	9.703900
1976.000000	9.677700
1975.000000	9.616100
1974.000000	9.581400
1973.000000	9.562900
1972.000000	9.535100
1971.000000	9.534300
1970.000000	9.494300
1969.000000	9.453700
1968.000000	9.428400
1967.000000	9.382300
1966.000000	9.342600
1965.000000	9.348700
1964.000000	9.297200
1963.000000	9.250300
1962.000000	9.232100
1961.000000	9.209300
1960.000000	9.173800
1959.000000	9.155500
1958.000000	9.126900
1957.000000	9.100800
1956.000000	9.069800
1955.000000	9.042400
1954.000000	9.005200
1953.000000	8.988500
1952.000000	8.971400
1951.000000	8.933800
1950.000000	8.897400
1949.000000	8.893300
1948.000000	8.856000
1947.000000	8.852000
1946.000000	8.843300
1945.000000	8.810800
1944.000000	8.806700
1943.000000	8.793700
1942.000000	8.768300
1941.000000	8.781000
1940.000000	8.770500
1939.000000	8.789200
1938.000000	8.794200
1937.000000	8.815600
1936.000000	8.816200
1935.000000	8.819100
1934.000000	8.840700
1933.000000	8.852600
1932.000000	8.878900
1931.000000	8.887200
1930.000000	8.928700
1929.000000	8.969100
1928.000000	9.009700
1927.000000	9.075200
1926.000000	9.119600
1925.000000	9.171400
1924.000000	9.200000
1923.000000	9.240100
1922.000000	9.300000
1921.000000	9.391200
1920.000000	9.485000
1919.000000	9.583900
1918.000000	9.637100
1917.000000	9.675900
1916.000000	9.719600
1915.000000	9.792500
1914.000000	9.892800
1913.000000	10.059300
1912.000000	10.184200
1911.000000	10.266500
1910.000000	10.351100
1909.000000	10.390300
1908.000000	10.442400
1907.000000	10.534800
1906.000000	10.686600
1905.000000	10.873400
1904.000000	11.016600
1903.000000	11.127700
1902.000000	11.230600
1901.000000	11.339100
1900.000000	11.492000
1899.000000	11.709700
1898.000000	11.912000
1897.000000	12.063600
1896.000000	12.171000
1895.000000	12.275300
1894.000000	12.423300
1893.000000	12.573700
1892.000000	12.787500
1891.000000	13.006300
1890.000000	13.202700
1889.000000	13.374600
1888.000000	13.542600
1887.000000	13.688700
1886.000000	13.845700
1885.000000	14.077200
1884.000000	14.357800
1883.000000	14.626500
1882.000000	14.872000
1881.000000	15.131200
1880.000000	15.333100
1879.000000	15.526400
1878.000000	15.761800
1877.000000	15.967000
1876.000000	16.144600
1875.000000	16.343300
1874.000000	16.508400
1873.000000	16.698900
1872.000000	16.898400
1871.000000	17.066000
1870.000000	17.250200
1869.000000	17.388200
1868.000000	17.489700
1867.000000	17.537900
1866.000000	17.519400
1865.000000	17.509200
1864.000000	17.475800
1863.000000	17.418500
1862.000000	17.377500
1861.000000	17.391200
1860.000000	17.405500
1859.000000	17.434300
1858.000000	17.443800
1857.000000	17.416500
1856.000000	17.341800
1855.000000	17.299500
1854.000000	17.281900
1853.000000	17.244400
1852.000000	17.195400
1851.000000	17.099600
1850.000000	16.954900
1849.000000	16.883800
1848.000000	16.928900
1847.000000	17.011400
1846.000000	16.996600
1845.000000	16.865200
1844.000000	16.707300
1843.000000	16.588900
1842.000000	16.570000
1841.000000	16.628900
1840.000000	16.644300
1839.000000	16.587700
1838.000000	16.520400
1837.000000	16.517700
1836.000000	16.510000
1835.000000	16.476600
1834.000000	16.391300
1833.000000	16.250700
1832.000000	16.150200
1831.000000	16.079800
1830.000000	16.037700
1829.000000	15.980300
1828.000000	15.906900
1827.000000	15.862700
1826.000000	15.829000
1825.000000	15.780800
1824.000000	15.703800
1823.000000	15.596300
1822.000000	15.551600
1821.000000	15.589800
1820.000000	15.634400
1819.000000	15.628600
1818.000000	15.569400
1817.000000	15.508100
1816.000000	15.508000
1815.000000	15.520700
1814.000000	15.524800
1813.000000	15.508000
1812.000000	15.480400
1811.000000	15.466900
1810.000000	15.451600
1809.000000	15.419500
1808.000000	15.384500
1807.000000	15.377000
1806.000000	15.374600
1805.000000	15.347100
1804.000000	15.305800
1803.000000	15.272500
1802.000000	15.251000
1801.000000	15.244400
1800.000000	15.227100
1799.000000	15.212000
1798.000000	15.174000
1797.000000	15.134100
1796.000000	15.119500
1795.000000	15.113800
1794.000000	15.072000
1793.000000	15.042900
1792.000000	15.023500
1791.000000	14.998100
1790.000000	14.953300
1789.000000	14.896600
1788.000000	14.870400
1787.000000	14.839100
1786.000000	14.794000
1785.000000	14.751200
1784.000000	14.684400
1783.000000	14.633100
1782.000000	14.584900
1781.000000	14.532200
1780.000000	14.495800
1779.000000	14.436500
1778.000000	14.372000
1777.000000	14.297300
1776.000000	14.220600
1775.000000	14.148500
1774.000000	14.077300
1773.000000	13.991900
1772.000000	13.888300
1771.000000	13.799700
1770.000000	13.713300
1769.000000	13.621000
1768.000000	13.539500
1767.000000	13.436300
1766.000000	13.371400
1765.000000	13.329300
1764.000000	13.278600
1763.000000	13.252500
1762.000000	13.234700
1761.000000	13.255000
1760.000000	13.283000
1759.000000	13.331200
1758.000000	13.355000
1757.000000	13.381600
1756.000000	13.394100
1755.000000	13.396600
1754.000000	13.384200
1753.000000	13.381900
1752.000000	13.360300
1751.000000	13.323400
1750.000000	13.290400
1749.000000	13.279200
1748.000000	13.232400
1747.000000	13.158400
1746.000000	13.087800
1745.000000	13.022000
1744.000000	12.931400
1743.000000	12.800700
1742.000000	12.680300
1741.000000	12.512800
1740.000000	12.357400
1739.000000	12.194400
1738.000000	12.048800
1737.000000	11.911800
1736.000000	11.803600
1735.000000	11.736300
1734.000000	11.687300
1733.000000	11.658900
1732.000000	11.678600
1731.000000	11.695800
1730.000000	11.742700
1729.000000	11.771000
1728.000000	11.812100
1727.000000	11.863500
1726.000000	11.904100
1725.000000	11.930100
1724.000000	11.944800
1723.000000	11.961700
1722.000000	11.953900
1721.000000	11.946700
1720.000000	11.934700
1719.000000	11.930300
1718.000000	11.929100
1717.000000	11.961700
1716.000000	11.991600
1715.000000	12.043000
1714.000000	12.082300
1713.000000	12.101500
1712.000000	12.149700
1711.000000	12.202700
1710.000000	12.215700
1709.000000	12.247000
1708.000000	12.239600
1707.000000	12.279100
1706.000000	12.259500
1705.000000	12.269100
1704.000000	12.273400
1703.000000	12.268100
1702.000000	12.249000
1701.000000	12.171200
1700.000000	12.105300
1699.000000	12.038300
1698.000000	11.976600
1697.000000	11.913600
1696.000000	11.893200
1695.000000	11.924900
1694.000000	11.961800
1693.000000	12.023700
1692.000000	12.118400
1691.000000	12.205400
1690.000000	12.284600
1689.000000	12.267300
1688.000000	12.225400
1687.000000	12.162600
1686.000000	12.091700
1685.000000	12.060600
1684.000000	12.043800
1683.000000	12.149100
1682.000000	12.367700
1681.000000	12.658100
1680.000000	13.027300
1679.000000	13.410200
1678.000000	13.768100
1677.000000	14.137700
1676.000000	14.473500
1675.000000	14.721100
1674.000000	14.936800
1673.000000	15.124500
1672.000000	15.279500
1671.000000	15.445600
1670.000000	15.537300
1669.000000	15.658000
1668.000000	15.782600
1667.000000	15.911900
1666.000000	16.007400
1665.000000	16.123800
1664.000000	16.245600
1663.000000	16.356800
1662.000000	16.453300
1661.000000	16.548700
1660.000000	16.632300
1659.000000	16.696800
1658.000000	16.741200
1657.000000	16.793000
1656.000000	16.843200
1655.000000	16.877400
1654.000000	16.908500
1653.000000	16.925000
1652.000000	16.917500
1651.000000	16.925500
1650.000000	16.925000
1649.000000	16.909100
1648.000000	16.895500
1647.000000	16.871100
1646.000000	16.851900
1645.000000	16.827300
1644.000000	16.799300
1643.000000	16.766200
1642.000000	16.733100
1641.000000	16.697800
1640.000000	16.631700
1639.000000	16.591300
1638.000000	16.551400
1637.000000	16.500400
1636.000000	16.458200
1635.000000	16.425200
1634.000000	16.388700
1633.000000	16.337400
1632.000000	16.289100
1631.000000	16.244500
1630.000000	16.208300
1629.000000	16.157300
1628.000000	16.099000
1627.000000	16.058600
1626.000000	16.002100
1625.000000	15.937600
1624.000000	15.886500
1623.000000	15.843500
1622.000000	15.782800
1621.000000	15.742200
1620.000000	15.701200
1619.000000	15.650400
1618.000000	15.586900
1617.000000	15.542300
1616.000000	15.500400
1615.000000	15.450600
1614.000000	15.394100
1613.000000	15.359800
1612.000000	15.325600
1611.000000	15.288700
1610.000000	15.245000
1609.000000	15.214300
1608.000000	15.195600
1607.000000	15.150600
1606.000000	15.124400
1605.000000	15.086300
1604.000000	15.046300
1603.000000	15.020100
1602.000000	15.005100
1601.000000	14.974100
1600.000000	14.942700
1599.000000	14.899900
