PE UV       SUBTECH     SPECTRUM    ASCII       PEDS        4.00        
   -1
CICIMAUCR0021-3.Sample.ASC
24/04/17
14:19:58.00
24/04/17
14:19:58.00
Vinicio Soto Monge
C. resplendens. 
250,000000
1
Lambda 1050
1050L1511233
PerkinElmer UV WinLab 6.3.2.0749 / 2.02.05 Lambda 900 UV/VIS/NIR, Aug  7 2015 09:38:08

0
0
3350/servo 860,8/2
0
0
UV/VIS
1
1
1
DoubleDePol,CommonBeamDepol,RBeamAtt,SBeamAtt,60mm sphere, WB InGaAs Detector
0
0
0
0
Program
Program
3350/servo 860,8/2
3350/0,2 860,8/0,2
3350/0,2 860,8/0,2
0
15.00
 
 
 
0
 
860,8
319,2
860,8
Front
100
on
S:100 R:100
0
0
0
0
 
0
 
 
 
0
 
 
0
0
0
0
0
 
 
 
 
0
0


0
0
#HDR
-1
-1
#GR
nm
%R
1.0
0.0
2500,000000
-1,000000
2251
8
79,251800
5,023200
#DATA
2500.000000	9.058000
2499.000000	8.914400
2498.000000	8.903200
2497.000000	8.832700
2496.000000	8.694200
2495.000000	8.846300
2494.000000	8.690600
2493.000000	8.716200
2492.000000	8.705200
2491.000000	8.791200
2490.000000	8.660000
2489.000000	8.727600
2488.000000	8.598200
2487.000000	8.635200
2486.000000	8.641700
2485.000000	8.653500
2484.000000	8.651100
2483.000000	8.610100
2482.000000	8.593800
2481.000000	8.596100
2480.000000	8.618200
2479.000000	8.611500
2478.000000	8.615100
2477.000000	8.602900
2476.000000	8.638000
2475.000000	8.600800
2474.000000	8.597700
2473.000000	8.603800
2472.000000	8.608400
2471.000000	8.617100
2470.000000	8.643200
2469.000000	8.686300
2468.000000	8.634400
2467.000000	8.655500
2466.000000	8.649900
2465.000000	8.696800
2464.000000	8.725000
2463.000000	8.762300
2462.000000	8.787400
2461.000000	8.805700
2460.000000	8.869100
2459.000000	8.911400
2458.000000	8.963800
2457.000000	9.012400
2456.000000	9.077900
2455.000000	9.133000
2454.000000	9.206300
2453.000000	9.282500
2452.000000	9.326300
2451.000000	9.433300
2450.000000	9.507500
2449.000000	9.601100
2448.000000	9.647300
2447.000000	9.714800
2446.000000	9.793900
2445.000000	9.891700
2444.000000	9.938800
2443.000000	10.002900
2442.000000	10.076600
2441.000000	10.134100
2440.000000	10.225100
2439.000000	10.309100
2438.000000	10.361600
2437.000000	10.400200
2436.000000	10.492400
2435.000000	10.554900
2434.000000	10.605200
2433.000000	10.654300
2432.000000	10.715500
2431.000000	10.750400
2430.000000	10.785400
2429.000000	10.838700
2428.000000	10.894900
2427.000000	10.927700
2426.000000	10.951500
2425.000000	11.004300
2424.000000	11.040700
2423.000000	11.064300
2422.000000	11.093200
2421.000000	11.130900
2420.000000	11.160700
2419.000000	11.181900
2418.000000	11.211100
2417.000000	11.240200
2416.000000	11.262700
2415.000000	11.297600
2414.000000	11.328000
2413.000000	11.362700
2412.000000	11.405400
2411.000000	11.437400
2410.000000	11.459700
2409.000000	11.492000
2408.000000	11.534800
2407.000000	11.547900
2406.000000	11.570000
2405.000000	11.607200
2404.000000	11.633300
2403.000000	11.669100
2402.000000	11.710300
2401.000000	11.743000
2400.000000	11.779000
2399.000000	11.806400
2398.000000	11.841600
2397.000000	11.885200
2396.000000	11.926000
2395.000000	11.943600
2394.000000	11.948600
2393.000000	11.989500
2392.000000	12.030700
2391.000000	12.048700
2390.000000	12.079600
2389.000000	12.094700
2388.000000	12.109700
2387.000000	12.119400
2386.000000	12.125500
2385.000000	12.135400
2384.000000	12.137600
2383.000000	12.142500
2382.000000	12.148900
2381.000000	12.144800
2380.000000	12.140900
2379.000000	12.127300
2378.000000	12.119400
2377.000000	12.113000
2376.000000	12.103700
2375.000000	12.099800
2374.000000	12.073200
2373.000000	12.038100
2372.000000	12.015100
2371.000000	12.000900
2370.000000	11.968900
2369.000000	11.937900
2368.000000	11.896400
2367.000000	11.844900
2366.000000	11.798300
2365.000000	11.744600
2364.000000	11.689600
2363.000000	11.622200
2362.000000	11.550600
2361.000000	11.502900
2360.000000	11.454100
2359.000000	11.387600
2358.000000	11.321800
2357.000000	11.291100
2356.000000	11.268400
2355.000000	11.231400
2354.000000	11.213900
2353.000000	11.210800
2352.000000	11.219900
2351.000000	11.226400
2350.000000	11.265600
2349.000000	11.320700
2348.000000	11.351400
2347.000000	11.397500
2346.000000	11.457200
2345.000000	11.502200
2344.000000	11.577300
2343.000000	11.632900
2342.000000	11.678600
2341.000000	11.712700
2340.000000	11.749600
2339.000000	11.779100
2338.000000	11.792000
2337.000000	11.804200
2336.000000	11.799500
2335.000000	11.785800
2334.000000	11.780500
2333.000000	11.775200
2332.000000	11.750100
2331.000000	11.713400
2330.000000	11.645800
2329.000000	11.581200
2328.000000	11.547900
2327.000000	11.498700
2326.000000	11.427500
2325.000000	11.342200
2324.000000	11.262600
2323.000000	11.160300
2322.000000	11.073200
2321.000000	10.988600
2320.000000	10.891800
2319.000000	10.778000
2318.000000	10.658200
2317.000000	10.528100
2316.000000	10.403600
2315.000000	10.292100
2314.000000	10.187100
2313.000000	10.109000
2312.000000	10.019100
2311.000000	9.910700
2310.000000	9.846800
2309.000000	9.796500
2308.000000	9.761100
2307.000000	9.729600
2306.000000	9.753800
2305.000000	9.789300
2304.000000	9.806400
2303.000000	9.865800
2302.000000	9.939100
2301.000000	10.026300
2300.000000	10.128400
2299.000000	10.223300
2298.000000	10.313300
2297.000000	10.405100
2296.000000	10.508600
2295.000000	10.613200
2294.000000	10.674400
2293.000000	10.749600
2292.000000	10.803100
2291.000000	10.833500
2290.000000	10.843500
2289.000000	10.871400
2288.000000	10.877000
2287.000000	10.874700
2286.000000	10.858000
2285.000000	10.827700
2284.000000	10.784500
2283.000000	10.755900
2282.000000	10.718500
2281.000000	10.643300
2280.000000	10.615600
2279.000000	10.569400
2278.000000	10.511900
2277.000000	10.471800
2276.000000	10.437100
2275.000000	10.414300
2274.000000	10.398900
2273.000000	10.385900
2272.000000	10.377100
2271.000000	10.391500
2270.000000	10.421700
2269.000000	10.495400
2268.000000	10.537000
2267.000000	10.626000
2266.000000	10.745000
2265.000000	10.880000
2264.000000	11.045900
2263.000000	11.209600
2262.000000	11.416300
2261.000000	11.628500
2260.000000	11.869500
2259.000000	12.089000
2258.000000	12.350600
2257.000000	12.649500
2256.000000	12.887000
2255.000000	13.139600
2254.000000	13.418200
2253.000000	13.666200
2252.000000	13.921600
2251.000000	14.146200
2250.000000	14.350200
2249.000000	14.600500
2248.000000	14.765100
2247.000000	14.992600
2246.000000	15.154700
2245.000000	15.302200
2244.000000	15.464000
2243.000000	15.606200
2242.000000	15.729200
2241.000000	15.865300
2240.000000	15.952900
2239.000000	16.078000
2238.000000	16.191800
2237.000000	16.283000
2236.000000	16.354700
2235.000000	16.435000
2234.000000	16.491000
2233.000000	16.588700
2232.000000	16.617600
2231.000000	16.687200
2230.000000	16.703200
2229.000000	16.743400
2228.000000	16.740500
2227.000000	16.747100
2226.000000	16.784000
2225.000000	16.770700
2224.000000	16.763900
2223.000000	16.757900
2222.000000	16.744300
2221.000000	16.723100
2220.000000	16.691200
2219.000000	16.668400
2218.000000	16.630200
2217.000000	16.602400
2216.000000	16.589200
2215.000000	16.565500
2214.000000	16.511800
2213.000000	16.471400
2212.000000	16.478500
2211.000000	16.438400
2210.000000	16.410300
2209.000000	16.387800
2208.000000	16.378600
2207.000000	16.336300
2206.000000	16.301800
2205.000000	16.280100
2204.000000	16.263500
2203.000000	16.252700
2202.000000	16.233200
2201.000000	16.206000
2200.000000	16.206800
2199.000000	16.170100
2198.000000	16.162000
2197.000000	16.138500
2196.000000	16.144900
2195.000000	16.114500
2194.000000	16.080600
2193.000000	16.053300
2192.000000	16.058200
2191.000000	16.021800
2190.000000	15.991000
2189.000000	15.991900
2188.000000	15.969700
2187.000000	15.937800
2186.000000	15.919200
2185.000000	15.895200
2184.000000	15.875600
2183.000000	15.866100
2182.000000	15.835200
2181.000000	15.810500
2180.000000	15.784700
2179.000000	15.774100
2178.000000	15.779400
2177.000000	15.753900
2176.000000	15.732400
2175.000000	15.719100
2174.000000	15.706600
2173.000000	15.702100
2172.000000	15.716300
2171.000000	15.704800
2170.000000	15.717200
2169.000000	15.723600
2168.000000	15.728100
2167.000000	15.745600
2166.000000	15.768900
2165.000000	15.781900
2164.000000	15.785200
2163.000000	15.810500
2162.000000	15.839900
2161.000000	15.867500
2160.000000	15.884200
2159.000000	15.907000
2158.000000	15.959600
2157.000000	16.007700
2156.000000	16.047500
2155.000000	16.062300
2154.000000	16.111500
2153.000000	16.161600
2152.000000	16.207400
2151.000000	16.235200
2150.000000	16.275700
2149.000000	16.316000
2148.000000	16.368400
2147.000000	16.410400
2146.000000	16.436000
2145.000000	16.482500
2144.000000	16.533800
2143.000000	16.568200
2142.000000	16.601300
2141.000000	16.644200
2140.000000	16.682600
2139.000000	16.719400
2138.000000	16.737600
2137.000000	16.768900
2136.000000	16.794800
2135.000000	16.800200
2134.000000	16.829800
2133.000000	16.869600
2132.000000	16.895600
2131.000000	16.916600
2130.000000	16.932400
2129.000000	16.937500
2128.000000	16.936200
2127.000000	16.943200
2126.000000	16.959100
2125.000000	16.971100
2124.000000	16.969100
2123.000000	16.961200
2122.000000	16.954900
2121.000000	16.949800
2120.000000	16.939900
2119.000000	16.924700
2118.000000	16.913600
2117.000000	16.898700
2116.000000	16.883500
2115.000000	16.867500
2114.000000	16.848600
2113.000000	16.820200
2112.000000	16.810400
2111.000000	16.803300
2110.000000	16.775200
2109.000000	16.744800
2108.000000	16.724600
2107.000000	16.701600
2106.000000	16.683300
2105.000000	16.669000
2104.000000	16.642200
2103.000000	16.631800
2102.000000	16.622900
2101.000000	16.586700
2100.000000	16.558400
2099.000000	16.538900
2098.000000	16.519500
2097.000000	16.510800
2096.000000	16.495900
2095.000000	16.469200
2094.000000	16.463200
2093.000000	16.466200
2092.000000	16.450100
2091.000000	16.433400
2090.000000	16.427300
2089.000000	16.416400
2088.000000	16.397700
2087.000000	16.388300
2086.000000	16.378100
2085.000000	16.368300
2084.000000	16.369500
2083.000000	16.361600
2082.000000	16.340100
2081.000000	16.326300
2080.000000	16.298100
2079.000000	16.285900
2078.000000	16.261500
2077.000000	16.237100
2076.000000	16.216600
2075.000000	16.188900
2074.000000	16.164900
2073.000000	16.136300
2072.000000	16.114700
2071.000000	16.080500
2070.000000	16.065200
2069.000000	16.029300
2068.000000	15.999900
2067.000000	15.986000
2066.000000	15.962300
2065.000000	15.939800
2064.000000	15.921700
2063.000000	15.903800
2062.000000	15.871700
2061.000000	15.863800
2060.000000	15.871900
2059.000000	15.867100
2058.000000	15.882100
2057.000000	15.892100
2056.000000	15.908300
2055.000000	15.940900
2054.000000	15.986300
2053.000000	16.043600
2052.000000	16.129500
2051.000000	16.201600
2050.000000	16.295900
2049.000000	16.404200
2048.000000	16.486800
2047.000000	16.603300
2046.000000	16.743600
2045.000000	16.871300
2044.000000	17.017900
2043.000000	17.151100
2042.000000	17.269400
2041.000000	17.403200
2040.000000	17.571900
2039.000000	17.708300
2038.000000	17.822800
2037.000000	17.956300
2036.000000	18.069200
2035.000000	18.179600
2034.000000	18.310600
2033.000000	18.422700
2032.000000	18.527500
2031.000000	18.640000
2030.000000	18.727000
2029.000000	18.820200
2028.000000	18.895600
2027.000000	18.985800
2026.000000	19.066200
2025.000000	19.160300
2024.000000	19.217900
2023.000000	19.291800
2022.000000	19.367100
2021.000000	19.422900
2020.000000	19.498300
2019.000000	19.554700
2018.000000	19.593300
2017.000000	19.651300
2016.000000	19.698300
2015.000000	19.731800
2014.000000	19.785200
2013.000000	19.806900
2012.000000	19.836000
2011.000000	19.845800
2010.000000	19.848400
2009.000000	19.861600
2008.000000	19.860300
2007.000000	19.859200
2006.000000	19.849400
2005.000000	19.829300
2004.000000	19.817400
2003.000000	19.796500
2002.000000	19.764200
2001.000000	19.737500
2000.000000	19.722300
1999.000000	19.670900
1998.000000	19.616500
1997.000000	19.569300
1996.000000	19.511700
1995.000000	19.478400
1994.000000	19.406100
1993.000000	19.333300
1992.000000	19.259200
1991.000000	19.189800
1990.000000	19.107200
1989.000000	19.056600
1988.000000	18.970200
1987.000000	18.884700
1986.000000	18.805000
1985.000000	18.720800
1984.000000	18.638700
1983.000000	18.545300
1982.000000	18.461300
1981.000000	18.364700
1980.000000	18.285500
1979.000000	18.174900
1978.000000	18.119400
1977.000000	18.010400
1976.000000	17.927400
1975.000000	17.840900
1974.000000	17.765900
1973.000000	17.664800
1972.000000	17.577000
1971.000000	17.502400
1970.000000	17.424300
1969.000000	17.341100
1968.000000	17.228400
1967.000000	17.196400
1966.000000	17.099300
1965.000000	17.009400
1964.000000	16.946600
1963.000000	16.856500
1962.000000	16.795400
1961.000000	16.705600
1960.000000	16.637400
1959.000000	16.572100
1958.000000	16.472000
1957.000000	16.384400
1956.000000	16.313000
1955.000000	16.251300
1954.000000	16.183600
1953.000000	16.121500
1952.000000	16.046200
1951.000000	15.969200
1950.000000	15.896500
1949.000000	15.827400
1948.000000	15.792500
1947.000000	15.723300
1946.000000	15.677100
1945.000000	15.635000
1944.000000	15.593300
1943.000000	15.575200
1942.000000	15.515600
1941.000000	15.493500
1940.000000	15.489400
1939.000000	15.507900
1938.000000	15.507000
1937.000000	15.532400
1936.000000	15.564100
1935.000000	15.588500
1934.000000	15.608500
1933.000000	15.645600
1932.000000	15.699100
1931.000000	15.769300
1930.000000	15.830700
1929.000000	15.937500
1928.000000	16.059900
1927.000000	16.180700
1926.000000	16.307600
1925.000000	16.456400
1924.000000	16.559700
1923.000000	16.645800
1922.000000	16.816100
1921.000000	17.052200
1920.000000	17.298000
1919.000000	17.515000
1918.000000	17.678600
1917.000000	17.864900
1916.000000	18.024800
1915.000000	18.205700
1914.000000	18.473600
1913.000000	18.794700
1912.000000	19.108300
1911.000000	19.390600
1910.000000	19.638100
1909.000000	19.815000
1908.000000	20.019900
1907.000000	20.312200
1906.000000	20.643300
1905.000000	21.058600
1904.000000	21.449300
1903.000000	21.752800
1902.000000	22.065800
1901.000000	22.354000
1900.000000	22.733000
1899.000000	23.190600
1898.000000	23.574200
1897.000000	23.960200
1896.000000	24.263900
1895.000000	24.513400
1894.000000	24.809400
1893.000000	25.155300
1892.000000	25.555700
1891.000000	25.981500
1890.000000	26.372600
1889.000000	26.719200
1888.000000	27.102800
1887.000000	27.432100
1886.000000	27.799400
1885.000000	28.222400
1884.000000	28.727700
1883.000000	29.256100
1882.000000	29.773800
1881.000000	30.245900
1880.000000	30.721400
1879.000000	31.129600
1878.000000	31.553900
1877.000000	31.947000
1876.000000	32.316400
1875.000000	32.692700
1874.000000	33.024500
1873.000000	33.349800
1872.000000	33.645400
1871.000000	33.916200
1870.000000	34.172700
1869.000000	34.393300
1868.000000	34.585000
1867.000000	34.696600
1866.000000	34.751500
1865.000000	34.804900
1864.000000	34.835800
1863.000000	34.862000
1862.000000	34.871600
1861.000000	34.919000
1860.000000	34.973800
1859.000000	35.008000
1858.000000	35.031300
1857.000000	35.036800
1856.000000	34.999500
1855.000000	34.960300
1854.000000	34.954100
1853.000000	34.902000
1852.000000	34.834100
1851.000000	34.762300
1850.000000	34.679000
1849.000000	34.624400
1848.000000	34.615800
1847.000000	34.641000
1846.000000	34.596400
1845.000000	34.480200
1844.000000	34.339200
1843.000000	34.249200
1842.000000	34.252900
1841.000000	34.273700
1840.000000	34.239200
1839.000000	34.179900
1838.000000	34.117400
1837.000000	34.076000
1836.000000	34.030400
1835.000000	33.988300
1834.000000	33.901100
1833.000000	33.763300
1832.000000	33.650700
1831.000000	33.577300
1830.000000	33.518000
1829.000000	33.437300
1828.000000	33.339900
1827.000000	33.262700
1826.000000	33.223400
1825.000000	33.155600
1824.000000	33.054200
1823.000000	32.963800
1822.000000	32.951100
1821.000000	32.976700
1820.000000	32.979000
1819.000000	32.961000
1818.000000	32.915300
1817.000000	32.859500
1816.000000	32.843600
1815.000000	32.848700
1814.000000	32.827900
1813.000000	32.802800
1812.000000	32.786600
1811.000000	32.774700
1810.000000	32.719700
1809.000000	32.660300
1808.000000	32.615500
1807.000000	32.580000
1806.000000	32.550600
1805.000000	32.502200
1804.000000	32.435600
1803.000000	32.371600
1802.000000	32.321900
1801.000000	32.295900
1800.000000	32.245000
1799.000000	32.167300
1798.000000	32.117700
1797.000000	32.061100
1796.000000	32.023900
1795.000000	31.971900
1794.000000	31.930100
1793.000000	31.878100
1792.000000	31.831100
1791.000000	31.769100
1790.000000	31.698100
1789.000000	31.640300
1788.000000	31.583800
1787.000000	31.522100
1786.000000	31.462300
1785.000000	31.382100
1784.000000	31.321000
1783.000000	31.233700
1782.000000	31.140400
1781.000000	31.060500
1780.000000	30.978500
1779.000000	30.896500
1778.000000	30.808000
1777.000000	30.720700
1776.000000	30.607000
1775.000000	30.490100
1774.000000	30.362100
1773.000000	30.240600
1772.000000	30.102900
1771.000000	29.954700
1770.000000	29.827500
1769.000000	29.709300
1768.000000	29.581700
1767.000000	29.456700
1766.000000	29.369300
1765.000000	29.300600
1764.000000	29.244800
1763.000000	29.223000
1762.000000	29.230200
1761.000000	29.244800
1760.000000	29.308800
1759.000000	29.399500
1758.000000	29.461200
1757.000000	29.515100
1756.000000	29.571800
1755.000000	29.618300
1754.000000	29.637200
1753.000000	29.643100
1752.000000	29.636300
1751.000000	29.596300
1750.000000	29.542100
1749.000000	29.486600
1748.000000	29.407900
1747.000000	29.307600
1746.000000	29.198700
1745.000000	29.053900
1744.000000	28.881000
1743.000000	28.705000
1742.000000	28.494000
1741.000000	28.250400
1740.000000	27.999600
1739.000000	27.748700
1738.000000	27.531400
1737.000000	27.317500
1736.000000	27.156600
1735.000000	27.054400
1734.000000	27.004300
1733.000000	26.977100
1732.000000	27.039600
1731.000000	27.114700
1730.000000	27.216600
1729.000000	27.325800
1728.000000	27.464000
1727.000000	27.571400
1726.000000	27.681400
1725.000000	27.766900
1724.000000	27.832400
1723.000000	27.897900
1722.000000	27.913900
1721.000000	27.919900
1720.000000	27.967600
1719.000000	27.996400
1718.000000	28.048100
1717.000000	28.100000
1716.000000	28.150400
1715.000000	28.220600
1714.000000	28.305700
1713.000000	28.366500
1712.000000	28.438600
1711.000000	28.502700
1710.000000	28.513400
1709.000000	28.523600
1708.000000	28.513200
1707.000000	28.501400
1706.000000	28.459500
1705.000000	28.438200
1704.000000	28.343700
1703.000000	28.285800
1702.000000	28.176700
1701.000000	28.025700
1700.000000	27.865700
1699.000000	27.717300
1698.000000	27.522300
1697.000000	27.376100
1696.000000	27.312200
1695.000000	27.274800
1694.000000	27.325300
1693.000000	27.443400
1692.000000	27.575200
1691.000000	27.761600
1690.000000	27.924600
1689.000000	28.090900
1688.000000	28.176600
1687.000000	28.215900
1686.000000	28.221000
1685.000000	28.260000
1684.000000	28.347500
1683.000000	28.514000
1682.000000	28.865000
1681.000000	29.326600
1680.000000	29.843600
1679.000000	30.457700
1678.000000	31.060400
1677.000000	31.577700
1676.000000	32.062700
1675.000000	32.504500
1674.000000	32.855600
1673.000000	33.140400
1672.000000	33.449300
1671.000000	33.669400
1670.000000	33.904300
1669.000000	34.080700
1668.000000	34.235300
1667.000000	34.405400
1666.000000	34.515900
1665.000000	34.618000
1664.000000	34.698800
1663.000000	34.770300
1662.000000	34.836900
1661.000000	34.912900
1660.000000	34.963300
1659.000000	34.996200
1658.000000	35.050000
1657.000000	35.076800
1656.000000	35.087200
1655.000000	35.088900
1654.000000	35.058500
1653.000000	35.042200
1652.000000	35.027400
1651.000000	35.001300
1650.000000	34.978800
1649.000000	34.948300
1648.000000	34.905800
1647.000000	34.862800
1646.000000	34.819900
1645.000000	34.760200
1644.000000	34.707700
1643.000000	34.648100
1642.000000	34.598100
1641.000000	34.535500
1640.000000	34.475300
1639.000000	34.414800
1638.000000	34.357500
1637.000000	34.286600
1636.000000	34.224700
1635.000000	34.137800
1634.000000	34.071700
1633.000000	33.981600
1632.000000	33.911200
1631.000000	33.844000
1630.000000	33.785300
1629.000000	33.680300
1628.000000	33.593400
1627.000000	33.509200
1626.000000	33.439600
1625.000000	33.341900
1624.000000	33.249500
1623.000000	33.164300
1622.000000	33.071300
1621.000000	33.002600
