PE UV       SUBTECH     SPECTRUM    ASCII       PEDS        4.00        
   -1
CICIMAUCR0015-2fail.Sample.ASC
24/04/12
10:52:46.00
24/04/12
10:52:46.00
Vinicio Soto Monge
C. resplendens
250,000000
1
Lambda 1050
1050L1511233
PerkinElmer UV WinLab 6.3.2.0749 / 2.02.05 Lambda 900 UV/VIS/NIR, Aug  7 2015 09:38:08

0
0
3350/servo 860,8/2
0
0
UV/VIS
1
1
1
DoubleDePol,CommonBeamDepol,RBeamAtt,SBeamAtt,60mm sphere, WB InGaAs Detector
0
0
0
0
Program
Program
3350/servo 860,8/2
3350/0,2 860,8/0,2
3350/0,2 860,8/0,2
0
15.00
 
 
 
0
 
860,8
319,2
860,8
Front
100
on
S:100 R:100
0
0
0
0
 
0
 
 
 
0
 
 
0
0
0
0
0
 
 
 
 
0
0


0
0
#HDR
-1
-1
#GR
nm
%R
1.0
0.0
2500,000000
-1,000000
2251
8
44,686200
2,535300
#DATA
2500.000000	8.263000
2499.000000	8.217300
2498.000000	8.307100
2497.000000	8.221700
2496.000000	8.176000
2495.000000	8.178400
2494.000000	8.211200
2493.000000	8.163900
2492.000000	8.112700
2491.000000	8.136800
2490.000000	8.099800
2489.000000	8.157600
2488.000000	7.982900
2487.000000	7.997000
2486.000000	8.028000
2485.000000	8.039300
2484.000000	8.069100
2483.000000	8.022100
2482.000000	8.059300
2481.000000	8.047400
2480.000000	8.075500
2479.000000	8.112100
2478.000000	8.079600
2477.000000	8.100000
2476.000000	8.099600
2475.000000	8.081000
2474.000000	8.153100
2473.000000	8.147200
2472.000000	8.208600
2471.000000	8.198600
2470.000000	8.204500
2469.000000	8.232400
2468.000000	8.298700
2467.000000	8.337300
2466.000000	8.331800
2465.000000	8.404800
2464.000000	8.497500
2463.000000	8.520100
2462.000000	8.573600
2461.000000	8.626800
2460.000000	8.675700
2459.000000	8.779500
2458.000000	8.856500
2457.000000	8.934900
2456.000000	8.995000
2455.000000	9.079700
2454.000000	9.139700
2453.000000	9.205000
2452.000000	9.266200
2451.000000	9.352900
2450.000000	9.420100
2449.000000	9.493900
2448.000000	9.576100
2447.000000	9.633300
2446.000000	9.690700
2445.000000	9.781800
2444.000000	9.835000
2443.000000	9.918600
2442.000000	9.990200
2441.000000	10.061400
2440.000000	10.123800
2439.000000	10.202400
2438.000000	10.258800
2437.000000	10.325700
2436.000000	10.377300
2435.000000	10.432300
2434.000000	10.516700
2433.000000	10.587200
2432.000000	10.645200
2431.000000	10.677800
2430.000000	10.645400
2429.000000	10.551800
2428.000000	10.490500
2427.000000	10.460500
2426.000000	10.456500
2425.000000	10.494300
2424.000000	10.521800
2423.000000	10.504700
2422.000000	10.498200
2421.000000	10.531500
2420.000000	10.540300
2419.000000	10.502200
2418.000000	10.490400
2417.000000	10.501900
2416.000000	10.518500
2415.000000	10.502200
2414.000000	10.492600
2413.000000	10.474700
2412.000000	10.486600
2411.000000	10.465700
2410.000000	10.480100
2409.000000	10.483300
2408.000000	10.437700
2407.000000	10.417900
2406.000000	10.423100
2405.000000	10.449700
2404.000000	10.444300
2403.000000	10.413200
2402.000000	10.433700
2401.000000	10.415400
2400.000000	10.428000
2399.000000	10.436700
2398.000000	10.433800
2397.000000	10.388900
2396.000000	10.339400
2395.000000	10.356400
2394.000000	10.379800
2393.000000	10.392100
2392.000000	10.367300
2391.000000	10.326300
2390.000000	10.333000
2389.000000	10.311900
2388.000000	10.267700
2387.000000	10.256600
2386.000000	10.255900
2385.000000	10.233600
2384.000000	10.195400
2383.000000	10.168800
2382.000000	10.133800
2381.000000	10.089000
2380.000000	10.079900
2379.000000	10.066700
2378.000000	10.014600
2377.000000	9.958000
2376.000000	9.938500
2375.000000	9.930100
2374.000000	9.887900
2373.000000	9.835300
2372.000000	9.803300
2371.000000	9.769000
2370.000000	9.713000
2369.000000	9.652600
2368.000000	9.616000
2367.000000	9.572200
2366.000000	9.503800
2365.000000	9.447400
2364.000000	9.410100
2363.000000	9.324000
2362.000000	9.252300
2361.000000	9.227400
2360.000000	9.188400
2359.000000	9.143500
2358.000000	9.077600
2357.000000	9.027300
2356.000000	9.009200
2355.000000	9.001700
2354.000000	8.968300
2353.000000	8.927300
2352.000000	8.926500
2351.000000	8.920400
2350.000000	8.896800
2349.000000	8.912600
2348.000000	8.933700
2347.000000	8.929800
2346.000000	8.928200
2345.000000	8.933400
2344.000000	8.914800
2343.000000	8.898100
2342.000000	8.899400
2341.000000	8.908300
2340.000000	8.872500
2339.000000	8.798400
2338.000000	8.779300
2337.000000	8.770200
2336.000000	8.746600
2335.000000	8.698400
2334.000000	8.619800
2333.000000	8.578200
2332.000000	8.563200
2331.000000	8.537700
2330.000000	8.468700
2329.000000	8.372500
2328.000000	8.322400
2327.000000	8.317100
2326.000000	8.274100
2325.000000	8.202100
2324.000000	8.111600
2323.000000	8.043600
2322.000000	7.998600
2321.000000	7.962800
2320.000000	7.884200
2319.000000	7.789800
2318.000000	7.727700
2317.000000	7.662600
2316.000000	7.623200
2315.000000	7.586000
2314.000000	7.489500
2313.000000	7.444100
2312.000000	7.417800
2311.000000	7.407300
2310.000000	7.348200
2309.000000	7.337200
2308.000000	7.350700
2307.000000	7.298700
2306.000000	7.297300
2305.000000	7.337900
2304.000000	7.343800
2303.000000	7.365000
2302.000000	7.380600
2301.000000	7.407000
2300.000000	7.451900
2299.000000	7.516300
2298.000000	7.558600
2297.000000	7.593800
2296.000000	7.644200
2295.000000	7.703600
2294.000000	7.679900
2293.000000	7.676700
2292.000000	7.665600
2291.000000	7.668000
2290.000000	7.677900
2289.000000	7.682900
2288.000000	7.665400
2287.000000	7.592500
2286.000000	7.579500
2285.000000	7.559400
2284.000000	7.500700
2283.000000	7.469300
2282.000000	7.425800
2281.000000	7.419700
2280.000000	7.326200
2279.000000	7.296900
2278.000000	7.260600
2277.000000	7.247300
2276.000000	7.188100
2275.000000	7.163200
2274.000000	7.166400
2273.000000	7.149700
2272.000000	7.128000
2271.000000	7.131100
2270.000000	7.159300
2269.000000	7.181800
2268.000000	7.234000
2267.000000	7.255100
2266.000000	7.307500
2265.000000	7.395200
2264.000000	7.490800
2263.000000	7.582200
2262.000000	7.699500
2261.000000	7.794400
2260.000000	7.942500
2259.000000	8.083100
2258.000000	8.229100
2257.000000	8.352300
2256.000000	8.503000
2255.000000	8.651500
2254.000000	8.796000
2253.000000	8.953400
2252.000000	9.058200
2251.000000	9.178400
2250.000000	9.301600
2249.000000	9.427000
2248.000000	9.534000
2247.000000	9.627100
2246.000000	9.726500
2245.000000	9.818100
2244.000000	9.915800
2243.000000	10.010200
2242.000000	10.043400
2241.000000	10.096200
2240.000000	10.189200
2239.000000	10.273000
2238.000000	10.270700
2237.000000	10.335600
2236.000000	10.397300
2235.000000	10.443400
2234.000000	10.491900
2233.000000	10.519000
2232.000000	10.512400
2231.000000	10.545800
2230.000000	10.570200
2229.000000	10.606500
2228.000000	10.592400
2227.000000	10.613500
2226.000000	10.575600
2225.000000	10.576500
2224.000000	10.575100
2223.000000	10.579900
2222.000000	10.562000
2221.000000	10.572300
2220.000000	10.534700
2219.000000	10.529400
2218.000000	10.532200
2217.000000	10.511000
2216.000000	10.477200
2215.000000	10.467700
2214.000000	10.457600
2213.000000	10.435700
2212.000000	10.397800
2211.000000	10.391800
2210.000000	10.336000
2209.000000	10.334000
2208.000000	10.315800
2207.000000	10.290700
2206.000000	10.292000
2205.000000	10.279300
2204.000000	10.262300
2203.000000	10.255100
2202.000000	10.239000
2201.000000	10.219500
2200.000000	10.194000
2199.000000	10.193300
2198.000000	10.149400
2197.000000	10.146500
2196.000000	10.154500
2195.000000	10.143100
2194.000000	10.142700
2193.000000	10.118100
2192.000000	10.091500
2191.000000	10.076600
2190.000000	10.059000
2189.000000	10.046800
2188.000000	10.037800
2187.000000	10.009900
2186.000000	10.000800
2185.000000	10.020100
2184.000000	9.994200
2183.000000	9.978400
2182.000000	9.971700
2181.000000	9.956400
2180.000000	9.957700
2179.000000	10.001900
2178.000000	9.978900
2177.000000	9.975700
2176.000000	9.949800
2175.000000	9.965000
2174.000000	9.978200
2173.000000	10.003400
2172.000000	10.010900
2171.000000	10.025100
2170.000000	10.023500
2169.000000	10.024900
2168.000000	10.071400
2167.000000	10.085400
2166.000000	10.103200
2165.000000	10.082600
2164.000000	10.111100
2163.000000	10.170600
2162.000000	10.171200
2161.000000	10.192200
2160.000000	10.225800
2159.000000	10.275300
2158.000000	10.292200
2157.000000	10.301000
2156.000000	10.318800
2155.000000	10.355900
2154.000000	10.375800
2153.000000	10.414900
2152.000000	10.447700
2151.000000	10.473200
2150.000000	10.502300
2149.000000	10.525600
2148.000000	10.536100
2147.000000	10.557400
2146.000000	10.589500
2145.000000	10.600900
2144.000000	10.620200
2143.000000	10.652300
2142.000000	10.657800
2141.000000	10.645600
2140.000000	10.665100
2139.000000	10.691300
2138.000000	10.707200
2137.000000	10.715800
2136.000000	10.716100
2135.000000	10.706200
2134.000000	10.707900
2133.000000	10.716800
2132.000000	10.721500
2131.000000	10.698700
2130.000000	10.685900
2129.000000	10.685200
2128.000000	10.664500
2127.000000	10.639500
2126.000000	10.623800
2125.000000	10.596300
2124.000000	10.564100
2123.000000	10.546000
2122.000000	10.518000
2121.000000	10.493800
2120.000000	10.482000
2119.000000	10.448100
2118.000000	10.401300
2117.000000	10.358500
2116.000000	10.329400
2115.000000	10.340100
2114.000000	10.306700
2113.000000	10.263000
2112.000000	10.233100
2111.000000	10.178700
2110.000000	10.162900
2109.000000	10.143400
2108.000000	10.111300
2107.000000	10.077200
2106.000000	10.045200
2105.000000	10.033400
2104.000000	10.008300
2103.000000	9.977700
2102.000000	9.942800
2101.000000	9.924200
2100.000000	9.912900
2099.000000	9.891700
2098.000000	9.873100
2097.000000	9.846300
2096.000000	9.829500
2095.000000	9.815900
2094.000000	9.803100
2093.000000	9.803000
2092.000000	9.787100
2091.000000	9.770700
2090.000000	9.765500
2089.000000	9.759600
2088.000000	9.745500
2087.000000	9.740800
2086.000000	9.728000
2085.000000	9.707000
2084.000000	9.696700
2083.000000	9.682800
2082.000000	9.667500
2081.000000	9.650500
2080.000000	9.627600
2079.000000	9.618600
2078.000000	9.608000
2077.000000	9.593100
2076.000000	9.570800
2075.000000	9.543900
2074.000000	9.527900
2073.000000	9.508200
2072.000000	9.506100
2071.000000	9.482400
2070.000000	9.453100
2069.000000	9.439800
2068.000000	9.417500
2067.000000	9.409400
2066.000000	9.412700
2065.000000	9.388000
2064.000000	9.363800
2063.000000	9.359300
2062.000000	9.360500
2061.000000	9.347600
2060.000000	9.354800
2059.000000	9.342400
2058.000000	9.350800
2057.000000	9.369500
2056.000000	9.388300
2055.000000	9.401800
2054.000000	9.428800
2053.000000	9.489200
2052.000000	9.537800
2051.000000	9.588400
2050.000000	9.646300
2049.000000	9.705400
2048.000000	9.779200
2047.000000	9.863700
2046.000000	9.946700
2045.000000	10.042500
2044.000000	10.137400
2043.000000	10.224100
2042.000000	10.307400
2041.000000	10.423700
2040.000000	10.513800
2039.000000	10.619100
2038.000000	10.707100
2037.000000	10.780100
2036.000000	10.865700
2035.000000	10.965700
2034.000000	11.047600
2033.000000	11.115100
2032.000000	11.194000
2031.000000	11.271800
2030.000000	11.344400
2029.000000	11.395600
2028.000000	11.460000
2027.000000	11.526500
2026.000000	11.606300
2025.000000	11.648000
2024.000000	11.688200
2023.000000	11.750800
2022.000000	11.802200
2021.000000	11.840300
2020.000000	11.903300
2019.000000	11.960200
2018.000000	11.999300
2017.000000	12.049500
2016.000000	12.072100
2015.000000	12.108700
2014.000000	12.156400
2013.000000	12.189000
2012.000000	12.201800
2011.000000	12.219200
2010.000000	12.260800
2009.000000	12.279200
2008.000000	12.274900
2007.000000	12.277100
2006.000000	12.287500
2005.000000	12.308300
2004.000000	12.290200
2003.000000	12.281800
2002.000000	12.297200
2001.000000	12.292300
2000.000000	12.264200
1999.000000	12.234800
1998.000000	12.218400
1997.000000	12.190900
1996.000000	12.179300
1995.000000	12.154200
1994.000000	12.134900
1993.000000	12.093500
1992.000000	12.052700
1991.000000	11.991600
1990.000000	11.975200
1989.000000	11.928700
1988.000000	11.887600
1987.000000	11.845300
1986.000000	11.800100
1985.000000	11.752600
1984.000000	11.681200
1983.000000	11.644500
1982.000000	11.605600
1981.000000	11.536900
1980.000000	11.503700
1979.000000	11.446700
1978.000000	11.401500
1977.000000	11.349400
1976.000000	11.280200
1975.000000	11.246800
1974.000000	11.175300
1973.000000	11.130800
1972.000000	11.101100
1971.000000	11.047300
1970.000000	11.016300
1969.000000	10.964100
1968.000000	10.906100
1967.000000	10.876200
1966.000000	10.814600
1965.000000	10.779200
1964.000000	10.734400
1963.000000	10.693400
1962.000000	10.644500
1961.000000	10.598100
1960.000000	10.558400
1959.000000	10.521200
1958.000000	10.465400
1957.000000	10.441300
1956.000000	10.393300
1955.000000	10.338200
1954.000000	10.299500
1953.000000	10.284000
1952.000000	10.238300
1951.000000	10.176600
1950.000000	10.131500
1949.000000	10.105700
1948.000000	10.067000
1947.000000	10.047800
1946.000000	10.041500
1945.000000	9.996400
1944.000000	9.981500
1943.000000	9.971500
1942.000000	9.944300
1941.000000	9.943200
1940.000000	9.951300
1939.000000	9.964700
1938.000000	10.015000
1937.000000	10.032800
1936.000000	10.038700
1935.000000	10.081300
1934.000000	10.085800
1933.000000	10.084600
1932.000000	10.153500
1931.000000	10.177600
1930.000000	10.255500
1929.000000	10.314500
1928.000000	10.422400
1927.000000	10.497400
1926.000000	10.610300
1925.000000	10.701900
1924.000000	10.747500
1923.000000	10.802800
1922.000000	10.961000
1921.000000	11.125500
1920.000000	11.270500
1919.000000	11.412100
1918.000000	11.567100
1917.000000	11.609300
1916.000000	11.678200
1915.000000	11.846500
1914.000000	12.047500
1913.000000	12.293100
1912.000000	12.500800
1911.000000	12.692000
1910.000000	12.796800
1909.000000	12.875000
1908.000000	13.018300
1907.000000	13.208200
1906.000000	13.474800
1905.000000	13.813700
1904.000000	14.092600
1903.000000	14.232200
1902.000000	14.396000
1901.000000	14.587100
1900.000000	14.845900
1899.000000	15.154300
1898.000000	15.444300
1897.000000	15.659700
1896.000000	15.757600
1895.000000	15.887200
1894.000000	16.072500
1893.000000	16.265100
1892.000000	16.558000
1891.000000	16.864200
1890.000000	17.090600
1889.000000	17.286000
1888.000000	17.482200
1887.000000	17.640100
1886.000000	17.895400
1885.000000	18.207100
1884.000000	18.554100
1883.000000	18.900900
1882.000000	19.237900
1881.000000	19.551000
1880.000000	19.804000
1879.000000	20.049500
1878.000000	20.343700
1877.000000	20.624600
1876.000000	20.872100
1875.000000	21.128300
1874.000000	21.356100
1873.000000	21.596700
1872.000000	21.846500
1871.000000	22.042300
1870.000000	22.231100
1869.000000	22.410300
1868.000000	22.511100
1867.000000	22.521700
1866.000000	22.483900
1865.000000	22.444700
1864.000000	22.392800
1863.000000	22.323600
1862.000000	22.283200
1861.000000	22.322100
1860.000000	22.378700
1859.000000	22.450100
1858.000000	22.489800
1857.000000	22.427500
1856.000000	22.322100
1855.000000	22.295900
1854.000000	22.291100
1853.000000	22.244400
1852.000000	22.170500
1851.000000	22.042000
1850.000000	21.895000
1849.000000	21.856200
1848.000000	21.944600
1847.000000	22.051800
1846.000000	22.015800
1845.000000	21.822300
1844.000000	21.593000
1843.000000	21.474300
1842.000000	21.503300
1841.000000	21.590600
1840.000000	21.601300
1839.000000	21.553300
1838.000000	21.487200
1837.000000	21.473100
1836.000000	21.496000
1835.000000	21.452100
1834.000000	21.317800
1833.000000	21.140800
1832.000000	20.998800
1831.000000	20.940200
1830.000000	20.916700
1829.000000	20.881100
1828.000000	20.807300
1827.000000	20.759100
1826.000000	20.731800
1825.000000	20.666800
1824.000000	20.545600
1823.000000	20.402300
1822.000000	20.389200
1821.000000	20.501000
1820.000000	20.590900
1819.000000	20.579600
1818.000000	20.499600
1817.000000	20.439700
1816.000000	20.424900
1815.000000	20.428800
1814.000000	20.434700
1813.000000	20.410900
1812.000000	20.388800
1811.000000	20.397600
1810.000000	20.376500
1809.000000	20.308100
1808.000000	20.244400
1807.000000	20.225100
1806.000000	20.211300
1805.000000	20.173800
1804.000000	20.126900
1803.000000	20.064000
1802.000000	20.027200
1801.000000	20.008600
1800.000000	19.984200
1799.000000	19.936600
1798.000000	19.872200
1797.000000	19.831700
1796.000000	19.792600
1795.000000	19.758600
1794.000000	19.731100
1793.000000	19.692600
1792.000000	19.644400
1791.000000	19.601000
1790.000000	19.550300
1789.000000	19.483000
1788.000000	19.415600
1787.000000	19.377800
1786.000000	19.345500
1785.000000	19.291100
1784.000000	19.212000
1783.000000	19.151300
1782.000000	19.086500
1781.000000	19.012700
1780.000000	18.942600
1779.000000	18.885300
1778.000000	18.815100
1777.000000	18.723100
1776.000000	18.624800
1775.000000	18.518400
1774.000000	18.417000
1773.000000	18.297900
1772.000000	18.187200
1771.000000	18.077400
1770.000000	17.960900
1769.000000	17.859200
1768.000000	17.769900
1767.000000	17.671500
1766.000000	17.591200
1765.000000	17.533200
1764.000000	17.493400
1763.000000	17.505500
1762.000000	17.519100
1761.000000	17.558000
1760.000000	17.608600
1759.000000	17.644500
1758.000000	17.703200
1757.000000	17.759400
1756.000000	17.798700
1755.000000	17.804700
1754.000000	17.811400
1753.000000	17.815300
1752.000000	17.796800
1751.000000	17.758300
1750.000000	17.685800
1749.000000	17.631200
1748.000000	17.575500
1747.000000	17.478300
1746.000000	17.374700
1745.000000	17.253100
1744.000000	17.110500
1743.000000	16.930500
1742.000000	16.723900
1741.000000	16.527900
1740.000000	16.319000
1739.000000	16.142700
1738.000000	15.965500
1737.000000	15.800800
1736.000000	15.663800
1735.000000	15.598900
1734.000000	15.580200
1733.000000	15.581800
1732.000000	15.629400
1731.000000	15.711400
1730.000000	15.779900
1729.000000	15.876900
1728.000000	15.954000
1727.000000	16.029800
1726.000000	16.092000
1725.000000	16.153400
1724.000000	16.164300
1723.000000	16.193700
1722.000000	16.201800
1721.000000	16.228400
1720.000000	16.238500
1719.000000	16.226400
1718.000000	16.266500
1717.000000	16.314400
1716.000000	16.363800
1715.000000	16.445800
1714.000000	16.478100
1713.000000	16.526800
1712.000000	16.568900
1711.000000	16.596600
1710.000000	16.606900
1709.000000	16.588000
1708.000000	16.596700
1707.000000	16.580900
1706.000000	16.570000
1705.000000	16.502300
1704.000000	16.477000
1703.000000	16.414600
1702.000000	16.319800
1701.000000	16.212200
1700.000000	16.097300
1699.000000	15.961300
1698.000000	15.839200
1697.000000	15.772800
1696.000000	15.728100
1695.000000	15.709700
1694.000000	15.764900
1693.000000	15.891500
1692.000000	16.000300
1691.000000	16.111100
1690.000000	16.228500
1689.000000	16.325100
1688.000000	16.377600
1687.000000	16.373300
1686.000000	16.376800
1685.000000	16.422200
1684.000000	16.508600
1683.000000	16.697600
1682.000000	17.003200
1681.000000	17.399100
1680.000000	17.850600
1679.000000	18.369700
1678.000000	18.825700
1677.000000	19.225700
1676.000000	19.606600
1675.000000	19.956100
1674.000000	20.225600
1673.000000	20.484400
1672.000000	20.712600
1671.000000	20.883600
1670.000000	21.038300
1669.000000	21.193600
1668.000000	21.323800
1667.000000	21.423900
1666.000000	21.531700
1665.000000	21.603400
1664.000000	21.671700
1663.000000	21.759100
1662.000000	21.777300
1661.000000	21.828000
1660.000000	21.905200
1659.000000	21.923700
1658.000000	21.940700
1657.000000	21.957500
1656.000000	21.972600
1655.000000	21.982800
1654.000000	21.996100
1653.000000	21.988700
1652.000000	21.972600
1651.000000	21.961700
1650.000000	21.936700
1649.000000	21.908300
1648.000000	21.866100
1647.000000	21.843300
1646.000000	21.790100
1645.000000	21.740600
1644.000000	21.712500
1643.000000	21.672900
1642.000000	21.604100
1641.000000	21.570800
1640.000000	21.526700
1639.000000	21.461200
1638.000000	21.420500
1637.000000	21.357200
1636.000000	21.295300
1635.000000	21.240500
1634.000000	21.190500
1633.000000	21.107000
1632.000000	21.052400
1631.000000	20.987900
1630.000000	20.927900
1629.000000	20.854300
1628.000000	20.771100
1627.000000	20.696600
1626.000000	20.630300
1625.000000	20.539200
1624.000000	20.465500
1623.000000	20.393500
1622.000000	20.321800
1621.000000	20.238400
1620.000000	20.166300
1619.000000	20.092700
1618.000000	20.036600
1617.000000	19.956600
1616.000000	19.873500
1615.000000	19.802000
1614.000000	19.736600
1613.000000	19.682700
1612.000000	19.618200
