PE UV       SUBTECH     SPECTRUM    ASCII       PEDS        4.00        
   -1
CICIMAUCR0019-7.Sample.ASC
24/04/25
16:57:29.00
24/04/25
16:57:29.00
Vinicio Soto Monge
C. cupreomarginata
250,000000
1
Lambda 1050
1050L1511233
PerkinElmer UV WinLab 6.3.2.0749 / 2.02.05 Lambda 900 UV/VIS/NIR, Aug  7 2015 09:38:08

0
0
3350/servo 860,8/2
0
0
UV/VIS
1
1
1
DoubleDePol,CommonBeamDepol,RBeamAtt,SBeamAtt,60mm sphere, WB InGaAs Detector
0
0
0
0
Program
Program
3350/servo 860,8/2
3350/0,2 860,8/0,2
3350/0,2 860,8/0,2
0
15.00
 
 
 
0
 
860,8
319,2
860,8
Front
100
on
S:100 R:100
0
0
0
0
 
0
 
 
 
0
 
 
0
0
0
0
0
 
 
 
 
0
0


0
0
#HDR
-1
-1
#GR
nm
%R
1.0
0.0
2500,000000
-1,000000
2251
8
70,963300
5,343700
#DATA
2500.000000	10.325222
2499.000000	10.386315
2498.000000	10.382661
2497.000000	10.308778
2496.000000	10.183052
2495.000000	10.133834
2494.000000	10.127440
2493.000000	10.201094
2492.000000	10.028206
2491.000000	10.114193
2490.000000	10.111224
2489.000000	10.110082
2488.000000	10.028434
2487.000000	10.093981
2486.000000	10.039283
2485.000000	10.133606
2484.000000	10.031746
2483.000000	9.992121
2482.000000	10.029576
2481.000000	10.069430
2480.000000	10.043051
2479.000000	10.054699
2478.000000	10.128125
2477.000000	10.072741
2476.000000	10.027292
2475.000000	10.041681
2474.000000	10.038141
2473.000000	10.033916
2472.000000	10.098891
2471.000000	10.084617
2470.000000	10.112024
2469.000000	10.083704
2468.000000	10.089528
2467.000000	10.138516
2466.000000	10.177228
2465.000000	10.181110
2464.000000	10.185792
2463.000000	10.232383
2462.000000	10.283884
2461.000000	10.361307
2460.000000	10.391911
2459.000000	10.444097
2458.000000	10.482466
2457.000000	10.537850
2456.000000	10.693837
2455.000000	10.735404
2454.000000	10.809515
2453.000000	10.900184
2452.000000	10.996563
2451.000000	11.068733
2450.000000	11.197657
2449.000000	11.253726
2448.000000	11.345309
2447.000000	11.444885
2446.000000	11.558735
2445.000000	11.620400
2444.000000	11.702048
2443.000000	11.777187
2442.000000	11.890695
2441.000000	11.967889
2440.000000	12.072718
2439.000000	12.151397
2438.000000	12.214660
2437.000000	12.303617
2436.000000	12.383666
2435.000000	12.464058
2434.000000	12.527549
2433.000000	12.594466
2432.000000	12.669263
2431.000000	12.738807
2430.000000	12.812575
2429.000000	12.846719
2428.000000	12.899248
2427.000000	12.954517
2426.000000	13.006247
2425.000000	13.063229
2424.000000	13.101255
2423.000000	13.137569
2422.000000	13.179363
2421.000000	13.230179
2420.000000	13.271860
2419.000000	13.306346
2418.000000	13.336721
2417.000000	13.368010
2416.000000	13.415400
2415.000000	13.437211
2414.000000	13.464389
2413.000000	13.500817
2412.000000	13.559626
2411.000000	13.626543
2410.000000	13.722466
2409.000000	13.831862
2408.000000	13.907116
2407.000000	13.940803
2406.000000	13.966610
2405.000000	13.992989
2404.000000	14.036268
2403.000000	14.107639
2402.000000	14.185518
2401.000000	14.212810
2400.000000	14.225828
2399.000000	14.279271
2398.000000	14.353154
2397.000000	14.408081
2396.000000	14.435944
2395.000000	14.460495
2394.000000	14.500120
2393.000000	14.554476
2392.000000	14.591589
2391.000000	14.639207
2390.000000	14.674379
2389.000000	14.679061
2388.000000	14.708294
2387.000000	14.745407
2386.000000	14.753172
2385.000000	14.769273
2384.000000	14.770187
2383.000000	14.763792
2382.000000	14.768816
2381.000000	14.777838
2380.000000	14.771329
2379.000000	14.742095
2378.000000	14.739126
2377.000000	14.735700
2376.000000	14.700072
2375.000000	14.698017
2374.000000	14.683286
2373.000000	14.644003
2372.000000	14.600039
2371.000000	14.575031
2370.000000	14.555846
2369.000000	14.501947
2368.000000	14.458326
2367.000000	14.413219
2366.000000	14.355894
2365.000000	14.287721
2364.000000	14.216807
2363.000000	14.146693
2362.000000	14.076807
2361.000000	14.027932
2360.000000	13.951879
2359.000000	13.880280
2358.000000	13.831520
2357.000000	13.804570
2356.000000	13.779790
2355.000000	13.731715
2354.000000	13.717784
2353.000000	13.725320
2352.000000	13.729317
2351.000000	13.753754
2350.000000	13.781618
2349.000000	13.828094
2348.000000	13.876055
2347.000000	13.953364
2346.000000	14.014686
2345.000000	14.047116
2344.000000	14.121913
2343.000000	14.186432
2342.000000	14.234507
2341.000000	14.288292
2340.000000	14.334312
2339.000000	14.357265
2338.000000	14.381930
2337.000000	14.377248
2336.000000	14.379076
2335.000000	14.371881
2334.000000	14.371310
2333.000000	14.347558
2332.000000	14.305535
2331.000000	14.274932
2330.000000	14.230739
2329.000000	14.183920
2328.000000	14.119058
2327.000000	14.030102
2326.000000	13.964783
2325.000000	13.892271
2324.000000	13.808681
2323.000000	13.691291
2322.000000	13.559055
2321.000000	13.451485
2320.000000	13.333981
2319.000000	13.208140
2318.000000	13.087095
2317.000000	12.940814
2316.000000	12.798872
2315.000000	12.695413
2314.000000	12.540796
2313.000000	12.431056
2312.000000	12.361056
2311.000000	12.250060
2310.000000	12.159277
2309.000000	12.122735
2308.000000	12.088820
2307.000000	12.060614
2306.000000	12.067123
2305.000000	12.105378
2304.000000	12.148885
2303.000000	12.222882
2302.000000	12.319832
2301.000000	12.406961
2300.000000	12.553014
2299.000000	12.662183
2298.000000	12.769182
2297.000000	12.869672
2296.000000	12.984207
2295.000000	13.094632
2294.000000	13.178107
2293.000000	13.266036
2292.000000	13.327243
2291.000000	13.377146
2290.000000	13.409006
2289.000000	13.449316
2288.000000	13.441893
2287.000000	13.428989
2286.000000	13.390963
2285.000000	13.355449
2284.000000	13.333867
2283.000000	13.291158
2282.000000	13.247765
2281.000000	13.202316
2280.000000	13.128776
2279.000000	13.058890
2278.000000	13.053180
2277.000000	12.996540
2276.000000	12.929509
2275.000000	12.905528
2274.000000	12.897649
2273.000000	12.890683
2272.000000	12.894337
2271.000000	12.920830
2270.000000	12.968677
2269.000000	13.053408
2268.000000	13.154698
2267.000000	13.299038
2266.000000	13.408435
2265.000000	13.626886
2264.000000	13.806968
2263.000000	14.006578
2262.000000	14.275274
2261.000000	14.553677
2260.000000	14.836305
2259.000000	15.147709
2258.000000	15.479211
2257.000000	15.794156
2256.000000	16.150324
2255.000000	16.479200
2254.000000	16.797342
2253.000000	17.109432
2252.000000	17.436252
2251.000000	17.709174
2250.000000	18.006075
2249.000000	18.277741
2248.000000	18.510809
2247.000000	18.769913
2246.000000	18.976488
2245.000000	19.168561
2244.000000	19.365886
2243.000000	19.577029
2242.000000	19.713718
2241.000000	19.850065
2240.000000	20.003426
2239.000000	20.130637
2238.000000	20.272922
2237.000000	20.384831
2236.000000	20.463967
2235.000000	20.557605
2234.000000	20.642679
2233.000000	20.698748
2232.000000	20.759270
2231.000000	20.822647
2230.000000	20.851195
2229.000000	20.849711
2228.000000	20.895959
2227.000000	20.895046
2226.000000	20.871293
2225.000000	20.919255
2224.000000	20.895160
2223.000000	20.883969
2222.000000	20.854850
2221.000000	20.819564
2220.000000	20.774915
2219.000000	20.735518
2218.000000	20.705371
2217.000000	20.670770
2216.000000	20.596317
2215.000000	20.551895
2214.000000	20.515925
2213.000000	20.476300
2212.000000	20.416463
2211.000000	20.404815
2210.000000	20.355598
2209.000000	20.342465
2208.000000	20.294504
2207.000000	20.278632
2206.000000	20.251339
2205.000000	20.220964
2204.000000	20.191388
2203.000000	20.162726
2202.000000	20.133150
2201.000000	20.126184
2200.000000	20.113394
2199.000000	20.099234
2198.000000	20.067260
2197.000000	20.044764
2196.000000	20.052872
2195.000000	20.009707
2194.000000	19.999429
2193.000000	19.972366
2192.000000	19.948956
2191.000000	19.945987
2190.000000	19.918809
2189.000000	19.906362
2188.000000	19.875302
2187.000000	19.859200
2186.000000	19.851664
2185.000000	19.831794
2184.000000	19.799706
2183.000000	19.765220
2182.000000	19.757797
2181.000000	19.742381
2180.000000	19.722854
2179.000000	19.698873
2178.000000	19.695790
2177.000000	19.687340
2176.000000	19.673294
2175.000000	19.643718
2174.000000	19.646916
2173.000000	19.659591
2172.000000	19.664730
2171.000000	19.669526
2170.000000	19.667584
2169.000000	19.688824
2168.000000	19.722854
2167.000000	19.729934
2166.000000	19.755285
2165.000000	19.776867
2164.000000	19.807471
2163.000000	19.841729
2162.000000	19.847439
2161.000000	19.890375
2160.000000	19.924290
2159.000000	19.992235
2158.000000	20.038940
2157.000000	20.095580
2156.000000	20.136004
2155.000000	20.207832
2154.000000	20.279773
2153.000000	20.350802
2152.000000	20.426854
2151.000000	20.490802
2150.000000	20.553837
2149.000000	20.619612
2148.000000	20.671570
2147.000000	20.728895
2146.000000	20.779825
2145.000000	20.831326
2144.000000	20.907493
2143.000000	20.958309
2142.000000	21.016890
2141.000000	21.075699
2140.000000	21.141931
2139.000000	21.189093
2138.000000	21.252127
2137.000000	21.287070
2136.000000	21.322356
2135.000000	21.364722
2134.000000	21.421590
2133.000000	21.462357
2132.000000	21.496729
2131.000000	21.522194
2130.000000	21.541949
2129.000000	21.570612
2128.000000	21.590367
2127.000000	21.592879
2126.000000	21.599503
2125.000000	21.610694
2124.000000	21.618116
2123.000000	21.636844
2122.000000	21.625082
2121.000000	21.601672
2120.000000	21.604870
2119.000000	21.606811
2118.000000	21.593222
2117.000000	21.578263
2116.000000	21.559421
2115.000000	21.538295
2114.000000	21.498670
2113.000000	21.469323
2112.000000	21.454934
2111.000000	21.431410
2110.000000	21.407087
2109.000000	21.374656
2108.000000	21.353074
2107.000000	21.336859
2106.000000	21.305570
2105.000000	21.273596
2104.000000	21.230316
2103.000000	21.194688
2102.000000	21.174019
2101.000000	21.148326
2100.000000	21.123089
2099.000000	21.094998
2098.000000	21.062795
2097.000000	21.045438
2096.000000	21.033105
2095.000000	21.014720
2094.000000	20.996906
2093.000000	20.972811
2092.000000	20.963904
2091.000000	20.964247
2090.000000	20.952942
2089.000000	20.928047
2088.000000	20.905209
2087.000000	20.892305
2086.000000	20.858047
2085.000000	20.852908
2084.000000	20.840119
2083.000000	20.811570
2082.000000	20.787590
2081.000000	20.750820
2080.000000	20.720559
2079.000000	20.707541
2078.000000	20.667573
2077.000000	20.607393
2076.000000	20.573478
2075.000000	20.541276
2074.000000	20.495142
2073.000000	20.449579
2072.000000	20.387914
2071.000000	20.322025
2070.000000	20.279888
2069.000000	20.231241
2068.000000	20.200752
2067.000000	20.151078
2066.000000	20.080278
2065.000000	20.038826
2064.000000	19.999544
2063.000000	19.963801
2062.000000	19.922121
2061.000000	19.902137
2060.000000	19.892659
2059.000000	19.883638
2058.000000	19.879070
2057.000000	19.883752
2056.000000	19.905106
2055.000000	19.956950
2054.000000	20.010049
2053.000000	20.076967
2052.000000	20.174830
2051.000000	20.283199
2050.000000	20.385745
2049.000000	20.543559
2048.000000	20.695550
2047.000000	20.834523
2046.000000	21.015063
2045.000000	21.180414
2044.000000	21.340741
2043.000000	21.513287
2042.000000	21.707415
2041.000000	21.925295
2040.000000	22.097613
2039.000000	22.263193
2038.000000	22.439393
2037.000000	22.611025
2036.000000	22.785512
2035.000000	22.939330
2034.000000	23.056492
2033.000000	23.218874
2032.000000	23.325188
2031.000000	23.446804
2030.000000	23.583835
2029.000000	23.713787
2028.000000	23.825468
2027.000000	23.925387
2026.000000	24.021880
2025.000000	24.125225
2024.000000	24.222060
2023.000000	24.300397
2022.000000	24.370511
2021.000000	24.452616
2020.000000	24.534835
2019.000000	24.618539
2018.000000	24.651312
2017.000000	24.710807
2016.000000	24.793026
2015.000000	24.843271
2014.000000	24.890204
2013.000000	24.913499
2012.000000	24.949927
2011.000000	24.999372
2010.000000	24.996175
2009.000000	24.982700
2008.000000	24.999487
2007.000000	25.004968
2006.000000	24.985669
2005.000000	24.943075
2004.000000	24.940106
2003.000000	24.932570
2002.000000	24.875473
2001.000000	24.860057
2000.000000	24.817691
1999.000000	24.748034
1998.000000	24.718914
1997.000000	24.658049
1996.000000	24.577886
1995.000000	24.497837
1994.000000	24.424296
1993.000000	24.347901
1992.000000	24.270821
1991.000000	24.190086
1990.000000	24.098161
1989.000000	24.014001
1988.000000	23.910884
1987.000000	23.816903
1986.000000	23.719611
1985.000000	23.615010
1984.000000	23.513835
1983.000000	23.390050
1982.000000	23.297211
1981.000000	23.180277
1980.000000	23.085497
1979.000000	22.979297
1978.000000	22.874468
1977.000000	22.762901
1976.000000	22.651106
1975.000000	22.519442
1974.000000	22.458120
1973.000000	22.347125
1972.000000	22.246292
1971.000000	22.122164
1970.000000	22.020418
1969.000000	21.913876
1968.000000	21.832114
1967.000000	21.732195
1966.000000	21.647007
1965.000000	21.543891
1964.000000	21.423874
1963.000000	21.372829
1962.000000	21.244476
1961.000000	21.150610
1960.000000	21.043497
1959.000000	20.959451
1958.000000	20.882713
1957.000000	20.760640
1956.000000	20.662320
1955.000000	20.587181
1954.000000	20.474815
1953.000000	20.396936
1952.000000	20.332759
1951.000000	20.220393
1950.000000	20.129952
1949.000000	20.080050
1948.000000	19.996917
1947.000000	19.916640
1946.000000	19.858858
1945.000000	19.820717
1944.000000	19.749689
1943.000000	19.709493
1942.000000	19.723653
1941.000000	19.659934
1940.000000	19.635839
1939.000000	19.612886
1938.000000	19.636296
1937.000000	19.667584
1936.000000	19.684257
1935.000000	19.706867
1934.000000	19.775839
1933.000000	19.804045
1932.000000	19.853719
1931.000000	19.959919
1930.000000	20.062692
1929.000000	20.155417
1928.000000	20.297473
1927.000000	20.413151
1926.000000	20.566055
1925.000000	20.727182
1924.000000	20.875861
1923.000000	21.022028
1922.000000	21.241279
1921.000000	21.491933
1920.000000	21.723402
1919.000000	21.924153
1918.000000	22.165215
1917.000000	22.367908
1916.000000	22.593211
1915.000000	22.850259
1914.000000	23.181305
1913.000000	23.496592
1912.000000	23.837116
1911.000000	24.133104
1910.000000	24.412991
1909.000000	24.691622
1908.000000	24.998002
1907.000000	25.329048
1906.000000	25.727125
1905.000000	26.135936
1904.000000	26.528646
1903.000000	26.902742
1902.000000	27.263136
1901.000000	27.641115
1900.000000	28.083156
1899.000000	28.537644
1898.000000	28.989392
1897.000000	29.398888
1896.000000	29.754257
1895.000000	30.118647
1894.000000	30.505077
1893.000000	30.920739
1892.000000	31.397952
1891.000000	31.885100
1890.000000	32.309327
1889.000000	32.711743
1888.000000	33.177765
1887.000000	33.652922
1886.000000	34.156514
1885.000000	34.723482
1884.000000	35.349032
1883.000000	35.922053
1882.000000	36.502724
1881.000000	37.127703
1880.000000	37.674688
1879.000000	38.199519
1878.000000	38.719212
1877.000000	39.219491
1876.000000	39.660505
1875.000000	40.097065
1874.000000	40.500623
1873.000000	40.875062
1872.000000	41.225635
1871.000000	41.535098
1870.000000	41.816584
1869.000000	42.073404
1868.000000	42.255428
1867.000000	42.380812
1866.000000	42.467370
1865.000000	42.573113
1864.000000	42.651221
1863.000000	42.707290
1862.000000	42.788367
1861.000000	42.866818
1860.000000	42.930081
1859.000000	42.982495
1858.000000	43.008303
1857.000000	43.011843
1856.000000	42.978613
1855.000000	42.950179
1854.000000	42.929395
1853.000000	42.878009
1852.000000	42.833473
1851.000000	42.806638
1850.000000	42.763473
1849.000000	42.699525
1848.000000	42.635120
1847.000000	42.569002
1846.000000	42.482901
1845.000000	42.398969
1844.000000	42.331252
1843.000000	42.309670
1842.000000	42.297223
1841.000000	42.260681
1840.000000	42.208152
1839.000000	42.141920
1838.000000	42.070093
1837.000000	42.009342
1836.000000	41.951446
1835.000000	41.850385
1834.000000	41.741445
1833.000000	41.635474
1832.000000	41.538524
1831.000000	41.464869
1830.000000	41.391786
1829.000000	41.294265
1828.000000	41.159974
1827.000000	41.082323
1826.000000	41.020544
1825.000000	40.937868
1824.000000	40.885568
1823.000000	40.855193
1822.000000	40.850282
1821.000000	40.837607
1820.000000	40.808602
1819.000000	40.768977
1818.000000	40.719303
1817.000000	40.700347
1816.000000	40.706856
1815.000000	40.699091
1814.000000	40.686986
1813.000000	40.657410
1812.000000	40.627834
1811.000000	40.599743
1810.000000	40.553495
1809.000000	40.503821
1808.000000	40.457230
1807.000000	40.408469
1806.000000	40.346919
1805.000000	40.287882
1804.000000	40.239350
1803.000000	40.187734
1802.000000	40.126984
1801.000000	40.059724
1800.000000	39.982529
1799.000000	39.930572
1798.000000	39.883752
1797.000000	39.828140
1796.000000	39.780979
1795.000000	39.712691
1794.000000	39.642691
1793.000000	39.590390
1792.000000	39.525985
1791.000000	39.444223
1790.000000	39.376621
1789.000000	39.321923
1788.000000	39.263684
1787.000000	39.172444
1786.000000	39.093422
1785.000000	39.010404
1784.000000	38.922133
1783.000000	38.820387
1782.000000	38.725949
1781.000000	38.629684
1780.000000	38.541870
1779.000000	38.428019
1778.000000	38.302978
1777.000000	38.174967
1776.000000	38.024004
1775.000000	37.878979
1774.000000	37.729843
1773.000000	37.554557
1772.000000	37.376644
1771.000000	37.225909
1770.000000	37.069122
1769.000000	36.898289
1768.000000	36.740931
1767.000000	36.613377
1766.000000	36.512317
1765.000000	36.420962
1764.000000	36.359869
1763.000000	36.339428
1762.000000	36.353474
1761.000000	36.399265
1760.000000	36.471093
1759.000000	36.533785
1758.000000	36.595335
1757.000000	36.669104
1756.000000	36.728712
1755.000000	36.745613
1754.000000	36.750066
1753.000000	36.731453
1752.000000	36.672301
1751.000000	36.646151
1750.000000	36.595221
1749.000000	36.487879
1748.000000	36.362724
1747.000000	36.236540
1746.000000	36.069019
1745.000000	35.890535
1744.000000	35.663634
1743.000000	35.403159
1742.000000	35.136861
1741.000000	34.857659
1740.000000	34.533808
1739.000000	34.261229
1738.000000	33.975061
1737.000000	33.741650
1736.000000	33.587033
1735.000000	33.467244
1734.000000	33.405009
1733.000000	33.397473
1732.000000	33.453199
1731.000000	33.548322
1730.000000	33.673363
1729.000000	33.820672
1728.000000	33.944686
1727.000000	34.048601
1726.000000	34.158912
1725.000000	34.252436
1724.000000	34.298227
1723.000000	34.342763
1722.000000	34.382159
1721.000000	34.421099
1720.000000	34.478767
1719.000000	34.551622
1718.000000	34.614999
1717.000000	34.708751
1716.000000	34.823630
1715.000000	34.927659
1714.000000	35.028835
1713.000000	35.105230
1712.000000	35.193615
1711.000000	35.248542
1710.000000	35.289537
1709.000000	35.293306
1708.000000	35.268297
1707.000000	35.254137
1706.000000	35.189162
1705.000000	35.164724
1704.000000	35.053500
1703.000000	34.939421
1702.000000	34.800334
1701.000000	34.637038
1700.000000	34.426352
1699.000000	34.220804
1698.000000	34.028618
1697.000000	33.890901
1696.000000	33.825582
1695.000000	33.836431
1694.000000	33.908486
1693.000000	34.030787
1692.000000	34.220119
1691.000000	34.422812
1690.000000	34.599126
1689.000000	34.717773
1688.000000	34.836305
1687.000000	34.868279
1686.000000	34.913842
1685.000000	35.022668
1684.000000	35.178884
1683.000000	35.519979
1682.000000	35.972983
1681.000000	36.585743
1680.000000	37.245093
1679.000000	37.973302
1678.000000	38.665883
1677.000000	39.260943
1676.000000	39.808042
1675.000000	40.287653
1674.000000	40.711309
1673.000000	41.071817
1672.000000	41.398637
1671.000000	41.697823
1670.000000	41.969945
1669.000000	42.187826
1668.000000	42.384809
1667.000000	42.580421
1666.000000	42.723962
1665.000000	42.863049
1664.000000	42.958515
1663.000000	43.070995
1662.000000	43.173540
1661.000000	43.257700
1660.000000	43.328614
1659.000000	43.381600
1658.000000	43.411975
1657.000000	43.453427
1656.000000	43.455369
1655.000000	43.465646
1654.000000	43.464961
1653.000000	43.461535
1652.000000	43.455254
1651.000000	43.408435
1650.000000	43.386168
1649.000000	43.341404
1648.000000	43.283394
1647.000000	43.236803
1646.000000	43.165547
1645.000000	43.114388
1644.000000	43.040163
1643.000000	42.979298
1642.000000	42.924599
1641.000000	42.859738
1640.000000	42.791793
1639.000000	42.716768
1638.000000	42.632265
1637.000000	42.549589
1636.000000	42.476277
1635.000000	42.401595
1634.000000	42.319490
1633.000000	42.217744
1632.000000	42.118168
1631.000000	42.013910
1630.000000	41.908053
1629.000000	41.825491
1628.000000	41.730026
1627.000000	41.616975
1626.000000	41.519454
1625.000000	41.431068
1624.000000	41.336402
