PE UV       SUBTECH     SPECTRUM    ASCII       PEDS        4.00        
   -1
CICIMAUCR0141-1.Sample.ASC
24/04/19
14:36:41.00
24/04/19
14:36:41.00
Vinicio Soto Monge
C. kalinini
250,000000
1
Lambda 1050
1050L1511233
PerkinElmer UV WinLab 6.3.2.0749 / 2.02.05 Lambda 900 UV/VIS/NIR, Aug  7 2015 09:38:08

0
0
3350/servo 860,8/2
0
0
UV/VIS
1
1
1
DoubleDePol,CommonBeamDepol,RBeamAtt,SBeamAtt,60mm sphere, WB InGaAs Detector
0
0
0
0
Program
Program
3350/servo 860,8/2
3350/0,2 860,8/0,2
3350/0,2 860,8/0,2
0
15.00
 
 
 
0
 
860,8
319,2
860,8
Front
100
on
S:100 R:100
0
0
0
0
 
0
 
 
 
0
 
 
0
0
0
0
0
 
 
 
 
0
0


0
0
#HDR
-1
-1
#GR
nm
%R
1.0
0.0
2500,000000
-1,000000
2251
8
97,649500
5,759200
#DATA
2500.000000	11.574972
2499.000000	11.477840
2498.000000	11.521134
2497.000000	11.544555
2496.000000	11.478955
2495.000000	11.350087
2494.000000	11.525696
2493.000000	11.440021
2492.000000	11.499537
2491.000000	11.494975
2490.000000	11.478043
2489.000000	11.419236
2488.000000	11.382532
2487.000000	11.431504
2486.000000	11.401898
2485.000000	11.375435
2484.000000	11.364992
2483.000000	11.426637
2482.000000	11.427246
2481.000000	11.464152
2480.000000	11.478854
2479.000000	11.508764
2478.000000	11.479259
2477.000000	11.522756
2476.000000	11.574262
2475.000000	11.577203
2474.000000	11.613805
2473.000000	11.674943
2472.000000	11.682446
2471.000000	11.750784
2470.000000	11.786270
2469.000000	11.795903
2468.000000	11.835851
2467.000000	11.918687
2466.000000	11.908649
2465.000000	11.953768
2464.000000	12.043093
2463.000000	12.086590
2462.000000	12.155536
2461.000000	12.225495
2460.000000	12.295455
2459.000000	12.353045
2458.000000	12.411649
2457.000000	12.507767
2456.000000	12.567486
2455.000000	12.669688
2454.000000	12.755465
2453.000000	12.830190
2452.000000	12.939793
2451.000000	13.048281
2450.000000	13.143589
2449.000000	13.233725
2448.000000	13.351845
2447.000000	13.447964
2446.000000	13.568112
2445.000000	13.673254
2444.000000	13.786305
2443.000000	13.904628
2442.000000	14.017070
2441.000000	14.140463
2440.000000	14.224313
2439.000000	14.357844
2438.000000	14.460857
2437.000000	14.604934
2436.000000	14.696794
2435.000000	14.808628
2434.000000	14.912148
2433.000000	15.033107
2432.000000	15.134903
2431.000000	15.237916
2430.000000	15.341436
2429.000000	15.447491
2428.000000	15.547462
2427.000000	15.640944
2426.000000	15.736556
2425.000000	15.796072
2424.000000	15.825780
2423.000000	15.870696
2422.000000	15.909123
2421.000000	15.970667
2420.000000	16.045291
2419.000000	16.128228
2418.000000	16.190178
2417.000000	16.238136
2416.000000	16.287311
2415.000000	16.324217
2414.000000	16.366091
2413.000000	16.430576
2412.000000	16.462108
2411.000000	16.488571
2410.000000	16.519090
2409.000000	16.562282
2408.000000	16.583270
2407.000000	16.589354
2406.000000	16.606387
2405.000000	16.656576
2404.000000	16.688818
2403.000000	16.682734
2402.000000	16.678375
2401.000000	16.712341
2400.000000	16.746915
2399.000000	16.758676
2398.000000	16.754418
2397.000000	16.768004
2396.000000	16.781489
2395.000000	16.795380
2394.000000	16.812819
2393.000000	16.810690
2392.000000	16.798219
2391.000000	16.815556
2390.000000	16.827825
2389.000000	16.820829
2388.000000	16.825797
2387.000000	16.816874
2386.000000	16.799030
2385.000000	16.795785
2384.000000	16.797914
2383.000000	16.789803
2382.000000	16.776014
2381.000000	16.745293
2380.000000	16.725521
2379.000000	16.709299
2378.000000	16.696422
2377.000000	16.678679
2376.000000	16.649276
2375.000000	16.622813
2374.000000	16.614296
2373.000000	16.587529
2372.000000	16.558024
2371.000000	16.542410
2370.000000	16.523551
2369.000000	16.503881
2368.000000	16.486949
2367.000000	16.486442
2366.000000	16.467279
2365.000000	16.451868
2364.000000	16.441222
2363.000000	16.436760
2362.000000	16.428852
2361.000000	16.407357
2360.000000	16.395494
2359.000000	16.387992
2358.000000	16.371262
2357.000000	16.340439
2356.000000	16.315497
2355.000000	16.295016
2354.000000	16.257096
2353.000000	16.224448
2352.000000	16.207212
2351.000000	16.161485
2350.000000	16.131777
2349.000000	16.112513
2348.000000	16.076114
2347.000000	16.035354
2346.000000	16.009500
2345.000000	16.002504
2344.000000	15.961339
2343.000000	15.922202
2342.000000	15.907805
2341.000000	15.883674
2340.000000	15.865829
2339.000000	15.857819
2338.000000	15.830241
2337.000000	15.815032
2336.000000	15.800027
2335.000000	15.782891
2334.000000	15.785325
2333.000000	15.787251
2332.000000	15.788772
2331.000000	15.798201
2330.000000	15.809456
2329.000000	15.812092
2328.000000	15.811686
2327.000000	15.836527
2326.000000	15.857008
2325.000000	15.872724
2324.000000	15.886817
2323.000000	15.891582
2322.000000	15.905067
2321.000000	15.913584
2320.000000	15.906385
2319.000000	15.902837
2318.000000	15.883167
2317.000000	15.873636
2316.000000	15.849911
2315.000000	15.808341
2314.000000	15.779140
2313.000000	15.762309
2312.000000	15.719421
2311.000000	15.666495
2310.000000	15.626851
2309.000000	15.595217
2308.000000	15.548172
2307.000000	15.516031
2306.000000	15.481051
2305.000000	15.463511
2304.000000	15.442523
2303.000000	15.405616
2302.000000	15.390813
2301.000000	15.372158
2300.000000	15.370332
2299.000000	15.365973
2298.000000	15.363945
2297.000000	15.368609
2296.000000	15.364756
2295.000000	15.381587
2294.000000	15.397505
2293.000000	15.428531
2292.000000	15.433296
2291.000000	15.456717
2290.000000	15.480848
2289.000000	15.505588
2288.000000	15.534180
2287.000000	15.557196
2286.000000	15.596941
2285.000000	15.640944
2284.000000	15.665684
2283.000000	15.684948
2282.000000	15.720536
2281.000000	15.775693
2280.000000	15.794957
2279.000000	15.802359
2278.000000	15.833688
2277.000000	15.861469
2276.000000	15.914699
2275.000000	15.927677
2274.000000	15.948260
2273.000000	15.960731
2272.000000	15.952113
2271.000000	15.979083
2270.000000	15.996319
2269.000000	16.040424
2268.000000	16.099433
2267.000000	16.131676
2266.000000	16.177808
2265.000000	16.232458
2264.000000	16.308400
2263.000000	16.389310
2262.000000	16.497798
2261.000000	16.580431
2260.000000	16.726333
2259.000000	16.832691
2258.000000	16.977275
2257.000000	17.138182
2256.000000	17.249914
2255.000000	17.407171
2254.000000	17.582882
2253.000000	17.762952
2252.000000	17.893442
2251.000000	18.051510
2250.000000	18.213025
2249.000000	18.380320
2248.000000	18.503408
2247.000000	18.658536
2246.000000	18.778988
2245.000000	18.907653
2244.000000	19.027396
2243.000000	19.123818
2242.000000	19.204931
2241.000000	19.268098
2240.000000	19.339578
2239.000000	19.423327
2238.000000	19.450094
2237.000000	19.484060
2236.000000	19.510320
2235.000000	19.544387
2234.000000	19.542866
2233.000000	19.529382
2232.000000	19.513666
2231.000000	19.502614
2230.000000	19.447255
2229.000000	19.443098
2228.000000	19.401325
2227.000000	19.336232
2226.000000	19.270531
2225.000000	19.229163
2224.000000	19.150890
2223.000000	19.080018
2222.000000	19.002251
2221.000000	18.926613
2220.000000	18.849354
2219.000000	18.770776
2218.000000	18.661477
2217.000000	18.588577
2216.000000	18.518414
2215.000000	18.449773
2214.000000	18.358014
2213.000000	18.272643
2212.000000	18.177741
2211.000000	18.097440
2210.000000	18.020180
2209.000000	17.963908
2208.000000	17.899829
2207.000000	17.816587
2206.000000	17.753015
2205.000000	17.720874
2204.000000	17.645744
2203.000000	17.578623
2202.000000	17.535025
2201.000000	17.467093
2200.000000	17.413863
2199.000000	17.379492
2198.000000	17.322409
2197.000000	17.278912
2196.000000	17.235618
2195.000000	17.189587
2194.000000	17.159271
2193.000000	17.107460
2192.000000	17.069743
2191.000000	17.038515
2190.000000	17.006881
2189.000000	16.995221
2188.000000	16.960545
2187.000000	16.925870
2186.000000	16.889369
2185.000000	16.851246
2184.000000	16.813630
2183.000000	16.781388
2182.000000	16.758068
2181.000000	16.727549
2180.000000	16.699667
2179.000000	16.672190
2178.000000	16.658097
2177.000000	16.636196
2176.000000	16.611051
2175.000000	16.598175
2174.000000	16.608009
2173.000000	16.579620
2172.000000	16.573131
2171.000000	16.591686
2170.000000	16.596552
2169.000000	16.613079
2168.000000	16.637311
2167.000000	16.638325
2166.000000	16.660834
2165.000000	16.698754
2164.000000	16.734748
2163.000000	16.764557
2162.000000	16.806735
2161.000000	16.863920
2160.000000	16.916643
2159.000000	16.962877
2158.000000	17.028883
2157.000000	17.109995
2156.000000	17.218889
2155.000000	17.292803
2154.000000	17.371178
2153.000000	17.459895
2152.000000	17.548105
2151.000000	17.670787
2150.000000	17.774105
2149.000000	17.862112
2148.000000	17.965835
2147.000000	18.061750
2146.000000	18.169427
2145.000000	18.270108
2144.000000	18.364706
2143.000000	18.460824
2142.000000	18.550150
2141.000000	18.643936
2140.000000	18.753032
2139.000000	18.833435
2138.000000	18.915156
2137.000000	19.006915
2136.000000	19.099079
2135.000000	19.178367
2134.000000	19.234334
2133.000000	19.303280
2132.000000	19.397878
2131.000000	19.456583
2130.000000	19.516403
2129.000000	19.583930
2128.000000	19.637464
2127.000000	19.699718
2126.000000	19.752036
2125.000000	19.800095
2124.000000	19.847647
2123.000000	19.882221
2122.000000	19.924299
2121.000000	19.966984
2120.000000	19.999835
2119.000000	20.033294
2118.000000	20.056816
2117.000000	20.078919
2116.000000	20.102543
2115.000000	20.120794
2114.000000	20.134583
2113.000000	20.132961
2112.000000	20.148879
2111.000000	20.152124
2110.000000	20.145330
2109.000000	20.158004
2108.000000	20.161350
2107.000000	20.156078
2106.000000	20.160945
2105.000000	20.169360
2104.000000	20.167332
2103.000000	20.171286
2102.000000	20.177268
2101.000000	20.171895
2100.000000	20.170171
2099.000000	20.179600
2098.000000	20.200386
2097.000000	20.199980
2096.000000	20.211234
2095.000000	20.240334
2094.000000	20.265377
2093.000000	20.290015
2092.000000	20.310901
2091.000000	20.329760
2090.000000	20.340812
2089.000000	20.357947
2088.000000	20.369201
2087.000000	20.385728
2086.000000	20.406310
2085.000000	20.403268
2084.000000	20.406310
2083.000000	20.395968
2082.000000	20.381165
2081.000000	20.351154
2080.000000	20.315565
2079.000000	20.284439
2078.000000	20.248141
2077.000000	20.186596
2076.000000	20.127993
2075.000000	20.060365
2074.000000	19.973980
2073.000000	19.887189
2072.000000	19.795836
2071.000000	19.697386
2070.000000	19.595488
2069.000000	19.486696
2068.000000	19.372327
2067.000000	19.258060
2066.000000	19.145820
2065.000000	19.034595
2064.000000	18.924788
2063.000000	18.800078
2062.000000	18.670399
2061.000000	18.563128
2060.000000	18.466604
2059.000000	18.386809
2058.000000	18.300019
2057.000000	18.223468
2056.000000	18.166892
2055.000000	18.137895
2054.000000	18.110316
2053.000000	18.118428
2052.000000	18.134447
2051.000000	18.152698
2050.000000	18.215256
2049.000000	18.282174
2048.000000	18.366227
2047.000000	18.477554
2046.000000	18.595370
2045.000000	18.702540
2044.000000	18.824209
2043.000000	18.946892
2042.000000	19.081640
2041.000000	19.224905
2040.000000	19.351238
2039.000000	19.472501
2038.000000	19.621748
2037.000000	19.729324
2036.000000	19.829194
2035.000000	19.958873
2034.000000	20.072228
2033.000000	20.162364
2032.000000	20.243071
2031.000000	20.334728
2030.000000	20.423648
2029.000000	20.520578
2028.000000	20.612133
2027.000000	20.668101
2026.000000	20.725894
2025.000000	20.803559
2024.000000	20.861960
2023.000000	20.918638
2022.000000	20.966798
2021.000000	21.023983
2020.000000	21.075895
2019.000000	21.114220
2018.000000	21.151431
2017.000000	21.192190
2016.000000	21.218349
2015.000000	21.237917
2014.000000	21.244305
2013.000000	21.245217
2012.000000	21.244913
2011.000000	21.256370
2010.000000	21.261136
2009.000000	21.232138
2008.000000	21.199997
2007.000000	21.172013
2006.000000	21.158021
2005.000000	21.117972
2004.000000	21.077618
2003.000000	21.023070
2002.000000	20.960715
2001.000000	20.894101
2000.000000	20.841479
1999.000000	20.781760
1998.000000	20.714437
1997.000000	20.635960
1996.000000	20.558903
1995.000000	20.461365
1994.000000	20.363726
1993.000000	20.297721
1992.000000	20.188928
1991.000000	20.110148
1990.000000	19.998922
1989.000000	19.910915
1988.000000	19.810031
1987.000000	19.701036
1986.000000	19.578252
1985.000000	19.470372
1984.000000	19.371212
1983.000000	19.268807
1982.000000	19.142272
1981.000000	19.041185
1980.000000	18.940098
1979.000000	18.823905
1978.000000	18.735086
1977.000000	18.634811
1976.000000	18.498542
1975.000000	18.444805
1974.000000	18.337229
1973.000000	18.229248
1972.000000	18.115893
1971.000000	18.031840
1970.000000	17.914429
1969.000000	17.813241
1968.000000	17.731216
1967.000000	17.622830
1966.000000	17.537966
1965.000000	17.461010
1964.000000	17.339138
1963.000000	17.250117
1962.000000	17.174987
1961.000000	17.074001
1960.000000	16.974740
1959.000000	16.865441
1958.000000	16.777535
1957.000000	16.690339
1956.000000	16.587630
1955.000000	16.515744
1954.000000	16.412224
1953.000000	16.312861
1952.000000	16.219581
1951.000000	16.130256
1950.000000	16.073376
1949.000000	15.983645
1948.000000	15.924940
1947.000000	15.832269
1946.000000	15.787251
1945.000000	15.733413
1944.000000	15.673288
1943.000000	15.621072
1942.000000	15.572303
1941.000000	15.532355
1940.000000	15.512786
1939.000000	15.503864
1938.000000	15.487439
1937.000000	15.460672
1936.000000	15.450837
1935.000000	15.451648
1934.000000	15.469188
1933.000000	15.480544
1932.000000	15.534281
1931.000000	15.587511
1930.000000	15.620666
1929.000000	15.724997
1928.000000	15.818175
1927.000000	15.879618
1926.000000	15.972796
1925.000000	16.070132
1924.000000	16.178214
1923.000000	16.287108
1922.000000	16.457647
1921.000000	16.629403
1920.000000	16.814847
1919.000000	16.977072
1918.000000	17.152478
1917.000000	17.326059
1916.000000	17.520121
1915.000000	17.765284
1914.000000	18.069659
1913.000000	18.379813
1912.000000	18.690779
1911.000000	18.993227
1910.000000	19.275296
1909.000000	19.556250
1908.000000	19.915072
1907.000000	20.346692
1906.000000	20.853849
1905.000000	21.398926
1904.000000	21.910239
1903.000000	22.385863
1902.000000	22.898901
1901.000000	23.448033
1900.000000	24.056175
1899.000000	24.719068
1898.000000	25.380338
1897.000000	26.004804
1896.000000	26.569043
1895.000000	27.155893
1894.000000	27.790397
1893.000000	28.465456
1892.000000	29.249105
1891.000000	29.991489
1890.000000	30.656713
1889.000000	31.279455
1888.000000	31.907673
1887.000000	32.495131
1886.000000	33.084312
1885.000000	33.682518
1884.000000	34.278696
1883.000000	34.818601
1882.000000	35.296963
1881.000000	35.770154
1880.000000	36.199645
1879.000000	36.619808
1878.000000	37.034091
1877.000000	37.425054
1876.000000	37.805979
1875.000000	38.192886
1874.000000	38.551505
1873.000000	38.887615
1872.000000	39.214094
1871.000000	39.463920
1870.000000	39.668527
1869.000000	39.873843
1868.000000	40.073076
1867.000000	40.188662
1866.000000	40.282651
1865.000000	40.389010
1864.000000	40.509563
1863.000000	40.629407
1862.000000	40.753814
1861.000000	40.908637
1860.000000	41.040952
1859.000000	41.143053
1858.000000	41.232986
1857.000000	41.302034
1856.000000	41.355264
1855.000000	41.413259
1854.000000	41.455843
1853.000000	41.461014
1852.000000	41.482712
1851.000000	41.515664
1850.000000	41.575991
1849.000000	41.635001
1848.000000	41.643619
1847.000000	41.638651
1846.000000	41.580960
1845.000000	41.522457
1844.000000	41.497515
1843.000000	41.512115
1842.000000	41.525499
1841.000000	41.508668
1840.000000	41.474297
1839.000000	41.426744
1838.000000	41.392170
1837.000000	41.354250
1836.000000	41.307205
1835.000000	41.229134
1834.000000	41.143053
1833.000000	41.092662
1832.000000	41.066807
1831.000000	41.041459
1830.000000	41.014692
1829.000000	40.983869
1828.000000	40.934999
1827.000000	40.911476
1826.000000	40.888258
1825.000000	40.863113
1824.000000	40.850236
1823.000000	40.893023
1822.000000	40.942908
1821.000000	40.964402
1820.000000	40.958724
1819.000000	40.911071
1818.000000	40.881972
1817.000000	40.880248
1816.000000	40.884405
1815.000000	40.865242
1814.000000	40.848716
1813.000000	40.838881
1812.000000	40.827626
1811.000000	40.780074
1810.000000	40.726337
1809.000000	40.690140
1808.000000	40.671890
1807.000000	40.650699
1806.000000	40.621499
1805.000000	40.571108
1804.000000	40.540893
1803.000000	40.529132
1802.000000	40.523353
1801.000000	40.496281
1800.000000	40.449946
1799.000000	40.417602
1798.000000	40.388706
1797.000000	40.364473
1796.000000	40.339531
1795.000000	40.306579
1794.000000	40.267138
1793.000000	40.247975
1792.000000	40.230637
1791.000000	40.210461
1790.000000	40.212793
1789.000000	40.214111
1788.000000	40.212488
1787.000000	40.224250
1786.000000	40.224655
1785.000000	40.216646
1784.000000	40.217862
1783.000000	40.214719
1782.000000	40.198699
1781.000000	40.189878
1780.000000	40.161489
1779.000000	40.127827
1778.000000	40.093152
1777.000000	40.049452
1776.000000	39.994600
1775.000000	39.952016
1774.000000	39.885706
1773.000000	39.824973
1772.000000	39.804289
1771.000000	39.751566
1770.000000	39.686372
1769.000000	39.646018
1768.000000	39.603029
1767.000000	39.555578
1766.000000	39.510053
1765.000000	39.480244
1764.000000	39.465036
1763.000000	39.457736
1762.000000	39.451754
1761.000000	39.433503
1760.000000	39.445366
1759.000000	39.471018
1758.000000	39.487342
1757.000000	39.477000
1756.000000	39.485821
1755.000000	39.501435
1754.000000	39.526276
1753.000000	39.526073
1752.000000	39.519888
1751.000000	39.510155
1750.000000	39.490383
1749.000000	39.453477
1748.000000	39.402174
1747.000000	39.357156
1746.000000	39.281417
1745.000000	39.189152
1744.000000	39.096683
1743.000000	38.995799
1742.000000	38.883458
1741.000000	38.764121
1740.000000	38.630286
1739.000000	38.533559
1738.000000	38.427301
1737.000000	38.339700
1736.000000	38.236281
1735.000000	38.133370
1734.000000	38.060368
1733.000000	37.960093
1732.000000	37.880704
1731.000000	37.780732
1730.000000	37.706514
1729.000000	37.632398
1728.000000	37.543884
1727.000000	37.457093
1726.000000	37.415827
1725.000000	37.380746
1724.000000	37.384903
1723.000000	37.405384
1722.000000	37.530297
1721.000000	37.719290
1720.000000	37.964858
1719.000000	38.222188
1718.000000	38.494422
1717.000000	38.801737
1716.000000	39.107329
1715.000000	39.390514
1714.000000	39.666296
1713.000000	39.927276
1712.000000	40.120831
1711.000000	40.331927
1710.000000	40.504088
1709.000000	40.679596
1708.000000	40.826308
1707.000000	40.914417
1706.000000	41.025338
1705.000000	41.134435
1704.000000	41.168603
1703.000000	41.229843
1702.000000	41.271312
1701.000000	41.282668
1700.000000	41.288042
1699.000000	41.298688
1698.000000	41.297471
1697.000000	41.271211
1696.000000	41.244951
1695.000000	41.155321
1694.000000	41.046427
1693.000000	40.915532
1692.000000	40.779060
1691.000000	40.658912
1690.000000	40.530247
1689.000000	40.477929
1688.000000	40.463532
1687.000000	40.488474
1686.000000	40.595543
1685.000000	40.803191
1684.000000	41.030104
1683.000000	41.279018
1682.000000	41.540403
1681.000000	41.824297
1680.000000	42.100283
1679.000000	42.328615
1678.000000	42.552182
1677.000000	42.776762
1676.000000	42.950242
1675.000000	43.133860
1674.000000	43.319608
1673.000000	43.516408
1672.000000	43.698607
1671.000000	43.906053
1670.000000	44.121407
1669.000000	44.332502
1668.000000	44.532647
1667.000000	44.730359
1666.000000	44.916716
1665.000000	45.116151
1664.000000	45.276551
1663.000000	45.464733
1662.000000	45.630912
1661.000000	45.762619
1660.000000	45.924337
1659.000000	46.047730
1658.000000	46.155914
1657.000000	46.251424
1656.000000	46.343892
1655.000000	46.405132
1654.000000	46.462114
1653.000000	46.499932
1652.000000	46.526091
1651.000000	46.559043
1650.000000	46.574556
1649.000000	46.589258
1648.000000	46.582262
1647.000000	46.592502
1646.000000	46.594834
1645.000000	46.578003
1644.000000	46.575367
1643.000000	46.570095
1642.000000	46.558333
1641.000000	46.548904
1640.000000	46.540083
1639.000000	46.528322
1638.000000	46.512505
1637.000000	46.505914
1636.000000	46.452583
1635.000000	46.435448
1634.000000	46.408782
1633.000000	46.372383
1632.000000	46.324729
1631.000000	46.277481
1630.000000	46.235302
1629.000000	46.182782
1628.000000	46.129957
1627.000000	46.083622
1626.000000	46.024004
1625.000000	45.963372
1624.000000	45.917747
