PE UV       SUBTECH     SPECTRUM    ASCII       PEDS        4.00        
   -1
CICIMAUCR0116-3.Sample.ASC
24/04/11
14:13:42.00
24/04/11
14:13:42.00
Vinicio Soto Monge
C. kalinini
250,000000
1
Lambda 1050
1050L1511233
PerkinElmer UV WinLab 6.3.2.0749 / 2.02.05 Lambda 900 UV/VIS/NIR, Aug  7 2015 09:38:08

0
0
3350/2 860,8/2
0
0
UV/VIS
1
1
1
DoubleDePol,CommonBeamDepol,RBeamAtt,SBeamAtt,60mm sphere, WB InGaAs Detector
0
0
0
0
Program
Program
3350/2 860,8/2
3350/0,2 860,8/0,2
3350/0,2 860,8/0,2
0
15.00
 
 
 
0
 
860,8
319,2
860,8
Front
100
on
S:100 R:100
0
0
0
0
 
0
 
 
 
0
 
 
0
0
0
0
0
 
 
 
 
0
0


0
0
#HDR
-1
-1
#GR
nm
%R
1.0
0.0
2400,000000
-1,000000
2151
8
95,435400
5,183200
#DATA
2400.000000	17.104516
2399.000000	17.672384
2398.000000	17.138401
2397.000000	18.108999
2396.000000	18.135210
2395.000000	18.650557
2394.000000	17.463595
2393.000000	17.469275
2392.000000	17.217133
2391.000000	17.875195
2390.000000	18.281811
2389.000000	17.902302
2388.000000	18.425323
2387.000000	18.800348
2386.000000	18.165108
2385.000000	17.320282
2384.000000	17.841908
2383.000000	17.931104
2382.000000	17.669096
2381.000000	17.650957
2380.000000	16.837823
2379.000000	16.948945
2378.000000	17.787493
2377.000000	18.000767
2376.000000	18.222912
2375.000000	17.252313
2374.000000	16.684345
2373.000000	16.520004
2372.000000	17.199194
2371.000000	17.284703
2370.000000	17.380378
2369.000000	17.297261
2368.000000	16.826661
2367.000000	16.652055
2366.000000	17.146374
2365.000000	17.017711
2364.000000	17.266067
2363.000000	17.472265
2362.000000	16.485023
2361.000000	16.367723
2360.000000	16.246734
2359.000000	16.012730
2358.000000	16.007747
2357.000000	16.202485
2356.000000	15.763976
2355.000000	15.829155
2354.000000	15.584586
2353.000000	15.952336
2352.000000	16.953031
2351.000000	15.487018
2350.000000	15.544622
2349.000000	15.809023
2348.000000	15.828955
2347.000000	16.194711
2346.000000	16.520901
2345.000000	16.093156
2344.000000	15.320585
2343.000000	16.426921
2342.000000	16.098638
2341.000000	16.482532
2340.000000	16.513228
2339.000000	16.827857
2338.000000	16.162222
2337.000000	15.962003
2336.000000	16.311514
2335.000000	15.967185
2334.000000	16.218131
2333.000000	16.073424
2332.000000	16.380280
2331.000000	15.965192
2330.000000	15.989310
2329.000000	15.788194
2328.000000	15.537845
2327.000000	15.761086
2326.000000	15.690526
2325.000000	15.643486
2324.000000	15.305037
2323.000000	15.458715
2322.000000	15.484826
2321.000000	15.393437
2320.000000	15.500273
2319.000000	15.296666
2318.000000	15.437088
2317.000000	14.815802
2316.000000	14.789391
2315.000000	14.640897
2314.000000	13.919451
2313.000000	13.436992
2312.000000	13.845203
2311.000000	13.766272
2310.000000	13.584291
2309.000000	13.617478
2308.000000	13.615086
2307.000000	13.661628
2306.000000	13.500177
2305.000000	13.221425
2304.000000	13.759694
2303.000000	13.944466
2302.000000	13.534161
2301.000000	13.566651
2300.000000	13.444666
2299.000000	13.628042
2298.000000	14.168703
2297.000000	14.382177
2296.000000	14.433203
2295.000000	14.238864
2294.000000	14.448850
2293.000000	14.379685
2292.000000	14.497285
2291.000000	14.744743
2290.000000	15.001071
2289.000000	14.632226
2288.000000	14.377792
2287.000000	14.792282
2286.000000	14.597743
2285.000000	14.486123
2284.000000	14.551800
2283.000000	14.293279
2282.000000	14.257999
2281.000000	14.100036
2280.000000	13.971773
2279.000000	14.039243
2278.000000	13.966790
2277.000000	13.795074
2276.000000	13.785506
2275.000000	14.208368
2274.000000	14.332944
2273.000000	13.920248
2272.000000	13.687639
2271.000000	13.548811
2270.000000	13.689333
2269.000000	14.041535
2268.000000	13.985127
2267.000000	13.887659
2266.000000	14.264876
2265.000000	14.343209
2264.000000	14.148671
2263.000000	14.423436
2262.000000	14.703783
2261.000000	14.982036
2260.000000	15.297762
2259.000000	15.703382
2258.000000	15.913866
2257.000000	15.837725
2256.000000	16.229991
2255.000000	16.639996
2254.000000	16.833438
2253.000000	17.185640
2252.000000	17.486118
2251.000000	17.600031
2250.000000	17.974756
2249.000000	18.326858
2248.000000	18.324965
2247.000000	18.705171
2246.000000	18.730286
2245.000000	18.895623
2244.000000	18.944457
2243.000000	19.086574
2242.000000	19.400905
2241.000000	19.319183
2240.000000	19.515913
2239.000000	19.885855
2238.000000	19.785795
2237.000000	19.515315
2236.000000	19.722012
2235.000000	20.231280
2234.000000	20.228489
2233.000000	19.978241
2232.000000	20.042522
2231.000000	20.008139
2230.000000	19.973357
2229.000000	20.070228
2228.000000	20.238655
2227.000000	19.904392
2226.000000	19.884659
2225.000000	19.921534
2224.000000	19.970168
2223.000000	19.877284
2222.000000	19.536743
2221.000000	19.927414
2220.000000	20.193907
2219.000000	19.742343
2218.000000	19.517408
2217.000000	19.846888
2216.000000	19.778919
2215.000000	19.708359
2214.000000	19.192813
2213.000000	19.051992
2212.000000	19.314100
2211.000000	19.367518
2210.000000	19.361140
2209.000000	19.315694
2208.000000	19.359147
2207.000000	18.985617
2206.000000	19.153745
2205.000000	19.034053
2204.000000	18.845295
2203.000000	18.747727
2202.000000	18.694408
2201.000000	18.633216
2200.000000	18.866024
2199.000000	18.809716
2198.000000	18.705969
2197.000000	18.743242
2196.000000	18.873698
2195.000000	18.530565
2194.000000	18.638797
2193.000000	18.353567
2192.000000	18.916652
2191.000000	18.670788
2190.000000	18.948045
2189.000000	18.843800
2188.000000	18.630525
2187.000000	18.735369
2186.000000	18.677067
2185.000000	18.722811
2184.000000	18.663214
2183.000000	18.527974
2182.000000	18.764868
2181.000000	18.442266
2180.000000	18.575712
2179.000000	18.642883
2178.000000	18.760084
2177.000000	18.569732
2176.000000	18.514619
2175.000000	18.495784
2174.000000	18.521197
2173.000000	18.562457
2172.000000	18.299651
2171.000000	18.595146
2170.000000	18.881073
2169.000000	18.627735
2168.000000	18.629927
2167.000000	18.605510
2166.000000	18.656836
2165.000000	18.731781
2164.000000	18.788787
2163.000000	18.714141
2162.000000	18.931103
2161.000000	19.251314
2160.000000	19.232876
2159.000000	18.985418
2158.000000	19.125043
2157.000000	18.879678
2156.000000	19.340111
2155.000000	18.865227
2154.000000	19.304931
2153.000000	19.350775
2152.000000	20.010431
2151.000000	19.539035
2150.000000	19.177664
2149.000000	19.213941
2148.000000	19.447646
2147.000000	19.802638
2146.000000	20.325759
2145.000000	20.009734
2144.000000	19.796260
2143.000000	19.852469
2142.000000	19.799449
2141.000000	20.558666
2140.000000	20.294365
2139.000000	20.490797
2138.000000	20.225500
2137.000000	20.440468
2136.000000	20.722310
2135.000000	20.748421
2134.000000	20.425021
2133.000000	20.821672
2132.000000	20.529167
2131.000000	20.395621
2130.000000	20.502059
2129.000000	20.965084
2128.000000	20.877681
2127.000000	20.972957
2126.000000	20.921632
2125.000000	20.863529
2124.000000	20.793368
2123.000000	20.768353
2122.000000	20.728887
2121.000000	20.861835
2120.000000	20.719320
2119.000000	20.734967
2118.000000	20.450434
2117.000000	21.124242
2116.000000	20.504351
2115.000000	20.702477
2114.000000	20.656533
2113.000000	21.082883
2112.000000	20.501760
2111.000000	20.768951
2110.000000	20.269251
2109.000000	20.604411
2108.000000	20.671582
2107.000000	20.418842
2106.000000	20.508736
2105.000000	20.278719
2104.000000	20.510131
2103.000000	20.394923
2102.000000	20.443857
2101.000000	20.070826
2100.000000	20.276327
2099.000000	20.427413
2098.000000	20.441664
2097.000000	20.426815
2096.000000	20.285695
2095.000000	19.747924
2094.000000	19.888347
2093.000000	19.976347
2092.000000	20.195601
2091.000000	20.205069
2090.000000	20.423526
2089.000000	20.231180
2088.000000	20.160521
2087.000000	20.126536
2086.000000	20.368015
2085.000000	20.087270
2084.000000	20.005648
2083.000000	20.169291
2082.000000	20.315793
2081.000000	20.179755
2080.000000	19.968773
2079.000000	20.189024
2078.000000	19.733473
2077.000000	19.696200
2076.000000	19.713940
2075.000000	19.803435
2074.000000	19.736364
2073.000000	19.684739
2072.000000	19.590858
2071.000000	19.681550
2070.000000	19.520000
2069.000000	19.501562
2068.000000	19.355160
2067.000000	19.236962
2066.000000	19.175571
2065.000000	19.009636
2064.000000	19.005350
2063.000000	18.915356
2062.000000	18.831342
2061.000000	18.743840
2060.000000	18.680057
2059.000000	18.720419
2058.000000	18.727894
2057.000000	18.831043
2056.000000	18.758490
2055.000000	18.700089
2054.000000	18.692116
2053.000000	18.717928
2052.000000	18.704175
2051.000000	18.752809
2050.000000	18.897916
2049.000000	19.121754
2048.000000	19.196301
2047.000000	19.351971
2046.000000	19.398612
2045.000000	19.512824
2044.000000	19.622850
2043.000000	19.812903
2042.000000	19.973955
2041.000000	20.187429
2040.000000	20.373596
2039.000000	20.415055
2038.000000	20.533851
2037.000000	20.708457
2036.000000	20.865323
2035.000000	21.001161
2034.000000	21.225398
2033.000000	21.254898
2032.000000	21.252506
2031.000000	21.374192
2030.000000	21.452526
2029.000000	21.559163
2028.000000	21.611684
2027.000000	21.619657
2026.000000	21.679055
2025.000000	21.720713
2024.000000	21.784696
2023.000000	21.937675
2022.000000	22.008634
2021.000000	22.042319
2020.000000	22.062052
2019.000000	22.107797
2018.000000	22.085174
2017.000000	22.153242
2016.000000	22.256292
2015.000000	22.277220
2014.000000	22.375586
2013.000000	22.432991
2012.000000	22.337715
2011.000000	22.258484
2010.000000	22.266557
2009.000000	22.265660
2008.000000	22.264464
2007.000000	22.239349
2006.000000	22.260876
2005.000000	22.258683
2004.000000	22.243435
2003.000000	22.206561
2002.000000	22.100222
2001.000000	22.061454
2000.000000	22.078795
1999.000000	22.107797
1998.000000	22.037436
1997.000000	21.960199
1996.000000	21.984915
1995.000000	21.878875
1994.000000	21.736560
1993.000000	21.679055
1992.000000	21.629723
1991.000000	21.569029
1990.000000	21.489301
1989.000000	21.428507
1988.000000	21.310708
1987.000000	21.210549
1986.000000	21.137796
1985.000000	21.071123
1984.000000	20.980531
1983.000000	20.875090
1982.000000	20.787588
1981.000000	20.693906
1980.000000	20.631817
1979.000000	20.512723
1978.000000	20.386352
1977.000000	20.259384
1976.000000	20.233971
1975.000000	20.172380
1974.000000	20.056574
1973.000000	20.029865
1972.000000	19.984719
1971.000000	19.845193
1970.000000	19.848382
1969.000000	19.720617
1968.000000	19.608100
1967.000000	19.543021
1966.000000	19.421734
1965.000000	19.331142
1964.000000	19.391835
1963.000000	19.325063
1962.000000	19.126139
1961.000000	19.110493
1960.000000	19.090660
1959.000000	19.021396
1958.000000	18.814798
1957.000000	18.808121
1956.000000	18.745733
1955.000000	18.676469
1954.000000	18.664510
1953.000000	18.575612
1952.000000	18.453428
1951.000000	18.390442
1950.000000	18.316693
1949.000000	18.252710
1948.000000	18.204275
1947.000000	18.268656
1946.000000	18.106009
1945.000000	18.027477
1944.000000	18.027277
1943.000000	17.995186
1942.000000	17.927317
1941.000000	17.955023
1940.000000	17.963295
1939.000000	18.021497
1938.000000	18.032958
1937.000000	18.020999
1936.000000	18.056179
1935.000000	18.052790
1934.000000	18.075613
1933.000000	18.169294
1932.000000	18.249920
1931.000000	18.355959
1930.000000	18.411769
1929.000000	18.487611
1928.000000	18.644278
1927.000000	18.681651
1926.000000	18.820379
1925.000000	18.911769
1924.000000	19.127036
1923.000000	19.232976
1922.000000	19.272143
1921.000000	19.572122
1920.000000	19.888745
1919.000000	19.801641
1918.000000	19.959504
1917.000000	20.155637
1916.000000	20.530462
1915.000000	20.770147
1914.000000	20.975150
1913.000000	21.345290
1912.000000	21.389440
1911.000000	21.617365
1910.000000	21.956511
1909.000000	22.110787
1908.000000	22.360736
1907.000000	22.805025
1906.000000	23.290075
1905.000000	23.657625
1904.000000	23.820172
1903.000000	24.048296
1902.000000	24.245924
1901.000000	24.523380
1900.000000	25.138786
1899.000000	25.560950
1898.000000	25.834918
1897.000000	26.050086
1896.000000	26.375181
1895.000000	26.691504
1894.000000	27.042112
1893.000000	27.449426
1892.000000	27.798339
1891.000000	28.135094
1890.000000	28.468460
1889.000000	28.879561
1888.000000	29.054367
1887.000000	29.495267
1886.000000	30.001047
1885.000000	30.364909
1884.000000	30.902580
1883.000000	31.190301
1882.000000	31.665086
1881.000000	32.251192
1880.000000	32.648042
1879.000000	33.100304
1878.000000	33.576484
1877.000000	34.037217
1876.000000	34.410946
1875.000000	34.602295
1874.000000	35.024658
1873.000000	35.538610
1872.000000	35.555054
1871.000000	36.060036
1870.000000	36.174347
1869.000000	36.119733
1868.000000	36.452401
1867.000000	36.572393
1866.000000	36.384731
1865.000000	36.521367
1864.000000	36.736933
1863.000000	36.772114
1862.000000	36.757663
1861.000000	36.929179
1860.000000	37.267429
1859.000000	37.139564
1858.000000	36.962865
1857.000000	37.086046
1856.000000	37.218794
1855.000000	36.956885
1854.000000	37.127405
1853.000000	37.107971
1852.000000	36.874465
1851.000000	36.879449
1850.000000	36.953995
1849.000000	36.922303
1848.000000	37.169462
1847.000000	37.122621
1846.000000	36.673350
1845.000000	36.508710
1844.000000	36.495853
1843.000000	36.624615
1842.000000	36.753676
1841.000000	36.744209
1840.000000	36.538708
1839.000000	36.469443
1838.000000	36.473131
1837.000000	36.565616
1836.000000	36.523360
1835.000000	36.318955
1834.000000	36.118338
1833.000000	36.021965
1832.000000	36.035220
1831.000000	36.030935
1830.000000	35.895296
1829.000000	35.860315
1828.000000	35.732251
1827.000000	35.740124
1826.000000	35.638171
1825.000000	35.544888
1824.000000	35.427089
1823.000000	35.496054
1822.000000	35.530537
1821.000000	35.669664
1820.000000	35.602393
1819.000000	35.420113
1818.000000	35.375365
1817.000000	35.351845
1816.000000	35.435261
1815.000000	35.423700
1814.000000	35.324039
1813.000000	35.353539
1812.000000	35.404765
1811.000000	35.338690
1810.000000	35.301317
1809.000000	35.215608
1808.000000	35.188102
1807.000000	35.183219
1806.000000	35.171259
1805.000000	35.081664
1804.000000	34.980707
1803.000000	34.977817
1802.000000	34.975924
1801.000000	34.958882
1800.000000	34.916027
1799.000000	34.836398
1798.000000	34.761553
1797.000000	34.744611
1796.000000	34.734943
1795.000000	34.684316
1794.000000	34.620034
1793.000000	34.566516
1792.000000	34.540604
1791.000000	34.524160
1790.000000	34.465759
1789.000000	34.390515
1788.000000	34.347461
1787.000000	34.324938
1786.000000	34.273015
1785.000000	34.229662
1784.000000	34.178038
1783.000000	34.117743
1782.000000	34.046685
1781.000000	33.967155
1780.000000	33.887925
1779.000000	33.829224
1778.000000	33.741921
1777.000000	33.676743
1776.000000	33.563229
1775.000000	33.482504
1774.000000	33.368990
1773.000000	33.228069
1772.000000	33.118841
1771.000000	32.984896
1770.000000	32.847165
1769.000000	32.739930
1768.000000	32.639970
1767.000000	32.528150
1766.000000	32.458786
1765.000000	32.394106
1764.000000	32.300923
1763.000000	32.273616
1762.000000	32.276207
1761.000000	32.313381
1760.000000	32.345173
1759.000000	32.380752
1758.000000	32.420716
1757.000000	32.493867
1756.000000	32.519181
1755.000000	32.528349
1754.000000	32.574792
1753.000000	32.578080
1752.000000	32.552667
1751.000000	32.536123
1750.000000	32.500943
1749.000000	32.423307
1748.000000	32.318364
1747.000000	32.259364
1746.000000	32.169969
1745.000000	32.042303
1744.000000	31.868295
1743.000000	31.675251
1742.000000	31.490081
1741.000000	31.267638
1740.000000	31.033435
1739.000000	30.838597
1738.000000	30.605889
1737.000000	30.410155
1736.000000	30.288768
1735.000000	30.195784
1734.000000	30.113464
1733.000000	30.070012
1732.000000	30.106588
1731.000000	30.144758
1730.000000	30.188210
1729.000000	30.268636
1728.000000	30.378961
1727.000000	30.441548
1726.000000	30.471945
1725.000000	30.509019
1724.000000	30.579379
1723.000000	30.629608
1722.000000	30.653627
1721.000000	30.682827
1720.000000	30.693391
1719.000000	30.770330
1718.000000	30.879159
1717.000000	30.983305
1716.000000	31.095324
1715.000000	31.206845
1714.000000	31.312485
1713.000000	31.428192
1712.000000	31.498851
1711.000000	31.544496
1710.000000	31.605788
1709.000000	31.630803
1708.000000	31.665983
1707.000000	31.666880
1706.000000	31.631301
1705.000000	31.617249
1704.000000	31.573099
1703.000000	31.523069
1702.000000	31.425003
1701.000000	31.275013
1700.000000	31.162595
1699.000000	31.028551
1698.000000	30.860722
1697.000000	30.738139
1696.000000	30.676050
1695.000000	30.652929
1694.000000	30.692993
1693.000000	30.770928
1692.000000	30.850656
1691.000000	30.997557
1690.000000	31.148244
1689.000000	31.242822
1688.000000	31.328232
1687.000000	31.368296
1686.000000	31.427993
1685.000000	31.493071
1684.000000	31.614458
1683.000000	31.814976
1682.000000	32.127114
1681.000000	32.590638
1680.000000	33.078079
1679.000000	33.609771
1678.000000	34.130998
1677.000000	34.634784
1676.000000	35.112858
1675.000000	35.508313
1674.000000	35.853239
1673.000000	36.151724
1672.000000	36.406956
1671.000000	36.636276
1670.000000	36.915027
1669.000000	37.108669
1668.000000	37.268525
1667.000000	37.473229
1666.000000	37.601991
1665.000000	37.736932
1664.000000	37.843968
1663.000000	37.988974
1662.000000	38.062026
1661.000000	38.128699
1660.000000	38.244007
1659.000000	38.325230
1658.000000	38.348252
1657.000000	38.439542
1656.000000	38.426187
1655.000000	38.470636
1654.000000	38.487578
1653.000000	38.499239
1652.000000	38.471433
1651.000000	38.496946
1650.000000	38.487279
1649.000000	38.477114
1648.000000	38.435754
1647.000000	38.402268
1646.000000	38.358916
1645.000000	38.334798
1644.000000	38.301212
1643.000000	38.251980
1642.000000	38.225669
1641.000000	38.172749
1640.000000	38.154710
1639.000000	38.091226
1638.000000	38.040997
1637.000000	37.965753
1636.000000	37.920408
1635.000000	37.888616
1634.000000	37.794835
1633.000000	37.755668
1632.000000	37.675341
1631.000000	37.600496
1630.000000	37.536015
1629.000000	37.443231
1628.000000	37.386823
1627.000000	37.317160
1626.000000	37.205340
1625.000000	37.168864
1624.000000	37.082558
1623.000000	37.009008
1622.000000	36.901374
1621.000000	36.842674
1620.000000	36.770320
1619.000000	36.683814
1618.000000	36.615945
1617.000000	36.555550
1616.000000	36.500139
1615.000000	36.401275
1614.000000	36.359118
1613.000000	36.290053
1612.000000	36.212218
1611.000000	36.142456
1610.000000	36.042496
1609.000000	35.943134
1608.000000	35.925892
1607.000000	35.863704
1606.000000	35.734942
1605.000000	35.665279
1604.000000	35.577577
1603.000000	35.532829
1602.000000	35.448416
1601.000000	35.339188
1600.000000	35.278096
1599.000000	35.208034
1598.000000	35.142158
1597.000000	35.051965
1596.000000	34.972436
1595.000000	34.949314
1594.000000	34.860118
1593.000000	34.802912
1592.000000	34.796933
1591.000000	34.688003
1590.000000	34.659400
1589.000000	34.579971
1588.000000	34.563825
1587.000000	34.534724
1586.000000	34.487784
1585.000000	34.386429
1584.000000	34.397990
1583.000000	34.372377
1582.000000	34.347960
1581.000000	34.317165
1580.000000	34.298927
1579.000000	34.300720
1578.000000	34.296834
1577.000000	34.264643
1576.000000	34.260258
1575.000000	34.268231
1574.000000	34.296933
1573.000000	34.307398
1572.000000	34.301817
1571.000000	34.303710
1570.000000	34.356431
1569.000000	34.395299
1568.000000	34.408454
1567.000000	34.424798
1566.000000	34.467653
1565.000000	34.536618
1564.000000	34.558244
1563.000000	34.576084
1562.000000	34.586150
1561.000000	34.613955
1560.000000	34.670662
1559.000000	34.666277
1558.000000	34.680130
1557.000000	34.679831
1556.000000	34.670164
1555.000000	34.677040
1554.000000	34.623323
1553.000000	34.613457
1552.000000	34.614653
1551.000000	34.596614
1550.000000	34.563028
1549.000000	34.537814
1548.000000	34.496554
1547.000000	34.472835
1546.000000	34.436160
1545.000000	34.440545
1544.000000	34.407856
1543.000000	34.401079
1542.000000	34.389219
1541.000000	34.394202
1540.000000	34.421310
1539.000000	34.376463
1538.000000	34.379154
1537.000000	34.389518
1536.000000	34.355534
1535.000000	34.355534
1534.000000	34.344173
1533.000000	34.308893
1532.000000	34.307996
1531.000000	34.283280
1530.000000	34.247502
1529.000000	34.235941
1528.000000	34.208036
1527.000000	34.172357
1526.000000	34.143954
1525.000000	34.118740
1524.000000	34.053561
