PE UV       SUBTECH     SPECTRUM    ASCII       PEDS        4.00        
   -1
CICIMAUCR0009-3.Sample.ASC
24/04/17
14:06:27.00
24/04/17
14:06:27.00
Vinicio Soto Monge
C. kalinini
250,000000
1
Lambda 1050
1050L1511233
PerkinElmer UV WinLab 6.3.2.0749 / 2.02.05 Lambda 900 UV/VIS/NIR, Aug  7 2015 09:38:08

0
0
3350/servo 860,8/2
0
0
UV/VIS
1
1
1
DoubleDePol,CommonBeamDepol,RBeamAtt,SBeamAtt,60mm sphere, WB InGaAs Detector
0
0
0
0
Program
Program
3350/servo 860,8/2
3350/0,2 860,8/0,2
3350/0,2 860,8/0,2
0
15.00
 
 
 
0
 
860,8
319,2
860,8
Front
100
on
S:100 R:100
0
0
0
0
 
0
 
 
 
0
 
 
0
0
0
0
0
 
 
 
 
0
0


0
0
#HDR
-1
-1
#GR
nm
%R
1.0
0.0
2500,000000
-1,000000
2251
8
78,444600
4,431300
#DATA
2500.000000	9.641800
2499.000000	9.611200
2498.000000	9.573300
2497.000000	9.525200
2496.000000	9.517800
2495.000000	9.543600
2494.000000	9.414300
2493.000000	9.351500
2492.000000	9.366600
2491.000000	9.307000
2490.000000	9.274900
2489.000000	9.313900
2488.000000	9.268000
2487.000000	9.286400
2486.000000	9.261300
2485.000000	9.253500
2484.000000	9.228000
2483.000000	9.252200
2482.000000	9.278100
2481.000000	9.221400
2480.000000	9.203700
2479.000000	9.266500
2478.000000	9.237900
2477.000000	9.236300
2476.000000	9.224900
2475.000000	9.219100
2474.000000	9.260500
2473.000000	9.245200
2472.000000	9.250800
2471.000000	9.247200
2470.000000	9.283400
2469.000000	9.236300
2468.000000	9.265700
2467.000000	9.264700
2466.000000	9.310800
2465.000000	9.345700
2464.000000	9.378500
2463.000000	9.426500
2462.000000	9.447300
2461.000000	9.489900
2460.000000	9.530600
2459.000000	9.613400
2458.000000	9.669700
2457.000000	9.748200
2456.000000	9.821500
2455.000000	9.898000
2454.000000	9.998100
2453.000000	10.093400
2452.000000	10.154200
2451.000000	10.246500
2450.000000	10.321000
2449.000000	10.435700
2448.000000	10.516200
2447.000000	10.629600
2446.000000	10.722600
2445.000000	10.791400
2444.000000	10.888000
2443.000000	10.965800
2442.000000	11.058600
2441.000000	11.136100
2440.000000	11.247300
2439.000000	11.310900
2438.000000	11.390200
2437.000000	11.473800
2436.000000	11.550100
2435.000000	11.626500
2434.000000	11.695000
2433.000000	11.768100
2432.000000	11.825100
2431.000000	11.865400
2430.000000	11.942400
2429.000000	11.992500
2428.000000	12.037800
2427.000000	12.096200
2426.000000	12.131100
2425.000000	12.192400
2424.000000	12.213600
2423.000000	12.259700
2422.000000	12.301800
2421.000000	12.334200
2420.000000	12.373000
2419.000000	12.403000
2418.000000	12.445500
2417.000000	12.500700
2416.000000	12.524900
2415.000000	12.567800
2414.000000	12.591200
2413.000000	12.641000
2412.000000	12.685700
2411.000000	12.721900
2410.000000	12.739800
2409.000000	12.761900
2408.000000	12.798700
2407.000000	12.838900
2406.000000	12.879200
2405.000000	12.904900
2404.000000	12.932600
2403.000000	12.964800
2402.000000	13.005300
2401.000000	13.030500
2400.000000	13.054100
2399.000000	13.086000
2398.000000	13.129400
2397.000000	13.173200
2396.000000	13.226700
2395.000000	13.245000
2394.000000	13.268900
2393.000000	13.310700
2392.000000	13.345800
2391.000000	13.353900
2390.000000	13.372000
2389.000000	13.394500
2388.000000	13.420200
2387.000000	13.424400
2386.000000	13.432900
2385.000000	13.436700
2384.000000	13.432600
2383.000000	13.437800
2382.000000	13.436800
2381.000000	13.408700
2380.000000	13.396700
2379.000000	13.385800
2378.000000	13.360000
2377.000000	13.347200
2376.000000	13.335500
2375.000000	13.316800
2374.000000	13.278500
2373.000000	13.229100
2372.000000	13.197400
2371.000000	13.179700
2370.000000	13.139500
2369.000000	13.097600
2368.000000	13.047800
2367.000000	12.981600
2366.000000	12.913100
2365.000000	12.856100
2364.000000	12.795100
2363.000000	12.714400
2362.000000	12.645800
2361.000000	12.577100
2360.000000	12.497800
2359.000000	12.430700
2358.000000	12.360100
2357.000000	12.296500
2356.000000	12.251500
2355.000000	12.209500
2354.000000	12.197700
2353.000000	12.188600
2352.000000	12.178100
2351.000000	12.182000
2350.000000	12.209200
2349.000000	12.256300
2348.000000	12.302300
2347.000000	12.353100
2346.000000	12.409400
2345.000000	12.453800
2344.000000	12.504700
2343.000000	12.570400
2342.000000	12.613700
2341.000000	12.654100
2340.000000	12.688700
2339.000000	12.706500
2338.000000	12.743800
2337.000000	12.744000
2336.000000	12.721300
2335.000000	12.719000
2334.000000	12.715400
2333.000000	12.691500
2332.000000	12.627500
2331.000000	12.575600
2330.000000	12.528100
2329.000000	12.478800
2328.000000	12.415500
2327.000000	12.332200
2326.000000	12.244600
2325.000000	12.156300
2324.000000	12.057700
2323.000000	11.946900
2322.000000	11.821600
2321.000000	11.708600
2320.000000	11.581100
2319.000000	11.441100
2318.000000	11.294900
2317.000000	11.145700
2316.000000	11.005900
2315.000000	10.847400
2314.000000	10.697600
2313.000000	10.579100
2312.000000	10.457400
2311.000000	10.345700
2310.000000	10.249300
2309.000000	10.150200
2308.000000	10.109400
2307.000000	10.086300
2306.000000	10.079400
2305.000000	10.094000
2304.000000	10.136300
2303.000000	10.186000
2302.000000	10.258300
2301.000000	10.365400
2300.000000	10.485600
2299.000000	10.581500
2298.000000	10.686000
2297.000000	10.818200
2296.000000	10.940000
2295.000000	11.037900
2294.000000	11.134400
2293.000000	11.208200
2292.000000	11.274000
2291.000000	11.342200
2290.000000	11.360800
2289.000000	11.384500
2288.000000	11.381200
2287.000000	11.375100
2286.000000	11.337200
2285.000000	11.318800
2284.000000	11.286100
2283.000000	11.233700
2282.000000	11.165500
2281.000000	11.117400
2280.000000	11.071800
2279.000000	11.004500
2278.000000	10.966200
2277.000000	10.910000
2276.000000	10.858800
2275.000000	10.822100
2274.000000	10.799200
2273.000000	10.775400
2272.000000	10.771900
2271.000000	10.775000
2270.000000	10.824200
2269.000000	10.876500
2268.000000	10.974500
2267.000000	11.059300
2266.000000	11.196000
2265.000000	11.342000
2264.000000	11.530100
2263.000000	11.729700
2262.000000	11.961100
2261.000000	12.225100
2260.000000	12.485900
2259.000000	12.775900
2258.000000	13.075200
2257.000000	13.407400
2256.000000	13.682700
2255.000000	14.006300
2254.000000	14.301400
2253.000000	14.603900
2252.000000	14.901100
2251.000000	15.148500
2250.000000	15.391000
2249.000000	15.620600
2248.000000	15.853600
2247.000000	16.068900
2246.000000	16.282400
2245.000000	16.439000
2244.000000	16.593100
2243.000000	16.758100
2242.000000	16.910900
2241.000000	17.043200
2240.000000	17.155300
2239.000000	17.253100
2238.000000	17.401700
2237.000000	17.451700
2236.000000	17.544700
2235.000000	17.613700
2234.000000	17.649200
2233.000000	17.740900
2232.000000	17.752800
2231.000000	17.816400
2230.000000	17.828900
2229.000000	17.856500
2228.000000	17.850200
2227.000000	17.887000
2226.000000	17.876100
2225.000000	17.837400
2224.000000	17.824700
2223.000000	17.823900
2222.000000	17.799100
2221.000000	17.757200
2220.000000	17.732000
2219.000000	17.694400
2218.000000	17.635900
2217.000000	17.596500
2216.000000	17.553800
2215.000000	17.544100
2214.000000	17.487400
2213.000000	17.460600
2212.000000	17.432800
2211.000000	17.375700
2210.000000	17.329700
2209.000000	17.322200
2208.000000	17.266800
2207.000000	17.248000
2206.000000	17.215900
2205.000000	17.205900
2204.000000	17.177000
2203.000000	17.168800
2202.000000	17.146000
2201.000000	17.132700
2200.000000	17.125300
2199.000000	17.092800
2198.000000	17.079000
2197.000000	17.063300
2196.000000	17.052000
2195.000000	17.039200
2194.000000	17.016300
2193.000000	17.011200
2192.000000	17.012300
2191.000000	16.999600
2190.000000	16.981600
2189.000000	16.976500
2188.000000	16.942800
2187.000000	16.933000
2186.000000	16.911100
2185.000000	16.897000
2184.000000	16.888500
2183.000000	16.862200
2182.000000	16.848100
2181.000000	16.824200
2180.000000	16.803200
2179.000000	16.780000
2178.000000	16.777600
2177.000000	16.750600
2176.000000	16.739500
2175.000000	16.745800
2174.000000	16.735300
2173.000000	16.739400
2172.000000	16.744000
2171.000000	16.765200
2170.000000	16.764700
2169.000000	16.779100
2168.000000	16.785100
2167.000000	16.813500
2166.000000	16.828300
2165.000000	16.831800
2164.000000	16.846000
2163.000000	16.878300
2162.000000	16.913000
2161.000000	16.949400
2160.000000	16.973700
2159.000000	17.002200
2158.000000	17.054700
2157.000000	17.105900
2156.000000	17.152200
2155.000000	17.199600
2154.000000	17.242400
2153.000000	17.314800
2152.000000	17.363600
2151.000000	17.410000
2150.000000	17.492100
2149.000000	17.545700
2148.000000	17.595300
2147.000000	17.664700
2146.000000	17.717900
2145.000000	17.766500
2144.000000	17.824800
2143.000000	17.867600
2142.000000	17.908500
2141.000000	17.961000
2140.000000	18.015300
2139.000000	18.057200
2138.000000	18.098800
2137.000000	18.147100
2136.000000	18.184300
2135.000000	18.231000
2134.000000	18.277600
2133.000000	18.294600
2132.000000	18.328900
2131.000000	18.356900
2130.000000	18.378200
2129.000000	18.394300
2128.000000	18.423000
2127.000000	18.440600
2126.000000	18.456800
2125.000000	18.459900
2124.000000	18.467400
2123.000000	18.477400
2122.000000	18.478700
2121.000000	18.470100
2120.000000	18.455800
2119.000000	18.459100
2118.000000	18.453200
2117.000000	18.430100
2116.000000	18.428100
2115.000000	18.412700
2114.000000	18.385000
2113.000000	18.367700
2112.000000	18.350400
2111.000000	18.336600
2110.000000	18.313700
2109.000000	18.291100
2108.000000	18.281600
2107.000000	18.257500
2106.000000	18.228300
2105.000000	18.202300
2104.000000	18.172500
2103.000000	18.157700
2102.000000	18.124300
2101.000000	18.099400
2100.000000	18.083600
2099.000000	18.069400
2098.000000	18.052600
2097.000000	18.028200
2096.000000	18.017600
2095.000000	17.988900
2094.000000	17.975700
2093.000000	17.966300
2092.000000	17.945800
2091.000000	17.943900
2090.000000	17.940600
2089.000000	17.930700
2088.000000	17.905300
2087.000000	17.890700
2086.000000	17.872800
2085.000000	17.860700
2084.000000	17.853200
2083.000000	17.834200
2082.000000	17.808000
2081.000000	17.777800
2080.000000	17.759400
2079.000000	17.727300
2078.000000	17.706900
2077.000000	17.688500
2076.000000	17.641400
2075.000000	17.604300
2074.000000	17.566200
2073.000000	17.511900
2072.000000	17.465000
2071.000000	17.432100
2070.000000	17.380800
2069.000000	17.342500
2068.000000	17.295700
2067.000000	17.268400
2066.000000	17.230900
2065.000000	17.163800
2064.000000	17.131300
2063.000000	17.104600
2062.000000	17.057300
2061.000000	17.030000
2060.000000	17.024600
2059.000000	17.015500
2058.000000	17.012500
2057.000000	17.027200
2056.000000	17.029500
2055.000000	17.073800
2054.000000	17.137900
2053.000000	17.172900
2052.000000	17.253700
2051.000000	17.338400
2050.000000	17.432100
2049.000000	17.541800
2048.000000	17.652800
2047.000000	17.800700
2046.000000	17.954100
2045.000000	18.084200
2044.000000	18.274700
2043.000000	18.431700
2042.000000	18.581000
2041.000000	18.746100
2040.000000	18.912800
2039.000000	19.075300
2038.000000	19.209200
2037.000000	19.345500
2036.000000	19.486400
2035.000000	19.627900
2034.000000	19.778000
2033.000000	19.907900
2032.000000	20.026600
2031.000000	20.132000
2030.000000	20.236000
2029.000000	20.338700
2028.000000	20.445600
2027.000000	20.553300
2026.000000	20.652800
2025.000000	20.732500
2024.000000	20.815500
2023.000000	20.877700
2022.000000	20.974900
2021.000000	21.033500
2020.000000	21.114900
2019.000000	21.171400
2018.000000	21.249300
2017.000000	21.317400
2016.000000	21.384000
2015.000000	21.432400
2014.000000	21.478400
2013.000000	21.516000
2012.000000	21.557200
2011.000000	21.576200
2010.000000	21.602700
2009.000000	21.629500
2008.000000	21.635700
2007.000000	21.644100
2006.000000	21.661100
2005.000000	21.656700
2004.000000	21.654400
2003.000000	21.658300
2002.000000	21.619600
2001.000000	21.587500
2000.000000	21.570000
1999.000000	21.562900
1998.000000	21.527400
1997.000000	21.493000
1996.000000	21.433600
1995.000000	21.399400
1994.000000	21.350200
1993.000000	21.309800
1992.000000	21.251400
1991.000000	21.165400
1990.000000	21.116300
1989.000000	21.056800
1988.000000	20.974700
1987.000000	20.898500
1986.000000	20.826600
1985.000000	20.755500
1984.000000	20.666900
1983.000000	20.615000
1982.000000	20.523400
1981.000000	20.424700
1980.000000	20.366100
1979.000000	20.286800
1978.000000	20.196000
1977.000000	20.110200
1976.000000	20.028000
1975.000000	19.949400
1974.000000	19.861400
1973.000000	19.788300
1972.000000	19.725200
1971.000000	19.629300
1970.000000	19.559000
1969.000000	19.476400
1968.000000	19.415500
1967.000000	19.334000
1966.000000	19.250600
1965.000000	19.182900
1964.000000	19.121700
1963.000000	19.027700
1962.000000	18.959200
1961.000000	18.882000
1960.000000	18.824800
1959.000000	18.750300
1958.000000	18.647100
1957.000000	18.580900
1956.000000	18.523100
1955.000000	18.436200
1954.000000	18.358200
1953.000000	18.296600
1952.000000	18.221300
1951.000000	18.134800
1950.000000	18.086100
1949.000000	18.021800
1948.000000	17.983900
1947.000000	17.909700
1946.000000	17.856600
1945.000000	17.817600
1944.000000	17.760300
1943.000000	17.734100
1942.000000	17.731300
1941.000000	17.702300
1940.000000	17.678800
1939.000000	17.695300
1938.000000	17.706800
1937.000000	17.713000
1936.000000	17.725300
1935.000000	17.756500
1934.000000	17.798200
1933.000000	17.877100
1932.000000	17.915200
1931.000000	18.003500
1930.000000	18.076500
1929.000000	18.164800
1928.000000	18.277900
1927.000000	18.391000
1926.000000	18.513400
1925.000000	18.654700
1924.000000	18.777000
1923.000000	18.909900
1922.000000	19.066200
1921.000000	19.272800
1920.000000	19.473400
1919.000000	19.664000
1918.000000	19.848100
1917.000000	20.058100
1916.000000	20.242000
1915.000000	20.441900
1914.000000	20.712000
1913.000000	20.988900
1912.000000	21.268600
1911.000000	21.511400
1910.000000	21.760900
1909.000000	21.963200
1908.000000	22.196600
1907.000000	22.452700
1906.000000	22.780200
1905.000000	23.141600
1904.000000	23.469300
1903.000000	23.758700
1902.000000	24.040500
1901.000000	24.342500
1900.000000	24.669000
1899.000000	25.017700
1898.000000	25.322700
1897.000000	25.653600
1896.000000	25.921200
1895.000000	26.154100
1894.000000	26.425600
1893.000000	26.704000
1892.000000	27.042200
1891.000000	27.401800
1890.000000	27.705000
1889.000000	27.976700
1888.000000	28.274800
1887.000000	28.556000
1886.000000	28.875800
1885.000000	29.243600
1884.000000	29.646700
1883.000000	30.057300
1882.000000	30.463600
1881.000000	30.833200
1880.000000	31.236800
1879.000000	31.585500
1878.000000	31.944800
1877.000000	32.298500
1876.000000	32.617100
1875.000000	32.929500
1874.000000	33.212500
1873.000000	33.481400
1872.000000	33.716800
1871.000000	33.934400
1870.000000	34.116500
1869.000000	34.267300
1868.000000	34.404900
1867.000000	34.481800
1866.000000	34.502500
1865.000000	34.518700
1864.000000	34.544000
1863.000000	34.552100
1862.000000	34.591700
1861.000000	34.635700
1860.000000	34.672900
1859.000000	34.708100
1858.000000	34.733300
1857.000000	34.705400
1856.000000	34.654300
1855.000000	34.627600
1854.000000	34.620800
1853.000000	34.559400
1852.000000	34.501600
1851.000000	34.456900
1850.000000	34.394100
1849.000000	34.356800
1848.000000	34.356500
1847.000000	34.342000
1846.000000	34.252600
1845.000000	34.160200
1844.000000	34.076900
1843.000000	34.017700
1842.000000	34.016700
1841.000000	34.030800
1840.000000	34.022500
1839.000000	33.972700
1838.000000	33.917100
1837.000000	33.862900
1836.000000	33.823600
1835.000000	33.764700
1834.000000	33.673900
1833.000000	33.569800
1832.000000	33.476400
1831.000000	33.409800
1830.000000	33.363300
1829.000000	33.308100
1828.000000	33.219000
1827.000000	33.145200
1826.000000	33.086300
1825.000000	33.022800
1824.000000	32.976600
1823.000000	32.917300
1822.000000	32.910800
1821.000000	32.938200
1820.000000	32.936400
1819.000000	32.918800
1818.000000	32.875200
1817.000000	32.826900
1816.000000	32.822200
1815.000000	32.812100
1814.000000	32.802800
1813.000000	32.803300
1812.000000	32.781000
1811.000000	32.758600
1810.000000	32.717400
1809.000000	32.672300
1808.000000	32.632700
1807.000000	32.607600
1806.000000	32.577500
1805.000000	32.512600
1804.000000	32.469500
1803.000000	32.449000
1802.000000	32.409100
1801.000000	32.372900
1800.000000	32.316700
1799.000000	32.256400
1798.000000	32.224200
1797.000000	32.187500
1796.000000	32.136200
1795.000000	32.094900
1794.000000	32.055900
1793.000000	32.011300
1792.000000	31.964800
1791.000000	31.916600
1790.000000	31.864100
1789.000000	31.822200
1788.000000	31.764800
1787.000000	31.712800
1786.000000	31.661600
1785.000000	31.616200
1784.000000	31.543300
1783.000000	31.467900
1782.000000	31.403000
1781.000000	31.348600
1780.000000	31.272000
1779.000000	31.192200
1778.000000	31.121600
1777.000000	31.041000
1776.000000	30.925300
1775.000000	30.819700
1774.000000	30.700700
1773.000000	30.586200
1772.000000	30.458700
1771.000000	30.326400
1770.000000	30.215000
1769.000000	30.110700
1768.000000	30.003500
1767.000000	29.918400
1766.000000	29.811800
1765.000000	29.750700
1764.000000	29.707200
1763.000000	29.688900
1762.000000	29.692400
1761.000000	29.739000
1760.000000	29.778300
1759.000000	29.831800
1758.000000	29.891100
1757.000000	29.960200
1756.000000	30.012800
1755.000000	30.039600
1754.000000	30.058200
1753.000000	30.052500
1752.000000	30.047900
1751.000000	30.015200
1750.000000	29.966600
1749.000000	29.910600
1748.000000	29.828300
1747.000000	29.748700
1746.000000	29.651700
1745.000000	29.507800
1744.000000	29.361800
1743.000000	29.186000
1742.000000	29.002400
1741.000000	28.776500
1740.000000	28.539700
1739.000000	28.322000
1738.000000	28.117800
1737.000000	27.948100
1736.000000	27.804400
1735.000000	27.692700
1734.000000	27.654600
1733.000000	27.639300
1732.000000	27.675600
1731.000000	27.725400
1730.000000	27.837500
1729.000000	27.914300
1728.000000	28.036400
1727.000000	28.127300
1726.000000	28.213800
1725.000000	28.278800
1724.000000	28.326200
1723.000000	28.369900
1722.000000	28.395400
1721.000000	28.424800
1720.000000	28.451100
1719.000000	28.511000
1718.000000	28.563700
1717.000000	28.617000
1716.000000	28.700200
1715.000000	28.786900
1714.000000	28.885400
1713.000000	28.956200
1712.000000	28.990700
1711.000000	29.029000
1710.000000	29.076600
1709.000000	29.093600
1708.000000	29.110600
1707.000000	29.096900
1706.000000	29.083800
1705.000000	29.050800
1704.000000	28.979100
1703.000000	28.925500
1702.000000	28.833300
1701.000000	28.696200
1700.000000	28.562000
1699.000000	28.413700
1698.000000	28.267200
1697.000000	28.142700
1696.000000	28.079800
1695.000000	28.059800
1694.000000	28.095400
1693.000000	28.157600
1692.000000	28.294500
1691.000000	28.444200
1690.000000	28.556900
1689.000000	28.664100
1688.000000	28.750700
1687.000000	28.763600
1686.000000	28.788400
1685.000000	28.813900
1684.000000	28.917300
1683.000000	29.094200
1682.000000	29.390800
1681.000000	29.785900
1680.000000	30.267000
1679.000000	30.812400
1678.000000	31.283900
1677.000000	31.771400
1676.000000	32.181600
1675.000000	32.552900
1674.000000	32.869000
1673.000000	33.153500
1672.000000	33.400900
1671.000000	33.623400
1670.000000	33.811400
1669.000000	33.989300
1668.000000	34.130800
1667.000000	34.298800
1666.000000	34.412100
1665.000000	34.502200
1664.000000	34.595200
1663.000000	34.671200
1662.000000	34.748900
1661.000000	34.845500
1660.000000	34.892600
1659.000000	34.921700
1658.000000	34.944900
1657.000000	34.981900
1656.000000	35.003400
1655.000000	35.019700
1654.000000	35.039700
1653.000000	35.023800
1652.000000	35.015800
1651.000000	35.007000
1650.000000	34.997400
1649.000000	34.980000
1648.000000	34.945900
1647.000000	34.896900
1646.000000	34.877800
1645.000000	34.844400
1644.000000	34.782700
1643.000000	34.759500
1642.000000	34.705500
1641.000000	34.658000
1640.000000	34.626400
1639.000000	34.570400
1638.000000	34.527600
1637.000000	34.471400
1636.000000	34.416300
1635.000000	34.377100
1634.000000	34.301800
1633.000000	34.251800
1632.000000	34.188200
1631.000000	34.124400
1630.000000	34.047100
1629.000000	33.993700
1628.000000	33.941800
1627.000000	33.884900
1626.000000	33.800600
1625.000000	33.737900
1624.000000	33.668200
1623.000000	33.612500
1622.000000	33.558200
