PE UV       SUBTECH     SPECTRUM    ASCII       PEDS        4.00        
   -1
Sample2198.Sample.ASC
24/04/11
11:12:32.00
24/04/11
11:12:32.00
Vinicio Soto Monge

250,000000
1
Lambda 1050
1050L1511233
PerkinElmer UV WinLab 6.3.2.0749 / 2.02.05 Lambda 900 UV/VIS/NIR, Aug  7 2015 09:38:08

0
0
3350/2 860,8/2
0
0
UV/VIS
1
1
1
DoubleDePol,CommonBeamDepol,RBeamAtt,SBeamAtt,60mm sphere, WB InGaAs Detector
0
0
0
0
Program
Program
3350/2 860,8/2
3350/0,2 860,8/0,2
3350/0,2 860,8/0,2
0
15.00
 
 
 
0
 
860,8
319,2
860,8
Front
100
on
S:100 R:100
0
0
0
0
 
0
 
 
 
0
 
 
0
0
0
0
0
 
 
 
 
0
0


0
0
#HDR
-1
-1
#GR
nm
%R
1.0
0.0
2400,000000
-1,000000
2151
8
71,151513
4,927025
#DATA
2400.000000	22.429632
2399.000000	22.286228
2398.000000	22.650279
2397.000000	20.816964
2396.000000	22.507712
2395.000000	20.932679
2394.000000	22.391055
2393.000000	23.079177
2392.000000	21.844427
2391.000000	21.951908
2390.000000	22.229587
2389.000000	22.328145
2388.000000	21.703011
2387.000000	21.873582
2386.000000	22.406513
2385.000000	21.776864
2384.000000	21.233708
2383.000000	23.060708
2382.000000	22.107809
2381.000000	22.468520
2380.000000	22.904402
2379.000000	22.482056
2378.000000	22.511896
2377.000000	22.482524
2376.000000	22.680725
2375.000000	20.995334
2374.000000	21.533618
2373.000000	21.994265
2372.000000	21.825764
2371.000000	22.255493
2370.000000	22.665089
2369.000000	22.228269
2368.000000	22.267288
2367.000000	21.660715
2366.000000	22.115948
2365.000000	22.812159
2364.000000	22.948106
2363.000000	22.376473
2362.000000	22.056021
2361.000000	21.769409
2360.000000	21.431428
2359.000000	22.476371
2358.000000	22.203638
2357.000000	22.402922
2356.000000	22.191617
2355.000000	21.628181
2354.000000	21.620407
2353.000000	22.373798
2352.000000	23.059731
2351.000000	22.891325
2350.000000	22.453305
2349.000000	21.858007
2348.000000	21.869284
2347.000000	22.286058
2346.000000	21.928326
2345.000000	21.958503
2344.000000	21.900209
2343.000000	22.197095
2342.000000	22.186982
2341.000000	21.788758
2340.000000	21.747776
2339.000000	22.510861
2338.000000	22.486670
2337.000000	22.244978
2336.000000	22.102174
2335.000000	22.128438
2334.000000	22.355920
2333.000000	21.708437
2332.000000	21.193494
2331.000000	21.778474
2330.000000	22.528401
2329.000000	22.511672
2328.000000	22.365378
2327.000000	22.226978
2326.000000	22.524327
2325.000000	22.703842
2324.000000	22.860014
2323.000000	22.486191
2322.000000	22.955189
2321.000000	22.357821
2320.000000	22.377653
2319.000000	22.654906
2318.000000	22.879102
2317.000000	22.550544
2316.000000	22.836233
2315.000000	22.766865
2314.000000	22.388594
2313.000000	22.419067
2312.000000	22.064781
2311.000000	22.282767
2310.000000	22.420126
2309.000000	22.461739
2308.000000	22.050857
2307.000000	21.881714
2306.000000	22.202291
2305.000000	22.148667
2304.000000	21.989028
2303.000000	21.738683
2302.000000	21.181701
2301.000000	21.383502
2300.000000	21.453285
2299.000000	21.785711
2298.000000	21.744440
2297.000000	21.850005
2296.000000	22.304695
2295.000000	22.201271
2294.000000	22.170854
2293.000000	21.897889
2292.000000	21.617556
2291.000000	22.036570
2290.000000	22.214803
2289.000000	22.146956
2288.000000	21.709083
2287.000000	22.003513
2286.000000	22.451783
2285.000000	22.825612
2284.000000	22.511738
2283.000000	22.301337
2282.000000	22.139615
2281.000000	22.178618
2280.000000	22.285910
2279.000000	22.542774
2278.000000	22.425573
2277.000000	22.478667
2276.000000	22.415667
2275.000000	22.129215
2274.000000	22.611998
2273.000000	22.780978
2272.000000	22.255851
2271.000000	22.551149
2270.000000	22.694374
2269.000000	22.553996
2268.000000	22.751555
2267.000000	23.168957
2266.000000	23.084507
2265.000000	22.866946
2264.000000	23.050885
2263.000000	23.320462
2262.000000	23.589752
2261.000000	23.482960
2260.000000	23.536532
2259.000000	23.564636
2258.000000	23.974204
2257.000000	24.116155
2256.000000	23.949975
2255.000000	24.244093
2254.000000	24.655767
2253.000000	24.986590
2252.000000	24.971891
2251.000000	24.793642
2250.000000	25.041713
2249.000000	25.313228
2248.000000	25.269945
2247.000000	25.411350
2246.000000	25.757796
2245.000000	25.770200
2244.000000	25.672540
2243.000000	25.945239
2242.000000	26.169020
2241.000000	26.328313
2240.000000	26.155701
2239.000000	26.281245
2238.000000	26.431768
2237.000000	26.729194
2236.000000	26.789995
2235.000000	26.528854
2234.000000	26.407729
2233.000000	26.264435
2232.000000	26.390290
2231.000000	26.394805
2230.000000	26.583985
2229.000000	26.309026
2228.000000	26.419099
2227.000000	26.582912
2226.000000	26.182500
2225.000000	26.081924
2224.000000	26.095386
2223.000000	26.067363
2222.000000	26.296186
2221.000000	26.205450
2220.000000	26.328197
2219.000000	25.972712
2218.000000	25.837657
2217.000000	25.635188
2216.000000	25.577050
2215.000000	25.632189
2214.000000	25.304213
2213.000000	25.200213
2212.000000	25.113371
2211.000000	25.208385
2210.000000	25.540848
2209.000000	25.187812
2208.000000	24.997247
2207.000000	24.951058
2206.000000	24.963215
2205.000000	24.907211
2204.000000	24.667279
2203.000000	24.836721
2202.000000	25.067629
2201.000000	24.727296
2200.000000	24.319344
2199.000000	24.691844
2198.000000	24.657511
2197.000000	24.525881
2196.000000	24.518684
2195.000000	24.588159
2194.000000	24.352707
2193.000000	24.169804
2192.000000	24.008766
2191.000000	24.429676
2190.000000	24.523322
2189.000000	24.006360
2188.000000	24.147796
2187.000000	24.519320
2186.000000	24.183426
2185.000000	24.377069
2184.000000	24.195498
2183.000000	24.142252
2182.000000	24.090741
2181.000000	23.902850
2180.000000	24.074285
2179.000000	24.105873
2178.000000	23.755566
2177.000000	24.265743
2176.000000	24.054391
2175.000000	24.045339
2174.000000	24.431766
2173.000000	23.938700
2172.000000	24.036011
2171.000000	23.872936
2170.000000	24.384053
2169.000000	24.138400
2168.000000	24.280662
2167.000000	24.200640
2166.000000	24.143369
2165.000000	24.241620
2164.000000	24.379492
2163.000000	24.136489
2162.000000	23.923627
2161.000000	24.240833
2160.000000	24.581341
2159.000000	25.006713
2158.000000	24.897955
2157.000000	24.582457
2156.000000	24.224318
2155.000000	24.420455
2154.000000	24.559499
2153.000000	24.835187
2152.000000	24.562508
2151.000000	25.325197
2150.000000	25.232429
2149.000000	25.942936
2148.000000	25.131446
2147.000000	25.594245
2146.000000	26.001604
2145.000000	25.588342
2144.000000	26.041734
2143.000000	25.722011
2142.000000	26.268452
2141.000000	25.936928
2140.000000	26.261655
2139.000000	26.566014
2138.000000	26.390791
2137.000000	26.703390
2136.000000	26.827117
2135.000000	27.026107
2134.000000	26.486504
2133.000000	26.975354
2132.000000	26.720016
2131.000000	26.954359
2130.000000	27.302675
2129.000000	26.850857
2128.000000	27.395187
2127.000000	26.986001
2126.000000	27.526061
2125.000000	27.152728
2124.000000	27.303823
2123.000000	27.605316
2122.000000	27.404653
2121.000000	27.557236
2120.000000	27.563300
2119.000000	27.395323
2118.000000	27.406146
2117.000000	27.398386
2116.000000	27.434311
2115.000000	27.471629
2114.000000	27.664642
2113.000000	27.931156
2112.000000	27.696482
2111.000000	27.434972
2110.000000	27.585803
2109.000000	27.555401
2108.000000	27.728634
2107.000000	27.580229
2106.000000	27.464557
2105.000000	27.618210
2104.000000	27.495578
2103.000000	27.493011
2102.000000	27.564523
2101.000000	27.408803
2100.000000	27.670772
2099.000000	27.441257
2098.000000	27.613996
2097.000000	27.492525
2096.000000	27.174163
2095.000000	27.168949
2094.000000	27.587704
2093.000000	27.544636
2092.000000	27.671418
2091.000000	27.679637
2090.000000	27.634491
2089.000000	27.572138
2088.000000	27.823578
2087.000000	27.563706
2086.000000	27.314241
2085.000000	27.669392
2084.000000	27.762579
2083.000000	27.731659
2082.000000	27.907011
2081.000000	27.722620
2080.000000	27.469531
2079.000000	27.360299
2078.000000	27.254816
2077.000000	27.270512
2076.000000	27.332049
2075.000000	27.439682
2074.000000	27.235521
2073.000000	27.034686
2072.000000	26.957632
2071.000000	26.996115
2070.000000	26.637819
2069.000000	26.711138
2068.000000	26.664633
2067.000000	26.490515
2066.000000	26.424617
2065.000000	26.210654
2064.000000	26.193556
2063.000000	26.157269
2062.000000	25.795233
2061.000000	25.801571
2060.000000	25.681236
2059.000000	25.772431
2058.000000	25.707116
2057.000000	25.419945
2056.000000	25.360348
2055.000000	25.367870
2054.000000	25.655231
2053.000000	25.729576
2052.000000	25.484281
2051.000000	25.430458
2050.000000	25.635792
2049.000000	25.717233
2048.000000	25.808963
2047.000000	26.086072
2046.000000	26.174189
2045.000000	26.062416
2044.000000	26.282809
2043.000000	26.513010
2042.000000	26.685974
2041.000000	26.956640
2040.000000	27.166359
2039.000000	27.220679
2038.000000	27.214226
2037.000000	27.391509
2036.000000	27.413668
2035.000000	27.694641
2034.000000	27.797264
2033.000000	27.800798
2032.000000	27.928036
2031.000000	27.938899
2030.000000	28.024753
2029.000000	28.090848
2028.000000	28.250123
2027.000000	28.377611
2026.000000	28.460778
2025.000000	28.591591
2024.000000	28.600518
2023.000000	28.610541
2022.000000	28.743341
2021.000000	28.793152
2020.000000	28.878527
2019.000000	28.932506
2018.000000	28.826195
2017.000000	28.921966
2016.000000	29.055723
2015.000000	28.963890
2014.000000	28.923494
2013.000000	28.950884
2012.000000	29.015423
2011.000000	28.938223
2010.000000	28.863631
2009.000000	28.898391
2008.000000	28.863883
2007.000000	28.821937
2006.000000	28.840903
2005.000000	28.810245
2004.000000	28.723813
2003.000000	28.694722
2002.000000	28.646228
2001.000000	28.544933
2000.000000	28.488732
1999.000000	28.533514
1998.000000	28.414863
1997.000000	28.297784
1996.000000	28.213459
1995.000000	28.191003
1994.000000	28.102719
1993.000000	27.935318
1992.000000	27.839681
1991.000000	27.804232
1990.000000	27.683422
1989.000000	27.564121
1988.000000	27.479970
1987.000000	27.420089
1986.000000	27.371667
1985.000000	27.236267
1984.000000	27.050749
1983.000000	26.870819
1982.000000	26.903800
1981.000000	26.802903
1980.000000	26.589344
1979.000000	26.505034
1978.000000	26.465732
1977.000000	26.370305
1976.000000	26.284550
1975.000000	26.130225
1974.000000	26.069979
1973.000000	25.983260
1972.000000	25.932413
1971.000000	25.825499
1970.000000	25.712073
1969.000000	25.657834
1968.000000	25.611294
1967.000000	25.529289
1966.000000	25.371288
1965.000000	25.298469
1964.000000	25.192735
1963.000000	25.094500
1962.000000	25.062626
1961.000000	24.932689
1960.000000	24.820501
1959.000000	24.750099
1958.000000	24.594389
1957.000000	24.505169
1956.000000	24.435229
1955.000000	24.394469
1954.000000	24.251754
1953.000000	24.133534
1952.000000	24.023328
1951.000000	24.037892
1950.000000	23.914427
1949.000000	23.805758
1948.000000	23.751148
1947.000000	23.679661
1946.000000	23.616261
1945.000000	23.470397
1944.000000	23.434940
1943.000000	23.439260
1942.000000	23.458398
1941.000000	23.329361
1940.000000	23.318284
1939.000000	23.335361
1938.000000	23.335893
1937.000000	23.334632
1936.000000	23.297785
1935.000000	23.385296
1934.000000	23.351264
1933.000000	23.414275
1932.000000	23.364674
1931.000000	23.421085
1930.000000	23.548948
1929.000000	23.609004
1928.000000	23.728482
1927.000000	23.809923
1926.000000	24.013664
1925.000000	24.152513
1924.000000	24.203562
1923.000000	24.527147
1922.000000	24.459098
1921.000000	24.741939
1920.000000	25.169723
1919.000000	25.302600
1918.000000	25.391217
1917.000000	25.663175
1916.000000	25.933545
1915.000000	26.125373
1914.000000	26.529962
1913.000000	26.786661
1912.000000	27.084851
1911.000000	27.277076
1910.000000	27.592804
1909.000000	28.090050
1908.000000	28.415986
1907.000000	28.845368
1906.000000	29.402555
1905.000000	29.832596
1904.000000	30.186975
1903.000000	30.747279
1902.000000	31.265192
1901.000000	31.605103
1900.000000	32.171551
1899.000000	32.900232
1898.000000	33.515220
1897.000000	34.069450
1896.000000	34.581991
1895.000000	35.071083
1894.000000	35.724639
1893.000000	36.350684
1892.000000	36.924027
1891.000000	37.466381
1890.000000	38.215524
1889.000000	38.718459
1888.000000	39.188587
1887.000000	39.730548
1886.000000	40.330900
1885.000000	40.701571
1884.000000	41.365938
1883.000000	41.792103
1882.000000	42.177764
1881.000000	42.506534
1880.000000	42.910118
1879.000000	43.241893
1878.000000	43.577177
1877.000000	43.934779
1876.000000	44.253389
1875.000000	44.447070
1874.000000	44.537332
1873.000000	44.973137
1872.000000	45.032651
1871.000000	45.239428
1870.000000	45.596522
1869.000000	45.554545
1868.000000	45.873492
1867.000000	46.138881
1866.000000	46.149044
1865.000000	46.200983
1864.000000	46.424005
1863.000000	46.482200
1862.000000	46.528543
1861.000000	46.569132
1860.000000	46.776825
1859.000000	46.857372
1858.000000	46.862185
1857.000000	46.971591
1856.000000	47.081942
1855.000000	47.026794
1854.000000	47.163281
1853.000000	47.243792
1852.000000	47.214911
1851.000000	47.185822
1850.000000	47.218258
1849.000000	47.206518
1848.000000	47.251712
1847.000000	47.284952
1846.000000	47.197164
1845.000000	47.196639
1844.000000	47.121453
1843.000000	47.155002
1842.000000	47.306739
1841.000000	47.261154
1840.000000	47.143273
1839.000000	47.162175
1838.000000	46.996136
1837.000000	47.051650
1836.000000	47.087248
1835.000000	47.042366
1834.000000	46.956521
1833.000000	46.985311
1832.000000	46.975043
1831.000000	46.948637
1830.000000	46.920344
1829.000000	46.841622
1828.000000	46.821219
1827.000000	46.823772
1826.000000	46.863221
1825.000000	46.804246
1824.000000	46.737517
1823.000000	46.708481
1822.000000	46.705101
1821.000000	46.745728
1820.000000	46.859380
1819.000000	46.768906
1818.000000	46.677544
1817.000000	46.674028
1816.000000	46.685680
1815.000000	46.721105
1814.000000	46.672752
1813.000000	46.677893
1812.000000	46.684359
1811.000000	46.662888
1810.000000	46.627105
1809.000000	46.572008
1808.000000	46.611148
1807.000000	46.592146
1806.000000	46.589253
1805.000000	46.566512
1804.000000	46.502942
1803.000000	46.474779
1802.000000	46.482017
1801.000000	46.488311
1800.000000	46.473690
1799.000000	46.434758
1798.000000	46.386581
1797.000000	46.323096
1796.000000	46.350989
1795.000000	46.377361
1794.000000	46.335952
1793.000000	46.344046
1792.000000	46.281934
1791.000000	46.310047
1790.000000	46.321760
1789.000000	46.304706
1788.000000	46.267543
1787.000000	46.279718
1786.000000	46.261824
1785.000000	46.294826
1784.000000	46.265883
1783.000000	46.289582
1782.000000	46.259183
1781.000000	46.275142
1780.000000	46.265274
1779.000000	46.223357
1778.000000	46.189922
1777.000000	46.184432
1776.000000	46.121438
1775.000000	46.084923
1774.000000	46.110692
1773.000000	46.059639
1772.000000	46.032434
1771.000000	45.981189
1770.000000	45.946980
1769.000000	45.907369
1768.000000	45.867513
1767.000000	45.819406
1766.000000	45.733472
1765.000000	45.710283
1764.000000	45.722017
1763.000000	45.705336
1762.000000	45.695340
1761.000000	45.688329
1760.000000	45.675030
1759.000000	45.657613
1758.000000	45.653290
1757.000000	45.673858
1756.000000	45.677450
1755.000000	45.669479
1754.000000	45.660046
1753.000000	45.652778
1752.000000	45.640987
1751.000000	45.592829
1750.000000	45.574603
1749.000000	45.553226
1748.000000	45.493855
1747.000000	45.461918
1746.000000	45.409816
1745.000000	45.361300
1744.000000	45.327638
1743.000000	45.280303
1742.000000	45.203152
1741.000000	45.123470
1740.000000	45.079590
1739.000000	45.041705
1738.000000	45.000863
1737.000000	44.964666
1736.000000	44.885852
1735.000000	44.845388
1734.000000	44.832644
1733.000000	44.811492
1732.000000	44.788636
1731.000000	44.761081
1730.000000	44.755358
1729.000000	44.725880
1728.000000	44.688146
1727.000000	44.666905
1726.000000	44.660993
1725.000000	44.638624
1724.000000	44.685997
1723.000000	44.755846
1722.000000	44.811455
1721.000000	44.940762
1720.000000	45.123475
1719.000000	45.290777
1718.000000	45.455250
1717.000000	45.652931
1716.000000	45.855166
1715.000000	46.046817
1714.000000	46.212855
1713.000000	46.382725
1712.000000	46.526404
1711.000000	46.628560
1710.000000	46.706181
1709.000000	46.820718
1708.000000	46.950645
1707.000000	47.008621
1706.000000	47.043804
1705.000000	47.073846
1704.000000	47.098411
1703.000000	47.160489
1702.000000	47.192725
1701.000000	47.181761
1700.000000	47.194126
1699.000000	47.218254
1698.000000	47.224761
1697.000000	47.196876
1696.000000	47.192042
1695.000000	47.180606
1694.000000	47.190689
1693.000000	47.111471
1692.000000	47.059525
1691.000000	47.025244
1690.000000	47.001783
1689.000000	47.020984
1688.000000	47.059950
1687.000000	47.133318
1686.000000	47.299114
1685.000000	47.478599
1684.000000	47.653862
1683.000000	47.854181
1682.000000	48.052480
1681.000000	48.253140
1680.000000	48.484077
1679.000000	48.697831
1678.000000	48.829315
1677.000000	49.026399
1676.000000	49.242500
1675.000000	49.381013
1674.000000	49.554820
1673.000000	49.701861
1672.000000	49.880083
1671.000000	50.008345
1670.000000	50.203962
1669.000000	50.400786
1668.000000	50.564299
1667.000000	50.676004
1666.000000	50.804859
1665.000000	50.946137
1664.000000	51.089393
1663.000000	51.210294
1662.000000	51.327311
1661.000000	51.430449
1660.000000	51.574878
1659.000000	51.606867
1658.000000	51.670913
1657.000000	51.733262
1656.000000	51.785161
1655.000000	51.844182
1654.000000	51.891033
1653.000000	51.931388
1652.000000	51.945466
1651.000000	51.927714
1650.000000	51.920257
1649.000000	51.958853
1648.000000	51.959783
1647.000000	51.917492
1646.000000	51.897122
1645.000000	51.913632
1644.000000	51.882521
1643.000000	51.863543
1642.000000	51.858904
1641.000000	51.871696
1640.000000	51.877401
1639.000000	51.856807
1638.000000	51.839808
1637.000000	51.802445
1636.000000	51.776877
1635.000000	51.747233
1634.000000	51.720752
1633.000000	51.707796
1632.000000	51.650141
1631.000000	51.609987
1630.000000	51.576072
1629.000000	51.539542
1628.000000	51.513379
1627.000000	51.485290
1626.000000	51.438530
1625.000000	51.373963
1624.000000	51.347882
1623.000000	51.303334
1622.000000	51.301542
1621.000000	51.258023
1620.000000	51.187304
1619.000000	51.139125
1618.000000	51.116770
1617.000000	51.068635
1616.000000	51.056056
1615.000000	51.044666
1614.000000	50.983533
1613.000000	50.964347
1612.000000	50.887487
1611.000000	50.877613
1610.000000	50.797488
1609.000000	50.730215
1608.000000	50.654219
1607.000000	50.614875
1606.000000	50.535784
1605.000000	50.486343
1604.000000	50.407112
1603.000000	50.325137
1602.000000	50.242842
1601.000000	50.183885
1600.000000	50.102303
1599.000000	50.083045
1598.000000	50.019483
1597.000000	49.918643
1596.000000	49.850682
1595.000000	49.803444
1594.000000	49.733806
1593.000000	49.665794
1592.000000	49.622830
1591.000000	49.530887
1590.000000	49.488465
1589.000000	49.448624
1588.000000	49.360278
1587.000000	49.312166
1586.000000	49.296310
1585.000000	49.278761
1584.000000	49.221596
1583.000000	49.129418
1582.000000	49.105235
1581.000000	49.072616
1580.000000	49.037690
1579.000000	49.022778
1578.000000	49.027576
1577.000000	48.987991
1576.000000	48.923567
1575.000000	48.935111
1574.000000	48.922800
1573.000000	48.891506
1572.000000	48.881253
1571.000000	48.874211
1570.000000	48.906999
1569.000000	48.930823
1568.000000	48.942415
1567.000000	48.920360
1566.000000	48.917293
1565.000000	48.960455
1564.000000	48.979576
1563.000000	48.956366
1562.000000	48.943501
1561.000000	48.932698
1560.000000	48.911968
1559.000000	48.880624
1558.000000	48.870272
1557.000000	48.771505
1556.000000	48.766475
1555.000000	48.698715
1554.000000	48.648737
1553.000000	48.557069
1552.000000	48.501541
1551.000000	48.402836
1550.000000	48.341960
1549.000000	48.253255
1548.000000	48.207901
1547.000000	48.113372
1546.000000	48.013071
1545.000000	47.961603
1544.000000	47.919308
1543.000000	47.880833
1542.000000	47.833650
1541.000000	47.778308
1540.000000	47.726372
1539.000000	47.705030
1538.000000	47.663540
1537.000000	47.603259
1536.000000	47.583300
1535.000000	47.536034
1534.000000	47.499131
1533.000000	47.451227
1532.000000	47.388639
1531.000000	47.341213
1530.000000	47.273715
1529.000000	47.217692
1528.000000	47.190436
1527.000000	47.151692
1526.000000	47.079059
1525.000000	47.016871
1524.000000	46.957188
1523.000000	46.889669
