PE UV       SUBTECH     SPECTRUM    ASCII       PEDS        4.00        
   -1
CICIMAUCR0234-3.Sample.ASC
24/06/19
15:05:53.00
24/06/19
15:05:53.00
Vinicio Soto Monge
C. resplendens. Sex M. Ventral 
250,000000
1
Lambda 1050
1050L1511233
PerkinElmer UV WinLab 6.3.2.0749 / 2.02.05 Lambda 900 UV/VIS/NIR, Aug  7 2015 09:38:08

0
0
3350/servo 860,8/2
0
0
UV/VIS
1
1
1
DoubleDePol,CommonBeamDepol,RBeamAtt,SBeamAtt,60mm sphere, WB InGaAs Detector
0
0
0
0
Program
Program
3350/servo 860,8/2
3350/0,2 860,8/0,2
3350/0,2 860,8/0,2
0
15.00
 
 
 
0
 
860,8
319,2
860,8
Front
100
on
S:100 R:100
0
0
0
0
 
0
 
 
 
0
 
 
0
0
0
0
0
 
 
 
 
0
0


0
0
#HDR
-1
-1
#GR
nm
%R
1.0
0.0
2500,000000
-1,000000
2251
8
62,610300
4,484000
#DATA
2482.000000	8.236665
2481.000000	8.181333
2480.000000	8.127695
2479.000000	8.147908
2478.000000	8.171396
2477.000000	8.139213
2476.000000	8.216678
2475.000000	8.190593
2474.000000	8.145650
2473.000000	8.201207
2472.000000	8.164959
2471.000000	8.166427
2470.000000	8.190141
2469.000000	8.207757
2468.000000	8.148699
2467.000000	8.173090
2466.000000	8.195900
2465.000000	8.247731
2464.000000	8.253829
2463.000000	8.256314
2462.000000	8.270993
2461.000000	8.316840
2460.000000	8.321018
2459.000000	8.334343
2458.000000	8.393288
2457.000000	8.423439
2456.000000	8.454153
2455.000000	8.495709
2454.000000	8.567302
2453.000000	8.573964
2452.000000	8.598694
2451.000000	8.625231
2450.000000	8.699308
2449.000000	8.764125
2448.000000	8.785242
2447.000000	8.835944
2446.000000	8.887210
2445.000000	8.964675
2444.000000	8.983194
2443.000000	9.004762
2442.000000	9.081098
2441.000000	9.139027
2440.000000	9.196392
2439.000000	9.218073
2438.000000	9.266855
2437.000000	9.338674
2436.000000	9.372889
2435.000000	9.419413
2434.000000	9.467970
2433.000000	9.494845
2432.000000	9.548483
2431.000000	9.583489
2430.000000	9.620415
2429.000000	9.660841
2428.000000	9.681167
2427.000000	9.735821
2426.000000	9.763262
2425.000000	9.787992
2424.000000	9.821078
2423.000000	9.862181
2422.000000	9.892445
2421.000000	9.927676
2420.000000	9.960650
2419.000000	9.996559
2418.000000	10.031226
2417.000000	10.048955
2416.000000	10.090059
2415.000000	10.100673
2414.000000	10.135453
2413.000000	10.159958
2412.000000	10.185139
2411.000000	10.210660
2410.000000	10.229066
2409.000000	10.264637
2408.000000	10.293319
2407.000000	10.301223
2406.000000	10.340182
2405.000000	10.372364
2404.000000	10.370671
2403.000000	10.397998
2402.000000	10.424647
2401.000000	10.461686
2400.000000	10.478511
2399.000000	10.504258
2398.000000	10.526390
2397.000000	10.534521
2396.000000	10.555750
2395.000000	10.576076
2394.000000	10.591434
2393.000000	10.618196
2392.000000	10.630956
2391.000000	10.650266
2390.000000	10.659639
2389.000000	10.677029
2388.000000	10.694758
2387.000000	10.706840
2386.000000	10.722649
2385.000000	10.729989
2384.000000	10.720052
2383.000000	10.724004
2382.000000	10.738684
2381.000000	10.732022
2380.000000	10.728070
2379.000000	10.732361
2378.000000	10.727731
2377.000000	10.714519
2376.000000	10.720956
2375.000000	10.720278
2374.000000	10.698597
2373.000000	10.676803
2372.000000	10.662236
2371.000000	10.648572
2370.000000	10.649250
2369.000000	10.632650
2368.000000	10.600354
2367.000000	10.573592
2366.000000	10.550330
2365.000000	10.535537
2364.000000	10.513178
2363.000000	10.478511
2362.000000	10.461008
2361.000000	10.440005
2360.000000	10.401950
2359.000000	10.374397
2358.000000	10.356442
2357.000000	10.329906
2356.000000	10.288237
2355.000000	10.269605
2354.000000	10.269718
2353.000000	10.257748
2352.000000	10.256167
2351.000000	10.241487
2350.000000	10.247924
2349.000000	10.262152
2348.000000	10.262378
2347.000000	10.289028
2346.000000	10.300433
2345.000000	10.315339
2344.000000	10.355539
2343.000000	10.379817
2342.000000	10.394158
2341.000000	10.418324
2340.000000	10.433681
2339.000000	10.442602
2338.000000	10.447909
2337.000000	10.465525
2336.000000	10.468687
2335.000000	10.458185
2334.000000	10.465412
2333.000000	10.448700
2332.000000	10.437746
2331.000000	10.435262
2330.000000	10.430068
2329.000000	10.398901
2328.000000	10.364686
2327.000000	10.333858
2326.000000	10.312854
2325.000000	10.276945
2324.000000	10.245214
2323.000000	10.204449
2322.000000	10.146971
2321.000000	10.087123
2320.000000	10.034614
2319.000000	9.990574
2318.000000	9.918643
2317.000000	9.859584
2316.000000	9.803801
2315.000000	9.736951
2314.000000	9.664793
2313.000000	9.595346
2312.000000	9.536852
2311.000000	9.482875
2310.000000	9.448208
2309.000000	9.397393
2308.000000	9.353015
2307.000000	9.322074
2306.000000	9.325349
2305.000000	9.303103
2304.000000	9.290004
2303.000000	9.317218
2302.000000	9.342965
2301.000000	9.367921
2300.000000	9.401120
2299.000000	9.432173
2298.000000	9.473955
2297.000000	9.521269
2296.000000	9.581118
2295.000000	9.641193
2294.000000	9.676198
2293.000000	9.715721
2292.000000	9.759874
2291.000000	9.795783
2290.000000	9.814754
2289.000000	9.822433
2288.000000	9.857439
2287.000000	9.891767
2286.000000	9.885218
2285.000000	9.878442
2284.000000	9.860262
2283.000000	9.841178
2282.000000	9.821417
2281.000000	9.807753
2280.000000	9.778732
2279.000000	9.774215
2278.000000	9.738983
2277.000000	9.714027
2276.000000	9.684555
2275.000000	9.661293
2274.000000	9.631142
2273.000000	9.632498
2272.000000	9.618495
2271.000000	9.607655
2270.000000	9.606525
2269.000000	9.619286
2268.000000	9.653275
2267.000000	9.701606
2266.000000	9.755244
2265.000000	9.820061
2264.000000	9.901365
2263.000000	9.991139
2262.000000	10.102028
2261.000000	10.207611
2260.000000	10.344698
2259.000000	10.466767
2258.000000	10.622600
2257.000000	10.779449
2256.000000	10.930201
2255.000000	11.081855
2254.000000	11.269532
2253.000000	11.432253
2252.000000	11.591135
2251.000000	11.751259
2250.000000	11.906753
2249.000000	12.041920
2248.000000	12.174040
2247.000000	12.303561
2246.000000	12.463234
2245.000000	12.572881
2244.000000	12.693934
2243.000000	12.778738
2242.000000	12.876303
2241.000000	12.967657
2240.000000	13.048849
2239.000000	13.139525
2238.000000	13.186614
2237.000000	13.239010
2236.000000	13.325057
2235.000000	13.366838
2234.000000	13.399924
2233.000000	13.456950
2232.000000	13.463725
2231.000000	13.506410
2230.000000	13.525494
2229.000000	13.533511
2228.000000	13.551240
2227.000000	13.540061
2226.000000	13.557564
2225.000000	13.538028
2224.000000	13.528768
2223.000000	13.499070
2222.000000	13.485406
2221.000000	13.451304
2220.000000	13.423976
2219.000000	13.413475
2218.000000	13.368193
2217.000000	13.349335
2216.000000	13.322233
2215.000000	13.309925
2214.000000	13.281581
2213.000000	13.227266
2212.000000	13.185936
2211.000000	13.178370
2210.000000	13.153753
2209.000000	13.126652
2208.000000	13.115134
2207.000000	13.091872
2206.000000	13.056301
2205.000000	13.059350
2204.000000	13.025361
2203.000000	13.008535
2202.000000	12.993630
2201.000000	13.000857
2200.000000	12.998485
2199.000000	12.948461
2198.000000	12.958962
2197.000000	12.949590
2196.000000	12.934458
2195.000000	12.924521
2194.000000	12.904534
2193.000000	12.910519
2192.000000	12.898097
2191.000000	12.895500
2190.000000	12.858913
2189.000000	12.877433
2188.000000	12.860833
2187.000000	12.853719
2186.000000	12.830231
2185.000000	12.853154
2184.000000	12.824359
2183.000000	12.805162
2182.000000	12.804372
2181.000000	12.789692
2180.000000	12.776593
2179.000000	12.749266
2178.000000	12.746894
2177.000000	12.746443
2176.000000	12.734925
2175.000000	12.752089
2174.000000	12.733005
2173.000000	12.735038
2172.000000	12.734473
2171.000000	12.734247
2170.000000	12.743394
2169.000000	12.756154
2168.000000	12.750847
2167.000000	12.757961
2166.000000	12.786417
2165.000000	12.786304
2164.000000	12.800984
2163.000000	12.825150
2162.000000	12.839152
2161.000000	12.858236
2160.000000	12.875400
2159.000000	12.923166
2158.000000	12.937620
2157.000000	12.968222
2156.000000	13.006051
2155.000000	13.038008
2154.000000	13.081257
2153.000000	13.112876
2152.000000	13.154657
2151.000000	13.196664
2150.000000	13.236300
2149.000000	13.260691
2148.000000	13.289712
2147.000000	13.330816
2146.000000	13.368983
2145.000000	13.411781
2144.000000	13.442044
2143.000000	13.490375
2142.000000	13.535431
2141.000000	13.566823
2140.000000	13.592569
2139.000000	13.619671
2138.000000	13.623736
2137.000000	13.669357
2136.000000	13.725931
2135.000000	13.758904
2134.000000	13.782731
2133.000000	13.802153
2132.000000	13.821011
2131.000000	13.837950
2130.000000	13.849919
2129.000000	13.862792
2128.000000	13.859631
2127.000000	13.863357
2126.000000	13.878602
2125.000000	13.886732
2124.000000	13.885038
2123.000000	13.876569
2122.000000	13.879731
2121.000000	13.883796
2120.000000	13.875440
2119.000000	13.867309
2118.000000	13.853985
2117.000000	13.838627
2116.000000	13.832755
2115.000000	13.816494
2114.000000	13.796055
2113.000000	13.785215
2112.000000	13.786005
2111.000000	13.754839
2110.000000	13.728415
2109.000000	13.718704
2108.000000	13.705943
2107.000000	13.685166
2106.000000	13.664049
2105.000000	13.637964
2104.000000	13.634915
2103.000000	13.609959
2102.000000	13.582519
2101.000000	13.573147
2100.000000	13.551804
2099.000000	13.534640
2098.000000	13.504829
2097.000000	13.489358
2096.000000	13.465758
2095.000000	13.446109
2094.000000	13.446448
2093.000000	13.423412
2092.000000	13.417992
2091.000000	13.398343
2090.000000	13.373387
2089.000000	13.373274
2088.000000	13.353739
2087.000000	13.335107
2086.000000	13.327654
2085.000000	13.301004
2084.000000	13.271531
2083.000000	13.256513
2082.000000	13.241042
2081.000000	13.220378
2080.000000	13.194180
2079.000000	13.156802
2078.000000	13.107907
2077.000000	13.070981
2076.000000	13.043315
2075.000000	13.001421
2074.000000	12.961221
2073.000000	12.925199
2072.000000	12.870093
2071.000000	12.839829
2070.000000	12.800871
2069.000000	12.752202
2068.000000	12.713582
2067.000000	12.653733
2066.000000	12.604161
2065.000000	12.557185
2064.000000	12.518453
2063.000000	12.477236
2062.000000	12.445166
2061.000000	12.402707
2060.000000	12.359797
2059.000000	12.328404
2058.000000	12.291479
2057.000000	12.272621
2056.000000	12.257941
2055.000000	12.241567
2054.000000	12.251391
2053.000000	12.265845
2052.000000	12.277363
2051.000000	12.313273
2050.000000	12.350876
2049.000000	12.389382
2048.000000	12.436358
2047.000000	12.489996
2046.000000	12.545102
2045.000000	12.612404
2044.000000	12.680157
2043.000000	12.737409
2042.000000	12.823456
2041.000000	12.910745
2040.000000	12.952074
2039.000000	13.008084
2038.000000	13.077531
2037.000000	13.139638
2036.000000	13.198358
2035.000000	13.240252
2034.000000	13.277742
2033.000000	13.324379
2032.000000	13.377791
2031.000000	13.415056
2030.000000	13.449723
2029.000000	13.474001
2028.000000	13.496247
2027.000000	13.530236
2026.000000	13.532495
2025.000000	13.558241
2024.000000	13.593134
2023.000000	13.594828
2022.000000	13.602281
2021.000000	13.619671
2020.000000	13.620574
2019.000000	13.614363
2018.000000	13.623962
2017.000000	13.632657
2016.000000	13.620800
2015.000000	13.615380
2014.000000	13.605668
2013.000000	13.629156
2012.000000	13.599684
2011.000000	13.583084
2010.000000	13.556773
2009.000000	13.558693
2008.000000	13.527978
2007.000000	13.504151
2006.000000	13.484164
2005.000000	13.442044
2004.000000	13.404328
2003.000000	13.374855
2002.000000	13.338607
2001.000000	13.289938
2000.000000	13.246011
1999.000000	13.220716
1998.000000	13.155673
1997.000000	13.106100
1996.000000	13.064432
1995.000000	13.013843
1994.000000	12.933555
1993.000000	12.909277
1992.000000	12.835538
1991.000000	12.789127
1990.000000	12.732553
1989.000000	12.680835
1988.000000	12.630810
1987.000000	12.564977
1986.000000	12.490109
1985.000000	12.438842
1984.000000	12.364991
1983.000000	12.288656
1982.000000	12.244164
1981.000000	12.176185
1980.000000	12.112723
1979.000000	12.032548
1978.000000	11.964343
1977.000000	11.904946
1976.000000	11.864407
1975.000000	11.795072
1974.000000	11.739740
1973.000000	11.692539
1972.000000	11.631335
1971.000000	11.567873
1970.000000	11.509605
1969.000000	11.434511
1968.000000	11.399054
1967.000000	11.347223
1966.000000	11.298779
1965.000000	11.251916
1964.000000	11.181904
1963.000000	11.129283
1962.000000	11.096987
1961.000000	11.031605
1960.000000	10.994905
1959.000000	10.925797
1958.000000	10.883112
1957.000000	10.843250
1956.000000	10.797291
1955.000000	10.757316
1954.000000	10.707179
1953.000000	10.659639
1952.000000	10.626891
1951.000000	10.559928
1950.000000	10.523229
1949.000000	10.475237
1948.000000	10.437859
1947.000000	10.405789
1946.000000	10.378462
1945.000000	10.347521
1944.000000	10.301110
1943.000000	10.266669
1942.000000	10.284850
1941.000000	10.249053
1940.000000	10.257635
1939.000000	10.243746
1938.000000	10.231550
1937.000000	10.228727
1936.000000	10.207724
1935.000000	10.231099
1934.000000	10.231324
1933.000000	10.277171
1932.000000	10.290834
1931.000000	10.273670
1930.000000	10.341762
1929.000000	10.344360
1928.000000	10.398675
1927.000000	10.459653
1926.000000	10.518825
1925.000000	10.577883
1924.000000	10.626440
1923.000000	10.724004
1922.000000	10.744895
1921.000000	10.855220
1920.000000	10.967578
1919.000000	11.065707
1918.000000	11.144979
1917.000000	11.254965
1916.000000	11.365968
1915.000000	11.474825
1914.000000	11.582327
1913.000000	11.706428
1912.000000	11.910253
1911.000000	12.047002
1910.000000	12.194366
1909.000000	12.359910
1908.000000	12.494739
1907.000000	12.649781
1906.000000	12.850218
1905.000000	13.077305
1904.000000	13.304843
1903.000000	13.513411
1902.000000	13.743208
1901.000000	13.990508
1900.000000	14.251697
1899.000000	14.525421
1898.000000	14.854250
1897.000000	15.146945
1896.000000	15.413329
1895.000000	15.688520
1894.000000	15.956824
1893.000000	16.295139
1892.000000	16.637858
1891.000000	17.054089
1890.000000	17.480258
1889.000000	17.859677
1888.000000	18.285055
1887.000000	18.705126
1886.000000	19.123278
1885.000000	19.596987
1884.000000	20.121285
1883.000000	20.672233
1882.000000	21.216518
1881.000000	21.753012
1880.000000	22.303508
1879.000000	22.783202
1878.000000	23.258944
1877.000000	23.744848
1876.000000	24.235157
1875.000000	24.688088
1874.000000	25.141020
1873.000000	25.598919
1872.000000	26.064498
1871.000000	26.480391
1870.000000	26.895606
1869.000000	27.290157
1868.000000	27.678948
1867.000000	27.974804
1866.000000	28.224363
1865.000000	28.425139
1864.000000	28.617332
1863.000000	28.778698
1862.000000	28.914092
1861.000000	29.093074
1860.000000	29.284138
1859.000000	29.450925
1858.000000	29.611500
1857.000000	29.751185
1856.000000	29.840845
1855.000000	29.904985
1854.000000	29.990806
1853.000000	30.073014
1852.000000	30.104858
1851.000000	30.137944
1850.000000	30.165723
1849.000000	30.159173
1848.000000	30.175886
1847.000000	30.239687
1846.000000	30.263175
1845.000000	30.243188
1844.000000	30.193840
1843.000000	30.123151
1842.000000	30.107003
1841.000000	30.137605
1840.000000	30.161545
1839.000000	30.147542
1838.000000	30.105196
1837.000000	30.091194
1836.000000	30.068610
1835.000000	30.049752
1834.000000	30.000405
1833.000000	29.939088
1832.000000	29.856090
1831.000000	29.779980
1830.000000	29.737070
1829.000000	29.708162
1828.000000	29.652378
1827.000000	29.573220
1826.000000	29.522856
1825.000000	29.483672
1824.000000	29.422468
1823.000000	29.366346
1822.000000	29.311804
1821.000000	29.302206
1820.000000	29.326936
1819.000000	29.323661
1818.000000	29.275669
1817.000000	29.227564
1816.000000	29.199786
1815.000000	29.178330
1814.000000	29.155407
1813.000000	29.135759
1812.000000	29.115207
1811.000000	29.097139
1810.000000	29.070941
1809.000000	29.015948
1808.000000	28.961181
1807.000000	28.930014
1806.000000	28.902461
1805.000000	28.854469
1804.000000	28.792249
1803.000000	28.741547
1802.000000	28.698523
1801.000000	28.653129
1800.000000	28.595651
1799.000000	28.542917
1798.000000	28.494925
1797.000000	28.438915
1796.000000	28.399166
1795.000000	28.366758
1794.000000	28.312668
1793.000000	28.258239
1792.000000	28.210022
1791.000000	28.160675
1790.000000	28.102068
1789.000000	28.046171
1788.000000	27.994792
1787.000000	27.935733
1786.000000	27.886725
1785.000000	27.856688
1784.000000	27.797855
1783.000000	27.724456
1782.000000	27.664833
1781.000000	27.594595
1780.000000	27.531923
1779.000000	27.465412
1778.000000	27.395174
1777.000000	27.323695
1776.000000	27.254021
1775.000000	27.176670
1774.000000	27.080912
1773.000000	26.980411
1772.000000	26.870424
1771.000000	26.767101
1770.000000	26.677214
1769.000000	26.578294
1768.000000	26.456113
1767.000000	26.343981
1766.000000	26.266064
1765.000000	26.187357
1764.000000	26.117572
1763.000000	26.086292
1762.000000	26.068224
1761.000000	26.061336
1760.000000	26.092616
1759.000000	26.135752
1758.000000	26.195149
1757.000000	26.245625
1756.000000	26.297231
1755.000000	26.359338
1754.000000	26.394457
1753.000000	26.414783
1752.000000	26.456225
1751.000000	26.491570
1750.000000	26.483440
1749.000000	26.477229
1748.000000	26.440642
1747.000000	26.397958
1746.000000	26.323203
1745.000000	26.253756
1744.000000	26.178662
1743.000000	26.056593
1742.000000	25.915666
1741.000000	25.774401
1740.000000	25.608179
1739.000000	25.440377
1738.000000	25.252248
1737.000000	25.067394
1736.000000	24.902528
1735.000000	24.763746
1734.000000	24.677812
1733.000000	24.605994
1732.000000	24.580812
1731.000000	24.598541
1730.000000	24.613334
1729.000000	24.660761
1728.000000	24.722642
1727.000000	24.811512
1726.000000	24.880056
1725.000000	24.949390
1724.000000	24.989817
1723.000000	25.065700
1722.000000	25.123742
1721.000000	25.189915
1720.000000	25.247618
1719.000000	25.335472
1718.000000	25.384819
1717.000000	25.478657
1716.000000	25.567075
1715.000000	25.691290
1714.000000	25.792694
1713.000000	25.874902
1712.000000	25.977096
1711.000000	26.068224
1710.000000	26.122540
1709.000000	26.177533
1708.000000	26.229252
1707.000000	26.239076
1706.000000	26.221573
1705.000000	26.200795
1704.000000	26.193004
1703.000000	26.137672
1702.000000	26.058513
1701.000000	25.971111
1700.000000	25.893421
1699.000000	25.780611
1698.000000	25.646460
1697.000000	25.531279
1696.000000	25.435521
1695.000000	25.386626
1694.000000	25.350490
1693.000000	25.372736
1692.000000	25.435521
1691.000000	25.552847
1690.000000	25.675707
1689.000000	25.808164
1688.000000	25.924249
1687.000000	26.048011
1686.000000	26.122427
1685.000000	26.210394
1684.000000	26.314056
1683.000000	26.479713
1682.000000	26.674053
1681.000000	26.984250
1680.000000	27.367283
1679.000000	27.793903
1678.000000	28.264337
1677.000000	28.759050
1676.000000	29.198882
1675.000000	29.661073
1674.000000	30.030555
1673.000000	30.419572
1672.000000	30.678842
1671.000000	30.980457
1670.000000	31.199752
1669.000000	31.438470
1668.000000	31.602433
1667.000000	31.790449
1666.000000	31.929343
1665.000000	32.079191
1664.000000	32.216166
1663.000000	32.320054
1662.000000	32.422023
1661.000000	32.489664
1660.000000	32.567128
1659.000000	32.617718
1658.000000	32.680502
1657.000000	32.724994
1656.000000	32.754353
1655.000000	32.800652
1654.000000	32.804378
1653.000000	32.810928
1652.000000	32.814767
1651.000000	32.786423
1650.000000	32.774454
1649.000000	32.737189
1648.000000	32.720928
1647.000000	32.661870
1646.000000	32.617943
1645.000000	32.589374
1644.000000	32.542060
1643.000000	32.499149
1642.000000	32.429928
1641.000000	32.368159
1640.000000	32.329653
1639.000000	32.284823
1638.000000	32.187258
1637.000000	32.156769
1636.000000	32.086757
1635.000000	32.009292
1634.000000	31.945943
1633.000000	31.895805
1632.000000	31.814162
1631.000000	31.736133
1630.000000	31.641278
1629.000000	31.572170
1628.000000	31.499222
1627.000000	31.381218
1626.000000	31.308496
1625.000000	31.220756
1624.000000	31.130870
1623.000000	31.030482
1622.000000	30.956743
1621.000000	30.879618
1620.000000	30.797071
1619.000000	30.713283
1618.000000	30.639319
1617.000000	30.580035
1616.000000	30.494327
1615.000000	30.396649
1614.000000	30.335558
1613.000000	30.241607
1612.000000	30.175208
1611.000000	30.088032
1610.000000	29.998711
1609.000000	29.942701
1608.000000	29.854396
1607.000000	29.772076
1606.000000	29.683432
1605.000000	29.606193
1604.000000	29.510548
1603.000000	29.446408
1602.000000	29.355957
