PE UV       SUBTECH     SPECTRUM    ASCII       PEDS        4.00        
   -1
CICIMAUCR0232-3.Sample.ASC
24/06/13
17:20:27.00
24/06/13
17:20:27.00
Vinicio Soto Monge
C. resplendens. Sex M. Dorsal.
250,000000
1
Lambda 1050
1050L1511233
PerkinElmer UV WinLab 6.3.2.0749 / 2.02.05 Lambda 900 UV/VIS/NIR, Aug  7 2015 09:38:08

0
0
3350/servo 860,8/2
0
0
UV/VIS
1
1
1
DoubleDePol,CommonBeamDepol,RBeamAtt,SBeamAtt,60mm sphere, WB InGaAs Detector
0
0
0
0
Program
Program
3350/servo 860,8/2
3350/0,2 860,8/0,2
3350/0,2 860,8/0,2
0
15.00
 
 
 
0
 
860,8
319,2
860,8
Front
100
on
S:100 R:100
0
0
0
0
 
0
 
 
 
0
 
 
0
0
0
0
0
 
 
 
 
0
0


0
0
#HDR
-1
-1
#GR
nm
%R
1.0
0.0
2500,000000
-1,000000
2251
8
94,018800
5,873500
#DATA
2482.000000	7.958385
2481.000000	7.937338
2480.000000	7.971997
2479.000000	7.966238
2478.000000	7.996918
2477.000000	7.939223
2476.000000	7.989379
2475.000000	7.975243
2474.000000	7.909066
2473.000000	7.946448
2472.000000	8.019326
2471.000000	8.019431
2470.000000	8.017860
2469.000000	7.999955
2468.000000	8.001421
2467.000000	8.017546
2466.000000	8.012729
2465.000000	8.044352
2464.000000	8.072205
2463.000000	8.096707
2462.000000	8.084351
2461.000000	8.149690
2460.000000	8.153564
2459.000000	8.218170
2458.000000	8.242673
2457.000000	8.331362
2456.000000	8.392932
2455.000000	8.400471
2454.000000	8.467485
2453.000000	8.506856
2452.000000	8.585703
2451.000000	8.631042
2450.000000	8.697952
2449.000000	8.767270
2448.000000	8.799416
2447.000000	8.857949
2446.000000	8.954910
2445.000000	9.012815
2444.000000	9.091243
2443.000000	9.149357
2442.000000	9.186320
2441.000000	9.265795
2440.000000	9.325689
2439.000000	9.394693
2438.000000	9.454168
2437.000000	9.502335
2436.000000	9.581600
2435.000000	9.624531
2434.000000	9.665682
2433.000000	9.731755
2432.000000	9.792486
2431.000000	9.836988
2430.000000	9.890181
2429.000000	9.945573
2428.000000	10.008922
2427.000000	10.053214
2426.000000	10.065256
2425.000000	10.112690
2424.000000	10.164312
2423.000000	10.203369
2422.000000	10.253211
2421.000000	10.288707
2420.000000	10.320539
2419.000000	10.358549
2418.000000	10.384517
2417.000000	10.414569
2416.000000	10.450066
2415.000000	10.478233
2414.000000	10.509960
2413.000000	10.536033
2412.000000	10.585037
2411.000000	10.614565
2410.000000	10.625141
2409.000000	10.655402
2408.000000	10.688700
2407.000000	10.700009
2406.000000	10.731945
2405.000000	10.760950
2404.000000	10.791316
2403.000000	10.827231
2402.000000	10.853304
2401.000000	10.873723
2400.000000	10.911942
2399.000000	10.948904
2398.000000	10.969428
2397.000000	11.007333
2396.000000	11.035604
2395.000000	11.063248
2394.000000	11.087017
2393.000000	11.113928
2392.000000	11.155497
2391.000000	11.180209
2390.000000	11.191832
2389.000000	11.212983
2388.000000	11.236752
2387.000000	11.250574
2386.000000	11.252459
2385.000000	11.261150
2384.000000	11.285233
2383.000000	11.282406
2382.000000	11.283872
2381.000000	11.299893
2380.000000	11.287013
2379.000000	11.269527
2378.000000	11.266176
2377.000000	11.266176
2376.000000	11.275076
2375.000000	11.276333
2374.000000	11.253925
2373.000000	11.228062
2372.000000	11.215078
2371.000000	11.192774
2370.000000	11.168482
2369.000000	11.147330
2368.000000	11.124503
2367.000000	11.086703
2366.000000	11.035919
2365.000000	10.999270
2364.000000	10.961993
2363.000000	10.909743
2362.000000	10.864822
2361.000000	10.830792
2360.000000	10.775714
2359.000000	10.726291
2358.000000	10.686606
2357.000000	10.627654
2356.000000	10.591110
2355.000000	10.571215
2354.000000	10.544200
2353.000000	10.522734
2352.000000	10.512054
2351.000000	10.508075
2350.000000	10.528912
2349.000000	10.540116
2348.000000	10.557498
2347.000000	10.594984
2346.000000	10.618544
2345.000000	10.646083
2344.000000	10.674983
2343.000000	10.716762
2342.000000	10.774772
2341.000000	10.829849
2340.000000	10.853723
2339.000000	10.857911
2338.000000	10.880529
2337.000000	10.895398
2336.000000	10.898958
2335.000000	10.903356
2334.000000	10.903251
2333.000000	10.892570
2332.000000	10.876026
2331.000000	10.840425
2330.000000	10.815504
2329.000000	10.773306
2328.000000	10.719589
2327.000000	10.687548
2326.000000	10.629120
2325.000000	10.572367
2324.000000	10.499803
2323.000000	10.423783
2322.000000	10.362109
2321.000000	10.270069
2320.000000	10.181380
2319.000000	10.092900
2318.000000	9.992692
2317.000000	9.897615
2316.000000	9.817617
2315.000000	9.710394
2314.000000	9.588197
2313.000000	9.506104
2312.000000	9.426629
2311.000000	9.338359
2310.000000	9.266318
2309.000000	9.208728
2308.000000	9.157734
2307.000000	9.113232
2306.000000	9.097630
2305.000000	9.082971
2304.000000	9.088730
2303.000000	9.126007
2302.000000	9.176372
2301.000000	9.228099
2300.000000	9.287365
2299.000000	9.369458
2298.000000	9.439718
2297.000000	9.538983
2296.000000	9.627568
2295.000000	9.687148
2294.000000	9.763796
2293.000000	9.840339
2292.000000	9.903479
2291.000000	9.955415
2290.000000	10.000755
2289.000000	10.037089
2288.000000	10.050806
2287.000000	10.045361
2286.000000	10.046618
2285.000000	10.042848
2284.000000	10.023163
2283.000000	9.982430
2282.000000	9.942431
2281.000000	9.897825
2280.000000	9.858558
2279.000000	9.817198
2278.000000	9.747880
2277.000000	9.722331
2276.000000	9.681389
2275.000000	9.628720
2274.000000	9.586103
2273.000000	9.575841
2272.000000	9.561182
2271.000000	9.566836
2270.000000	9.575422
2269.000000	9.585056
2268.000000	9.607673
2267.000000	9.676363
2266.000000	9.754267
2265.000000	9.835313
2264.000000	9.952693
2263.000000	10.094051
2262.000000	10.222950
2261.000000	10.418757
2260.000000	10.594147
2259.000000	10.762939
2258.000000	10.975815
2257.000000	11.210994
2256.000000	11.434969
2255.000000	11.648158
2254.000000	11.881138
2253.000000	12.107103
2252.000000	12.327203
2251.000000	12.523430
2250.000000	12.742065
2249.000000	12.944155
2248.000000	13.118497
2247.000000	13.309279
2246.000000	13.472417
2245.000000	13.622886
2244.000000	13.742988
2243.000000	13.885603
2242.000000	14.008742
2241.000000	14.125494
2240.000000	14.242351
2239.000000	14.333553
2238.000000	14.434912
2237.000000	14.498053
2236.000000	14.587370
2235.000000	14.642029
2234.000000	14.713755
2233.000000	14.770089
2232.000000	14.815848
2231.000000	14.853229
2230.000000	14.885375
2229.000000	14.902966
2228.000000	14.920453
2227.000000	14.934065
2226.000000	14.964955
2225.000000	14.957939
2224.000000	14.967258
2223.000000	14.966735
2222.000000	14.956787
2221.000000	14.927259
2220.000000	14.889249
2219.000000	14.862862
2218.000000	14.837523
2217.000000	14.819827
2216.000000	14.797209
2215.000000	14.778466
2214.000000	14.721190
2213.000000	14.717106
2212.000000	14.668416
2211.000000	14.647893
2210.000000	14.623705
2209.000000	14.597318
2208.000000	14.582554
2207.000000	14.570407
2206.000000	14.545905
2205.000000	14.507581
2204.000000	14.525277
2203.000000	14.492712
2202.000000	14.484754
2201.000000	14.462032
2200.000000	14.449991
2199.000000	14.445488
2198.000000	14.408107
2197.000000	14.406955
2196.000000	14.410096
2195.000000	14.385803
2194.000000	14.378160
2193.000000	14.346746
2192.000000	14.337323
2191.000000	14.335857
2190.000000	14.319731
2189.000000	14.291460
2188.000000	14.275648
2187.000000	14.279523
2186.000000	14.254392
2185.000000	14.234183
2184.000000	14.222456
2183.000000	14.215545
2182.000000	14.216173
2181.000000	14.176907
2180.000000	14.165179
2179.000000	14.151148
2178.000000	14.121515
2177.000000	14.126541
2176.000000	14.118793
2175.000000	14.105599
2174.000000	14.110521
2173.000000	14.094500
2172.000000	14.102458
2171.000000	14.090416
2170.000000	14.098898
2169.000000	14.104866
2168.000000	14.095861
2167.000000	14.110939
2166.000000	14.131044
2165.000000	14.156802
2164.000000	14.159106
2163.000000	14.181619
2162.000000	14.205493
2161.000000	14.230623
2160.000000	14.254183
2159.000000	14.269575
2158.000000	14.301721
2157.000000	14.329679
2156.000000	14.359312
2155.000000	14.407059
2154.000000	14.442242
2153.000000	14.460148
2152.000000	14.506325
2151.000000	14.557737
2150.000000	14.592292
2149.000000	14.644018
2148.000000	14.689463
2147.000000	14.717001
2146.000000	14.760561
2145.000000	14.806110
2144.000000	14.816476
2143.000000	14.853229
2142.000000	14.894275
2141.000000	14.952075
2140.000000	14.964012
2139.000000	15.010713
2138.000000	15.053016
2137.000000	15.073330
2136.000000	15.081707
2135.000000	15.130501
2134.000000	15.148616
2133.000000	15.182228
2132.000000	15.182542
2131.000000	15.200448
2130.000000	15.220238
2129.000000	15.233117
2128.000000	15.235211
2127.000000	15.236154
2126.000000	15.237725
2125.000000	15.249661
2124.000000	15.250290
2123.000000	15.228719
2122.000000	15.233536
2121.000000	15.231442
2120.000000	15.228196
2119.000000	15.212699
2118.000000	15.189872
2117.000000	15.178877
2116.000000	15.165370
2115.000000	15.145475
2114.000000	15.130187
2113.000000	15.118669
2112.000000	15.088932
2111.000000	15.062335
2110.000000	15.039508
2109.000000	14.999404
2108.000000	14.980766
2107.000000	14.962651
2106.000000	14.927783
2105.000000	14.898045
2104.000000	14.870402
2103.000000	14.852077
2102.000000	14.825272
2101.000000	14.794801
2100.000000	14.764435
2099.000000	14.739514
2098.000000	14.734907
2097.000000	14.708729
2096.000000	14.674698
2095.000000	14.645380
2094.000000	14.628521
2093.000000	14.597422
2092.000000	14.577423
2091.000000	14.570093
2090.000000	14.556167
2089.000000	14.542973
2088.000000	14.525277
2087.000000	14.505696
2086.000000	14.484021
2085.000000	14.463708
2084.000000	14.445383
2083.000000	14.419939
2082.000000	14.402348
2081.000000	14.380777
2080.000000	14.356903
2079.000000	14.334810
2078.000000	14.311459
2077.000000	14.295439
2076.000000	14.247062
2075.000000	14.196697
2074.000000	14.175755
2073.000000	14.144970
2072.000000	14.099631
2071.000000	14.056385
2070.000000	14.020156
2069.000000	13.970628
2068.000000	13.935550
2067.000000	13.903823
2066.000000	13.860996
2065.000000	13.808432
2064.000000	13.775134
2063.000000	13.740161
2062.000000	13.697544
2061.000000	13.674508
2060.000000	13.643828
2059.000000	13.596185
2058.000000	13.596499
2057.000000	13.606027
2056.000000	13.586656
2055.000000	13.573777
2054.000000	13.589483
2053.000000	13.598698
2052.000000	13.616289
2051.000000	13.658697
2050.000000	13.714821
2049.000000	13.743198
2048.000000	13.792725
2047.000000	13.866755
2046.000000	13.930524
2045.000000	14.015234
2044.000000	14.091882
2043.000000	14.162876
2042.000000	14.235963
2041.000000	14.307375
2040.000000	14.385385
2039.000000	14.464964
2038.000000	14.540774
2037.000000	14.607893
2036.000000	14.669463
2035.000000	14.725064
2034.000000	14.781398
2033.000000	14.836894
2032.000000	14.882339
2031.000000	14.919301
2030.000000	14.966944
2029.000000	15.004116
2028.000000	15.048932
2027.000000	15.076890
2026.000000	15.099507
2025.000000	15.121601
2024.000000	15.146627
2023.000000	15.176364
2022.000000	15.183799
2021.000000	15.201181
2020.000000	15.207044
2019.000000	15.207777
2018.000000	15.226730
2017.000000	15.230500
2016.000000	15.223275
2015.000000	15.219086
2014.000000	15.194898
2013.000000	15.194584
2012.000000	15.174794
2011.000000	15.151758
2010.000000	15.140554
2009.000000	15.108617
2008.000000	15.071131
2007.000000	15.044430
2006.000000	15.015216
2005.000000	14.975426
2004.000000	14.945269
2003.000000	14.894380
2002.000000	14.826737
2001.000000	14.779199
2000.000000	14.739619
1999.000000	14.682761
1998.000000	14.610092
1997.000000	14.544439
1996.000000	14.496063
1995.000000	14.414494
1994.000000	14.348527
1993.000000	14.280046
1992.000000	14.209890
1991.000000	14.132929
1990.000000	14.055757
1989.000000	13.979005
1988.000000	13.911257
1987.000000	13.844871
1986.000000	13.744245
1985.000000	13.673670
1984.000000	13.600897
1983.000000	13.492941
1982.000000	13.414408
1981.000000	13.329174
1980.000000	13.245196
1979.000000	13.161114
1978.000000	13.073786
1977.000000	13.007400
1976.000000	12.913789
1975.000000	12.829812
1974.000000	12.738819
1973.000000	12.674212
1972.000000	12.615575
1971.000000	12.536833
1970.000000	12.447934
1969.000000	12.354951
1968.000000	12.311811
1967.000000	12.205844
1966.000000	12.129615
1965.000000	12.080820
1964.000000	12.015900
1963.000000	11.932027
1962.000000	11.859673
1961.000000	11.797580
1960.000000	11.729728
1959.000000	11.668682
1958.000000	11.607845
1957.000000	11.529941
1956.000000	11.467952
1955.000000	11.423451
1954.000000	11.377588
1953.000000	11.286804
1952.000000	11.242407
1951.000000	11.206910
1950.000000	11.125760
1949.000000	11.076441
1948.000000	11.014767
1947.000000	10.991312
1946.000000	10.953512
1945.000000	10.908486
1944.000000	10.845032
1943.000000	10.829011
1942.000000	10.825975
1941.000000	10.775714
1940.000000	10.774039
1939.000000	10.753515
1938.000000	10.758751
1937.000000	10.774143
1936.000000	10.761264
1935.000000	10.769536
1934.000000	10.789431
1933.000000	10.805975
1932.000000	10.832990
1931.000000	10.883775
1930.000000	10.907125
1929.000000	10.987124
1928.000000	11.023982
1927.000000	11.109634
1926.000000	11.204606
1925.000000	11.279055
1924.000000	11.357064
1923.000000	11.429524
1922.000000	11.535072
1921.000000	11.667844
1920.000000	11.823862
1919.000000	11.985534
1918.000000	12.117050
1917.000000	12.242807
1916.000000	12.372333
1915.000000	12.490970
1914.000000	12.634004
1913.000000	12.847822
1912.000000	13.088445
1911.000000	13.303834
1910.000000	13.480061
1909.000000	13.642676
1908.000000	13.771574
1907.000000	13.966439
1906.000000	14.177744
1905.000000	14.461718
1904.000000	14.734383
1903.000000	15.010085
1902.000000	15.264740
1901.000000	15.513950
1900.000000	15.760961
1899.000000	16.081583
1898.000000	16.407441
1897.000000	16.771832
1896.000000	17.072664
1895.000000	17.317686
1894.000000	17.554644
1893.000000	17.817571
1892.000000	18.155366
1891.000000	18.539233
1890.000000	18.961948
1889.000000	19.341522
1888.000000	19.699944
1887.000000	20.097005
1886.000000	20.484328
1885.000000	20.890393
1884.000000	21.357819
1883.000000	21.856134
1882.000000	22.392355
1881.000000	22.863341
1880.000000	23.370347
1879.000000	23.801962
1878.000000	24.232215
1877.000000	24.708751
1876.000000	25.153559
1875.000000	25.569782
1874.000000	26.001711
1873.000000	26.409033
1872.000000	26.844627
1871.000000	27.234567
1870.000000	27.608801
1869.000000	27.958533
1868.000000	28.296851
1867.000000	28.512135
1866.000000	28.702812
1865.000000	28.831815
1864.000000	28.940713
1863.000000	29.045109
1862.000000	29.127097
1861.000000	29.257776
1860.000000	29.394003
1859.000000	29.532116
1858.000000	29.666145
1857.000000	29.766457
1856.000000	29.819440
1855.000000	29.838812
1854.000000	29.859021
1853.000000	29.922056
1852.000000	29.936192
1851.000000	29.935145
1850.000000	29.911899
1849.000000	29.847712
1848.000000	29.866769
1847.000000	29.935773
1846.000000	29.980903
1845.000000	29.954098
1844.000000	29.854309
1843.000000	29.751902
1842.000000	29.703212
1841.000000	29.717348
1840.000000	29.745620
1839.000000	29.754206
1838.000000	29.733892
1837.000000	29.684050
1836.000000	29.661224
1835.000000	29.655988
1834.000000	29.609811
1833.000000	29.519551
1832.000000	29.405521
1831.000000	29.322068
1830.000000	29.277985
1829.000000	29.245420
1828.000000	29.188353
1827.000000	29.131495
1826.000000	29.085109
1825.000000	29.028775
1824.000000	28.954535
1823.000000	28.875898
1822.000000	28.811501
1821.000000	28.788046
1820.000000	28.816108
1819.000000	28.832339
1818.000000	28.807103
1817.000000	28.739880
1816.000000	28.709304
1815.000000	28.715377
1814.000000	28.708467
1813.000000	28.688676
1812.000000	28.662080
1811.000000	28.648677
1810.000000	28.639672
1809.000000	28.608364
1808.000000	28.556951
1807.000000	28.518522
1806.000000	28.492031
1805.000000	28.449414
1804.000000	28.408472
1803.000000	28.362504
1802.000000	28.327950
1801.000000	28.297479
1800.000000	28.258108
1799.000000	28.204078
1798.000000	28.144603
1797.000000	28.111514
1796.000000	28.071515
1795.000000	28.028584
1794.000000	27.986805
1793.000000	27.945339
1792.000000	27.905026
1791.000000	27.858849
1790.000000	27.813928
1789.000000	27.767018
1788.000000	27.716129
1787.000000	27.664507
1786.000000	27.628173
1785.000000	27.581367
1784.000000	27.520007
1783.000000	27.457076
1782.000000	27.407444
1781.000000	27.356869
1780.000000	27.294252
1779.000000	27.224306
1778.000000	27.165564
1777.000000	27.115093
1776.000000	27.048917
1775.000000	26.965777
1774.000000	26.877506
1773.000000	26.784000
1772.000000	26.686724
1771.000000	26.595522
1770.000000	26.501073
1769.000000	26.412384
1768.000000	26.315213
1767.000000	26.212388
1766.000000	26.117520
1765.000000	26.051658
1764.000000	25.995219
1763.000000	25.956162
1762.000000	25.940246
1761.000000	25.948204
1760.000000	25.984539
1759.000000	26.038883
1758.000000	26.084746
1757.000000	26.142860
1756.000000	26.215529
1755.000000	26.267360
1754.000000	26.320239
1753.000000	26.364531
1752.000000	26.391128
1751.000000	26.396782
1750.000000	26.385473
1749.000000	26.381180
1748.000000	26.345893
1747.000000	26.289664
1746.000000	26.218147
1745.000000	26.141080
1744.000000	26.043490
1743.000000	25.930299
1742.000000	25.786532
1741.000000	25.621928
1740.000000	25.457533
1739.000000	25.253348
1738.000000	25.053457
1737.000000	24.857963
1736.000000	24.699851
1735.000000	24.559749
1734.000000	24.444986
1733.000000	24.369909
1732.000000	24.335669
1731.000000	24.329386
1730.000000	24.363208
1729.000000	24.447081
1728.000000	24.535979
1727.000000	24.628438
1726.000000	24.709693
1725.000000	24.768226
1724.000000	24.833356
1723.000000	24.893145
1722.000000	24.932621
1721.000000	24.972935
1720.000000	25.010002
1719.000000	25.038169
1718.000000	25.086231
1717.000000	25.132827
1716.000000	25.182250
1715.000000	25.251359
1714.000000	25.314289
1713.000000	25.396591
1712.000000	25.490307
1711.000000	25.549363
1710.000000	25.582033
1709.000000	25.611142
1708.000000	25.608420
1707.000000	25.608106
1706.000000	25.598263
1705.000000	25.570829
1704.000000	25.512296
1703.000000	25.449365
1702.000000	25.381513
1701.000000	25.301515
1700.000000	25.196386
1699.000000	25.045813
1698.000000	24.914087
1697.000000	24.764876
1696.000000	24.655663
1695.000000	24.559120
1694.000000	24.540168
1693.000000	24.570010
1692.000000	24.636606
1691.000000	24.757441
1690.000000	24.889795
1689.000000	24.999740
1688.000000	25.113351
1687.000000	25.205705
1686.000000	25.280887
1685.000000	25.314708
1684.000000	25.373660
1683.000000	25.453449
1682.000000	25.598787
1681.000000	25.874698
1680.000000	26.206733
1679.000000	26.635521
1678.000000	27.096245
1677.000000	27.560216
1676.000000	28.000626
1675.000000	28.418001
1674.000000	28.805637
1673.000000	29.138092
1672.000000	29.409500
1671.000000	29.664679
1670.000000	29.874623
1669.000000	30.045195
1668.000000	30.260584
1667.000000	30.353567
1666.000000	30.498066
1665.000000	30.601206
1664.000000	30.711884
1663.000000	30.797433
1662.000000	30.864238
1661.000000	30.957115
1660.000000	31.021722
1659.000000	31.076485
1658.000000	31.149782
1657.000000	31.178682
1656.000000	31.206954
1655.000000	31.235644
1654.000000	31.235016
1653.000000	31.242346
1652.000000	31.251665
1651.000000	31.248628
1650.000000	31.216063
1649.000000	31.216063
1648.000000	31.194493
1647.000000	31.169363
1646.000000	31.130201
1645.000000	31.110411
1644.000000	31.057951
1643.000000	31.020465
1642.000000	30.977324
1641.000000	30.940676
1640.000000	30.864447
1639.000000	30.805914
1638.000000	30.763192
1637.000000	30.722670
1636.000000	30.652200
1635.000000	30.599007
1634.000000	30.520579
1633.000000	30.461732
1632.000000	30.384980
1631.000000	30.313253
1630.000000	30.255034
1629.000000	30.180690
1628.000000	30.091477
1627.000000	30.037342
1626.000000	29.954516
1625.000000	29.869492
1624.000000	29.788865
1623.000000	29.694940
1622.000000	29.607193
1621.000000	29.552220
1620.000000	29.457981
1619.000000	29.398820
1618.000000	29.321439
1617.000000	29.223954
1616.000000	29.153170
1615.000000	29.095684
1614.000000	29.021445
1613.000000	28.953907
1612.000000	28.867102
1611.000000	28.806789
1610.000000	28.742288
1609.000000	28.672760
1608.000000	28.603861
1607.000000	28.509517
1606.000000	28.448053
1605.000000	28.366693
1604.000000	28.289626
1603.000000	28.231722
1602.000000	28.139367
