PE UV       SUBTECH     SPECTRUM    ASCII       PEDS        4.00        
   -1
CICIMAUCR0252-2.ASC
24/06/27
15:00:36.00
24/06/27
15:00:36.00
Vinicio Soto Monge
C. resplendens. Sex F. Ventral
250,000000
1
Lambda 1050
1050L1511233
PerkinElmer UV WinLab 6.3.2.0749 / 2.02.05 Lambda 900 UV/VIS/NIR, Aug  7 2015 09:38:08

0
0
3350/servo 860,8/2
0
0
UV/VIS
1
1
1
DoubleDePol,CommonBeamDepol,RBeamAtt,SBeamAtt,60mm sphere, WB InGaAs Detector
0
0
0
0
Program
Program
3350/servo 860,8/2
3350/0,2 860,8/0,2
3350/0,2 860,8/0,2
0
15.00
 
 
 
0
 
860,8
319,2
860,8
Front
100
on
S:100 R:100
0
0
0
0
 
0
 
 
 
0
 
 
0
0
0
0
0
 
 
 
 
0
0


0
0
#HDR
-1
-1
#GR
nm
%R
1.0
0.0
2500,000000
-1,000000
2251
8
57,870800
4,373000
#DATA
2482.000000	5.150555
2481.000000	5.123136
2480.000000	5.178669
2479.000000	5.166521
2478.000000	5.124871
2477.000000	5.133086
2476.000000	5.180636
2475.000000	5.145581
2474.000000	5.122210
2473.000000	5.141763
2472.000000	5.074545
2471.000000	5.059273
2470.000000	5.085536
2469.000000	5.116657
2468.000000	5.110410
2467.000000	5.123946
2466.000000	5.081602
2465.000000	5.117467
2464.000000	5.135747
2463.000000	5.124524
2462.000000	5.107633
2461.000000	5.084494
2460.000000	5.076859
2459.000000	5.108096
2458.000000	5.096527
2457.000000	5.096064
2456.000000	5.093634
2455.000000	5.113071
2454.000000	5.070727
2453.000000	5.109716
2452.000000	5.149746
2451.000000	5.096758
2450.000000	5.110525
2449.000000	5.133201
2448.000000	5.142225
2447.000000	5.184106
2446.000000	5.153679
2445.000000	5.157960
2444.000000	5.176355
2443.000000	5.212914
2442.000000	5.220897
2441.000000	5.221128
2440.000000	5.231656
2439.000000	5.228417
2438.000000	5.228648
2437.000000	5.244383
2436.000000	5.263009
2435.000000	5.263935
2434.000000	5.275041
2433.000000	5.278628
2432.000000	5.317617
2431.000000	5.310791
2430.000000	5.307667
2429.000000	5.336475
2428.000000	5.338789
2427.000000	5.342954
2426.000000	5.342954
2425.000000	5.340871
2424.000000	5.355564
2423.000000	5.376158
2422.000000	5.374075
2421.000000	5.407973
2420.000000	5.413758
2419.000000	5.417344
2418.000000	5.420121
2417.000000	5.408205
2416.000000	5.420699
2415.000000	5.432963
2414.000000	5.449623
2413.000000	5.453209
2412.000000	5.449739
2411.000000	5.447425
2410.000000	5.452631
2409.000000	5.454366
2408.000000	5.465820
2407.000000	5.492082
2406.000000	5.498793
2405.000000	5.508164
2404.000000	5.521816
2403.000000	5.546111
2402.000000	5.572721
2401.000000	5.569250
2400.000000	5.587645
2399.000000	5.584174
2398.000000	5.584059
2397.000000	5.599446
2396.000000	5.628369
2395.000000	5.638666
2394.000000	5.651855
2393.000000	5.650351
2392.000000	5.650004
2391.000000	5.664118
2390.000000	5.679621
2389.000000	5.702182
2388.000000	5.698595
2387.000000	5.697785
2386.000000	5.707388
2385.000000	5.713172
2384.000000	5.740707
2383.000000	5.759334
2382.000000	5.753665
2381.000000	5.736543
2380.000000	5.739319
2379.000000	5.751467
2378.000000	5.753202
2377.000000	5.751930
2376.000000	5.752624
2375.000000	5.746839
2374.000000	5.743716
2373.000000	5.750079
2372.000000	5.768243
2371.000000	5.763846
2370.000000	5.750194
2369.000000	5.763846
2368.000000	5.751351
2367.000000	5.736427
2366.000000	5.757136
2365.000000	5.768011
2364.000000	5.753549
2363.000000	5.739203
2362.000000	5.715024
2361.000000	5.704264
2360.000000	5.713982
2359.000000	5.710280
2358.000000	5.703801
2357.000000	5.688183
2356.000000	5.680084
2355.000000	5.680894
2354.000000	5.676613
2353.000000	5.674994
2352.000000	5.665044
2351.000000	5.680200
2350.000000	5.685175
2349.000000	5.679621
2348.000000	5.690612
2347.000000	5.707272
2346.000000	5.712363
2345.000000	5.709355
2344.000000	5.714792
2343.000000	5.719767
2342.000000	5.742790
2341.000000	5.744872
2340.000000	5.737352
2339.000000	5.761648
2338.000000	5.780737
2337.000000	5.776110
2336.000000	5.797166
2335.000000	5.807000
2334.000000	5.797513
2333.000000	5.798091
2332.000000	5.805033
2331.000000	5.798786
2330.000000	5.798786
2329.000000	5.772292
2328.000000	5.764309
2327.000000	5.772292
2326.000000	5.777035
2325.000000	5.756442
2324.000000	5.748343
2323.000000	5.723585
2322.000000	5.716759
2321.000000	5.708776
2320.000000	5.688414
2319.000000	5.674762
2318.000000	5.641790
2317.000000	5.629410
2316.000000	5.626402
2315.000000	5.587992
2314.000000	5.587067
2313.000000	5.574456
2312.000000	5.553747
2311.000000	5.519617
2310.000000	5.502842
2309.000000	5.494859
2308.000000	5.502726
2307.000000	5.488959
2306.000000	5.467787
2305.000000	5.485372
2304.000000	5.477389
2303.000000	5.465241
2302.000000	5.460961
2301.000000	5.471720
2300.000000	5.462349
2299.000000	5.471373
2298.000000	5.491157
2297.000000	5.518460
2296.000000	5.542756
2295.000000	5.564969
2294.000000	5.589033
2293.000000	5.600256
2292.000000	5.597942
2291.000000	5.629179
2290.000000	5.649194
2289.000000	5.650004
2288.000000	5.656714
2287.000000	5.635195
2286.000000	5.652318
2285.000000	5.661110
2284.000000	5.654169
2283.000000	5.658102
2282.000000	5.638087
2281.000000	5.620155
2280.000000	5.616684
2279.000000	5.609858
2278.000000	5.590653
2277.000000	5.586025
2276.000000	5.592273
2275.000000	5.580472
2274.000000	5.580241
2273.000000	5.576423
2272.000000	5.556986
2271.000000	5.566242
2270.000000	5.570175
2269.000000	5.558606
2268.000000	5.581976
2267.000000	5.578621
2266.000000	5.588686
2265.000000	5.610552
2264.000000	5.645607
2263.000000	5.677192
2262.000000	5.712941
2261.000000	5.710627
2260.000000	5.749153
2259.000000	5.796356
2258.000000	5.884630
2257.000000	5.919107
2256.000000	5.973251
2255.000000	6.052617
2254.000000	6.097043
2253.000000	6.170509
2252.000000	6.215398
2251.000000	6.285971
2250.000000	6.329934
2249.000000	6.376327
2248.000000	6.464023
2247.000000	6.524646
2246.000000	6.565023
2245.000000	6.622523
2244.000000	6.662437
2243.000000	6.726647
2242.000000	6.764826
2241.000000	6.796988
2240.000000	6.849166
2239.000000	6.875313
2238.000000	6.910021
2237.000000	6.930846
2236.000000	6.971454
2235.000000	7.006856
2234.000000	7.008360
2233.000000	7.044457
2232.000000	7.075694
2231.000000	7.086800
2230.000000	7.105774
2229.000000	7.116996
2228.000000	7.082057
2227.000000	7.114104
2226.000000	7.127293
2225.000000	7.134582
2224.000000	7.115955
2223.000000	7.127177
2222.000000	7.115030
2221.000000	7.143490
2220.000000	7.114914
2219.000000	7.133541
2218.000000	7.116881
2217.000000	7.127640
2216.000000	7.102188
2215.000000	7.092816
2214.000000	7.080784
2213.000000	7.064125
2212.000000	7.073264
2211.000000	7.079396
2210.000000	7.041217
2209.000000	7.042258
2208.000000	7.040523
2207.000000	7.015765
2206.000000	7.025020
2205.000000	7.016343
2204.000000	7.022012
2203.000000	7.016922
2202.000000	7.016112
2201.000000	7.003617
2200.000000	7.007898
2199.000000	7.006741
2198.000000	6.989502
2197.000000	6.999915
2196.000000	6.978627
2195.000000	6.985684
2194.000000	6.965322
2193.000000	6.974694
2192.000000	6.992163
2191.000000	6.981519
2190.000000	6.975619
2189.000000	6.966364
2188.000000	6.965785
2187.000000	6.975388
2186.000000	6.958381
2185.000000	6.939523
2184.000000	6.950745
2183.000000	6.931887
2182.000000	6.937787
2181.000000	6.919971
2180.000000	6.925987
2179.000000	6.928763
2178.000000	6.925987
2177.000000	6.903195
2176.000000	6.888618
2175.000000	6.909674
2174.000000	6.914996
2173.000000	6.927259
2172.000000	6.904583
2171.000000	6.905972
2170.000000	6.892667
2169.000000	6.897063
2168.000000	6.912450
2167.000000	6.901575
2166.000000	6.910831
2165.000000	6.919276
2164.000000	6.923210
2163.000000	6.925639
2162.000000	6.926565
2161.000000	6.928069
2160.000000	6.930961
2159.000000	6.950282
2158.000000	6.956414
2157.000000	6.965554
2156.000000	6.976082
2155.000000	6.995981
2154.000000	6.997601
2153.000000	6.982561
2152.000000	7.001997
2151.000000	7.033929
2150.000000	7.030111
2149.000000	7.041102
2148.000000	7.050588
2147.000000	7.068058
2146.000000	7.083792
2145.000000	7.089577
2144.000000	7.099064
2143.000000	7.113179
2142.000000	7.119542
2141.000000	7.123244
2140.000000	7.136664
2139.000000	7.159456
2138.000000	7.156795
2137.000000	7.149969
2136.000000	7.179124
2135.000000	7.195899
2134.000000	7.207584
2133.000000	7.191156
2132.000000	7.184330
2131.000000	7.213138
2130.000000	7.207006
2129.000000	7.217997
2128.000000	7.200064
2127.000000	7.209667
2126.000000	7.206080
2125.000000	7.215336
2124.000000	7.234194
2123.000000	7.226674
2122.000000	7.223087
2121.000000	7.217303
2120.000000	7.218691
2119.000000	7.200411
2118.000000	7.209898
2117.000000	7.210939
2116.000000	7.186991
2115.000000	7.184446
2114.000000	7.186065
2113.000000	7.179818
2112.000000	7.164084
2111.000000	7.155060
2110.000000	7.146267
2109.000000	7.151473
2108.000000	7.153208
2107.000000	7.125442
2106.000000	7.118500
2105.000000	7.111559
2104.000000	7.112137
2103.000000	7.109476
2102.000000	7.093279
2101.000000	7.077776
2100.000000	7.075694
2099.000000	7.066438
2098.000000	7.064934
2097.000000	7.054059
2096.000000	7.046423
2095.000000	7.055216
2094.000000	7.050588
2093.000000	7.047812
2092.000000	7.031962
2091.000000	7.022359
2090.000000	7.008129
2089.000000	7.005237
2088.000000	7.018888
2087.000000	7.018310
2086.000000	7.010790
2085.000000	6.995518
2084.000000	6.981866
2083.000000	6.982214
2082.000000	6.983486
2081.000000	6.986610
2080.000000	6.964744
2079.000000	6.952133
2078.000000	6.945307
2077.000000	6.926565
2076.000000	6.913029
2075.000000	6.903542
2074.000000	6.904236
2073.000000	6.894402
2072.000000	6.881792
2071.000000	6.862008
2070.000000	6.841646
2069.000000	6.822094
2068.000000	6.815962
2067.000000	6.812954
2066.000000	6.787039
2065.000000	6.784146
2064.000000	6.780329
2063.000000	6.753950
2062.000000	6.741918
2061.000000	6.728614
2060.000000	6.716466
2059.000000	6.705938
2058.000000	6.695410
2057.000000	6.677824
2056.000000	6.675742
2055.000000	6.682915
2054.000000	6.672271
2053.000000	6.678056
2052.000000	6.689856
2051.000000	6.683840
2050.000000	6.700616
2049.000000	6.717160
2048.000000	6.734861
2047.000000	6.745968
2046.000000	6.756843
2045.000000	6.791319
2044.000000	6.826375
2043.000000	6.840373
2042.000000	6.838060
2041.000000	6.874619
2040.000000	6.905046
2039.000000	6.929110
2038.000000	6.953290
2037.000000	6.960116
2036.000000	6.971801
2035.000000	6.998295
2034.000000	7.007898
2033.000000	7.032077
2032.000000	7.047233
2031.000000	7.059150
2030.000000	7.078586
2029.000000	7.090618
2028.000000	7.090503
2027.000000	7.087610
2026.000000	7.097213
2025.000000	7.109939
2024.000000	7.116765
2023.000000	7.113063
2022.000000	7.125211
2021.000000	7.113873
2020.000000	7.112947
2019.000000	7.129607
2018.000000	7.132268
2017.000000	7.134350
2016.000000	7.126599
2015.000000	7.128681
2014.000000	7.123360
2013.000000	7.127409
2012.000000	7.111443
2011.000000	7.110286
2010.000000	7.103692
2009.000000	7.102535
2008.000000	7.078008
2007.000000	7.075115
2006.000000	7.063430
2005.000000	7.031152
2004.000000	7.026640
2003.000000	7.011137
2002.000000	7.001419
2001.000000	6.998064
2000.000000	6.952712
1999.000000	6.951671
1998.000000	6.942415
1997.000000	6.929689
1996.000000	6.903311
1995.000000	6.876007
1994.000000	6.857033
1993.000000	6.839679
1992.000000	6.826375
1991.000000	6.808673
1990.000000	6.775932
1989.000000	6.762743
1988.000000	6.751174
1987.000000	6.710450
1986.000000	6.687311
1985.000000	6.645430
1984.000000	6.631200
1983.000000	6.626572
1982.000000	6.595682
1981.000000	6.580063
1980.000000	6.565949
1979.000000	6.542232
1978.000000	6.498615
1977.000000	6.497921
1976.000000	6.470155
1975.000000	6.446322
1974.000000	6.420753
1973.000000	6.406755
1972.000000	6.388938
1971.000000	6.391946
1970.000000	6.347751
1969.000000	6.326810
1968.000000	6.313506
1967.000000	6.311655
1966.000000	6.293953
1965.000000	6.233909
1964.000000	6.235065
1963.000000	6.237726
1962.000000	6.221182
1961.000000	6.173169
1960.000000	6.175483
1959.000000	6.166112
1958.000000	6.140544
1957.000000	6.118215
1956.000000	6.120760
1955.000000	6.119488
1954.000000	6.081772
1953.000000	6.085127
1952.000000	6.043824
1951.000000	6.054005
1950.000000	6.037924
1949.000000	5.999167
1948.000000	5.977879
1947.000000	6.006224
1946.000000	5.985630
1945.000000	5.964806
1944.000000	5.942477
1943.000000	5.964343
1942.000000	5.950807
1941.000000	5.920726
1940.000000	5.945601
1939.000000	5.923040
1938.000000	5.928709
1937.000000	5.901984
1936.000000	5.912859
1935.000000	5.901984
1934.000000	5.917256
1933.000000	5.923040
1932.000000	5.923503
1931.000000	5.934957
1930.000000	5.933453
1929.000000	5.942245
1928.000000	5.963996
1927.000000	5.962723
1926.000000	5.992919
1925.000000	6.015595
1924.000000	6.036188
1923.000000	6.038040
1922.000000	6.052386
1921.000000	6.070202
1920.000000	6.124694
1919.000000	6.138230
1918.000000	6.162988
1917.000000	6.240734
1916.000000	6.260055
1915.000000	6.286549
1914.000000	6.307490
1913.000000	6.350065
1912.000000	6.417514
1911.000000	6.465642
1910.000000	6.493756
1909.000000	6.554264
1908.000000	6.599153
1907.000000	6.640571
1906.000000	6.708599
1905.000000	6.772577
1904.000000	6.868718
1903.000000	6.916847
1902.000000	7.009749
1901.000000	7.094552
1900.000000	7.170562
1899.000000	7.265778
1898.000000	7.394429
1897.000000	7.506305
1896.000000	7.599091
1895.000000	7.730750
1894.000000	7.837535
1893.000000	7.935296
1892.000000	8.097498
1891.000000	8.247090
1890.000000	8.423522
1889.000000	8.589658
1888.000000	8.773148
1887.000000	8.944490
1886.000000	9.155283
1885.000000	9.357168
1884.000000	9.580688
1883.000000	9.889242
1882.000000	10.159155
1881.000000	10.411135
1880.000000	10.692154
1879.000000	10.972017
1878.000000	11.266110
1877.000000	11.541807
1876.000000	11.839833
1875.000000	12.111597
1874.000000	12.402913
1873.000000	12.673404
1872.000000	12.966224
1871.000000	13.251062
1870.000000	13.546195
1869.000000	13.822356
1868.000000	14.106267
1867.000000	14.332795
1866.000000	14.556430
1865.000000	14.742581
1864.000000	14.905130
1863.000000	15.066754
1862.000000	15.212181
1861.000000	15.361194
1860.000000	15.498291
1859.000000	15.635619
1858.000000	15.779310
1857.000000	15.876608
1856.000000	15.964188
1855.000000	16.048066
1854.000000	16.122457
1853.000000	16.195112
1852.000000	16.255388
1851.000000	16.294955
1850.000000	16.312656
1849.000000	16.321449
1848.000000	16.332209
1847.000000	16.376866
1846.000000	16.396766
1845.000000	16.401162
1844.000000	16.381378
1843.000000	16.370040
1842.000000	16.378717
1841.000000	16.388204
1840.000000	16.400121
1839.000000	16.380453
1838.000000	16.362983
1837.000000	16.365413
1836.000000	16.356389
1835.000000	16.352339
1834.000000	16.327118
1833.000000	16.294840
1832.000000	16.252843
1831.000000	16.223573
1830.000000	16.195690
1829.000000	16.173015
1828.000000	16.140389
1827.000000	16.085897
1826.000000	16.053388
1825.000000	16.015671
1824.000000	15.981889
1823.000000	15.944983
1822.000000	15.906573
1821.000000	15.890144
1820.000000	15.909118
1819.000000	15.883318
1818.000000	15.840280
1817.000000	15.813324
1816.000000	15.793772
1815.000000	15.780814
1814.000000	15.780698
1813.000000	15.756865
1812.000000	15.731991
1811.000000	15.731297
1810.000000	15.720885
1809.000000	15.688028
1808.000000	15.652973
1807.000000	15.639205
1806.000000	15.607042
1805.000000	15.569673
1804.000000	15.526635
1803.000000	15.475730
1802.000000	15.443452
1801.000000	15.414876
1800.000000	15.394282
1799.000000	15.364202
1798.000000	15.307281
1797.000000	15.259499
1796.000000	15.222824
1795.000000	15.199917
1794.000000	15.187654
1793.000000	15.149243
1792.000000	15.099264
1791.000000	15.061316
1790.000000	15.015618
1789.000000	14.970150
1788.000000	14.933822
1787.000000	14.893098
1786.000000	14.860126
1785.000000	14.826343
1784.000000	14.785272
1783.000000	14.736449
1782.000000	14.686933
1781.000000	14.640771
1780.000000	14.594725
1779.000000	14.563256
1778.000000	14.510963
1777.000000	14.462603
1776.000000	14.403484
1775.000000	14.333026
1774.000000	14.280849
1773.000000	14.224043
1772.000000	14.171056
1771.000000	14.111358
1770.000000	14.048421
1769.000000	13.977269
1768.000000	13.916414
1767.000000	13.859725
1766.000000	13.800605
1765.000000	13.746924
1764.000000	13.704580
1763.000000	13.678433
1762.000000	13.663856
1761.000000	13.659344
1760.000000	13.668715
1759.000000	13.690002
1758.000000	13.746229
1757.000000	13.803382
1756.000000	13.856022
1755.000000	13.911440
1754.000000	13.955287
1753.000000	13.989764
1752.000000	14.013481
1751.000000	14.040206
1750.000000	14.061263
1749.000000	14.065775
1748.000000	14.059411
1747.000000	14.030025
1746.000000	13.985946
1745.000000	13.959568
1744.000000	13.923009
1743.000000	13.855097
1742.000000	13.767517
1741.000000	13.674962
1740.000000	13.587961
1739.000000	13.473309
1738.000000	13.344658
1737.000000	13.236253
1736.000000	13.124840
1735.000000	13.028930
1734.000000	12.962869
1733.000000	12.911270
1732.000000	12.842548
1731.000000	12.848911
1730.000000	12.873323
1729.000000	12.899469
1728.000000	12.959977
1727.000000	13.014121
1726.000000	13.091636
1725.000000	13.138839
1724.000000	13.185810
1723.000000	13.251293
1722.000000	13.284034
1721.000000	13.318858
1720.000000	13.362706
1719.000000	13.388621
1718.000000	13.455029
1717.000000	13.493324
1716.000000	13.539138
1715.000000	13.576507
1714.000000	13.626371
1713.000000	13.706894
1712.000000	13.746924
1711.000000	13.811943
1710.000000	13.861576
1709.000000	13.917109
1708.000000	13.907622
1707.000000	13.923240
1706.000000	13.903341
1705.000000	13.873955
1704.000000	13.866203
1703.000000	13.813100
1702.000000	13.773533
1701.000000	13.705621
1700.000000	13.657030
1699.000000	13.575003
1698.000000	13.497141
1697.000000	13.383530
1696.000000	13.300925
1695.000000	13.236368
1694.000000	13.203280
1693.000000	13.196223
1692.000000	13.239955
1691.000000	13.298496
1690.000000	13.382605
1689.000000	13.492976
1688.000000	13.595018
1687.000000	13.655873
1686.000000	13.722397
1685.000000	13.739635
1684.000000	13.816224
1683.000000	13.885524
1682.000000	13.990111
1681.000000	14.126398
1680.000000	14.356859
1679.000000	14.639498
1678.000000	14.934516
1677.000000	15.294554
1676.000000	15.610860
1675.000000	15.952966
1674.000000	16.240117
1673.000000	16.510029
1672.000000	16.744424
1671.000000	16.954639
1670.000000	17.140212
1669.000000	17.299290
1668.000000	17.433610
1667.000000	17.572095
1666.000000	17.692763
1665.000000	17.800474
1664.000000	17.866303
1663.000000	17.930860
1662.000000	17.980030
1661.000000	18.051066
1660.000000	18.105673
1659.000000	18.127308
1658.000000	18.167569
1657.000000	18.197187
1656.000000	18.193137
1655.000000	18.241729
1654.000000	18.223449
1653.000000	18.206326
1652.000000	18.224837
1651.000000	18.203897
1650.000000	18.180180
1649.000000	18.189782
1648.000000	18.119556
1647.000000	18.107987
1646.000000	18.060321
1645.000000	18.037067
1644.000000	17.991137
1643.000000	17.981187
1642.000000	17.909226
1641.000000	17.873476
1640.000000	17.818291
1639.000000	17.776988
1638.000000	17.731983
1637.000000	17.686284
1636.000000	17.610505
1635.000000	17.572558
1634.000000	17.552196
1633.000000	17.486135
1632.000000	17.408505
1631.000000	17.341981
1630.000000	17.298133
1629.000000	17.219346
1628.000000	17.185910
1627.000000	17.103305
1626.000000	17.058763
1625.000000	16.982521
1624.000000	16.921782
1623.000000	16.846466
1622.000000	16.792784
1621.000000	16.746970
1620.000000	16.665406
1619.000000	16.616352
1618.000000	16.564058
1617.000000	16.507947
1616.000000	16.439804
1615.000000	16.369578
1614.000000	16.337184
1613.000000	16.275750
1612.000000	16.194881
1611.000000	16.164453
1610.000000	16.118407
1609.000000	16.063337
1608.000000	16.010928
1607.000000	15.966733
1606.000000	15.909002
1605.000000	15.854395
1604.000000	15.814134
1603.000000	15.744486
1602.000000	15.684673
1601.000000	15.607736
1600.000000	15.565508
1599.000000	15.515297
1598.000000	15.447732
1597.000000	15.395555
1596.000000	15.352864
1595.000000	15.304504
1594.000000	15.240641
1593.000000	15.191124
1592.000000	15.157920
1591.000000	15.108519
1590.000000	15.044425
1589.000000	15.025452
1588.000000	14.981604
1587.000000	14.922716
1586.000000	14.864291
1585.000000	14.818939
1584.000000	14.791519
1583.000000	14.752762
1582.000000	14.699659
1581.000000	14.662058
1580.000000	14.632904
1579.000000	14.607914
