PE UV       SUBTECH     SPECTRUM    ASCII       PEDS        4.00        
   -1
NI#0002-TX3.ASC
23/11/30
13:13:48.00
23/11/30
13:13:48.00
Vinicio Soto Monge
NI #2
250,000000
1
Lambda 1050
1050L1511233
PerkinElmer UV WinLab 6.3.2.0749 / 2.02.05 Lambda 900 UV/VIS/NIR, Aug  7 2015 09:38:08

0
0
3350/servo 860,8/2
0
0
UV/VIS
1
1
1
DoubleDePol,CommonBeamDepol,RBeamAtt,SBeamAtt,60mm sphere, WB InGaAs Detector
0
0
0
0
Program
Program
3350/servo 860,8/2
3350/0,4 860,8/0,4
3350/0,4 860,8/0,4
0
20.00
 
 
 
0
 
860,8
319,2
860,8
Front
100
on
S:100 R:100
0
0
0
0
 
0
 
 
 
0
 
 
0
0
0
0
0
 
 
 
 
0
0


0
0
#HDR
-1
-1
#GR
nm
%R
1.0
0.0
2200,000000
-1,000000
1951
8
60,368636
0,383152
#DATA
284.000000	7.484794
285.000000	7.455440
286.000000	7.426788
287.000000	7.402067
288.000000	7.378438
289.000000	7.355126
290.000000	7.334607
291.000000	7.315080
292.000000	7.295443
293.000000	7.275526
294.000000	7.258005
295.000000	7.240904
296.000000	7.225628
297.000000	7.213805
298.000000	7.202395
299.000000	7.188749
300.000000	7.178229
301.000000	7.167298
302.000000	7.158688
303.000000	7.148805
304.000000	7.137846
305.000000	7.127954
306.000000	7.116165
307.000000	7.104433
308.000000	7.093966
309.000000	7.080834
310.000000	7.070181
311.000000	7.057303
312.000000	7.045148
313.000000	7.034161
314.000000	7.021004
315.000000	7.007430
316.000000	6.994647
317.000000	6.977697
318.000000	6.956697
319.000000	6.938487
320.000000	6.922892
321.000000	6.903769
322.000000	6.886912
323.000000	6.866249
324.000000	6.847710
325.000000	6.824321
326.000000	6.799818
327.000000	6.775926
328.000000	6.752353
329.000000	6.726824
330.000000	6.703587
331.000000	6.678237
332.000000	6.651673
333.000000	6.624576
334.000000	6.600355
335.000000	6.572432
336.000000	6.547894
337.000000	6.522314
338.000000	6.499944
339.000000	6.475568
340.000000	6.449241
341.000000	6.425466
342.000000	6.402286
343.000000	6.380304
344.000000	6.360173
345.000000	6.339142
346.000000	6.319381
347.000000	6.297575
348.000000	6.275728
349.000000	6.254820
350.000000	6.235706
351.000000	6.215957
352.000000	6.199733
353.000000	6.187320
354.000000	6.173278
355.000000	6.156229
356.000000	6.142570
357.000000	6.123608
358.000000	6.111706
359.000000	6.098535
360.000000	6.086713
361.000000	6.073287
362.000000	6.059761
363.000000	6.046013
364.000000	6.035180
365.000000	6.022475
366.000000	6.010362
367.000000	5.998295
368.000000	5.986253
369.000000	5.972138
370.000000	5.959197
371.000000	5.944994
372.000000	5.930028
373.000000	5.914198
374.000000	5.901212
375.000000	5.889759
376.000000	5.874648
377.000000	5.860179
378.000000	5.844525
379.000000	5.829028
380.000000	5.813839
381.000000	5.797778
382.000000	5.782544
383.000000	5.768372
384.000000	5.753965
385.000000	5.738422
386.000000	5.722526
387.000000	5.707485
388.000000	5.692990
389.000000	5.677572
390.000000	5.662253
391.000000	5.648092
392.000000	5.634922
393.000000	5.619122
394.000000	5.602801
395.000000	5.588183
396.000000	5.575622
397.000000	5.563479
398.000000	5.550916
399.000000	5.536672
400.000000	5.522367
401.000000	5.508858
402.000000	5.495685
403.000000	5.482745
404.000000	5.470798
405.000000	5.459605
406.000000	5.447875
407.000000	5.436761
408.000000	5.426066
409.000000	5.413950
410.000000	5.402915
411.000000	5.393631
412.000000	5.384085
413.000000	5.375237
414.000000	5.366303
415.000000	5.357469
416.000000	5.349566
417.000000	5.341662
418.000000	5.333923
419.000000	5.326182
420.000000	5.318720
421.000000	5.311876
422.000000	5.305604
423.000000	5.299687
424.000000	5.293826
425.000000	5.288269
426.000000	5.282455
427.000000	5.276378
428.000000	5.270920
429.000000	5.265895
430.000000	5.260793
431.000000	5.255888
432.000000	5.251277
433.000000	5.247142
434.000000	5.243212
435.000000	5.239342
436.000000	5.235617
437.000000	5.232228
438.000000	5.229148
439.000000	5.226409
440.000000	5.223501
441.000000	5.221113
442.000000	5.219405
443.000000	5.217803
444.000000	5.216558
445.000000	5.215548
446.000000	5.214908
447.000000	5.214501
448.000000	5.214176
449.000000	5.214395
450.000000	5.215001
451.000000	5.215958
452.000000	5.217579
453.000000	5.219822
454.000000	5.222465
455.000000	5.225557
456.000000	5.229065
457.000000	5.232974
458.000000	5.237785
459.000000	5.243807
460.000000	5.250667
461.000000	5.258836
462.000000	5.268521
463.000000	5.279413
464.000000	5.291848
465.000000	5.306384
466.000000	5.323130
467.000000	5.342042
468.000000	5.363401
469.000000	5.388057
470.000000	5.416204
471.000000	5.448209
472.000000	5.484375
473.000000	5.525026
474.000000	5.570661
475.000000	5.622207
476.000000	5.679942
477.000000	5.744542
478.000000	5.816880
479.000000	5.897533
480.000000	5.986528
481.000000	6.083941
482.000000	6.190337
483.000000	6.306980
484.000000	6.434186
485.000000	6.572249
486.000000	6.721840
487.000000	6.883084
488.000000	7.056520
489.000000	7.242942
490.000000	7.442991
491.000000	7.656427
492.000000	7.883406
493.000000	8.123492
494.000000	8.377112
495.000000	8.643407
496.000000	8.921809
497.000000	9.211537
498.000000	9.512217
499.000000	9.822862
500.000000	10.141922
501.000000	10.468207
502.000000	10.801152
503.000000	11.139450
504.000000	11.481929
505.000000	11.827457
506.000000	12.174463
507.000000	12.521736
508.000000	12.867673
509.000000	13.210675
510.000000	13.549141
511.000000	13.881121
512.000000	14.205115
513.000000	14.519298
514.000000	14.822143
515.000000	15.112447
516.000000	15.388633
517.000000	15.648856
518.000000	15.891426
519.000000	16.115198
520.000000	16.318920
521.000000	16.501343
522.000000	16.661836
523.000000	16.798956
524.000000	16.911656
525.000000	16.999302
526.000000	17.061756
527.000000	17.098920
528.000000	17.111266
529.000000	17.098196
530.000000	17.060361
531.000000	16.998492
532.000000	16.913227
533.000000	16.805098
534.000000	16.675170
535.000000	16.524646
536.000000	16.355237
537.000000	16.167624
538.000000	15.962741
539.000000	15.741981
540.000000	15.506073
541.000000	15.256871
542.000000	14.995846
543.000000	14.724044
544.000000	14.443024
545.000000	14.154223
546.000000	13.859508
547.000000	13.559726
548.000000	13.256619
549.000000	12.951151
550.000000	12.644510
551.000000	12.338463
552.000000	12.034470
553.000000	11.733616
554.000000	11.436635
555.000000	11.144456
556.000000	10.858460
557.000000	10.578900
558.000000	10.306791
559.000000	10.042814
560.000000	9.786797
561.000000	9.539348
562.000000	9.300932
563.000000	9.071081
564.000000	8.850100
565.000000	8.638309
566.000000	8.435345
567.000000	8.241905
568.000000	8.057438
569.000000	7.881728
570.000000	7.714892
571.000000	7.556543
572.000000	7.406247
573.000000	7.264143
574.000000	7.129567
575.000000	7.002605
576.000000	6.882810
577.000000	6.769823
578.000000	6.663887
579.000000	6.564306
580.000000	6.470737
581.000000	6.382568
582.000000	6.300107
583.000000	6.222459
584.000000	6.149809
585.000000	6.082080
586.000000	6.019152
587.000000	5.960598
588.000000	5.906431
589.000000	5.856142
590.000000	5.810038
591.000000	5.766993
592.000000	5.727498
593.000000	5.690917
594.000000	5.657378
595.000000	5.626863
596.000000	5.599150
597.000000	5.573666
598.000000	5.550782
599.000000	5.530413
600.000000	5.511813
601.000000	5.495462
602.000000	5.480988
603.000000	5.468368
604.000000	5.457622
605.000000	5.448281
606.000000	5.440021
607.000000	5.433509
608.000000	5.428117
609.000000	5.423940
610.000000	5.421031
611.000000	5.419542
612.000000	5.418966
613.000000	5.419277
614.000000	5.420621
615.000000	5.423193
616.000000	5.426531
617.000000	5.430451
618.000000	5.435503
619.000000	5.441495
620.000000	5.447798
621.000000	5.454538
622.000000	5.462610
623.000000	5.470818
624.000000	5.479617
625.000000	5.488734
626.000000	5.498899
627.000000	5.509598
628.000000	5.520819
629.000000	5.532102
630.000000	5.544262
631.000000	5.557169
632.000000	5.570404
633.000000	5.584098
634.000000	5.598044
635.000000	5.612876
636.000000	5.628210
637.000000	5.643890
638.000000	5.659704
639.000000	5.675980
640.000000	5.692642
641.000000	5.709974
642.000000	5.727523
643.000000	5.745642
644.000000	5.763818
645.000000	5.782919
646.000000	5.801992
647.000000	5.821679
648.000000	5.841949
649.000000	5.862533
650.000000	5.882940
651.000000	5.904321
652.000000	5.926000
653.000000	5.948387
654.000000	5.970772
655.000000	5.993649
656.000000	6.017281
657.000000	6.040660
658.000000	6.064564
659.000000	6.089061
660.000000	6.114230
661.000000	6.139342
662.000000	6.164954
663.000000	6.191243
664.000000	6.218036
665.000000	6.244988
666.000000	6.272124
667.000000	6.299992
668.000000	6.328101
669.000000	6.356583
670.000000	6.385467
671.000000	6.414418
672.000000	6.443833
673.000000	6.474307
674.000000	6.505082
675.000000	6.536525
676.000000	6.568125
677.000000	6.599870
678.000000	6.632143
679.000000	6.665770
680.000000	6.699342
681.000000	6.733308
682.000000	6.767213
683.000000	6.801202
684.000000	6.835823
685.000000	6.871257
686.000000	6.906466
687.000000	6.941846
688.000000	6.976680
689.000000	7.012601
690.000000	7.049116
691.000000	7.086144
692.000000	7.123626
693.000000	7.161794
694.000000	7.200880
695.000000	7.240018
696.000000	7.279841
697.000000	7.319416
698.000000	7.358963
699.000000	7.399387
700.000000	7.440463
701.000000	7.482026
702.000000	7.523587
703.000000	7.565755
704.000000	7.608233
705.000000	7.651151
706.000000	7.694757
707.000000	7.738602
708.000000	7.782466
709.000000	7.827220
710.000000	7.872049
711.000000	7.917088
712.000000	7.963139
713.000000	8.009608
714.000000	8.056232
715.000000	8.103417
716.000000	8.151055
717.000000	8.199490
718.000000	8.248693
719.000000	8.297803
720.000000	8.346855
721.000000	8.396613
722.000000	8.447362
723.000000	8.499750
724.000000	8.552310
725.000000	8.604600
726.000000	8.657436
727.000000	8.710442
728.000000	8.763583
729.000000	8.816887
730.000000	8.870855
731.000000	8.924382
732.000000	8.978427
733.000000	9.032820
734.000000	9.087220
735.000000	9.142790
736.000000	9.198896
737.000000	9.255319
738.000000	9.312684
739.000000	9.370339
740.000000	9.428751
741.000000	9.487050
742.000000	9.545152
743.000000	9.604217
744.000000	9.662928
745.000000	9.722565
746.000000	9.783227
747.000000	9.843230
748.000000	9.903868
749.000000	9.965121
750.000000	10.026370
751.000000	10.088454
752.000000	10.150407
753.000000	10.213680
754.000000	10.277935
755.000000	10.342377
756.000000	10.407257
757.000000	10.472796
758.000000	10.537231
759.000000	10.601859
760.000000	10.667024
761.000000	10.732028
762.000000	10.798615
763.000000	10.866736
764.000000	10.935050
765.000000	11.003568
766.000000	11.073662
767.000000	11.143887
768.000000	11.213307
769.000000	11.283845
770.000000	11.354073
771.000000	11.425319
772.000000	11.497472
773.000000	11.568425
774.000000	11.641147
775.000000	11.714283
776.000000	11.788004
777.000000	11.862508
778.000000	11.937229
779.000000	12.012786
780.000000	12.088209
781.000000	12.162347
782.000000	12.237700
783.000000	12.312688
784.000000	12.387563
785.000000	12.464311
786.000000	12.541579
787.000000	12.619370
788.000000	12.694918
789.000000	12.771117
790.000000	12.848653
791.000000	12.929008
792.000000	13.007272
793.000000	13.085995
794.000000	13.165197
795.000000	13.244345
796.000000	13.324658
797.000000	13.405589
798.000000	13.486199
799.000000	13.567009
800.000000	13.647863
801.000000	13.728711
802.000000	13.811286
803.000000	13.897075
804.000000	13.981808
805.000000	14.068354
806.000000	14.154172
807.000000	14.238757
808.000000	14.323247
809.000000	14.408649
810.000000	14.493266
811.000000	14.577846
812.000000	14.664199
813.000000	14.751350
814.000000	14.835790
815.000000	14.922454
816.000000	15.011003
817.000000	15.100790
818.000000	15.190989
819.000000	15.280336
820.000000	15.369142
821.000000	15.457215
822.000000	15.545203
823.000000	15.635661
824.000000	15.724733
825.000000	15.813959
826.000000	15.899921
827.000000	15.990735
828.000000	16.084093
829.000000	16.174995
830.000000	16.266748
831.000000	16.355466
832.000000	16.444254
833.000000	16.536174
834.000000	16.627387
835.000000	16.720787
836.000000	16.813078
837.000000	16.902585
838.000000	16.994216
839.000000	17.088987
840.000000	17.182523
841.000000	17.270317
842.000000	17.364727
843.000000	17.451250
844.000000	17.547093
845.000000	17.644808
846.000000	17.736842
847.000000	17.837911
848.000000	17.933066
849.000000	18.028988
850.000000	18.121137
851.000000	18.212914
852.000000	18.305218
853.000000	18.397547
854.000000	18.492742
855.000000	18.586802
856.000000	18.690155
857.000000	18.779483
858.000000	18.830816
859.000000	18.934341
860.000000	19.031704
861.000000	19.146696
862.000000	19.218801
863.000000	19.280376
864.000000	19.406545
865.000000	19.495609
866.000000	19.573318
867.000000	19.685101
868.000000	19.794365
869.000000	19.879022
870.000000	19.961877
871.000000	20.038819
872.000000	20.146819
873.000000	20.220390
874.000000	20.272817
875.000000	20.369369
876.000000	20.443049
877.000000	20.543208
878.000000	20.640016
879.000000	20.707418
880.000000	20.785709
881.000000	20.883860
882.000000	20.952076
883.000000	21.044382
884.000000	21.132265
885.000000	21.224969
886.000000	21.289559
887.000000	21.363860
888.000000	21.427398
889.000000	21.542462
890.000000	21.644549
891.000000	21.710105
892.000000	21.794861
893.000000	21.897331
894.000000	21.983753
895.000000	22.053841
896.000000	22.118390
897.000000	22.210631
898.000000	22.321298
899.000000	22.376192
900.000000	22.485973
901.000000	22.581347
902.000000	22.638136
903.000000	22.720381
904.000000	22.809011
905.000000	22.906905
906.000000	23.011595
907.000000	23.059594
908.000000	23.196672
909.000000	23.327249
910.000000	23.389414
911.000000	23.488041
912.000000	23.559976
913.000000	23.683204
914.000000	23.812208
915.000000	23.907004
916.000000	23.973432
917.000000	24.072934
918.000000	24.172157
919.000000	24.251620
920.000000	24.308212
921.000000	24.421920
922.000000	24.503788
923.000000	24.623549
924.000000	24.665626
925.000000	24.757729
926.000000	24.876879
927.000000	24.986463
928.000000	25.112435
929.000000	25.189052
930.000000	25.289964
931.000000	25.388476
932.000000	25.464976
933.000000	25.562291
934.000000	25.644297
935.000000	25.711779
936.000000	25.786568
937.000000	25.903304
938.000000	25.968272
939.000000	26.065662
940.000000	26.150398
941.000000	26.234988
942.000000	26.338470
943.000000	26.392838
944.000000	26.487611
945.000000	26.597153
946.000000	26.706548
947.000000	26.821470
948.000000	26.880271
949.000000	26.952353
950.000000	27.033728
951.000000	27.130267
952.000000	27.201956
953.000000	27.268301
954.000000	27.377698
955.000000	27.483659
956.000000	27.579916
957.000000	27.709249
958.000000	27.775811
959.000000	27.873423
960.000000	27.965548
961.000000	28.004145
962.000000	28.064276
963.000000	28.130152
964.000000	28.217216
965.000000	28.313785
966.000000	28.405543
967.000000	28.515568
968.000000	28.589860
969.000000	28.662793
970.000000	28.740143
971.000000	28.849604
972.000000	28.922035
973.000000	29.024297
974.000000	29.103194
975.000000	29.208559
976.000000	29.312677
977.000000	29.426966
978.000000	29.516885
979.000000	29.580740
980.000000	29.660602
981.000000	29.743279
982.000000	29.830282
983.000000	29.922656
984.000000	30.001501
985.000000	30.092893
986.000000	30.205991
987.000000	30.326687
988.000000	30.423598
989.000000	30.498744
990.000000	30.574683
991.000000	30.646504
992.000000	30.716145
993.000000	30.808418
994.000000	30.899534
995.000000	30.968100
996.000000	31.105751
997.000000	31.212855
998.000000	31.293634
999.000000	31.377744
1000.000000	31.442850
1001.000000	31.512338
1002.000000	31.598834
1003.000000	31.663907
1004.000000	31.744136
1005.000000	31.829988
1006.000000	31.880336
1007.000000	31.937774
1008.000000	32.023584
1009.000000	32.130920
1010.000000	32.217029
1011.000000	32.276139
1012.000000	32.315831
1013.000000	32.372943
1014.000000	32.466149
1015.000000	32.543213
1016.000000	32.605790
1017.000000	32.658934
1018.000000	32.711615
1019.000000	32.774719
1020.000000	32.836300
1021.000000	32.886460
1022.000000	32.940059
1023.000000	33.006677
1024.000000	33.093344
1025.000000	33.161884
1026.000000	33.220164
1027.000000	33.288009
1028.000000	33.359697
1029.000000	33.406566
1030.000000	33.458149
1031.000000	33.504482
1032.000000	33.570335
1033.000000	33.641173
1034.000000	33.688280
1035.000000	33.757746
1036.000000	33.846424
1037.000000	33.917150
1038.000000	33.997965
1039.000000	34.097270
1040.000000	34.183541
1041.000000	34.276630
1042.000000	34.375586
1043.000000	34.471038
1044.000000	34.527140
1045.000000	34.585264
1046.000000	34.678110
1047.000000	34.759060
1048.000000	34.825518
1049.000000	34.872232
1050.000000	34.919646
1051.000000	34.967635
1052.000000	35.035227
1053.000000	35.106034
1054.000000	35.159495
1055.000000	35.238461
1056.000000	35.290602
1057.000000	35.339335
1058.000000	35.394222
1059.000000	35.437706
1060.000000	35.518499
1061.000000	35.582134
1062.000000	35.648329
1063.000000	35.704482
1064.000000	35.759704
1065.000000	35.824579
1066.000000	35.874905
1067.000000	35.925762
1068.000000	35.980624
1069.000000	36.053131
1070.000000	36.103095
1071.000000	36.136286
1072.000000	36.174654
1073.000000	36.236227
1074.000000	36.255211
1075.000000	36.304413
1076.000000	36.370757
1077.000000	36.404861
1078.000000	36.399135
1079.000000	36.429361
1080.000000	36.471343
1081.000000	36.486219
1082.000000	36.542683
1083.000000	36.611928
1084.000000	36.663570
1085.000000	36.711333
1086.000000	36.783015
1087.000000	36.837814
1088.000000	36.903179
1089.000000	36.964273
1090.000000	37.009709
1091.000000	37.034689
1092.000000	37.087311
1093.000000	37.112875
1094.000000	37.176853
1095.000000	37.250161
1096.000000	37.300947
1097.000000	37.344627
1098.000000	37.385075
1099.000000	37.477030
1100.000000	37.477796
1101.000000	37.542713
1102.000000	37.610763
1103.000000	37.672759
1104.000000	37.753096
1105.000000	37.803273
1106.000000	37.881467
1107.000000	37.956691
1108.000000	38.011302
1109.000000	38.110509
1110.000000	38.132600
1111.000000	38.173554
1112.000000	38.232752
1113.000000	38.285495
1114.000000	38.334825
1115.000000	38.350121
1116.000000	38.415037
1117.000000	38.447229
1118.000000	38.520697
1119.000000	38.561317
1120.000000	38.643313
1121.000000	38.709330
1122.000000	38.772415
1123.000000	38.816973
1124.000000	38.904140
1125.000000	38.931587
1126.000000	39.013158
1127.000000	39.098093
1128.000000	39.186703
1129.000000	39.221016
1130.000000	39.228040
1131.000000	39.296345
1132.000000	39.341791
1133.000000	39.410458
1134.000000	39.446554
1135.000000	39.545124
1136.000000	39.601390
1137.000000	39.639176
1138.000000	39.699071
1139.000000	39.701287
1140.000000	39.750145
1141.000000	39.753880
1142.000000	39.787821
1143.000000	39.820286
1144.000000	39.840694
1145.000000	39.902485
1146.000000	39.964299
1147.000000	39.999956
1148.000000	40.040036
1149.000000	40.093606
1150.000000	40.151924
1151.000000	40.206540
1152.000000	40.284725
1153.000000	40.281712
1154.000000	40.324827
1155.000000	40.359593
1156.000000	40.379551
1157.000000	40.383944
1158.000000	40.426706
1159.000000	40.409845
1160.000000	40.477078
1161.000000	40.540549
1162.000000	40.547278
1163.000000	40.578354
1164.000000	40.596473
1165.000000	40.641853
1166.000000	40.629453
1167.000000	40.644297
1168.000000	40.639200
1169.000000	40.657315
1170.000000	40.669829
1171.000000	40.666344
1172.000000	40.675726
1173.000000	40.702010
1174.000000	40.769704
1175.000000	40.803203
1176.000000	40.807681
1177.000000	40.826468
1178.000000	40.830287
1179.000000	40.877505
1180.000000	40.920489
1181.000000	40.948836
1182.000000	40.962415
1183.000000	40.996987
1184.000000	40.997728
1185.000000	41.043962
1186.000000	41.029350
1187.000000	41.014772
1188.000000	41.057182
1189.000000	41.057477
1190.000000	41.045835
1191.000000	41.081574
1192.000000	41.114165
1193.000000	41.104901
1194.000000	41.142852
1195.000000	41.170267
1196.000000	41.159139
1197.000000	41.172272
1198.000000	41.188897
1199.000000	41.213067
1200.000000	41.260312
1201.000000	41.312540
1202.000000	41.346793
1203.000000	41.434881
1204.000000	41.450796
1205.000000	41.476053
1206.000000	41.527272
1207.000000	41.558643
1208.000000	41.566328
1209.000000	41.554149
1210.000000	41.575251
1211.000000	41.647337
1212.000000	41.671727
