PE UV       SUBTECH     SPECTRUM    ASCII       PEDS        4.00        
   -1
PELID.002-TX3.ASC
23/11/30
16:05:07.00
23/11/30
16:05:07.00
Vinicio Soto Monge
PELID 2
250,000000
1
Lambda 1050
1050L1511233
PerkinElmer UV WinLab 6.3.2.0749 / 2.02.05 Lambda 900 UV/VIS/NIR, Aug  7 2015 09:38:08

0
0
3350/servo 860,8/2
0
0
UV/VIS
1
1
1
DoubleDePol,CommonBeamDepol,RBeamAtt,SBeamAtt,60mm sphere, WB InGaAs Detector
0
0
0
0
Program
Program
3350/servo 860,8/2
3350/0,4 860,8/0,4
3350/0,4 860,8/0,4
0
20.00
 
 
 
0
 
860,8
319,2
860,8
Front
100
on
S:100 R:100
0
0
0
0
 
0
 
 
 
0
 
 
0
0
0
0
0
 
 
 
 
0
0


0
0
#HDR
-1
-1
#GR
nm
%R
1.0
0.0
2200,000000
-1,000000
1951
8
82,131741
0,175828
#DATA
284.000000	5.939198
285.000000	5.923019
286.000000	5.908474
287.000000	5.894288
288.000000	5.879508
289.000000	5.867853
290.000000	5.857965
291.000000	5.847540
292.000000	5.838619
293.000000	5.832601
294.000000	5.826646
295.000000	5.822676
296.000000	5.818685
297.000000	5.814132
298.000000	5.809999
299.000000	5.807106
300.000000	5.803854
301.000000	5.802030
302.000000	5.799034
303.000000	5.796400
304.000000	5.792765
305.000000	5.788765
306.000000	5.786765
307.000000	5.786010
308.000000	5.783799
309.000000	5.780412
310.000000	5.777607
311.000000	5.776106
312.000000	5.776111
313.000000	5.773018
314.000000	5.768137
315.000000	5.765329
316.000000	5.760548
317.000000	5.750618
318.000000	5.739362
319.000000	5.728820
320.000000	5.719321
321.000000	5.711118
322.000000	5.701407
323.000000	5.689218
324.000000	5.677156
325.000000	5.667372
326.000000	5.655527
327.000000	5.641189
328.000000	5.626130
329.000000	5.609977
330.000000	5.590355
331.000000	5.572753
332.000000	5.554275
333.000000	5.535518
334.000000	5.517681
335.000000	5.499916
336.000000	5.483587
337.000000	5.468594
338.000000	5.454671
339.000000	5.439623
340.000000	5.422626
341.000000	5.406487
342.000000	5.390121
343.000000	5.375621
344.000000	5.361226
345.000000	5.346951
346.000000	5.334733
347.000000	5.321488
348.000000	5.307969
349.000000	5.297333
350.000000	5.284765
351.000000	5.274234
352.000000	5.268623
353.000000	5.265263
354.000000	5.260887
355.000000	5.256483
356.000000	5.249968
357.000000	5.244341
358.000000	5.242967
359.000000	5.240668
360.000000	5.236895
361.000000	5.234279
362.000000	5.232798
363.000000	5.232636
364.000000	5.232803
365.000000	5.234644
366.000000	5.238465
367.000000	5.243729
368.000000	5.248960
369.000000	5.254270
370.000000	5.260118
371.000000	5.265036
372.000000	5.269011
373.000000	5.273425
374.000000	5.278605
375.000000	5.285604
376.000000	5.293434
377.000000	5.305790
378.000000	5.316965
379.000000	5.329308
380.000000	5.342251
381.000000	5.354154
382.000000	5.366615
383.000000	5.380519
384.000000	5.393707
385.000000	5.408186
386.000000	5.423480
387.000000	5.439840
388.000000	5.455425
389.000000	5.472498
390.000000	5.488848
391.000000	5.506869
392.000000	5.525899
393.000000	5.544921
394.000000	5.564701
395.000000	5.584320
396.000000	5.604976
397.000000	5.626747
398.000000	5.647828
399.000000	5.670753
400.000000	5.695242
401.000000	5.718143
402.000000	5.741207
403.000000	5.765228
404.000000	5.789387
405.000000	5.814166
406.000000	5.840779
407.000000	5.868010
408.000000	5.894634
409.000000	5.924735
410.000000	5.955749
411.000000	5.986228
412.000000	6.014289
413.000000	6.044028
414.000000	6.075098
415.000000	6.107563
416.000000	6.141421
417.000000	6.176508
418.000000	6.213273
419.000000	6.251775
420.000000	6.292193
421.000000	6.334422
422.000000	6.378559
423.000000	6.423904
424.000000	6.470667
425.000000	6.518966
426.000000	6.568463
427.000000	6.619839
428.000000	6.672080
429.000000	6.725607
430.000000	6.780465
431.000000	6.837025
432.000000	6.894636
433.000000	6.953379
434.000000	7.013161
435.000000	7.074368
436.000000	7.137249
437.000000	7.201240
438.000000	7.266323
439.000000	7.332106
440.000000	7.398875
441.000000	7.467062
442.000000	7.536285
443.000000	7.606467
444.000000	7.677141
445.000000	7.748020
446.000000	7.818968
447.000000	7.890259
448.000000	7.961885
449.000000	8.033742
450.000000	8.105506
451.000000	8.177625
452.000000	8.249568
453.000000	8.321830
454.000000	8.394292
455.000000	8.465972
456.000000	8.537098
457.000000	8.608351
458.000000	8.679436
459.000000	8.750227
460.000000	8.821095
461.000000	8.891826
462.000000	8.962153
463.000000	9.032924
464.000000	9.103606
465.000000	9.174559
466.000000	9.245609
467.000000	9.316831
468.000000	9.388196
469.000000	9.459468
470.000000	9.530533
471.000000	9.601482
472.000000	9.672801
473.000000	9.744882
474.000000	9.817567
475.000000	9.890802
476.000000	9.964433
477.000000	10.038499
478.000000	10.112934
479.000000	10.188102
480.000000	10.263348
481.000000	10.339290
482.000000	10.415990
483.000000	10.493604
484.000000	10.571609
485.000000	10.650750
486.000000	10.730377
487.000000	10.810406
488.000000	10.890908
489.000000	10.971729
490.000000	11.052963
491.000000	11.135176
492.000000	11.218008
493.000000	11.301642
494.000000	11.386760
495.000000	11.472057
496.000000	11.557483
497.000000	11.643236
498.000000	11.730146
499.000000	11.817855
500.000000	11.905476
501.000000	11.993435
502.000000	12.082197
503.000000	12.171425
504.000000	12.261154
505.000000	12.351880
506.000000	12.442992
507.000000	12.534882
508.000000	12.626892
509.000000	12.719434
510.000000	12.812699
511.000000	12.906246
512.000000	13.000023
513.000000	13.094261
514.000000	13.188880
515.000000	13.285379
516.000000	13.382006
517.000000	13.479497
518.000000	13.576770
519.000000	13.674818
520.000000	13.773127
521.000000	13.872525
522.000000	13.972745
523.000000	14.073817
524.000000	14.175809
525.000000	14.279352
526.000000	14.383806
527.000000	14.488896
528.000000	14.595192
529.000000	14.702125
530.000000	14.810174
531.000000	14.920025
532.000000	15.031335
533.000000	15.143161
534.000000	15.256326
535.000000	15.371549
536.000000	15.488720
537.000000	15.606904
538.000000	15.726946
539.000000	15.849181
540.000000	15.972457
541.000000	16.098473
542.000000	16.226220
543.000000	16.356276
544.000000	16.488552
545.000000	16.622780
546.000000	16.760455
547.000000	16.901662
548.000000	17.045283
549.000000	17.191402
550.000000	17.340301
551.000000	17.492934
552.000000	17.648615
553.000000	17.809144
554.000000	17.973593
555.000000	18.142226
556.000000	18.315466
557.000000	18.492239
558.000000	18.672960
559.000000	18.859641
560.000000	19.053211
561.000000	19.251698
562.000000	19.455290
563.000000	19.664239
564.000000	19.877713
565.000000	20.096004
566.000000	20.318153
567.000000	20.545126
568.000000	20.776566
569.000000	21.012081
570.000000	21.250656
571.000000	21.489963
572.000000	21.732740
573.000000	21.977623
574.000000	22.223716
575.000000	22.470385
576.000000	22.716851
577.000000	22.963311
578.000000	23.208063
579.000000	23.451213
580.000000	23.693217
581.000000	23.930020
582.000000	24.162755
583.000000	24.391595
584.000000	24.616684
585.000000	24.834767
586.000000	25.047387
587.000000	25.251903
588.000000	25.448043
589.000000	25.636132
590.000000	25.813729
591.000000	25.980964
592.000000	26.140395
593.000000	26.288292
594.000000	26.425435
595.000000	26.549172
596.000000	26.661090
597.000000	26.759731
598.000000	26.846787
599.000000	26.921929
600.000000	26.984337
601.000000	27.035866
602.000000	27.075153
603.000000	27.103912
604.000000	27.121381
605.000000	27.128231
606.000000	27.126196
607.000000	27.113815
608.000000	27.094581
609.000000	27.066921
610.000000	27.032808
611.000000	26.990889
612.000000	26.944405
613.000000	26.893971
614.000000	26.838658
615.000000	26.780256
616.000000	26.720419
617.000000	26.660058
618.000000	26.597392
619.000000	26.533438
620.000000	26.471142
621.000000	26.411051
622.000000	26.354836
623.000000	26.301332
624.000000	26.250818
625.000000	26.204987
626.000000	26.163986
627.000000	26.125509
628.000000	26.092698
629.000000	26.064533
630.000000	26.041007
631.000000	26.024134
632.000000	26.012259
633.000000	26.005614
634.000000	26.004828
635.000000	26.010803
636.000000	26.023941
637.000000	26.042780
638.000000	26.065060
639.000000	26.092545
640.000000	26.125478
641.000000	26.164780
642.000000	26.208815
643.000000	26.255553
644.000000	26.307073
645.000000	26.360933
646.000000	26.419859
647.000000	26.481490
648.000000	26.544826
649.000000	26.611318
650.000000	26.679426
651.000000	26.749279
652.000000	26.819372
653.000000	26.893549
654.000000	26.969713
655.000000	27.046163
656.000000	27.120964
657.000000	27.195743
658.000000	27.271189
659.000000	27.346991
660.000000	27.424368
661.000000	27.502122
662.000000	27.579588
663.000000	27.657123
664.000000	27.733841
665.000000	27.810123
666.000000	27.885166
667.000000	27.962729
668.000000	28.038171
669.000000	28.114304
670.000000	28.192099
671.000000	28.267095
672.000000	28.343321
673.000000	28.421121
674.000000	28.498000
675.000000	28.573518
676.000000	28.648407
677.000000	28.725194
678.000000	28.801359
679.000000	28.877079
680.000000	28.954185
681.000000	29.030829
682.000000	29.105976
683.000000	29.181440
684.000000	29.257301
685.000000	29.334041
686.000000	29.411222
687.000000	29.487804
688.000000	29.561127
689.000000	29.635232
690.000000	29.709481
691.000000	29.784807
692.000000	29.861054
693.000000	29.936673
694.000000	30.011340
695.000000	30.085297
696.000000	30.156980
697.000000	30.227298
698.000000	30.298887
699.000000	30.371134
700.000000	30.443272
701.000000	30.515783
702.000000	30.587114
703.000000	30.657824
704.000000	30.727100
705.000000	30.796273
706.000000	30.866055
707.000000	30.932223
708.000000	30.999186
709.000000	31.067366
710.000000	31.135116
711.000000	31.204422
712.000000	31.271567
713.000000	31.336107
714.000000	31.402129
715.000000	31.468955
716.000000	31.536453
717.000000	31.603702
718.000000	31.669168
719.000000	31.733947
720.000000	31.798271
721.000000	31.862483
722.000000	31.927371
723.000000	31.993730
724.000000	32.057910
725.000000	32.121887
726.000000	32.186085
727.000000	32.249706
728.000000	32.314235
729.000000	32.377778
730.000000	32.440495
731.000000	32.503545
732.000000	32.568401
733.000000	32.632233
734.000000	32.694146
735.000000	32.756356
736.000000	32.817320
737.000000	32.877758
738.000000	32.938688
739.000000	32.998193
740.000000	33.057660
741.000000	33.117331
742.000000	33.177107
743.000000	33.235546
744.000000	33.295253
745.000000	33.355576
746.000000	33.413347
747.000000	33.469152
748.000000	33.526563
749.000000	33.581093
750.000000	33.635283
751.000000	33.688137
752.000000	33.743008
753.000000	33.804031
754.000000	33.863175
755.000000	33.919040
756.000000	33.973630
757.000000	34.028259
758.000000	34.084038
759.000000	34.138074
760.000000	34.190949
761.000000	34.244690
762.000000	34.297780
763.000000	34.348622
764.000000	34.399917
765.000000	34.449084
766.000000	34.499857
767.000000	34.551992
768.000000	34.601111
769.000000	34.647843
770.000000	34.696061
771.000000	34.746462
772.000000	34.795179
773.000000	34.845515
774.000000	34.896662
775.000000	34.946768
776.000000	34.993749
777.000000	35.043206
778.000000	35.091842
779.000000	35.139699
780.000000	35.187449
781.000000	35.234445
782.000000	35.285406
783.000000	35.334140
784.000000	35.381178
785.000000	35.429360
786.000000	35.477026
787.000000	35.523773
788.000000	35.565445
789.000000	35.602791
790.000000	35.643743
791.000000	35.689632
792.000000	35.735134
793.000000	35.779086
794.000000	35.821725
795.000000	35.866136
796.000000	35.909032
797.000000	35.950338
798.000000	35.990913
799.000000	36.033979
800.000000	36.082923
801.000000	36.128115
802.000000	36.172043
803.000000	36.215394
804.000000	36.260329
805.000000	36.304235
806.000000	36.346441
807.000000	36.389790
808.000000	36.433290
809.000000	36.477410
810.000000	36.519319
811.000000	36.564243
812.000000	36.603032
813.000000	36.644822
814.000000	36.679784
815.000000	36.715397
816.000000	36.752688
817.000000	36.788764
818.000000	36.828862
819.000000	36.869302
820.000000	36.910639
821.000000	36.948583
822.000000	36.987329
823.000000	37.028622
824.000000	37.069712
825.000000	37.106401
826.000000	37.137191
827.000000	37.173811
828.000000	37.214402
829.000000	37.255334
830.000000	37.289562
831.000000	37.315594
832.000000	37.356724
833.000000	37.391063
834.000000	37.425386
835.000000	37.450662
836.000000	37.476975
837.000000	37.496882
838.000000	37.528223
839.000000	37.557530
840.000000	37.586341
841.000000	37.609680
842.000000	37.623468
843.000000	37.642678
844.000000	37.670944
845.000000	37.696206
846.000000	37.724115
847.000000	37.756668
848.000000	37.775013
849.000000	37.809901
850.000000	37.833349
851.000000	37.857193
852.000000	37.884048
853.000000	37.898698
854.000000	37.919161
855.000000	37.932559
856.000000	37.962397
857.000000	37.951827
858.000000	37.933834
859.000000	37.917303
860.000000	37.950977
861.000000	37.950027
862.000000	37.889063
863.000000	37.878759
864.000000	37.867167
865.000000	37.858773
866.000000	37.815445
867.000000	37.787144
868.000000	37.783299
869.000000	37.758828
870.000000	37.746585
871.000000	37.717891
872.000000	37.690965
873.000000	37.667329
874.000000	37.665365
875.000000	37.656211
876.000000	37.655145
877.000000	37.674934
878.000000	37.652418
879.000000	37.641863
880.000000	37.659838
881.000000	37.651065
882.000000	37.665738
883.000000	37.690992
884.000000	37.700012
885.000000	37.700340
886.000000	37.710384
887.000000	37.677579
888.000000	37.676639
889.000000	37.655648
890.000000	37.680041
891.000000	37.667074
892.000000	37.700220
893.000000	37.730828
894.000000	37.774190
895.000000	37.753601
896.000000	37.767938
897.000000	37.788318
898.000000	37.802417
899.000000	37.816510
900.000000	37.803343
901.000000	37.867357
902.000000	37.874533
903.000000	37.858218
904.000000	37.884989
905.000000	37.902786
906.000000	37.897200
907.000000	37.929324
908.000000	37.976413
909.000000	37.984292
910.000000	37.988280
911.000000	37.998164
912.000000	37.972044
913.000000	38.005004
914.000000	38.029293
915.000000	37.977117
916.000000	37.995041
917.000000	37.993835
918.000000	37.940016
919.000000	37.904691
920.000000	37.924581
921.000000	37.912671
922.000000	37.914003
923.000000	37.909123
924.000000	37.912227
925.000000	37.896881
926.000000	37.898928
927.000000	37.891152
928.000000	37.899402
929.000000	37.882547
930.000000	37.864027
931.000000	37.838181
932.000000	37.883008
933.000000	37.888420
934.000000	37.927976
935.000000	37.945613
936.000000	37.906757
937.000000	37.892704
938.000000	37.921539
939.000000	37.915031
940.000000	37.950098
941.000000	37.991721
942.000000	37.988567
943.000000	37.985241
944.000000	37.993717
945.000000	37.969847
946.000000	37.952369
947.000000	37.986411
948.000000	37.998234
949.000000	37.970383
950.000000	37.998292
951.000000	37.995138
952.000000	37.980007
953.000000	38.023381
954.000000	38.064097
955.000000	38.080543
956.000000	38.122232
957.000000	38.151789
958.000000	38.149967
959.000000	38.152755
960.000000	38.132101
961.000000	38.085905
962.000000	38.095133
963.000000	38.075024
964.000000	38.076053
965.000000	38.118822
966.000000	38.117096
967.000000	38.090323
968.000000	38.066973
969.000000	38.016265
970.000000	38.043823
971.000000	38.066933
972.000000	38.089024
973.000000	38.078542
974.000000	38.082952
975.000000	38.039394
976.000000	37.993886
977.000000	37.975083
978.000000	37.926394
979.000000	37.883013
980.000000	37.901042
981.000000	37.905549
982.000000	37.880611
983.000000	37.844843
984.000000	37.851930
985.000000	37.861640
986.000000	37.838384
987.000000	37.837139
988.000000	37.819820
989.000000	37.784487
990.000000	37.732326
991.000000	37.675622
992.000000	37.677691
993.000000	37.696777
994.000000	37.708352
995.000000	37.709156
996.000000	37.742666
997.000000	37.711399
998.000000	37.743826
999.000000	37.773194
1000.000000	37.758019
1001.000000	37.790474
1002.000000	37.779451
1003.000000	37.761562
1004.000000	37.760386
1005.000000	37.730655
1006.000000	37.728090
1007.000000	37.719537
1008.000000	37.724916
1009.000000	37.722717
1010.000000	37.714342
1011.000000	37.727038
1012.000000	37.727616
1013.000000	37.754163
1014.000000	37.784875
1015.000000	37.781140
1016.000000	37.780043
1017.000000	37.797568
1018.000000	37.827906
1019.000000	37.825818
1020.000000	37.827384
1021.000000	37.861480
1022.000000	37.850674
1023.000000	37.852835
1024.000000	37.857650
1025.000000	37.846398
1026.000000	37.847997
1027.000000	37.855441
1028.000000	37.851357
1029.000000	37.847332
1030.000000	37.844166
1031.000000	37.826393
1032.000000	37.787822
1033.000000	37.712126
1034.000000	37.660992
1035.000000	37.637922
1036.000000	37.614123
1037.000000	37.629089
1038.000000	37.652929
1039.000000	37.660275
1040.000000	37.659091
1041.000000	37.647140
1042.000000	37.669580
1043.000000	37.687394
1044.000000	37.688473
1045.000000	37.690506
1046.000000	37.716186
1047.000000	37.760881
1048.000000	37.765680
1049.000000	37.734119
1050.000000	37.741548
1051.000000	37.746913
1052.000000	37.696509
1053.000000	37.653389
1054.000000	37.611483
1055.000000	37.575131
1056.000000	37.511228
1057.000000	37.492069
1058.000000	37.487681
1059.000000	37.477771
1060.000000	37.485934
1061.000000	37.476664
1062.000000	37.432596
1063.000000	37.394716
1064.000000	37.350111
1065.000000	37.342427
1066.000000	37.361161
1067.000000	37.404881
1068.000000	37.412994
1069.000000	37.400252
1070.000000	37.400111
1071.000000	37.409768
1072.000000	37.431457
1073.000000	37.396202
1074.000000	37.343913
1075.000000	37.337201
1076.000000	37.335886
1077.000000	37.279838
1078.000000	37.247515
1079.000000	37.213604
1080.000000	37.192036
1081.000000	37.173058
1082.000000	37.131103
1083.000000	37.126829
1084.000000	37.145094
1085.000000	37.109485
1086.000000	37.096956
1087.000000	37.130754
1088.000000	37.135080
1089.000000	37.139324
1090.000000	37.151502
1091.000000	37.168661
1092.000000	37.149606
1093.000000	37.107237
1094.000000	37.099754
1095.000000	37.098344
1096.000000	37.078322
1097.000000	37.050353
1098.000000	37.033647
1099.000000	37.057875
1100.000000	37.024204
1101.000000	36.991013
1102.000000	36.994458
1103.000000	36.985086
1104.000000	36.992856
1105.000000	36.970042
1106.000000	36.938023
1107.000000	36.903089
1108.000000	36.919727
1109.000000	36.942121
1110.000000	36.935335
1111.000000	36.939183
1112.000000	36.995019
1113.000000	36.996355
1114.000000	36.973300
1115.000000	36.967364
1116.000000	36.930622
1117.000000	36.929516
1118.000000	36.912634
1119.000000	36.883487
1120.000000	36.875596
1121.000000	36.804676
1122.000000	36.757791
1123.000000	36.716025
1124.000000	36.736862
1125.000000	36.647156
1126.000000	36.605229
1127.000000	36.623060
1128.000000	36.670130
1129.000000	36.622739
1130.000000	36.628455
1131.000000	36.635349
1132.000000	36.632858
1133.000000	36.641311
1134.000000	36.642519
1135.000000	36.645144
1136.000000	36.658179
1137.000000	36.626213
1138.000000	36.652768
1139.000000	36.634519
1140.000000	36.619489
1141.000000	36.582891
1142.000000	36.584086
1143.000000	36.535294
1144.000000	36.513428
1145.000000	36.467283
1146.000000	36.424349
1147.000000	36.374259
1148.000000	36.338021
1149.000000	36.345984
1150.000000	36.331054
1151.000000	36.353020
1152.000000	36.329771
1153.000000	36.330159
1154.000000	36.300970
1155.000000	36.322319
1156.000000	36.340301
1157.000000	36.327733
1158.000000	36.348936
1159.000000	36.300806
1160.000000	36.342622
1161.000000	36.332613
1162.000000	36.295356
1163.000000	36.274681
1164.000000	36.272756
1165.000000	36.217163
1166.000000	36.165472
1167.000000	36.134372
1168.000000	36.122114
1169.000000	36.044205
1170.000000	35.998216
1171.000000	35.952800
1172.000000	35.912223
1173.000000	35.884047
1174.000000	35.865455
1175.000000	35.809324
1176.000000	35.784117
1177.000000	35.747013
1178.000000	35.743502
1179.000000	35.753947
1180.000000	35.736217
1181.000000	35.733004
1182.000000	35.683247
1183.000000	35.662622
1184.000000	35.631561
1185.000000	35.600500
1186.000000	35.569690
1187.000000	35.529975
1188.000000	35.479342
1189.000000	35.453786
1190.000000	35.389357
1191.000000	35.368092
1192.000000	35.357465
1193.000000	35.316855
1194.000000	35.283796
1195.000000	35.280205
1196.000000	35.291162
1197.000000	35.274856
1198.000000	35.208039
1199.000000	35.181447
1200.000000	35.161179
1201.000000	35.166813
1202.000000	35.163080
