PE UV       SUBTECH     SPECTRUM    ASCII       PEDS        4.00        
   -1
C.CHRY.MV73-TX3.ASC
23/11/29
15:04:51.00
23/11/29
15:04:51.00
Vinicio Soto Monge
C. CHRYSARGYREA #73 MV23
250,000000
1
Lambda 1050
1050L1511233
PerkinElmer UV WinLab 6.3.2.0749 / 2.02.05 Lambda 900 UV/VIS/NIR, Aug  7 2015 09:38:08

0
0
3350/servo 860,8/2
0
0
UV/VIS
1
1
1
DoubleDePol,CommonBeamDepol,RBeamAtt,SBeamAtt,60mm sphere, WB InGaAs Detector
0
0
0
0
Program
Program
3350/servo 860,8/2
3350/0,4 860,8/0,4
3350/0,4 860,8/0,4
0
20.00
 
 
 
0
 
860,8
319,2
860,8
Front
100
on
S:100 R:100
0
0
0
0
 
0
 
 
 
0
 
 
0
0
0
0
0
 
 
 
 
0
0


0
0
#HDR
-1
-1
#GR
nm
%R
1.0
0.0
2200,000000
-1,000000
1951
8
71,423533
0,110484
#DATA
284.000000	5.958056
285.000000	5.942990
286.000000	5.930074
287.000000	5.919476
288.000000	5.906618
289.000000	5.893783
290.000000	5.884531
291.000000	5.874385
292.000000	5.866737
293.000000	5.862051
294.000000	5.858026
295.000000	5.853685
296.000000	5.849071
297.000000	5.845334
298.000000	5.841614
299.000000	5.837247
300.000000	5.834266
301.000000	5.832232
302.000000	5.830147
303.000000	5.826948
304.000000	5.823632
305.000000	5.820815
306.000000	5.818082
307.000000	5.816507
308.000000	5.813925
309.000000	5.810788
310.000000	5.810304
311.000000	5.809113
312.000000	5.809028
313.000000	5.807903
314.000000	5.806464
315.000000	5.803477
316.000000	5.798893
317.000000	5.784812
318.000000	5.774688
319.000000	5.768389
320.000000	5.759827
321.000000	5.749767
322.000000	5.742026
323.000000	5.735057
324.000000	5.734661
325.000000	5.734518
326.000000	5.729859
327.000000	5.727998
328.000000	5.724763
329.000000	5.723499
330.000000	5.721864
331.000000	5.720133
332.000000	5.718314
333.000000	5.719390
334.000000	5.725370
335.000000	5.732183
336.000000	5.741394
337.000000	5.752860
338.000000	5.765175
339.000000	5.778201
340.000000	5.794494
341.000000	5.813853
342.000000	5.834579
343.000000	5.857630
344.000000	5.886741
345.000000	5.917166
346.000000	5.954291
347.000000	5.991516
348.000000	6.032141
349.000000	6.079410
350.000000	6.132637
351.000000	6.191901
352.000000	6.266633
353.000000	6.345426
354.000000	6.428093
355.000000	6.522359
356.000000	6.626786
357.000000	6.737948
358.000000	6.860012
359.000000	6.985804
360.000000	7.122385
361.000000	7.277104
362.000000	7.442223
363.000000	7.622350
364.000000	7.816516
365.000000	8.026773
366.000000	8.253919
367.000000	8.499506
368.000000	8.761350
369.000000	9.039139
370.000000	9.333339
371.000000	9.647455
372.000000	9.979624
373.000000	10.332848
374.000000	10.705252
375.000000	11.096092
376.000000	11.514855
377.000000	11.973574
378.000000	12.451975
379.000000	12.947153
380.000000	13.460058
381.000000	13.988905
382.000000	14.537322
383.000000	15.102219
384.000000	15.680318
385.000000	16.271701
386.000000	16.876502
387.000000	17.491095
388.000000	18.114505
389.000000	18.745815
390.000000	19.381538
391.000000	20.021719
392.000000	20.666897
393.000000	21.314160
394.000000	21.962922
395.000000	22.609546
396.000000	23.251713
397.000000	23.889017
398.000000	24.520352
399.000000	25.144282
400.000000	25.760440
401.000000	26.366783
402.000000	26.959913
403.000000	27.539299
404.000000	28.104574
405.000000	28.655505
406.000000	29.187951
407.000000	29.703328
408.000000	30.200870
409.000000	30.679744
410.000000	31.138897
411.000000	31.568747
412.000000	31.956297
413.000000	32.321900
414.000000	32.665279
415.000000	32.985907
416.000000	33.282521
417.000000	33.555392
418.000000	33.805532
419.000000	34.033893
420.000000	34.239920
421.000000	34.423683
422.000000	34.586654
423.000000	34.728367
424.000000	34.849573
425.000000	34.952461
426.000000	35.036189
427.000000	35.101485
428.000000	35.150023
429.000000	35.183487
430.000000	35.204437
431.000000	35.214241
432.000000	35.213510
433.000000	35.204336
434.000000	35.187712
435.000000	35.165976
436.000000	35.142109
437.000000	35.116603
438.000000	35.090078
439.000000	35.062560
440.000000	35.037121
441.000000	35.013928
442.000000	34.992702
443.000000	34.973481
444.000000	34.956190
445.000000	34.941460
446.000000	34.929012
447.000000	34.917934
448.000000	34.908315
449.000000	34.900135
450.000000	34.892336
451.000000	34.885587
452.000000	34.879717
453.000000	34.873690
454.000000	34.866593
455.000000	34.858597
456.000000	34.848316
457.000000	34.836261
458.000000	34.822090
459.000000	34.806261
460.000000	34.787565
461.000000	34.765089
462.000000	34.739515
463.000000	34.710508
464.000000	34.677379
465.000000	34.639746
466.000000	34.597653
467.000000	34.551101
468.000000	34.499795
469.000000	34.444492
470.000000	34.384957
471.000000	34.320194
472.000000	34.251162
473.000000	34.179772
474.000000	34.106629
475.000000	34.031013
476.000000	33.953775
477.000000	33.875286
478.000000	33.796397
479.000000	33.717643
480.000000	33.637225
481.000000	33.555909
482.000000	33.474101
483.000000	33.391452
484.000000	33.307770
485.000000	33.223427
486.000000	33.137870
487.000000	33.050439
488.000000	32.961022
489.000000	32.870755
490.000000	32.778270
491.000000	32.684939
492.000000	32.591190
493.000000	32.496985
494.000000	32.402670
495.000000	32.309213
496.000000	32.217936
497.000000	32.128623
498.000000	32.043517
499.000000	31.963753
500.000000	31.889849
501.000000	31.822723
502.000000	31.763824
503.000000	31.713976
504.000000	31.673354
505.000000	31.642092
506.000000	31.620405
507.000000	31.608159
508.000000	31.605113
509.000000	31.610647
510.000000	31.623769
511.000000	31.643057
512.000000	31.668635
513.000000	31.699606
514.000000	31.735611
515.000000	31.777280
516.000000	31.822507
517.000000	31.873587
518.000000	31.929989
519.000000	31.992716
520.000000	32.062787
521.000000	32.142268
522.000000	32.231961
523.000000	32.333116
524.000000	32.446666
525.000000	32.576320
526.000000	32.722844
527.000000	32.888539
528.000000	33.076812
529.000000	33.289185
530.000000	33.527883
531.000000	33.794130
532.000000	34.088936
533.000000	34.411031
534.000000	34.760308
535.000000	35.135058
536.000000	35.532131
537.000000	35.947068
538.000000	36.375924
539.000000	36.813648
540.000000	37.256138
541.000000	37.699824
542.000000	38.141626
543.000000	38.578391
544.000000	39.008549
545.000000	39.431325
546.000000	39.846491
547.000000	40.254140
548.000000	40.652890
549.000000	41.044028
550.000000	41.427210
551.000000	41.805418
552.000000	42.177568
553.000000	42.546104
554.000000	42.910085
555.000000	43.270134
556.000000	43.625559
557.000000	43.976912
558.000000	44.323686
559.000000	44.665021
560.000000	45.000944
561.000000	45.329620
562.000000	45.646213
563.000000	45.950319
564.000000	46.239661
565.000000	46.511566
566.000000	46.763277
567.000000	46.993193
568.000000	47.200394
569.000000	47.383569
570.000000	47.543147
571.000000	47.680255
572.000000	47.797872
573.000000	47.898394
574.000000	47.984980
575.000000	48.060451
576.000000	48.127004
577.000000	48.187635
578.000000	48.243681
579.000000	48.296484
580.000000	48.347510
581.000000	48.395781
582.000000	48.442969
583.000000	48.490775
584.000000	48.539615
585.000000	48.590394
586.000000	48.641344
587.000000	48.692428
588.000000	48.741328
589.000000	48.789630
590.000000	48.834724
591.000000	48.876904
592.000000	48.916731
593.000000	48.952257
594.000000	48.982777
595.000000	49.006325
596.000000	49.023762
597.000000	49.035969
598.000000	49.042603
599.000000	49.041581
600.000000	49.032025
601.000000	49.015975
602.000000	48.991792
603.000000	48.959667
604.000000	48.918654
605.000000	48.869089
606.000000	48.810640
607.000000	48.742336
608.000000	48.663759
609.000000	48.572976
610.000000	48.470937
611.000000	48.357786
612.000000	48.234809
613.000000	48.101957
614.000000	47.961118
615.000000	47.814216
616.000000	47.664297
617.000000	47.511045
618.000000	47.356462
619.000000	47.198849
620.000000	47.040894
621.000000	46.881706
622.000000	46.720821
623.000000	46.557916
624.000000	46.391160
625.000000	46.222610
626.000000	46.051361
627.000000	45.876164
628.000000	45.698109
629.000000	45.520044
630.000000	45.342219
631.000000	45.164652
632.000000	44.987239
633.000000	44.811150
634.000000	44.635848
635.000000	44.463619
636.000000	44.294564
637.000000	44.131526
638.000000	43.972177
639.000000	43.819948
640.000000	43.675064
641.000000	43.538549
642.000000	43.411264
643.000000	43.296068
644.000000	43.192764
645.000000	43.101323
646.000000	43.022709
647.000000	42.954427
648.000000	42.896204
649.000000	42.844383
650.000000	42.797451
651.000000	42.751448
652.000000	42.704579
653.000000	42.656476
654.000000	42.609163
655.000000	42.559550
656.000000	42.509476
657.000000	42.459760
658.000000	42.413666
659.000000	42.372468
660.000000	42.337180
661.000000	42.308102
662.000000	42.284138
663.000000	42.268286
664.000000	42.256241
665.000000	42.249595
666.000000	42.247513
667.000000	42.251873
668.000000	42.259277
669.000000	42.274150
670.000000	42.296865
671.000000	42.324140
672.000000	42.356430
673.000000	42.395919
674.000000	42.439475
675.000000	42.487357
676.000000	42.539589
677.000000	42.595551
678.000000	42.652588
679.000000	42.711432
680.000000	42.772648
681.000000	42.834663
682.000000	42.897932
683.000000	42.963967
684.000000	43.034623
685.000000	43.109368
686.000000	43.190593
687.000000	43.278988
688.000000	43.371721
689.000000	43.470079
690.000000	43.573834
691.000000	43.684223
692.000000	43.799776
693.000000	43.918897
694.000000	44.040833
695.000000	44.164350
696.000000	44.290576
697.000000	44.419824
698.000000	44.552830
699.000000	44.692430
700.000000	44.836118
701.000000	44.984230
702.000000	45.134869
703.000000	45.288643
704.000000	45.445358
705.000000	45.603961
706.000000	45.765078
707.000000	45.926509
708.000000	46.088935
709.000000	46.252824
710.000000	46.418236
711.000000	46.586178
712.000000	46.754036
713.000000	46.921731
714.000000	47.094704
715.000000	47.269364
716.000000	47.445366
717.000000	47.623335
718.000000	47.802986
719.000000	47.981716
720.000000	48.161936
721.000000	48.342776
722.000000	48.523159
723.000000	48.705638
724.000000	48.886447
725.000000	49.066878
726.000000	49.247299
727.000000	49.426754
728.000000	49.605709
729.000000	49.784209
730.000000	49.964418
731.000000	50.145431
732.000000	50.327947
733.000000	50.509083
734.000000	50.687146
735.000000	50.862103
736.000000	51.037547
737.000000	51.212414
738.000000	51.385315
739.000000	51.555234
740.000000	51.722301
741.000000	51.886833
742.000000	52.049072
743.000000	52.210454
744.000000	52.370753
745.000000	52.528388
746.000000	52.683636
747.000000	52.837609
748.000000	52.991847
749.000000	53.141151
750.000000	53.287045
751.000000	53.433857
752.000000	53.580821
753.000000	53.727888
754.000000	53.874023
755.000000	54.016312
756.000000	54.155824
757.000000	54.292079
758.000000	54.423885
759.000000	54.551344
760.000000	54.676106
761.000000	54.797754
762.000000	54.918378
763.000000	55.036183
764.000000	55.152878
765.000000	55.266418
766.000000	55.377834
767.000000	55.484051
768.000000	55.587459
769.000000	55.689619
770.000000	55.790073
771.000000	55.887631
772.000000	55.984934
773.000000	56.082132
774.000000	56.175791
775.000000	56.266306
776.000000	56.352524
777.000000	56.438425
778.000000	56.520516
779.000000	56.601357
780.000000	56.681304
781.000000	56.757527
782.000000	56.832380
783.000000	56.905495
784.000000	56.977080
785.000000	57.046753
786.000000	57.113309
787.000000	57.178192
788.000000	57.237530
789.000000	57.292980
790.000000	57.351137
791.000000	57.410942
792.000000	57.469900
793.000000	57.528168
794.000000	57.585133
795.000000	57.641352
796.000000	57.696844
797.000000	57.751493
798.000000	57.805180
799.000000	57.857918
800.000000	57.913136
801.000000	57.962296
802.000000	58.013868
803.000000	58.064400
804.000000	58.112957
805.000000	58.162627
806.000000	58.209795
807.000000	58.255854
808.000000	58.302770
809.000000	58.354663
810.000000	58.402760
811.000000	58.458310
812.000000	58.509536
813.000000	58.565594
814.000000	58.617068
815.000000	58.665794
816.000000	58.713428
817.000000	58.763614
818.000000	58.809939
819.000000	58.852813
820.000000	58.898444
821.000000	58.944417
822.000000	58.987090
823.000000	59.028967
824.000000	59.072548
825.000000	59.109630
826.000000	59.146061
827.000000	59.184702
828.000000	59.230030
829.000000	59.276278
830.000000	59.317026
831.000000	59.352138
832.000000	59.391012
833.000000	59.432233
834.000000	59.474213
835.000000	59.510607
836.000000	59.543692
837.000000	59.568142
838.000000	59.597877
839.000000	59.622259
840.000000	59.651532
841.000000	59.676487
842.000000	59.697547
843.000000	59.713049
844.000000	59.730004
845.000000	59.752016
846.000000	59.762195
847.000000	59.783631
848.000000	59.794214
849.000000	59.805562
850.000000	59.815426
851.000000	59.834415
852.000000	59.845606
853.000000	59.857330
854.000000	59.873361
855.000000	59.888163
856.000000	59.911391
857.000000	59.899882
858.000000	59.841668
859.000000	59.859241
860.000000	59.887030
861.000000	59.908819
862.000000	59.905301
863.000000	59.924387
864.000000	59.926861
865.000000	59.951546
866.000000	59.959604
867.000000	59.976194
868.000000	59.980051
869.000000	59.992125
870.000000	59.998542
871.000000	60.016424
872.000000	60.013434
873.000000	60.013958
874.000000	60.016228
875.000000	60.016814
876.000000	60.001087
877.000000	59.987056
878.000000	60.010417
879.000000	60.030887
880.000000	60.021662
881.000000	59.997681
882.000000	59.982207
883.000000	59.970162
884.000000	59.963794
885.000000	59.937279
886.000000	59.919911
887.000000	59.883722
888.000000	59.853566
889.000000	59.835948
890.000000	59.813995
891.000000	59.758980
892.000000	59.703441
893.000000	59.689174
894.000000	59.630525
895.000000	59.543450
896.000000	59.453941
897.000000	59.346807
898.000000	59.226244
899.000000	59.125610
900.000000	58.999176
901.000000	58.905887
902.000000	58.765197
903.000000	58.624628
904.000000	58.466245
905.000000	58.326272
906.000000	58.160453
907.000000	58.031451
908.000000	57.901069
909.000000	57.760228
910.000000	57.566934
911.000000	57.397465
912.000000	57.196336
913.000000	56.974538
914.000000	56.751805
915.000000	56.552109
916.000000	56.368441
917.000000	56.163260
918.000000	55.936349
919.000000	55.683865
920.000000	55.461682
921.000000	55.216681
922.000000	54.988321
923.000000	54.750513
924.000000	54.487770
925.000000	54.214299
926.000000	53.951547
927.000000	53.713367
928.000000	53.477341
929.000000	53.203849
930.000000	52.924658
931.000000	52.653790
932.000000	52.418100
933.000000	52.152279
934.000000	51.900151
935.000000	51.608774
936.000000	51.315322
937.000000	51.045337
938.000000	50.756405
939.000000	50.453660
940.000000	50.170582
941.000000	49.891023
942.000000	49.612651
943.000000	49.325592
944.000000	49.037793
945.000000	48.772313
946.000000	48.520952
947.000000	48.306986
948.000000	48.046426
949.000000	47.738333
950.000000	47.457839
951.000000	47.179437
952.000000	46.897864
953.000000	46.651044
954.000000	46.421616
955.000000	46.179237
956.000000	45.946852
957.000000	45.702939
958.000000	45.443689
959.000000	45.198031
960.000000	44.966692
961.000000	44.706909
962.000000	44.484506
963.000000	44.251352
964.000000	44.039391
965.000000	43.832034
966.000000	43.600018
967.000000	43.382556
968.000000	43.176826
969.000000	42.947742
970.000000	42.769600
971.000000	42.582667
972.000000	42.411821
973.000000	42.269214
974.000000	42.146754
975.000000	41.967732
976.000000	41.793051
977.000000	41.606770
978.000000	41.413422
979.000000	41.238978
980.000000	41.104620
981.000000	40.949061
982.000000	40.770291
983.000000	40.627806
984.000000	40.531636
985.000000	40.416397
986.000000	40.304222
987.000000	40.193140
988.000000	40.065989
989.000000	39.966963
990.000000	39.858266
991.000000	39.727139
992.000000	39.641483
993.000000	39.573676
994.000000	39.490018
995.000000	39.395843
996.000000	39.329295
997.000000	39.245464
998.000000	39.203141
999.000000	39.141853
1000.000000	39.083009
1001.000000	39.048782
1002.000000	39.002141
1003.000000	38.947151
1004.000000	38.902529
1005.000000	38.860674
1006.000000	38.802967
1007.000000	38.717309
1008.000000	38.664625
1009.000000	38.608437
1010.000000	38.556485
1011.000000	38.522036
1012.000000	38.491535
1013.000000	38.460278
1014.000000	38.422513
1015.000000	38.387200
1016.000000	38.345809
1017.000000	38.330776
1018.000000	38.328007
1019.000000	38.310982
1020.000000	38.274010
1021.000000	38.258941
1022.000000	38.238002
1023.000000	38.194373
1024.000000	38.134189
1025.000000	38.086721
1026.000000	38.060744
1027.000000	38.038732
1028.000000	38.003629
1029.000000	37.954767
1030.000000	37.916474
1031.000000	37.898031
1032.000000	37.865251
1033.000000	37.809073
1034.000000	37.755661
1035.000000	37.733133
1036.000000	37.716004
1037.000000	37.681795
1038.000000	37.666008
1039.000000	37.660855
1040.000000	37.640768
1041.000000	37.640972
1042.000000	37.660097
1043.000000	37.647173
1044.000000	37.652164
1045.000000	37.658461
1046.000000	37.651185
1047.000000	37.658018
1048.000000	37.662375
1049.000000	37.638305
1050.000000	37.606402
1051.000000	37.615900
1052.000000	37.601570
1053.000000	37.556767
1054.000000	37.538165
1055.000000	37.519651
1056.000000	37.470741
1057.000000	37.437446
1058.000000	37.447316
1059.000000	37.447626
1060.000000	37.454362
1061.000000	37.446340
1062.000000	37.404111
1063.000000	37.390648
1064.000000	37.406679
1065.000000	37.411042
1066.000000	37.415995
1067.000000	37.450149
1068.000000	37.437799
1069.000000	37.435911
1070.000000	37.437398
1071.000000	37.437981
1072.000000	37.467822
1073.000000	37.458560
1074.000000	37.433256
1075.000000	37.424041
1076.000000	37.403363
1077.000000	37.378482
1078.000000	37.368092
1079.000000	37.321422
1080.000000	37.288345
1081.000000	37.293869
1082.000000	37.237857
1083.000000	37.251905
1084.000000	37.302954
1085.000000	37.314801
1086.000000	37.287583
1087.000000	37.292509
1088.000000	37.284964
1089.000000	37.273933
1090.000000	37.288921
1091.000000	37.300276
1092.000000	37.280049
1093.000000	37.257838
1094.000000	37.267543
1095.000000	37.290692
1096.000000	37.275699
1097.000000	37.287387
1098.000000	37.271454
1099.000000	37.250552
1100.000000	37.237793
1101.000000	37.243078
1102.000000	37.214294
1103.000000	37.227128
1104.000000	37.218899
1105.000000	37.185231
1106.000000	37.151113
1107.000000	37.115301
1108.000000	37.100165
1109.000000	37.080285
1110.000000	37.071057
1111.000000	37.053509
1112.000000	37.077258
1113.000000	37.084071
1114.000000	37.101302
1115.000000	37.118629
1116.000000	37.089333
1117.000000	37.119705
1118.000000	37.082813
1119.000000	37.041628
1120.000000	37.044059
1121.000000	37.050876
1122.000000	37.051690
1123.000000	37.062153
1124.000000	37.071728
1125.000000	37.039472
1126.000000	37.005903
1127.000000	37.067149
1128.000000	37.109880
1129.000000	37.094179
1130.000000	37.024841
1131.000000	37.008162
1132.000000	36.990691
1133.000000	37.007925
1134.000000	37.041815
1135.000000	37.019740
1136.000000	36.994769
1137.000000	36.978899
1138.000000	36.977181
1139.000000	36.976529
1140.000000	36.986647
1141.000000	36.953009
1142.000000	36.937686
1143.000000	36.942904
1144.000000	36.951003
1145.000000	36.917203
1146.000000	36.940496
1147.000000	36.908700
1148.000000	36.858993
1149.000000	36.837151
1150.000000	36.804114
1151.000000	36.790339
1152.000000	36.768120
1153.000000	36.737412
1154.000000	36.708789
1155.000000	36.674240
1156.000000	36.646356
1157.000000	36.612783
1158.000000	36.591906
1159.000000	36.510106
1160.000000	36.488908
1161.000000	36.490918
1162.000000	36.404129
1163.000000	36.344181
1164.000000	36.311997
1165.000000	36.337489
1166.000000	36.330779
1167.000000	36.308571
1168.000000	36.279416
1169.000000	36.213303
1170.000000	36.178863
1171.000000	36.159561
1172.000000	36.137350
1173.000000	36.103016
1174.000000	36.080688
1175.000000	36.030257
1176.000000	36.026022
1177.000000	35.999706
1178.000000	35.946186
1179.000000	35.936189
1180.000000	35.930598
1181.000000	35.888597
1182.000000	35.891673
1183.000000	35.917172
1184.000000	35.898320
1185.000000	35.879028
1186.000000	35.857813
1187.000000	35.817856
1188.000000	35.822918
1189.000000	35.800014
1190.000000	35.761510
1191.000000	35.702118
1192.000000	35.676876
1193.000000	35.673294
1194.000000	35.668921
1195.000000	35.658931
1196.000000	35.623727
