PE UV       SUBTECH     SPECTRUM    ASCII       PEDS        4.00        
   -1
S.SIGN.PREG-TX3.ASC
23/11/30
12:52:28.00
23/11/30
12:52:28.00
Vinicio Soto Monge
STRIGIDIA 2
250,000000
1
Lambda 1050
1050L1511233
PerkinElmer UV WinLab 6.3.2.0749 / 2.02.05 Lambda 900 UV/VIS/NIR, Aug  7 2015 09:38:08

0
0
3350/servo 860,8/2
0
0
UV/VIS
1
1
1
DoubleDePol,CommonBeamDepol,RBeamAtt,SBeamAtt,60mm sphere, WB InGaAs Detector
0
0
0
0
Program
Program
3350/servo 860,8/2
3350/0,4 860,8/0,4
3350/0,4 860,8/0,4
0
20.00
 
 
 
0
 
860,8
319,2
860,8
Front
100
on
S:100 R:100
0
0
0
0
 
0
 
 
 
0
 
 
0
0
0
0
0
 
 
 
 
0
0


0
0
#HDR
-1
-1
#GR
nm
%R
1.0
0.0
2200,000000
-1,000000
1951
8
76,413974
0,594114
#DATA
284.000000	7.146263
285.000000	7.139752
286.000000	7.132908
287.000000	7.128198
288.000000	7.124944
289.000000	7.121763
290.000000	7.119397
291.000000	7.117084
292.000000	7.115338
293.000000	7.113663
294.000000	7.114060
295.000000	7.114160
296.000000	7.115599
297.000000	7.117675
298.000000	7.122370
299.000000	7.127341
300.000000	7.132198
301.000000	7.137794
302.000000	7.144992
303.000000	7.153801
304.000000	7.162128
305.000000	7.168778
306.000000	7.176930
307.000000	7.184010
308.000000	7.191734
309.000000	7.197529
310.000000	7.207134
311.000000	7.215464
312.000000	7.221597
313.000000	7.228772
314.000000	7.236067
315.000000	7.242686
316.000000	7.250513
317.000000	7.260049
318.000000	7.269470
319.000000	7.276565
320.000000	7.286661
321.000000	7.295195
322.000000	7.303823
323.000000	7.309607
324.000000	7.317109
325.000000	7.321254
326.000000	7.326012
327.000000	7.329929
328.000000	7.333619
329.000000	7.333780
330.000000	7.337404
331.000000	7.336472
332.000000	7.334368
333.000000	7.333565
334.000000	7.330102
335.000000	7.325797
336.000000	7.322541
337.000000	7.320776
338.000000	7.319787
339.000000	7.315903
340.000000	7.312338
341.000000	7.307996
342.000000	7.306041
343.000000	7.302770
344.000000	7.302664
345.000000	7.298704
346.000000	7.296699
347.000000	7.296113
348.000000	7.292639
349.000000	7.289367
350.000000	7.287703
351.000000	7.285787
352.000000	7.278905
353.000000	7.272191
354.000000	7.268498
355.000000	7.260725
356.000000	7.255658
357.000000	7.248484
358.000000	7.245566
359.000000	7.243327
360.000000	7.241556
361.000000	7.237745
362.000000	7.233933
363.000000	7.232034
364.000000	7.231744
365.000000	7.228305
366.000000	7.228242
367.000000	7.228565
368.000000	7.226213
369.000000	7.223303
370.000000	7.219962
371.000000	7.216303
372.000000	7.211489
373.000000	7.204850
374.000000	7.202175
375.000000	7.198803
376.000000	7.193761
377.000000	7.187940
378.000000	7.182840
379.000000	7.176815
380.000000	7.171822
381.000000	7.165660
382.000000	7.159684
383.000000	7.154544
384.000000	7.148476
385.000000	7.141254
386.000000	7.134145
387.000000	7.129300
388.000000	7.124343
389.000000	7.118140
390.000000	7.111873
391.000000	7.105867
392.000000	7.101014
393.000000	7.094875
394.000000	7.086666
395.000000	7.080324
396.000000	7.075785
397.000000	7.072228
398.000000	7.067048
399.000000	7.061335
400.000000	7.055820
401.000000	7.051142
402.000000	7.046561
403.000000	7.042038
404.000000	7.040053
405.000000	7.039662
406.000000	7.037707
407.000000	7.035788
408.000000	7.033607
409.000000	7.030497
410.000000	7.029155
411.000000	7.029010
412.000000	7.027316
413.000000	7.025734
414.000000	7.024515
415.000000	7.023321
416.000000	7.021958
417.000000	7.020692
418.000000	7.019732
419.000000	7.019476
420.000000	7.019569
421.000000	7.019890
422.000000	7.020003
423.000000	7.020251
424.000000	7.020913
425.000000	7.021846
426.000000	7.022752
427.000000	7.023433
428.000000	7.024628
429.000000	7.026412
430.000000	7.027720
431.000000	7.028940
432.000000	7.030441
433.000000	7.032332
434.000000	7.034298
435.000000	7.036542
436.000000	7.038493
437.000000	7.040325
438.000000	7.042581
439.000000	7.045174
440.000000	7.047911
441.000000	7.050712
442.000000	7.053195
443.000000	7.055794
444.000000	7.058761
445.000000	7.061774
446.000000	7.065152
447.000000	7.068951
448.000000	7.073080
449.000000	7.077136
450.000000	7.081047
451.000000	7.085350
452.000000	7.090137
453.000000	7.094930
454.000000	7.099733
455.000000	7.104080
456.000000	7.108485
457.000000	7.113235
458.000000	7.118344
459.000000	7.123646
460.000000	7.128956
461.000000	7.134487
462.000000	7.140491
463.000000	7.146530
464.000000	7.152398
465.000000	7.158831
466.000000	7.165550
467.000000	7.172473
468.000000	7.179405
469.000000	7.186904
470.000000	7.194894
471.000000	7.203078
472.000000	7.211737
473.000000	7.220597
474.000000	7.229810
475.000000	7.239412
476.000000	7.249853
477.000000	7.261300
478.000000	7.273425
479.000000	7.286186
480.000000	7.298906
481.000000	7.311020
482.000000	7.322902
483.000000	7.335301
484.000000	7.348451
485.000000	7.362555
486.000000	7.377833
487.000000	7.394273
488.000000	7.412090
489.000000	7.431345
490.000000	7.452646
491.000000	7.475562
492.000000	7.500464
493.000000	7.527484
494.000000	7.556696
495.000000	7.588123
496.000000	7.621980
497.000000	7.657986
498.000000	7.696253
499.000000	7.736786
500.000000	7.779248
501.000000	7.823710
502.000000	7.870317
503.000000	7.919402
504.000000	7.970606
505.000000	8.023995
506.000000	8.080056
507.000000	8.138444
508.000000	8.199551
509.000000	8.263565
510.000000	8.330584
511.000000	8.400846
512.000000	8.474328
513.000000	8.551493
514.000000	8.633016
515.000000	8.719676
516.000000	8.812597
517.000000	8.911979
518.000000	9.017805
519.000000	9.130335
520.000000	9.249927
521.000000	9.377532
522.000000	9.513566
523.000000	9.657768
524.000000	9.809846
525.000000	9.969630
526.000000	10.137041
527.000000	10.311452
528.000000	10.492222
529.000000	10.678743
530.000000	10.869961
531.000000	11.065507
532.000000	11.264493
533.000000	11.465452
534.000000	11.668019
535.000000	11.871127
536.000000	12.074496
537.000000	12.277127
538.000000	12.477688
539.000000	12.676338
540.000000	12.872349
541.000000	13.065255
542.000000	13.255339
543.000000	13.441456
544.000000	13.622536
545.000000	13.799239
546.000000	13.971174
547.000000	14.138160
548.000000	14.299942
549.000000	14.454733
550.000000	14.602764
551.000000	14.743373
552.000000	14.876498
553.000000	15.001220
554.000000	15.117355
555.000000	15.224101
556.000000	15.320858
557.000000	15.407045
558.000000	15.482575
559.000000	15.548517
560.000000	15.605544
561.000000	15.652937
562.000000	15.690948
563.000000	15.720339
564.000000	15.741003
565.000000	15.754882
566.000000	15.762640
567.000000	15.764822
568.000000	15.763198
569.000000	15.757236
570.000000	15.749623
571.000000	15.740024
572.000000	15.729264
573.000000	15.718481
574.000000	15.708481
575.000000	15.699449
576.000000	15.691433
577.000000	15.684185
578.000000	15.679066
579.000000	15.676812
580.000000	15.676423
581.000000	15.677781
582.000000	15.680974
583.000000	15.686083
584.000000	15.693789
585.000000	15.704170
586.000000	15.716984
587.000000	15.731892
588.000000	15.748949
589.000000	15.768447
590.000000	15.790070
591.000000	15.813567
592.000000	15.838742
593.000000	15.866277
594.000000	15.894712
595.000000	15.922875
596.000000	15.952100
597.000000	15.982776
598.000000	16.013907
599.000000	16.045693
600.000000	16.078521
601.000000	16.111551
602.000000	16.145633
603.000000	16.179076
604.000000	16.214281
605.000000	16.249075
606.000000	16.284916
607.000000	16.321070
608.000000	16.357630
609.000000	16.393457
610.000000	16.428977
611.000000	16.464939
612.000000	16.501631
613.000000	16.538187
614.000000	16.574241
615.000000	16.610755
616.000000	16.646643
617.000000	16.682550
618.000000	16.717893
619.000000	16.753117
620.000000	16.787919
621.000000	16.822411
622.000000	16.857780
623.000000	16.893260
624.000000	16.928310
625.000000	16.962732
626.000000	16.997660
627.000000	17.033003
628.000000	17.067251
629.000000	17.101882
630.000000	17.137929
631.000000	17.175216
632.000000	17.211994
633.000000	17.249510
634.000000	17.288695
635.000000	17.327415
636.000000	17.367439
637.000000	17.407544
638.000000	17.448788
639.000000	17.489184
640.000000	17.530916
641.000000	17.572980
642.000000	17.615199
643.000000	17.658184
644.000000	17.701708
645.000000	17.745566
646.000000	17.789074
647.000000	17.833740
648.000000	17.879241
649.000000	17.925681
650.000000	17.971560
651.000000	18.019294
652.000000	18.069031
653.000000	18.120060
654.000000	18.172644
655.000000	18.226369
656.000000	18.280532
657.000000	18.333763
658.000000	18.387728
659.000000	18.443162
660.000000	18.500606
661.000000	18.557633
662.000000	18.614639
663.000000	18.673278
664.000000	18.732634
665.000000	18.792088
666.000000	18.851057
667.000000	18.910276
668.000000	18.971054
669.000000	19.031806
670.000000	19.093975
671.000000	19.155034
672.000000	19.217293
673.000000	19.279913
674.000000	19.343670
675.000000	19.406464
676.000000	19.469046
677.000000	19.532492
678.000000	19.595663
679.000000	19.659072
680.000000	19.724461
681.000000	19.790798
682.000000	19.856093
683.000000	19.919638
684.000000	19.983515
685.000000	20.048634
686.000000	20.112348
687.000000	20.175431
688.000000	20.238401
689.000000	20.302058
690.000000	20.365849
691.000000	20.428871
692.000000	20.493522
693.000000	20.557546
694.000000	20.619812
695.000000	20.681619
696.000000	20.745356
697.000000	20.809645
698.000000	20.873212
699.000000	20.936813
700.000000	20.999213
701.000000	21.061328
702.000000	21.124721
703.000000	21.186172
704.000000	21.248133
705.000000	21.310138
706.000000	21.371999
707.000000	21.433273
708.000000	21.496385
709.000000	21.559420
710.000000	21.623035
711.000000	21.687049
712.000000	21.750940
713.000000	21.814030
714.000000	21.878662
715.000000	21.942623
716.000000	22.006390
717.000000	22.070208
718.000000	22.134534
719.000000	22.197893
720.000000	22.261959
721.000000	22.326220
722.000000	22.389214
723.000000	22.453244
724.000000	22.516152
725.000000	22.577899
726.000000	22.641999
727.000000	22.705319
728.000000	22.769179
729.000000	22.832834
730.000000	22.898411
731.000000	22.964291
732.000000	23.027051
733.000000	23.089647
734.000000	23.152676
735.000000	23.217189
736.000000	23.283919
737.000000	23.348700
738.000000	23.413885
739.000000	23.478306
740.000000	23.542122
741.000000	23.607326
742.000000	23.672849
743.000000	23.737055
744.000000	23.800314
745.000000	23.863413
746.000000	23.926137
747.000000	23.987168
748.000000	24.051824
749.000000	24.115188
750.000000	24.177032
751.000000	24.239543
752.000000	24.299767
753.000000	24.360323
754.000000	24.422379
755.000000	24.487353
756.000000	24.553894
757.000000	24.619128
758.000000	24.683076
759.000000	24.745260
760.000000	24.806900
761.000000	24.869017
762.000000	24.931948
763.000000	24.996152
764.000000	25.062270
765.000000	25.126554
766.000000	25.186992
767.000000	25.247922
768.000000	25.309427
769.000000	25.372411
770.000000	25.432983
771.000000	25.492757
772.000000	25.554942
773.000000	25.616670
774.000000	25.678785
775.000000	25.740684
776.000000	25.802896
777.000000	25.866381
778.000000	25.926150
779.000000	25.984153
780.000000	26.044163
781.000000	26.101630
782.000000	26.162693
783.000000	26.219527
784.000000	26.277327
785.000000	26.340948
786.000000	26.403940
787.000000	26.467094
788.000000	26.526966
789.000000	26.589965
790.000000	26.648351
791.000000	26.706774
792.000000	26.765238
793.000000	26.822672
794.000000	26.883007
795.000000	26.941807
796.000000	27.004493
797.000000	27.066644
798.000000	27.122885
799.000000	27.179706
800.000000	27.233766
801.000000	27.289660
802.000000	27.350474
803.000000	27.411688
804.000000	27.470242
805.000000	27.532129
806.000000	27.588897
807.000000	27.646932
808.000000	27.705483
809.000000	27.765566
810.000000	27.823933
811.000000	27.882644
812.000000	27.938234
813.000000	27.997836
814.000000	28.061955
815.000000	28.121280
816.000000	28.178121
817.000000	28.231765
818.000000	28.293269
819.000000	28.347174
820.000000	28.401094
821.000000	28.457557
822.000000	28.513122
823.000000	28.572411
824.000000	28.624487
825.000000	28.674743
826.000000	28.724146
827.000000	28.779073
828.000000	28.834401
829.000000	28.891344
830.000000	28.947554
831.000000	28.996957
832.000000	29.044824
833.000000	29.103075
834.000000	29.154595
835.000000	29.216743
836.000000	29.268870
837.000000	29.317810
838.000000	29.374504
839.000000	29.429235
840.000000	29.472490
841.000000	29.528689
842.000000	29.577642
843.000000	29.623334
844.000000	29.667248
845.000000	29.716931
846.000000	29.764781
847.000000	29.815334
848.000000	29.860035
849.000000	29.898690
850.000000	29.935067
851.000000	29.985867
852.000000	30.044494
853.000000	30.090857
854.000000	30.132584
855.000000	30.169097
856.000000	30.214282
857.000000	30.252387
858.000000	30.295945
859.000000	30.365168
860.000000	30.416116
861.000000	30.474797
862.000000	30.523311
863.000000	30.542455
864.000000	30.587339
865.000000	30.633196
866.000000	30.658492
867.000000	30.683428
868.000000	30.747398
869.000000	30.773191
870.000000	30.814204
871.000000	30.858795
872.000000	30.924549
873.000000	30.952680
874.000000	30.955298
875.000000	30.974032
876.000000	30.995252
877.000000	31.053364
878.000000	31.124908
879.000000	31.162458
880.000000	31.218475
881.000000	31.301352
882.000000	31.331960
883.000000	31.357670
884.000000	31.428407
885.000000	31.486387
886.000000	31.542066
887.000000	31.578239
888.000000	31.621770
889.000000	31.673367
890.000000	31.710048
891.000000	31.725365
892.000000	31.758679
893.000000	31.779863
894.000000	31.811767
895.000000	31.839397
896.000000	31.887577
897.000000	31.904033
898.000000	31.976202
899.000000	32.014097
900.000000	32.097253
901.000000	32.167529
902.000000	32.239391
903.000000	32.274352
904.000000	32.362117
905.000000	32.385949
906.000000	32.384337
907.000000	32.397635
908.000000	32.450677
909.000000	32.538695
910.000000	32.580925
911.000000	32.616825
912.000000	32.613450
913.000000	32.628830
914.000000	32.673992
915.000000	32.694109
916.000000	32.695275
917.000000	32.717203
918.000000	32.767733
919.000000	32.792713
920.000000	32.802240
921.000000	32.839748
922.000000	32.839725
923.000000	32.870267
924.000000	32.883242
925.000000	32.934237
926.000000	32.972443
927.000000	32.997443
928.000000	33.068434
929.000000	33.058423
930.000000	33.085041
931.000000	33.087754
932.000000	33.107652
933.000000	33.122065
934.000000	33.182501
935.000000	33.164242
936.000000	33.148137
937.000000	33.155848
938.000000	33.126520
939.000000	33.101144
940.000000	33.113405
941.000000	33.194792
942.000000	33.240093
943.000000	33.262320
944.000000	33.280035
945.000000	33.321603
946.000000	33.344133
947.000000	33.377007
948.000000	33.376788
949.000000	33.398523
950.000000	33.423188
951.000000	33.412881
952.000000	33.420152
953.000000	33.437108
954.000000	33.422865
955.000000	33.420221
956.000000	33.406429
957.000000	33.443191
958.000000	33.444627
959.000000	33.477682
960.000000	33.489765
961.000000	33.498881
962.000000	33.518002
963.000000	33.513831
964.000000	33.544450
965.000000	33.583132
966.000000	33.616940
967.000000	33.633436
968.000000	33.609383
969.000000	33.552194
970.000000	33.542983
971.000000	33.584359
972.000000	33.582788
973.000000	33.597479
974.000000	33.621696
975.000000	33.663607
976.000000	33.646025
977.000000	33.646452
978.000000	33.650645
979.000000	33.632412
980.000000	33.644108
981.000000	33.654883
982.000000	33.697892
983.000000	33.739337
984.000000	33.747404
985.000000	33.773892
986.000000	33.807893
987.000000	33.846771
988.000000	33.850409
989.000000	33.865793
990.000000	33.901292
991.000000	33.905083
992.000000	33.918310
993.000000	33.946468
994.000000	33.957127
995.000000	33.962049
996.000000	34.007172
997.000000	34.065008
998.000000	34.077203
999.000000	34.097994
1000.000000	34.099953
1001.000000	34.095074
1002.000000	34.120202
1003.000000	34.153487
1004.000000	34.186619
1005.000000	34.215036
1006.000000	34.215132
1007.000000	34.221655
1008.000000	34.256332
1009.000000	34.294960
1010.000000	34.327845
1011.000000	34.367030
1012.000000	34.373396
1013.000000	34.382389
1014.000000	34.417889
1015.000000	34.449282
1016.000000	34.475650
1017.000000	34.458923
1018.000000	34.443430
1019.000000	34.441056
1020.000000	34.438454
1021.000000	34.443632
1022.000000	34.454416
1023.000000	34.477834
1024.000000	34.507293
1025.000000	34.503107
1026.000000	34.501896
1027.000000	34.541679
1028.000000	34.542830
1029.000000	34.528722
1030.000000	34.536416
1031.000000	34.526848
1032.000000	34.495720
1033.000000	34.468745
1034.000000	34.442227
1035.000000	34.417903
1036.000000	34.412617
1037.000000	34.419883
1038.000000	34.437019
1039.000000	34.447051
1040.000000	34.429053
1041.000000	34.415979
1042.000000	34.416770
1043.000000	34.426868
1044.000000	34.419912
1045.000000	34.388455
1046.000000	34.355271
1047.000000	34.369578
1048.000000	34.386548
1049.000000	34.360382
1050.000000	34.333316
1051.000000	34.324949
1052.000000	34.334204
1053.000000	34.346175
1054.000000	34.346416
1055.000000	34.343606
1056.000000	34.344280
1057.000000	34.318454
1058.000000	34.293464
1059.000000	34.277728
1060.000000	34.315899
1061.000000	34.333620
1062.000000	34.281429
1063.000000	34.250403
1064.000000	34.239526
1065.000000	34.228074
1066.000000	34.226162
1067.000000	34.239044
1068.000000	34.243315
1069.000000	34.281656
1070.000000	34.324168
1071.000000	34.355989
1072.000000	34.322405
1073.000000	34.312168
1074.000000	34.296259
1075.000000	34.293369
1076.000000	34.286493
1077.000000	34.322512
1078.000000	34.314030
1079.000000	34.293498
1080.000000	34.287158
1081.000000	34.305562
1082.000000	34.279961
1083.000000	34.272592
1084.000000	34.283580
1085.000000	34.289473
1086.000000	34.301381
1087.000000	34.274318
1088.000000	34.254597
1089.000000	34.247462
1090.000000	34.240434
1091.000000	34.237366
1092.000000	34.267604
1093.000000	34.276744
1094.000000	34.295396
1095.000000	34.273401
1096.000000	34.268582
1097.000000	34.278573
1098.000000	34.282282
1099.000000	34.319887
1100.000000	34.285310
1101.000000	34.279697
1102.000000	34.271045
1103.000000	34.284610
1104.000000	34.296284
1105.000000	34.256439
1106.000000	34.225551
1107.000000	34.247628
1108.000000	34.261443
1109.000000	34.296075
1110.000000	34.294990
1111.000000	34.323475
1112.000000	34.295701
1113.000000	34.267630
1114.000000	34.270395
1115.000000	34.238765
1116.000000	34.187901
1117.000000	34.177127
1118.000000	34.166122
1119.000000	34.148169
1120.000000	34.130295
1121.000000	34.152919
1122.000000	34.189216
1123.000000	34.236479
1124.000000	34.250992
1125.000000	34.213760
1126.000000	34.194639
1127.000000	34.185990
1128.000000	34.203837
1129.000000	34.195607
1130.000000	34.173963
1131.000000	34.189870
1132.000000	34.194984
1133.000000	34.199784
1134.000000	34.211592
1135.000000	34.242971
1136.000000	34.266990
1137.000000	34.249295
1138.000000	34.263623
1139.000000	34.224849
1140.000000	34.230304
1141.000000	34.192209
1142.000000	34.211930
1143.000000	34.184406
1144.000000	34.165511
1145.000000	34.175919
1146.000000	34.148404
1147.000000	34.127539
1148.000000	34.141033
1149.000000	34.116779
1150.000000	34.130732
1151.000000	34.164490
1152.000000	34.171328
1153.000000	34.145816
1154.000000	34.140088
1155.000000	34.178200
1156.000000	34.142519
1157.000000	34.127665
1158.000000	34.075167
1159.000000	34.045024
1160.000000	34.083474
1161.000000	34.091187
1162.000000	34.058136
1163.000000	34.040677
1164.000000	34.014648
1165.000000	34.014147
1166.000000	33.973939
1167.000000	33.975796
1168.000000	33.964479
1169.000000	33.873178
1170.000000	33.831561
1171.000000	33.777898
1172.000000	33.741950
1173.000000	33.723254
1174.000000	33.709112
1175.000000	33.668872
1176.000000	33.657705
1177.000000	33.605242
1178.000000	33.601836
1179.000000	33.607134
1180.000000	33.610901
1181.000000	33.615193
1182.000000	33.610220
1183.000000	33.597995
1184.000000	33.601272
1185.000000	33.619860
1186.000000	33.566186
1187.000000	33.554844
1188.000000	33.558048
1189.000000	33.531021
1190.000000	33.495704
1191.000000	33.492068
1192.000000	33.487532
1193.000000	33.477300
1194.000000	33.465919
1195.000000	33.425638
1196.000000	33.386371
1197.000000	33.397479
1198.000000	33.379700
1199.000000	33.355668
1200.000000	33.356769
1201.000000	33.328218
1202.000000	33.296825
1203.000000	33.294458
1204.000000	33.298537
