PE UV       SUBTECH     SPECTRUM    ASCII       PEDS        4.00        
   -1
C.KALI.LA22-TX3.ASC
23/11/29
12:03:47.00
23/11/29
12:03:47.00
Vinicio Soto Monge
CHRYSINA KALININI LA AMISTAD 2022
250,000000
1
Lambda 1050
1050L1511233
PerkinElmer UV WinLab 6.3.2.0749 / 2.02.05 Lambda 900 UV/VIS/NIR, Aug  7 2015 09:38:08

0
0
3350/servo 860,8/2
0
0
UV/VIS
1
1
1
DoubleDePol,CommonBeamDepol,RBeamAtt,SBeamAtt,60mm sphere, WB InGaAs Detector
0
0
0
0
Program
Program
3350/servo 860,8/2
3350/0,4 860,8/0,4
3350/0,4 860,8/0,4
0
20.00
 
 
 
0
 
860,8
319,2
860,8
Front
100
on
S:100 R:100
0
0
0
0
 
0
 
 
 
0
 
 
0
0
0
0
0
 
 
 
 
0
0


0
0
#HDR
-1
-1
#GR
nm
%R
1.0
0.0
2200,000000
-1,000000
1951
8
69,631353
0,398215
#DATA
284.000000	1.005921
285.000000	1.130663
286.000000	1.250340
287.000000	1.369472
288.000000	1.481847
289.000000	1.593840
290.000000	1.703702
291.000000	1.808911
292.000000	1.912324
293.000000	2.012080
294.000000	2.105836
295.000000	2.199858
296.000000	2.291242
297.000000	2.379712
298.000000	2.464628
299.000000	2.546431
300.000000	2.628358
301.000000	2.707406
302.000000	2.781860
303.000000	2.852335
304.000000	2.924101
305.000000	2.992830
306.000000	3.059744
307.000000	3.125266
308.000000	3.187476
309.000000	3.247922
310.000000	3.304598
311.000000	3.359989
312.000000	3.414971
313.000000	3.467925
314.000000	3.517066
315.000000	3.565808
316.000000	3.612208
317.000000	3.654740
318.000000	3.704328
319.000000	3.750727
320.000000	3.792875
321.000000	3.831840
322.000000	3.870052
323.000000	3.908065
324.000000	3.942793
325.000000	3.979578
326.000000	4.015922
327.000000	4.051442
328.000000	4.084487
329.000000	4.116439
330.000000	4.141672
331.000000	4.167961
332.000000	4.192793
333.000000	4.217710
334.000000	4.240394
335.000000	4.265019
336.000000	4.290320
337.000000	4.313694
338.000000	4.338009
339.000000	4.361195
340.000000	4.379951
341.000000	4.400859
342.000000	4.422075
343.000000	4.442874
344.000000	4.462681
345.000000	4.482974
346.000000	4.503638
347.000000	4.521602
348.000000	4.539640
349.000000	4.559633
350.000000	4.579982
351.000000	4.601215
352.000000	4.623714
353.000000	4.636370
354.000000	4.652424
355.000000	4.670442
356.000000	4.691637
357.000000	4.710515
358.000000	4.729880
359.000000	4.748880
360.000000	4.766040
361.000000	4.783210
362.000000	4.798617
363.000000	4.816201
364.000000	4.836416
365.000000	4.859797
366.000000	4.880343
367.000000	4.904311
368.000000	4.927855
369.000000	4.953184
370.000000	4.972928
371.000000	4.993170
372.000000	5.015993
373.000000	5.037372
374.000000	5.055287
375.000000	5.076848
376.000000	5.096055
377.000000	5.116093
378.000000	5.137033
379.000000	5.159675
380.000000	5.182614
381.000000	5.204466
382.000000	5.229134
383.000000	5.253856
384.000000	5.278401
385.000000	5.302190
386.000000	5.325929
387.000000	5.350419
388.000000	5.375973
389.000000	5.402345
390.000000	5.428828
391.000000	5.453446
392.000000	5.479458
393.000000	5.504906
394.000000	5.531092
395.000000	5.557206
396.000000	5.582955
397.000000	5.610036
398.000000	5.637139
399.000000	5.663318
400.000000	5.690086
401.000000	5.717959
402.000000	5.745561
403.000000	5.773543
404.000000	5.802020
405.000000	5.832583
406.000000	5.863420
407.000000	5.893764
408.000000	5.926810
409.000000	5.963519
410.000000	6.002193
411.000000	6.042993
412.000000	6.083563
413.000000	6.126513
414.000000	6.171601
415.000000	6.218938
416.000000	6.269032
417.000000	6.321888
418.000000	6.378318
419.000000	6.438898
420.000000	6.503690
421.000000	6.573214
422.000000	6.647367
423.000000	6.725983
424.000000	6.810147
425.000000	6.900377
426.000000	6.996799
427.000000	7.099985
428.000000	7.210433
429.000000	7.328704
430.000000	7.455111
431.000000	7.589875
432.000000	7.733711
433.000000	7.886499
434.000000	8.048830
435.000000	8.221434
436.000000	8.404351
437.000000	8.597479
438.000000	8.801019
439.000000	9.015459
440.000000	9.240820
441.000000	9.477325
442.000000	9.724571
443.000000	9.982171
444.000000	10.250181
445.000000	10.529158
446.000000	10.818508
447.000000	11.117383
448.000000	11.426112
449.000000	11.743627
450.000000	12.069178
451.000000	12.402764
452.000000	12.744510
453.000000	13.093542
454.000000	13.448254
455.000000	13.808200
456.000000	14.173214
457.000000	14.542745
458.000000	14.916233
459.000000	15.292602
460.000000	15.670750
461.000000	16.049649
462.000000	16.428792
463.000000	16.808291
464.000000	17.187666
465.000000	17.565840
466.000000	17.941775
467.000000	18.315109
468.000000	18.685202
469.000000	19.050945
470.000000	19.411556
471.000000	19.767047
472.000000	20.117577
473.000000	20.462508
474.000000	20.801489
475.000000	21.134744
476.000000	21.461824
477.000000	21.782344
478.000000	22.096295
479.000000	22.403374
480.000000	22.702074
481.000000	22.992513
482.000000	23.275078
483.000000	23.550860
484.000000	23.821119
485.000000	24.086163
486.000000	24.345944
487.000000	24.600311
488.000000	24.849206
489.000000	25.094634
490.000000	25.336583
491.000000	25.575198
492.000000	25.811025
493.000000	26.043904
494.000000	26.275260
495.000000	26.505684
496.000000	26.735079
497.000000	26.964582
498.000000	27.194153
499.000000	27.423817
500.000000	27.654479
501.000000	27.888129
502.000000	28.123863
503.000000	28.362543
504.000000	28.605817
505.000000	28.853171
506.000000	29.105680
507.000000	29.362847
508.000000	29.625998
509.000000	29.895343
510.000000	30.171768
511.000000	30.455044
512.000000	30.747111
513.000000	31.047921
514.000000	31.358326
515.000000	31.679320
516.000000	32.011209
517.000000	32.354523
518.000000	32.708136
519.000000	33.073421
520.000000	33.451258
521.000000	33.842465
522.000000	34.247334
523.000000	34.667108
524.000000	35.101934
525.000000	35.552803
526.000000	36.019718
527.000000	36.503564
528.000000	37.006239
529.000000	37.527612
530.000000	38.068599
531.000000	38.630394
532.000000	39.210910
533.000000	39.807907
534.000000	40.421073
535.000000	41.049586
536.000000	41.690529
537.000000	42.343424
538.000000	43.007122
539.000000	43.679661
540.000000	44.358957
541.000000	45.042762
542.000000	45.729996
543.000000	46.418586
544.000000	47.108003
545.000000	47.796672
546.000000	48.484588
547.000000	49.170038
548.000000	49.851839
549.000000	50.527085
550.000000	51.194690
551.000000	51.855296
552.000000	52.506112
553.000000	53.149459
554.000000	53.784010
555.000000	54.406484
556.000000	55.017057
557.000000	55.614130
558.000000	56.195287
559.000000	56.759965
560.000000	57.307453
561.000000	57.833710
562.000000	58.337339
563.000000	58.817530
564.000000	59.273676
565.000000	59.704288
566.000000	60.108821
567.000000	60.487800
568.000000	60.842294
569.000000	61.171450
570.000000	61.474839
571.000000	61.752836
572.000000	62.007954
573.000000	62.240368
574.000000	62.450697
575.000000	62.642700
576.000000	62.817172
577.000000	62.974128
578.000000	63.114617
579.000000	63.237614
580.000000	63.343830
581.000000	63.432718
582.000000	63.502111
583.000000	63.551731
584.000000	63.586039
585.000000	63.604249
586.000000	63.605839
587.000000	63.591622
588.000000	63.558387
589.000000	63.505661
590.000000	63.434407
591.000000	63.344487
592.000000	63.237502
593.000000	63.112827
594.000000	62.970536
595.000000	62.810041
596.000000	62.633232
597.000000	62.440617
598.000000	62.232515
599.000000	62.007752
600.000000	61.765171
601.000000	61.505973
602.000000	61.229146
603.000000	60.937184
604.000000	60.631037
605.000000	60.309747
606.000000	59.975279
607.000000	59.626572
608.000000	59.263840
609.000000	58.886911
610.000000	58.495530
611.000000	58.091876
612.000000	57.680360
613.000000	57.261571
614.000000	56.837538
615.000000	56.411242
616.000000	55.984376
617.000000	55.561107
618.000000	55.143193
619.000000	54.729834
620.000000	54.325066
621.000000	53.928021
622.000000	53.539064
623.000000	53.160188
624.000000	52.792415
625.000000	52.437718
626.000000	52.094158
627.000000	51.761399
628.000000	51.441592
629.000000	51.133896
630.000000	50.840943
631.000000	50.566469
632.000000	50.309194
633.000000	50.068675
634.000000	49.849119
635.000000	49.653045
636.000000	49.480429
637.000000	49.335039
638.000000	49.215957
639.000000	49.121929
640.000000	49.055061
641.000000	49.014862
642.000000	49.000466
643.000000	49.010796
644.000000	49.045813
645.000000	49.102265
646.000000	49.179709
647.000000	49.273242
648.000000	49.378445
649.000000	49.495380
650.000000	49.621040
651.000000	49.752140
652.000000	49.886959
653.000000	50.025635
654.000000	50.165650
655.000000	50.306195
656.000000	50.447225
657.000000	50.589352
658.000000	50.733427
659.000000	50.878793
660.000000	51.027220
661.000000	51.179978
662.000000	51.336948
663.000000	51.499609
664.000000	51.668654
665.000000	51.843625
666.000000	52.022431
667.000000	52.207563
668.000000	52.399119
669.000000	52.595314
670.000000	52.796778
671.000000	53.000398
672.000000	53.204974
673.000000	53.410422
674.000000	53.616778
675.000000	53.823057
676.000000	54.030119
677.000000	54.240064
678.000000	54.451266
679.000000	54.665863
680.000000	54.885787
681.000000	55.108295
682.000000	55.336624
683.000000	55.575737
684.000000	55.824745
685.000000	56.083500
686.000000	56.353246
687.000000	56.635933
688.000000	56.930083
689.000000	57.237444
690.000000	57.557347
691.000000	57.890555
692.000000	58.236722
693.000000	58.591736
694.000000	58.957283
695.000000	59.332257
696.000000	59.714676
697.000000	60.104052
698.000000	60.499458
699.000000	60.901283
700.000000	61.306964
701.000000	61.716224
702.000000	62.127304
703.000000	62.539120
704.000000	62.952976
705.000000	63.367152
706.000000	63.783914
707.000000	64.199495
708.000000	64.612867
709.000000	65.028723
710.000000	65.446420
711.000000	65.866062
712.000000	66.285794
713.000000	66.707398
714.000000	67.129254
715.000000	67.549929
716.000000	67.970875
717.000000	68.391873
718.000000	68.811142
719.000000	69.229848
720.000000	69.646575
721.000000	70.058893
722.000000	70.468076
723.000000	70.876842
724.000000	71.281984
725.000000	71.682530
726.000000	72.077569
727.000000	72.467408
728.000000	72.853304
729.000000	73.232411
730.000000	73.604093
731.000000	73.970680
732.000000	74.332990
733.000000	74.686911
734.000000	75.032989
735.000000	75.372728
736.000000	75.705248
737.000000	76.029389
738.000000	76.344922
739.000000	76.651990
740.000000	76.949909
741.000000	77.238287
742.000000	77.519654
743.000000	77.793881
744.000000	78.056216
745.000000	78.307720
746.000000	78.547068
747.000000	78.776248
748.000000	78.997222
749.000000	79.208983
750.000000	79.413399
751.000000	79.612064
752.000000	79.801763
753.000000	79.986258
754.000000	80.161677
755.000000	80.325947
756.000000	80.485348
757.000000	80.636447
758.000000	80.777281
759.000000	80.909676
760.000000	81.033576
761.000000	81.150994
762.000000	81.260337
763.000000	81.361695
764.000000	81.457205
765.000000	81.545328
766.000000	81.625216
767.000000	81.696977
768.000000	81.760633
769.000000	81.816418
770.000000	81.864217
771.000000	81.905394
772.000000	81.940542
773.000000	81.970248
774.000000	81.993963
775.000000	82.011225
776.000000	82.017313
777.000000	82.016082
778.000000	82.011562
779.000000	82.001318
780.000000	81.981454
781.000000	81.958635
782.000000	81.927950
783.000000	81.888608
784.000000	81.840237
785.000000	81.784615
786.000000	81.720393
787.000000	81.649831
788.000000	81.564942
789.000000	81.468047
790.000000	81.370756
791.000000	81.263719
792.000000	81.145047
793.000000	81.018639
794.000000	80.887159
795.000000	80.744644
796.000000	80.594454
797.000000	80.438858
798.000000	80.278024
799.000000	80.107946
800.000000	79.932890
801.000000	79.746148
802.000000	79.553257
803.000000	79.351801
804.000000	79.142126
805.000000	78.929874
806.000000	78.709406
807.000000	78.486180
808.000000	78.258522
809.000000	78.018755
810.000000	77.771651
811.000000	77.522535
812.000000	77.258806
813.000000	76.984946
814.000000	76.708607
815.000000	76.429518
816.000000	76.137256
817.000000	75.845587
818.000000	75.546849
819.000000	75.237997
820.000000	74.930913
821.000000	74.614770
822.000000	74.298935
823.000000	73.972260
824.000000	73.641492
825.000000	73.301511
826.000000	72.957504
827.000000	72.621577
828.000000	72.279190
829.000000	71.928303
830.000000	71.573379
831.000000	71.214928
832.000000	70.856209
833.000000	70.494161
834.000000	70.129638
835.000000	69.761215
836.000000	69.395894
837.000000	69.028842
838.000000	68.668156
839.000000	68.310468
840.000000	67.952551
841.000000	67.592281
842.000000	67.229182
843.000000	66.869847
844.000000	66.522802
845.000000	66.174856
846.000000	65.834646
847.000000	65.508673
848.000000	65.188178
849.000000	64.875152
850.000000	64.551494
851.000000	64.257217
852.000000	63.947639
853.000000	63.657340
854.000000	63.355359
855.000000	63.074794
856.000000	62.802741
857.000000	62.498608
858.000000	62.304442
859.000000	62.099671
860.000000	61.862972
861.000000	61.669251
862.000000	61.432372
863.000000	61.242035
864.000000	61.071071
865.000000	60.867807
866.000000	60.661689
867.000000	60.431497
868.000000	60.254978
869.000000	60.127912
870.000000	59.977482
871.000000	59.812051
872.000000	59.683019
873.000000	59.532916
874.000000	59.391729
875.000000	59.266621
876.000000	59.146434
877.000000	59.011828
878.000000	58.909979
879.000000	58.803773
880.000000	58.675857
881.000000	58.546614
882.000000	58.407297
883.000000	58.281837
884.000000	58.143511
885.000000	58.019325
886.000000	57.888501
887.000000	57.786494
888.000000	57.688088
889.000000	57.609883
890.000000	57.488972
891.000000	57.371200
892.000000	57.240234
893.000000	57.092862
894.000000	56.979163
895.000000	56.871219
896.000000	56.732005
897.000000	56.621474
898.000000	56.494347
899.000000	56.342240
900.000000	56.235350
901.000000	56.143618
902.000000	56.052786
903.000000	55.917099
904.000000	55.785701
905.000000	55.674504
906.000000	55.543873
907.000000	55.391962
908.000000	55.295312
909.000000	55.185015
910.000000	55.053952
911.000000	54.918915
912.000000	54.774094
913.000000	54.620379
914.000000	54.495170
915.000000	54.367009
916.000000	54.236902
917.000000	54.145030
918.000000	54.026085
919.000000	53.911834
920.000000	53.805035
921.000000	53.690704
922.000000	53.534858
923.000000	53.377738
924.000000	53.249760
925.000000	53.147424
926.000000	53.029153
927.000000	52.966791
928.000000	52.811986
929.000000	52.655292
930.000000	52.530864
931.000000	52.384998
932.000000	52.269057
933.000000	52.167817
934.000000	52.067932
935.000000	51.939473
936.000000	51.858088
937.000000	51.761970
938.000000	51.645682
939.000000	51.492102
940.000000	51.385666
941.000000	51.338840
942.000000	51.287823
943.000000	51.170607
944.000000	51.052089
945.000000	50.959897
946.000000	50.877563
947.000000	50.837873
948.000000	50.760577
949.000000	50.669797
950.000000	50.597505
951.000000	50.523420
952.000000	50.450031
953.000000	50.392164
954.000000	50.315726
955.000000	50.250882
956.000000	50.194277
957.000000	50.163536
958.000000	50.107437
959.000000	50.017690
960.000000	49.894181
961.000000	49.777425
962.000000	49.676350
963.000000	49.617331
964.000000	49.558635
965.000000	49.500799
966.000000	49.410065
967.000000	49.262345
968.000000	49.136096
969.000000	49.053727
970.000000	49.003484
971.000000	48.876279
972.000000	48.810925
973.000000	48.750880
974.000000	48.659996
975.000000	48.530462
976.000000	48.391705
977.000000	48.257790
978.000000	48.169244
979.000000	48.053018
980.000000	47.892287
981.000000	47.757316
982.000000	47.627253
983.000000	47.510513
984.000000	47.401825
985.000000	47.305355
986.000000	47.214487
987.000000	47.109452
988.000000	47.009045
989.000000	46.930134
990.000000	46.815356
991.000000	46.667398
992.000000	46.539104
993.000000	46.432907
994.000000	46.325062
995.000000	46.263919
996.000000	46.196933
997.000000	46.093411
998.000000	46.003924
999.000000	45.908957
1000.000000	45.792646
1001.000000	45.709188
1002.000000	45.654805
1003.000000	45.560744
1004.000000	45.439879
1005.000000	45.290004
1006.000000	45.175507
1007.000000	45.060200
1008.000000	44.972449
1009.000000	44.902259
1010.000000	44.809591
1011.000000	44.717560
1012.000000	44.625489
1013.000000	44.530002
1014.000000	44.484258
1015.000000	44.484720
1016.000000	44.450939
1017.000000	44.378632
1018.000000	44.313569
1019.000000	44.228759
1020.000000	44.106573
1021.000000	43.991237
1022.000000	43.867413
1023.000000	43.751792
1024.000000	43.648391
1025.000000	43.554438
1026.000000	43.485781
1027.000000	43.414096
1028.000000	43.331136
1029.000000	43.246485
1030.000000	43.174065
1031.000000	43.121206
1032.000000	43.033657
1033.000000	42.906601
1034.000000	42.777874
1035.000000	42.701625
1036.000000	42.663852
1037.000000	42.576923
1038.000000	42.490902
1039.000000	42.435434
1040.000000	42.387627
1041.000000	42.345187
1042.000000	42.293969
1043.000000	42.218299
1044.000000	42.136691
1045.000000	42.072470
1046.000000	42.014760
1047.000000	41.957629
1048.000000	41.908166
1049.000000	41.804628
1050.000000	41.686413
1051.000000	41.590642
1052.000000	41.494051
1053.000000	41.383321
1054.000000	41.276419
1055.000000	41.241305
1056.000000	41.161154
1057.000000	41.074429
1058.000000	40.986945
1059.000000	40.897188
1060.000000	40.838364
1061.000000	40.795828
1062.000000	40.712515
1063.000000	40.670233
1064.000000	40.645625
1065.000000	40.591643
1066.000000	40.498002
1067.000000	40.461172
1068.000000	40.429547
1069.000000	40.374467
1070.000000	40.276837
1071.000000	40.173825
1072.000000	40.170710
1073.000000	40.109033
1074.000000	40.022369
1075.000000	39.923687
1076.000000	39.824744
1077.000000	39.728017
1078.000000	39.610231
1079.000000	39.515254
1080.000000	39.463899
1081.000000	39.378168
1082.000000	39.258657
1083.000000	39.185550
1084.000000	39.144367
1085.000000	39.063257
1086.000000	39.002013
1087.000000	38.967184
1088.000000	38.930923
1089.000000	38.910350
1090.000000	38.843216
1091.000000	38.842162
1092.000000	38.814797
1093.000000	38.772892
1094.000000	38.734311
1095.000000	38.698016
1096.000000	38.630262
1097.000000	38.571185
1098.000000	38.509399
1099.000000	38.446929
1100.000000	38.373981
1101.000000	38.337049
1102.000000	38.280893
1103.000000	38.235678
1104.000000	38.201636
1105.000000	38.178471
1106.000000	38.128858
1107.000000	38.054419
1108.000000	38.087022
1109.000000	38.097673
1110.000000	38.142669
1111.000000	38.112614
1112.000000	38.115362
1113.000000	38.178485
1114.000000	38.163959
1115.000000	38.119743
1116.000000	38.103095
1117.000000	38.138386
1118.000000	38.092795
1119.000000	38.053350
1120.000000	38.049787
1121.000000	37.985714
1122.000000	37.932792
1123.000000	37.905937
1124.000000	37.880916
1125.000000	37.845552
1126.000000	37.761833
1127.000000	37.778086
1128.000000	37.787312
1129.000000	37.749994
1130.000000	37.698614
1131.000000	37.680208
1132.000000	37.675337
1133.000000	37.629344
1134.000000	37.521357
1135.000000	37.491087
1136.000000	37.484547
1137.000000	37.468632
1138.000000	37.467339
1139.000000	37.422700
1140.000000	37.390533
1141.000000	37.357818
1142.000000	37.337571
1143.000000	37.248576
1144.000000	37.208394
1145.000000	37.117024
1146.000000	37.045036
1147.000000	37.017537
1148.000000	36.931214
1149.000000	36.890850
1150.000000	36.823924
1151.000000	36.802668
1152.000000	36.724563
1153.000000	36.701961
1154.000000	36.681829
1155.000000	36.659600
1156.000000	36.644347
1157.000000	36.649263
1158.000000	36.605412
1159.000000	36.526214
1160.000000	36.507167
1161.000000	36.469708
1162.000000	36.366526
1163.000000	36.301963
1164.000000	36.258428
1165.000000	36.233540
1166.000000	36.160778
1167.000000	36.144745
1168.000000	36.140941
1169.000000	36.141983
1170.000000	36.065058
1171.000000	35.980787
1172.000000	35.930061
1173.000000	35.864867
1174.000000	35.834430
1175.000000	35.782930
1176.000000	35.763219
1177.000000	35.702410
1178.000000	35.658908
1179.000000	35.624786
1180.000000	35.619557
1181.000000	35.662368
1182.000000	35.592118
1183.000000	35.547709
1184.000000	35.504375
1185.000000	35.481795
1186.000000	35.421287
1187.000000	35.395492
1188.000000	35.349253
1189.000000	35.328487
1190.000000	35.292717
1191.000000	35.285591
1192.000000	35.236783
1193.000000	35.240066
1194.000000	35.225644
1195.000000	35.184118
1196.000000	35.182223
1197.000000	35.167741
1198.000000	35.150912
1199.000000	35.162485
