PE UV       SUBTECH     SPECTRUM    ASCII       PEDS        4.00        
   -1
C.OPTI.8.17-TX3.ASC
23/11/29
14:44:53.00
23/11/29
14:44:53.00
Vinicio Soto Monge
C. OPTIMA #81 7
250,000000
1
Lambda 1050
1050L1511233
PerkinElmer UV WinLab 6.3.2.0749 / 2.02.05 Lambda 900 UV/VIS/NIR, Aug  7 2015 09:38:08

0
0
3350/servo 860,8/2
0
0
UV/VIS
1
1
1
DoubleDePol,CommonBeamDepol,RBeamAtt,SBeamAtt,60mm sphere, WB InGaAs Detector
0
0
0
0
Program
Program
3350/servo 860,8/2
3350/0,4 860,8/0,4
3350/0,4 860,8/0,4
0
20.00
 
 
 
0
 
860,8
319,2
860,8
Front
100
on
S:100 R:100
0
0
0
0
 
0
 
 
 
0
 
 
0
0
0
0
0
 
 
 
 
0
0


0
0
#HDR
-1
-1
#GR
nm
%R
1.0
0.0
2200,000000
-1,000000
1951
8
42,632739
0,179440
#DATA
284.000000	5.726401
285.000000	5.712782
286.000000	5.699762
287.000000	5.689468
288.000000	5.679143
289.000000	5.668677
290.000000	5.660809
291.000000	5.652883
292.000000	5.645045
293.000000	5.636887
294.000000	5.631377
295.000000	5.626576
296.000000	5.620757
297.000000	5.614142
298.000000	5.609399
299.000000	5.603994
300.000000	5.600087
301.000000	5.597298
302.000000	5.593980
303.000000	5.589586
304.000000	5.586624
305.000000	5.582526
306.000000	5.577918
307.000000	5.574110
308.000000	5.568893
309.000000	5.564325
310.000000	5.559773
311.000000	5.555925
312.000000	5.552140
313.000000	5.546730
314.000000	5.541182
315.000000	5.535150
316.000000	5.530246
317.000000	5.517249
318.000000	5.505538
319.000000	5.495622
320.000000	5.489003
321.000000	5.478022
322.000000	5.470141
323.000000	5.461102
324.000000	5.452512
325.000000	5.444449
326.000000	5.434611
327.000000	5.427821
328.000000	5.422123
329.000000	5.414658
330.000000	5.406761
331.000000	5.400379
332.000000	5.397254
333.000000	5.391863
334.000000	5.388880
335.000000	5.385742
336.000000	5.382475
337.000000	5.382631
338.000000	5.384288
339.000000	5.386011
340.000000	5.387970
341.000000	5.393914
342.000000	5.401477
343.000000	5.412411
344.000000	5.422815
345.000000	5.435795
346.000000	5.453601
347.000000	5.473185
348.000000	5.496683
349.000000	5.523020
350.000000	5.554049
351.000000	5.590622
352.000000	5.637123
353.000000	5.687798
354.000000	5.742225
355.000000	5.800085
356.000000	5.869945
357.000000	5.944038
358.000000	6.028617
359.000000	6.122251
360.000000	6.224939
361.000000	6.339778
362.000000	6.464748
363.000000	6.600979
364.000000	6.751767
365.000000	6.916980
366.000000	7.096104
367.000000	7.286203
368.000000	7.493914
369.000000	7.717926
370.000000	7.958259
371.000000	8.216117
372.000000	8.489756
373.000000	8.782702
374.000000	9.093579
375.000000	9.421281
376.000000	9.768978
377.000000	10.145935
378.000000	10.540718
379.000000	10.955322
380.000000	11.387495
381.000000	11.835011
382.000000	12.301456
383.000000	12.784210
384.000000	13.283184
385.000000	13.795978
386.000000	14.321321
387.000000	14.858535
388.000000	15.408388
389.000000	15.967450
390.000000	16.533552
391.000000	17.105080
392.000000	17.681428
393.000000	18.260053
394.000000	18.840549
395.000000	19.420263
396.000000	19.997063
397.000000	20.568634
398.000000	21.135973
399.000000	21.696566
400.000000	22.249622
401.000000	22.793097
402.000000	23.326875
403.000000	23.848841
404.000000	24.358896
405.000000	24.853864
406.000000	25.334019
407.000000	25.797855
408.000000	26.242762
409.000000	26.670473
410.000000	27.081135
411.000000	27.468740
412.000000	27.824137
413.000000	28.157857
414.000000	28.470005
415.000000	28.759076
416.000000	29.024409
417.000000	29.266228
418.000000	29.484335
419.000000	29.678343
420.000000	29.849314
421.000000	29.997015
422.000000	30.120785
423.000000	30.221387
424.000000	30.299086
425.000000	30.354514
426.000000	30.388171
427.000000	30.399787
428.000000	30.390430
429.000000	30.361145
430.000000	30.313316
431.000000	30.248575
432.000000	30.167515
433.000000	30.071715
434.000000	29.962177
435.000000	29.841221
436.000000	29.712320
437.000000	29.577208
438.000000	29.437303
439.000000	29.294346
440.000000	29.152692
441.000000	29.014421
442.000000	28.880750
443.000000	28.752821
444.000000	28.632519
445.000000	28.522659
446.000000	28.423018
447.000000	28.334551
448.000000	28.256940
449.000000	28.190448
450.000000	28.135624
451.000000	28.092655
452.000000	28.061397
453.000000	28.041808
454.000000	28.033412
455.000000	28.035650
456.000000	28.048484
457.000000	28.072842
458.000000	28.108149
459.000000	28.153821
460.000000	28.210242
461.000000	28.277150
462.000000	28.354546
463.000000	28.441809
464.000000	28.537562
465.000000	28.641326
466.000000	28.751929
467.000000	28.868597
468.000000	28.989980
469.000000	29.114721
470.000000	29.241124
471.000000	29.366613
472.000000	29.489949
473.000000	29.609697
474.000000	29.724880
475.000000	29.833895
476.000000	29.935581
477.000000	30.029747
478.000000	30.116902
479.000000	30.196173
480.000000	30.265792
481.000000	30.327178
482.000000	30.381181
483.000000	30.429239
484.000000	30.472386
485.000000	30.510720
486.000000	30.545492
487.000000	30.577545
488.000000	30.607017
489.000000	30.635296
490.000000	30.662813
491.000000	30.689481
492.000000	30.714881
493.000000	30.739319
494.000000	30.764076
495.000000	30.787701
496.000000	30.809723
497.000000	30.830333
498.000000	30.850939
499.000000	30.872080
500.000000	30.893356
501.000000	30.915197
502.000000	30.938723
503.000000	30.964338
504.000000	30.993453
505.000000	31.027183
506.000000	31.065889
507.000000	31.110650
508.000000	31.162649
509.000000	31.223136
510.000000	31.291936
511.000000	31.369231
512.000000	31.456344
513.000000	31.552589
514.000000	31.658395
515.000000	31.775360
516.000000	31.902437
517.000000	32.039559
518.000000	32.185709
519.000000	32.341588
520.000000	32.507775
521.000000	32.684234
522.000000	32.870405
523.000000	33.067720
524.000000	33.274963
525.000000	33.492333
526.000000	33.719984
527.000000	33.958599
528.000000	34.208920
529.000000	34.469297
530.000000	34.740864
531.000000	35.023569
532.000000	35.317032
533.000000	35.619525
534.000000	35.930914
535.000000	36.250710
536.000000	36.579240
537.000000	36.913536
538.000000	37.253433
539.000000	37.597431
540.000000	37.944614
541.000000	38.293910
542.000000	38.643053
543.000000	38.991620
544.000000	39.337623
545.000000	39.680990
546.000000	40.020392
547.000000	40.354507
548.000000	40.682108
549.000000	41.001778
550.000000	41.311770
551.000000	41.614118
552.000000	41.906405
553.000000	42.189890
554.000000	42.463002
555.000000	42.725237
556.000000	42.975908
557.000000	43.215210
558.000000	43.441980
559.000000	43.656891
560.000000	43.862551
561.000000	44.055844
562.000000	44.236527
563.000000	44.405991
564.000000	44.564804
565.000000	44.712321
566.000000	44.850574
567.000000	44.979871
568.000000	45.100268
569.000000	45.212739
570.000000	45.317894
571.000000	45.416312
572.000000	45.510533
573.000000	45.600054
574.000000	45.687507
575.000000	45.771549
576.000000	45.853256
577.000000	45.934335
578.000000	46.013866
579.000000	46.092626
580.000000	46.170376
581.000000	46.244831
582.000000	46.317663
583.000000	46.388476
584.000000	46.458247
585.000000	46.527593
586.000000	46.594982
587.000000	46.658585
588.000000	46.717751
589.000000	46.771854
590.000000	46.820437
591.000000	46.863617
592.000000	46.899696
593.000000	46.928552
594.000000	46.950931
595.000000	46.962795
596.000000	46.967743
597.000000	46.967131
598.000000	46.958318
599.000000	46.942294
600.000000	46.917391
601.000000	46.885431
602.000000	46.844884
603.000000	46.797847
604.000000	46.744135
605.000000	46.683205
606.000000	46.614972
607.000000	46.539643
608.000000	46.458137
609.000000	46.367850
610.000000	46.270070
611.000000	46.164128
612.000000	46.051115
613.000000	45.930059
614.000000	45.801434
615.000000	45.664790
616.000000	45.523963
617.000000	45.377164
618.000000	45.224989
619.000000	45.067454
620.000000	44.905484
621.000000	44.739573
622.000000	44.571271
623.000000	44.400918
624.000000	44.229506
625.000000	44.058241
626.000000	43.887220
627.000000	43.717988
628.000000	43.551400
629.000000	43.387840
630.000000	43.228399
631.000000	43.074117
632.000000	42.922884
633.000000	42.776827
634.000000	42.634632
635.000000	42.499426
636.000000	42.369641
637.000000	42.247125
638.000000	42.130415
639.000000	42.020921
640.000000	41.918992
641.000000	41.825921
642.000000	41.740486
643.000000	41.663309
644.000000	41.594584
645.000000	41.534626
646.000000	41.484069
647.000000	41.441155
648.000000	41.407329
649.000000	41.381721
650.000000	41.365775
651.000000	41.357362
652.000000	41.356386
653.000000	41.363661
654.000000	41.379057
655.000000	41.402145
656.000000	41.431141
657.000000	41.467457
658.000000	41.511859
659.000000	41.564154
660.000000	41.624180
661.000000	41.691275
662.000000	41.765037
663.000000	41.846611
664.000000	41.934417
665.000000	42.028287
666.000000	42.128440
667.000000	42.236621
668.000000	42.351573
669.000000	42.475465
670.000000	42.608169
671.000000	42.747778
672.000000	42.894733
673.000000	43.051495
674.000000	43.215346
675.000000	43.387651
676.000000	43.566138
677.000000	43.751620
678.000000	43.942990
679.000000	44.140851
680.000000	44.345449
681.000000	44.555502
682.000000	44.772009
683.000000	44.994035
684.000000	45.222182
685.000000	45.454888
686.000000	45.692200
687.000000	45.933930
688.000000	46.178139
689.000000	46.427074
690.000000	46.678674
691.000000	46.934533
692.000000	47.193958
693.000000	47.453720
694.000000	47.713880
695.000000	47.973535
696.000000	48.233622
697.000000	48.492152
698.000000	48.748480
699.000000	49.004743
700.000000	49.260765
701.000000	49.514919
702.000000	49.766260
703.000000	50.014888
704.000000	50.261053
705.000000	50.505395
706.000000	50.747214
707.000000	50.985991
708.000000	51.220803
709.000000	51.451108
710.000000	51.676959
711.000000	51.900872
712.000000	52.119922
713.000000	52.333122
714.000000	52.541989
715.000000	52.745224
716.000000	52.943972
717.000000	53.136898
718.000000	53.324002
719.000000	53.504230
720.000000	53.680310
721.000000	53.851543
722.000000	54.016779
723.000000	54.178572
724.000000	54.333311
725.000000	54.483405
726.000000	54.627787
727.000000	54.768379
728.000000	54.905810
729.000000	55.037986
730.000000	55.167889
731.000000	55.293910
732.000000	55.419339
733.000000	55.543454
734.000000	55.663818
735.000000	55.781554
736.000000	55.897522
737.000000	56.013214
738.000000	56.126453
739.000000	56.235353
740.000000	56.340401
741.000000	56.443455
742.000000	56.543157
743.000000	56.638846
744.000000	56.732768
745.000000	56.823852
746.000000	56.909553
747.000000	56.992545
748.000000	57.075696
749.000000	57.157127
750.000000	57.235494
751.000000	57.312086
752.000000	57.389981
753.000000	57.470371
754.000000	57.550003
755.000000	57.628212
756.000000	57.707581
757.000000	57.786059
758.000000	57.862803
759.000000	57.937891
760.000000	58.011261
761.000000	58.085253
762.000000	58.158764
763.000000	58.231415
764.000000	58.305024
765.000000	58.377497
766.000000	58.452034
767.000000	58.523609
768.000000	58.590294
769.000000	58.656825
770.000000	58.723837
771.000000	58.792015
772.000000	58.859072
773.000000	58.924617
774.000000	58.990195
775.000000	59.057886
776.000000	59.123891
777.000000	59.191740
778.000000	59.258775
779.000000	59.324484
780.000000	59.391526
781.000000	59.461126
782.000000	59.530770
783.000000	59.598816
784.000000	59.665430
785.000000	59.733243
786.000000	59.806078
787.000000	59.873465
788.000000	59.935066
789.000000	59.995447
790.000000	60.059191
791.000000	60.124341
792.000000	60.187569
793.000000	60.251741
794.000000	60.315547
795.000000	60.380864
796.000000	60.445258
797.000000	60.510887
798.000000	60.576762
799.000000	60.645438
800.000000	60.715053
801.000000	60.781208
802.000000	60.849410
803.000000	60.920623
804.000000	60.993680
805.000000	61.064453
806.000000	61.133174
807.000000	61.203354
808.000000	61.275395
809.000000	61.348339
810.000000	61.419034
811.000000	61.492279
812.000000	61.561432
813.000000	61.633330
814.000000	61.705112
815.000000	61.775375
816.000000	61.848649
817.000000	61.921612
818.000000	61.994264
819.000000	62.066690
820.000000	62.141976
821.000000	62.214316
822.000000	62.290040
823.000000	62.369891
824.000000	62.448961
825.000000	62.521741
826.000000	62.588945
827.000000	62.663779
828.000000	62.740170
829.000000	62.817361
830.000000	62.890707
831.000000	62.958444
832.000000	63.028955
833.000000	63.101584
834.000000	63.169981
835.000000	63.235992
836.000000	63.296645
837.000000	63.363599
838.000000	63.437378
839.000000	63.503315
840.000000	63.568117
841.000000	63.632531
842.000000	63.694270
843.000000	63.755660
844.000000	63.821089
845.000000	63.881351
846.000000	63.938728
847.000000	64.004812
848.000000	64.058129
849.000000	64.110434
850.000000	64.154396
851.000000	64.212195
852.000000	64.261754
853.000000	64.309624
854.000000	64.357316
855.000000	64.411986
856.000000	64.461654
857.000000	64.493231
858.000000	64.516893
859.000000	64.583119
860.000000	64.653714
861.000000	64.718819
862.000000	64.778085
863.000000	64.811903
864.000000	64.856460
865.000000	64.930838
866.000000	64.955901
867.000000	64.995815
868.000000	65.042554
869.000000	65.083421
870.000000	65.130147
871.000000	65.174900
872.000000	65.218266
873.000000	65.264011
874.000000	65.288729
875.000000	65.290295
876.000000	65.295145
877.000000	65.334695
878.000000	65.382447
879.000000	65.434223
880.000000	65.460544
881.000000	65.495743
882.000000	65.517223
883.000000	65.541095
884.000000	65.576697
885.000000	65.598156
886.000000	65.586908
887.000000	65.608702
888.000000	65.648837
889.000000	65.661371
890.000000	65.688823
891.000000	65.691212
892.000000	65.682140
893.000000	65.677215
894.000000	65.657195
895.000000	65.607663
896.000000	65.604388
897.000000	65.547886
898.000000	65.523382
899.000000	65.502669
900.000000	65.426990
901.000000	65.406100
902.000000	65.361099
903.000000	65.281058
904.000000	65.230830
905.000000	65.182250
906.000000	65.095959
907.000000	65.019833
908.000000	64.918615
909.000000	64.880649
910.000000	64.846694
911.000000	64.798148
912.000000	64.646720
913.000000	64.518941
914.000000	64.412765
915.000000	64.307151
916.000000	64.180316
917.000000	64.085990
918.000000	63.958327
919.000000	63.799658
920.000000	63.685335
921.000000	63.564225
922.000000	63.414909
923.000000	63.270664
924.000000	63.150314
925.000000	63.004342
926.000000	62.859020
927.000000	62.748007
928.000000	62.646283
929.000000	62.474061
930.000000	62.331279
931.000000	62.159171
932.000000	62.027399
933.000000	61.912737
934.000000	61.777865
935.000000	61.630084
936.000000	61.496858
937.000000	61.338665
938.000000	61.204607
939.000000	61.067785
940.000000	60.917174
941.000000	60.797556
942.000000	60.658190
943.000000	60.534736
944.000000	60.393279
945.000000	60.254042
946.000000	60.101027
947.000000	60.062042
948.000000	59.946320
949.000000	59.777581
950.000000	59.644730
951.000000	59.503597
952.000000	59.358152
953.000000	59.264372
954.000000	59.193589
955.000000	59.088671
956.000000	59.012858
957.000000	58.932094
958.000000	58.826984
959.000000	58.703535
960.000000	58.583708
961.000000	58.452420
962.000000	58.357832
963.000000	58.233809
964.000000	58.173384
965.000000	58.111625
966.000000	58.018994
967.000000	57.949073
968.000000	57.844224
969.000000	57.742217
970.000000	57.666439
971.000000	57.567977
972.000000	57.531164
973.000000	57.470544
974.000000	57.393068
975.000000	57.298835
976.000000	57.216509
977.000000	57.162721
978.000000	57.083085
979.000000	56.978891
980.000000	56.935183
981.000000	56.902119
982.000000	56.829792
983.000000	56.785399
984.000000	56.755621
985.000000	56.747665
986.000000	56.738775
987.000000	56.705255
988.000000	56.656747
989.000000	56.614932
990.000000	56.561033
991.000000	56.483965
992.000000	56.448872
993.000000	56.410665
994.000000	56.391062
995.000000	56.376745
996.000000	56.378828
997.000000	56.334037
998.000000	56.333484
999.000000	56.318832
1000.000000	56.301675
1001.000000	56.286316
1002.000000	56.239615
1003.000000	56.203992
1004.000000	56.168627
1005.000000	56.144235
1006.000000	56.125301
1007.000000	56.083458
1008.000000	56.088578
1009.000000	56.082220
1010.000000	56.085715
1011.000000	56.088562
1012.000000	56.066923
1013.000000	56.063517
1014.000000	56.062641
1015.000000	56.038835
1016.000000	56.028256
1017.000000	56.005701
1018.000000	55.998376
1019.000000	56.000000
1020.000000	55.965756
1021.000000	55.960542
1022.000000	55.940673
1023.000000	55.925661
1024.000000	55.908800
1025.000000	55.902816
1026.000000	55.907765
1027.000000	55.911429
1028.000000	55.910636
1029.000000	55.889180
1030.000000	55.868811
1031.000000	55.875045
1032.000000	55.871816
1033.000000	55.861844
1034.000000	55.842897
1035.000000	55.827585
1036.000000	55.854386
1037.000000	55.881399
1038.000000	55.898894
1039.000000	55.938230
1040.000000	55.968482
1041.000000	55.979402
1042.000000	55.987138
1043.000000	56.003717
1044.000000	56.018647
1045.000000	56.021511
1046.000000	56.015197
1047.000000	56.050704
1048.000000	56.065602
1049.000000	56.068520
1050.000000	56.067520
1051.000000	56.064632
1052.000000	56.068436
1053.000000	56.062356
1054.000000	56.046551
1055.000000	56.058531
1056.000000	56.058868
1057.000000	56.068297
1058.000000	56.088617
1059.000000	56.116262
1060.000000	56.155264
1061.000000	56.193131
1062.000000	56.171666
1063.000000	56.167992
1064.000000	56.206639
1065.000000	56.222741
1066.000000	56.251585
1067.000000	56.291184
1068.000000	56.311517
1069.000000	56.343773
1070.000000	56.373390
1071.000000	56.362642
1072.000000	56.369051
1073.000000	56.353590
1074.000000	56.334822
1075.000000	56.319293
1076.000000	56.326774
1077.000000	56.322493
1078.000000	56.272296
1079.000000	56.236319
1080.000000	56.247750
1081.000000	56.285820
1082.000000	56.236376
1083.000000	56.237116
1084.000000	56.269412
1085.000000	56.271771
1086.000000	56.299436
1087.000000	56.323542
1088.000000	56.319162
1089.000000	56.323558
1090.000000	56.318120
1091.000000	56.313139
1092.000000	56.314296
1093.000000	56.306899
1094.000000	56.287452
1095.000000	56.292695
1096.000000	56.296009
1097.000000	56.312171
1098.000000	56.308155
1099.000000	56.294328
1100.000000	56.282128
1101.000000	56.251640
1102.000000	56.242394
1103.000000	56.220422
1104.000000	56.202241
1105.000000	56.172807
1106.000000	56.153269
1107.000000	56.152030
1108.000000	56.163660
1109.000000	56.172250
1110.000000	56.193348
1111.000000	56.213760
1112.000000	56.239740
1113.000000	56.314346
1114.000000	56.341242
1115.000000	56.332761
1116.000000	56.310325
1117.000000	56.370481
1118.000000	56.371524
1119.000000	56.375625
1120.000000	56.366863
1121.000000	56.313725
1122.000000	56.313565
1123.000000	56.344092
1124.000000	56.374238
1125.000000	56.391899
1126.000000	56.362145
1127.000000	56.382732
1128.000000	56.395113
1129.000000	56.408323
1130.000000	56.369128
1131.000000	56.333132
1132.000000	56.344938
1133.000000	56.369183
1134.000000	56.395383
1135.000000	56.406009
1136.000000	56.414051
1137.000000	56.392801
1138.000000	56.396592
1139.000000	56.390388
1140.000000	56.400071
1141.000000	56.362896
1142.000000	56.348454
1143.000000	56.327882
1144.000000	56.297449
1145.000000	56.262610
1146.000000	56.211174
1147.000000	56.184153
1148.000000	56.091559
1149.000000	56.104864
1150.000000	56.088543
1151.000000	56.066241
1152.000000	56.015524
1153.000000	56.017707
1154.000000	55.970509
1155.000000	55.942833
1156.000000	55.943500
1157.000000	55.885904
1158.000000	55.843010
1159.000000	55.779633
1160.000000	55.735400
1161.000000	55.733204
1162.000000	55.669264
1163.000000	55.642826
1164.000000	55.580571
1165.000000	55.572062
1166.000000	55.533169
1167.000000	55.490269
1168.000000	55.440645
1169.000000	55.353620
1170.000000	55.273208
1171.000000	55.230325
1172.000000	55.195815
1173.000000	55.168945
1174.000000	55.132364
1175.000000	55.055511
1176.000000	55.053718
1177.000000	55.020165
1178.000000	54.990187
1179.000000	54.995945
1180.000000	54.979228
1181.000000	54.984269
1182.000000	54.966123
1183.000000	54.977081
1184.000000	54.897407
1185.000000	54.845775
1186.000000	54.816167
1187.000000	54.769587
1188.000000	54.735366
1189.000000	54.722171
1190.000000	54.720001
1191.000000	54.688534
1192.000000	54.673053
1193.000000	54.656046
1194.000000	54.632845
1195.000000	54.614696
1196.000000	54.591956
1197.000000	54.584900
