PE UV       SUBTECH     SPECTRUM    ASCII       PEDS        4.00        
   -1
PELID.001-TX3.ASC
23/11/30
15:17:19.00
23/11/30
15:17:19.00
Vinicio Soto Monge
PELID 1
250,000000
1
Lambda 1050
1050L1511233
PerkinElmer UV WinLab 6.3.2.0749 / 2.02.05 Lambda 900 UV/VIS/NIR, Aug  7 2015 09:38:08

0
0
3350/servo 860,8/2
0
0
UV/VIS
1
1
1
DoubleDePol,CommonBeamDepol,RBeamAtt,SBeamAtt,60mm sphere, WB InGaAs Detector
0
0
0
0
Program
Program
3350/servo 860,8/2
3350/0,4 860,8/0,4
3350/0,4 860,8/0,4
0
20.00
 
 
 
0
 
860,8
319,2
860,8
Front
100
on
S:100 R:100
0
0
0
0
 
0
 
 
 
0
 
 
0
0
0
0
0
 
 
 
 
0
0


0
0
#HDR
-1
-1
#GR
nm
%R
1.0
0.0
2200,000000
-1,000000
1951
8
42,961348
0,210139
#DATA
284.000000	6.042341
285.000000	6.028120
286.000000	6.014040
287.000000	5.998797
288.000000	5.985040
289.000000	5.971962
290.000000	5.960302
291.000000	5.948865
292.000000	5.937656
293.000000	5.929564
294.000000	5.921393
295.000000	5.913037
296.000000	5.906897
297.000000	5.902722
298.000000	5.897106
299.000000	5.890736
300.000000	5.886616
301.000000	5.883174
302.000000	5.881413
303.000000	5.877452
304.000000	5.873435
305.000000	5.867053
306.000000	5.861129
307.000000	5.855973
308.000000	5.851678
309.000000	5.845512
310.000000	5.839840
311.000000	5.835656
312.000000	5.829960
313.000000	5.824657
314.000000	5.817827
315.000000	5.812249
316.000000	5.807333
317.000000	5.798704
318.000000	5.793303
319.000000	5.782106
320.000000	5.765796
321.000000	5.753860
322.000000	5.746086
323.000000	5.734635
324.000000	5.721737
325.000000	5.708405
326.000000	5.696150
327.000000	5.678960
328.000000	5.662301
329.000000	5.644246
330.000000	5.630749
331.000000	5.615102
332.000000	5.594379
333.000000	5.578445
334.000000	5.563270
335.000000	5.544450
336.000000	5.528059
337.000000	5.510517
338.000000	5.494613
339.000000	5.479530
340.000000	5.466789
341.000000	5.454442
342.000000	5.440857
343.000000	5.429216
344.000000	5.418174
345.000000	5.405745
346.000000	5.394972
347.000000	5.383871
348.000000	5.370888
349.000000	5.359782
350.000000	5.349469
351.000000	5.336947
352.000000	5.326550
353.000000	5.314721
354.000000	5.306728
355.000000	5.303758
356.000000	5.296798
357.000000	5.285615
358.000000	5.280555
359.000000	5.277298
360.000000	5.273579
361.000000	5.268421
362.000000	5.266393
363.000000	5.263061
364.000000	5.262547
365.000000	5.257536
366.000000	5.254114
367.000000	5.254415
368.000000	5.251505
369.000000	5.249754
370.000000	5.247989
371.000000	5.244608
372.000000	5.242927
373.000000	5.241659
374.000000	5.238518
375.000000	5.236766
376.000000	5.235022
377.000000	5.234510
378.000000	5.232919
379.000000	5.233007
380.000000	5.232491
381.000000	5.232286
382.000000	5.232363
383.000000	5.233649
384.000000	5.235176
385.000000	5.235657
386.000000	5.237891
387.000000	5.241086
388.000000	5.244767
389.000000	5.249028
390.000000	5.252925
391.000000	5.258103
392.000000	5.265291
393.000000	5.270093
394.000000	5.274810
395.000000	5.281287
396.000000	5.288876
397.000000	5.298234
398.000000	5.308622
399.000000	5.317130
400.000000	5.326966
401.000000	5.337172
402.000000	5.347110
403.000000	5.358438
404.000000	5.370098
405.000000	5.383709
406.000000	5.398457
407.000000	5.412279
408.000000	5.427339
409.000000	5.444962
410.000000	5.461107
411.000000	5.479214
412.000000	5.496882
413.000000	5.515850
414.000000	5.536072
415.000000	5.557213
416.000000	5.579362
417.000000	5.602695
418.000000	5.627196
419.000000	5.652914
420.000000	5.680152
421.000000	5.708839
422.000000	5.738628
423.000000	5.769573
424.000000	5.801559
425.000000	5.835046
426.000000	5.869794
427.000000	5.905380
428.000000	5.941977
429.000000	5.979538
430.000000	6.018187
431.000000	6.058212
432.000000	6.098949
433.000000	6.140481
434.000000	6.183584
435.000000	6.227607
436.000000	6.273201
437.000000	6.319668
438.000000	6.366787
439.000000	6.414292
440.000000	6.462634
441.000000	6.512222
442.000000	6.563091
443.000000	6.614159
444.000000	6.665967
445.000000	6.718956
446.000000	6.772383
447.000000	6.826474
448.000000	6.880574
449.000000	6.935136
450.000000	6.990414
451.000000	7.046019
452.000000	7.102294
453.000000	7.159123
454.000000	7.216405
455.000000	7.273834
456.000000	7.331198
457.000000	7.388738
458.000000	7.446855
459.000000	7.505592
460.000000	7.564493
461.000000	7.623602
462.000000	7.683484
463.000000	7.744152
464.000000	7.805679
465.000000	7.867317
466.000000	7.929404
467.000000	7.992414
468.000000	8.056284
469.000000	8.120688
470.000000	8.185266
471.000000	8.250277
472.000000	8.316049
473.000000	8.382774
474.000000	8.450566
475.000000	8.519001
476.000000	8.587790
477.000000	8.657307
478.000000	8.727988
479.000000	8.798860
480.000000	8.869915
481.000000	8.942487
482.000000	9.015987
483.000000	9.090615
484.000000	9.166140
485.000000	9.242386
486.000000	9.319401
487.000000	9.397234
488.000000	9.475973
489.000000	9.555936
490.000000	9.637298
491.000000	9.720197
492.000000	9.803680
493.000000	9.888249
494.000000	9.974032
495.000000	10.061048
496.000000	10.148756
497.000000	10.237501
498.000000	10.327940
499.000000	10.419210
500.000000	10.511983
501.000000	10.606008
502.000000	10.700861
503.000000	10.796721
504.000000	10.894056
505.000000	10.992443
506.000000	11.092241
507.000000	11.193821
508.000000	11.296618
509.000000	11.400964
510.000000	11.507309
511.000000	11.615170
512.000000	11.724687
513.000000	11.836516
514.000000	11.950525
515.000000	12.067208
516.000000	12.185539
517.000000	12.306361
518.000000	12.429339
519.000000	12.555206
520.000000	12.683521
521.000000	12.814331
522.000000	12.947667
523.000000	13.083564
524.000000	13.221486
525.000000	13.362808
526.000000	13.506970
527.000000	13.654136
528.000000	13.804467
529.000000	13.957484
530.000000	14.114075
531.000000	14.275175
532.000000	14.439595
533.000000	14.607105
534.000000	14.779219
535.000000	14.955807
536.000000	15.137062
537.000000	15.322967
538.000000	15.514082
539.000000	15.709980
540.000000	15.912316
541.000000	16.120746
542.000000	16.334627
543.000000	16.555031
544.000000	16.782132
545.000000	17.015826
546.000000	17.255880
547.000000	17.502563
548.000000	17.755170
549.000000	18.014486
550.000000	18.278762
551.000000	18.548546
552.000000	18.822573
553.000000	19.101695
554.000000	19.383932
555.000000	19.669841
556.000000	19.959670
557.000000	20.252611
558.000000	20.546468
559.000000	20.842883
560.000000	21.138248
561.000000	21.433878
562.000000	21.728737
563.000000	22.022742
564.000000	22.314439
565.000000	22.603169
566.000000	22.888263
567.000000	23.170489
568.000000	23.448097
569.000000	23.719502
570.000000	23.983462
571.000000	24.240727
572.000000	24.491298
573.000000	24.733619
574.000000	24.968141
575.000000	25.192891
576.000000	25.407605
577.000000	25.612640
578.000000	25.807778
579.000000	25.992772
580.000000	26.166683
581.000000	26.329013
582.000000	26.480997
583.000000	26.621987
584.000000	26.751912
585.000000	26.872467
586.000000	26.982974
587.000000	27.084229
588.000000	27.175523
589.000000	27.258391
590.000000	27.334138
591.000000	27.402677
592.000000	27.464289
593.000000	27.520275
594.000000	27.570515
595.000000	27.617018
596.000000	27.658853
597.000000	27.697993
598.000000	27.734001
599.000000	27.768792
600.000000	27.801759
601.000000	27.834583
602.000000	27.865489
603.000000	27.897705
604.000000	27.932343
605.000000	27.969627
606.000000	28.009068
607.000000	28.051017
608.000000	28.095953
609.000000	28.142869
610.000000	28.194878
611.000000	28.250604
612.000000	28.310894
613.000000	28.374373
614.000000	28.441672
615.000000	28.514175
616.000000	28.592285
617.000000	28.674106
618.000000	28.759668
619.000000	28.849182
620.000000	28.943072
621.000000	29.042080
622.000000	29.145182
623.000000	29.252086
624.000000	29.363767
625.000000	29.478959
626.000000	29.597172
627.000000	29.717633
628.000000	29.842339
629.000000	29.969848
630.000000	30.101139
631.000000	30.236219
632.000000	30.371450
633.000000	30.510403
634.000000	30.651562
635.000000	30.796162
636.000000	30.941568
637.000000	31.089326
638.000000	31.238446
639.000000	31.389007
640.000000	31.541720
641.000000	31.696233
642.000000	31.851689
643.000000	32.009543
644.000000	32.169543
645.000000	32.328888
646.000000	32.489636
647.000000	32.651411
648.000000	32.814290
649.000000	32.977038
650.000000	33.139315
651.000000	33.302320
652.000000	33.465559
653.000000	33.630721
654.000000	33.797489
655.000000	33.964779
656.000000	34.130210
657.000000	34.296792
658.000000	34.464935
659.000000	34.633025
660.000000	34.800499
661.000000	34.968975
662.000000	35.138153
663.000000	35.306650
664.000000	35.473912
665.000000	35.640519
666.000000	35.805988
667.000000	35.974398
668.000000	36.141600
669.000000	36.309593
670.000000	36.476741
671.000000	36.643623
672.000000	36.810792
673.000000	36.977587
674.000000	37.143905
675.000000	37.308587
676.000000	37.471911
677.000000	37.636577
678.000000	37.799635
679.000000	37.961198
680.000000	38.123899
681.000000	38.284703
682.000000	38.445738
683.000000	38.606686
684.000000	38.768806
685.000000	38.930836
686.000000	39.091782
687.000000	39.251292
688.000000	39.408794
689.000000	39.566548
690.000000	39.721484
691.000000	39.878068
692.000000	40.033739
693.000000	40.188073
694.000000	40.342245
695.000000	40.495737
696.000000	40.649444
697.000000	40.801267
698.000000	40.952406
699.000000	41.103895
700.000000	41.253736
701.000000	41.403499
702.000000	41.553331
703.000000	41.702071
704.000000	41.847784
705.000000	41.993472
706.000000	42.139377
707.000000	42.283836
708.000000	42.428878
709.000000	42.574331
710.000000	42.719531
711.000000	42.867111
712.000000	43.010796
713.000000	43.150894
714.000000	43.293452
715.000000	43.434465
716.000000	43.575574
717.000000	43.715037
718.000000	43.853715
719.000000	43.989122
720.000000	44.125850
721.000000	44.263762
722.000000	44.400876
723.000000	44.538967
724.000000	44.674416
725.000000	44.808649
726.000000	44.941975
727.000000	45.075777
728.000000	45.210273
729.000000	45.343032
730.000000	45.474927
731.000000	45.603099
732.000000	45.731887
733.000000	45.860135
734.000000	45.987710
735.000000	46.116135
736.000000	46.245097
737.000000	46.372275
738.000000	46.497751
739.000000	46.625035
740.000000	46.752360
741.000000	46.879107
742.000000	47.003875
743.000000	47.126244
744.000000	47.248377
745.000000	47.370925
746.000000	47.492142
747.000000	47.613175
748.000000	47.734439
749.000000	47.854034
750.000000	47.973462
751.000000	48.092655
752.000000	48.211391
753.000000	48.329830
754.000000	48.448524
755.000000	48.563278
756.000000	48.674638
757.000000	48.788903
758.000000	48.903483
759.000000	49.015594
760.000000	49.128923
761.000000	49.243179
762.000000	49.354635
763.000000	49.464874
764.000000	49.574321
765.000000	49.685076
766.000000	49.797207
767.000000	49.908365
768.000000	50.017286
769.000000	50.128001
770.000000	50.236673
771.000000	50.343402
772.000000	50.448515
773.000000	50.556601
774.000000	50.662341
775.000000	50.766190
776.000000	50.868865
777.000000	50.972467
778.000000	51.077895
779.000000	51.183231
780.000000	51.284298
781.000000	51.382623
782.000000	51.483067
783.000000	51.584281
784.000000	51.680454
785.000000	51.778850
786.000000	51.877754
787.000000	51.974270
788.000000	52.070744
789.000000	52.163563
790.000000	52.256022
791.000000	52.351514
792.000000	52.447022
793.000000	52.539897
794.000000	52.634954
795.000000	52.729628
796.000000	52.824643
797.000000	52.918351
798.000000	53.012823
799.000000	53.104480
800.000000	53.192451
801.000000	53.281118
802.000000	53.369573
803.000000	53.461333
804.000000	53.550781
805.000000	53.637851
806.000000	53.725645
807.000000	53.811463
808.000000	53.893713
809.000000	53.979005
810.000000	54.061947
811.000000	54.149497
812.000000	54.238220
813.000000	54.325118
814.000000	54.403169
815.000000	54.481950
816.000000	54.562475
817.000000	54.641947
818.000000	54.721180
819.000000	54.797572
820.000000	54.875656
821.000000	54.952912
822.000000	55.032130
823.000000	55.109922
824.000000	55.186459
825.000000	55.260895
826.000000	55.340817
827.000000	55.420185
828.000000	55.496434
829.000000	55.566904
830.000000	55.638833
831.000000	55.701811
832.000000	55.772697
833.000000	55.840418
834.000000	55.913334
835.000000	55.986864
836.000000	56.049970
837.000000	56.110070
838.000000	56.178036
839.000000	56.241297
840.000000	56.310388
841.000000	56.370758
842.000000	56.429889
843.000000	56.488779
844.000000	56.549685
845.000000	56.620447
846.000000	56.679441
847.000000	56.733875
848.000000	56.792176
849.000000	56.851637
850.000000	56.907437
851.000000	56.965832
852.000000	57.024334
853.000000	57.072668
854.000000	57.134263
855.000000	57.189174
856.000000	57.250935
857.000000	57.288496
858.000000	57.280982
859.000000	57.339239
860.000000	57.425332
861.000000	57.489435
862.000000	57.511911
863.000000	57.564948
864.000000	57.614292
865.000000	57.625953
866.000000	57.640739
867.000000	57.684699
868.000000	57.753259
869.000000	57.789370
870.000000	57.837999
871.000000	57.914526
872.000000	57.960454
873.000000	57.972365
874.000000	58.030190
875.000000	58.080222
876.000000	58.136197
877.000000	58.189713
878.000000	58.229269
879.000000	58.265653
880.000000	58.328907
881.000000	58.397122
882.000000	58.453607
883.000000	58.529268
884.000000	58.577274
885.000000	58.635022
886.000000	58.712034
887.000000	58.747741
888.000000	58.819672
889.000000	58.891422
890.000000	58.953218
891.000000	58.995064
892.000000	59.043800
893.000000	59.175830
894.000000	59.213236
895.000000	59.225788
896.000000	59.279132
897.000000	59.342446
898.000000	59.401416
899.000000	59.464097
900.000000	59.554280
901.000000	59.628070
902.000000	59.637687
903.000000	59.644464
904.000000	59.678687
905.000000	59.686538
906.000000	59.706281
907.000000	59.726170
908.000000	59.782102
909.000000	59.765463
910.000000	59.754054
911.000000	59.763999
912.000000	59.774012
913.000000	59.806978
914.000000	59.866943
915.000000	59.814975
916.000000	59.778069
917.000000	59.789311
918.000000	59.791622
919.000000	59.829094
920.000000	59.846556
921.000000	59.837633
922.000000	59.843844
923.000000	59.845114
924.000000	59.824012
925.000000	59.819401
926.000000	59.847302
927.000000	59.876381
928.000000	59.876543
929.000000	59.892238
930.000000	59.891321
931.000000	59.850903
932.000000	59.848688
933.000000	59.864539
934.000000	59.855219
935.000000	59.807970
936.000000	59.805012
937.000000	59.849472
938.000000	59.862961
939.000000	59.867602
940.000000	59.925747
941.000000	59.927953
942.000000	59.979080
943.000000	59.997613
944.000000	60.026786
945.000000	60.068314
946.000000	60.060650
947.000000	60.093700
948.000000	60.101888
949.000000	60.072396
950.000000	60.120838
951.000000	60.165845
952.000000	60.174844
953.000000	60.171357
954.000000	60.176895
955.000000	60.184774
956.000000	60.211646
957.000000	60.238751
958.000000	60.282544
959.000000	60.334377
960.000000	60.361111
961.000000	60.330576
962.000000	60.340922
963.000000	60.327404
964.000000	60.329565
965.000000	60.365336
966.000000	60.396306
967.000000	60.419612
968.000000	60.414848
969.000000	60.427851
970.000000	60.475220
971.000000	60.454322
972.000000	60.448099
973.000000	60.467844
974.000000	60.477449
975.000000	60.466020
976.000000	60.490403
977.000000	60.470091
978.000000	60.462940
979.000000	60.481542
980.000000	60.490562
981.000000	60.530375
982.000000	60.528146
983.000000	60.518441
984.000000	60.548019
985.000000	60.591553
986.000000	60.596585
987.000000	60.610775
988.000000	60.628209
989.000000	60.630729
990.000000	60.628102
991.000000	60.608168
992.000000	60.636564
993.000000	60.618335
994.000000	60.602436
995.000000	60.575787
996.000000	60.586774
997.000000	60.602857
998.000000	60.633600
999.000000	60.671173
1000.000000	60.649949
1001.000000	60.643563
1002.000000	60.642538
1003.000000	60.626749
1004.000000	60.613509
1005.000000	60.599819
1006.000000	60.650998
1007.000000	60.654958
1008.000000	60.650141
1009.000000	60.664354
1010.000000	60.656288
1011.000000	60.629481
1012.000000	60.641561
1013.000000	60.672162
1014.000000	60.681058
1015.000000	60.671885
1016.000000	60.660363
1017.000000	60.697986
1018.000000	60.758808
1019.000000	60.728938
1020.000000	60.692465
1021.000000	60.706786
1022.000000	60.716744
1023.000000	60.714904
1024.000000	60.702940
1025.000000	60.702923
1026.000000	60.721736
1027.000000	60.743834
1028.000000	60.755187
1029.000000	60.752470
1030.000000	60.779497
1031.000000	60.799718
1032.000000	60.780297
1033.000000	60.772181
1034.000000	60.719655
1035.000000	60.706607
1036.000000	60.711067
1037.000000	60.710838
1038.000000	60.705718
1039.000000	60.695441
1040.000000	60.698653
1041.000000	60.680128
1042.000000	60.675059
1043.000000	60.680538
1044.000000	60.688716
1045.000000	60.675413
1046.000000	60.657823
1047.000000	60.642023
1048.000000	60.611392
1049.000000	60.595400
1050.000000	60.598412
1051.000000	60.588998
1052.000000	60.522015
1053.000000	60.451058
1054.000000	60.457381
1055.000000	60.479503
1056.000000	60.453354
1057.000000	60.434908
1058.000000	60.415472
1059.000000	60.400997
1060.000000	60.385232
1061.000000	60.367743
1062.000000	60.309913
1063.000000	60.283710
1064.000000	60.229765
1065.000000	60.185605
1066.000000	60.180571
1067.000000	60.171413
1068.000000	60.147723
1069.000000	60.192839
1070.000000	60.233075
1071.000000	60.243435
1072.000000	60.240490
1073.000000	60.238494
1074.000000	60.243055
1075.000000	60.265902
1076.000000	60.267617
1077.000000	60.255661
1078.000000	60.216456
1079.000000	60.181634
1080.000000	60.177081
1081.000000	60.204491
1082.000000	60.197340
1083.000000	60.227459
1084.000000	60.259975
1085.000000	60.273253
1086.000000	60.283626
1087.000000	60.295217
1088.000000	60.342667
1089.000000	60.358211
1090.000000	60.325815
1091.000000	60.312120
1092.000000	60.285859
1093.000000	60.232274
1094.000000	60.229395
1095.000000	60.241492
1096.000000	60.207314
1097.000000	60.214353
1098.000000	60.223667
1099.000000	60.249315
1100.000000	60.267108
1101.000000	60.247047
1102.000000	60.252325
1103.000000	60.230671
1104.000000	60.204850
1105.000000	60.150260
1106.000000	60.147824
1107.000000	60.137323
1108.000000	60.141439
1109.000000	60.129874
1110.000000	60.132956
1111.000000	60.147411
1112.000000	60.191309
1113.000000	60.247558
1114.000000	60.275325
1115.000000	60.224221
1116.000000	60.167122
1117.000000	60.142223
1118.000000	60.107296
1119.000000	60.058724
1120.000000	60.062311
1121.000000	60.077064
1122.000000	60.065394
1123.000000	59.988029
1124.000000	59.988560
1125.000000	59.959519
1126.000000	59.974931
1127.000000	60.006253
1128.000000	60.081404
1129.000000	60.078525
1130.000000	60.050923
1131.000000	60.072037
1132.000000	60.044472
1133.000000	60.036471
1134.000000	60.054297
1135.000000	60.038319
1136.000000	60.031400
1137.000000	60.051404
1138.000000	60.090508
1139.000000	60.103746
1140.000000	60.086473
1141.000000	60.036629
1142.000000	60.010797
1143.000000	59.958902
1144.000000	59.939915
1145.000000	59.906540
1146.000000	59.902111
1147.000000	59.856633
1148.000000	59.788397
1149.000000	59.761118
1150.000000	59.809041
1151.000000	59.872305
1152.000000	59.899036
1153.000000	59.902032
1154.000000	59.859473
1155.000000	59.821002
1156.000000	59.751634
1157.000000	59.738887
1158.000000	59.731146
1159.000000	59.673890
1160.000000	59.672253
1161.000000	59.642936
1162.000000	59.563500
1163.000000	59.529882
1164.000000	59.492505
1165.000000	59.488404
1166.000000	59.471425
1167.000000	59.462850
1168.000000	59.384717
1169.000000	59.318018
1170.000000	59.226114
1171.000000	59.203693
1172.000000	59.115095
1173.000000	59.061024
1174.000000	59.002891
1175.000000	59.003103
1176.000000	58.956473
1177.000000	58.962230
1178.000000	58.952360
1179.000000	58.934475
1180.000000	58.914799
1181.000000	58.871529
1182.000000	58.856629
1183.000000	58.833048
1184.000000	58.768149
1185.000000	58.707266
1186.000000	58.640767
1187.000000	58.615434
1188.000000	58.585937
1189.000000	58.583899
1190.000000	58.520212
1191.000000	58.559120
1192.000000	58.575284
1193.000000	58.616431
1194.000000	58.620856
1195.000000	58.635750
1196.000000	58.610954
1197.000000	58.618049
1198.000000	58.580411
1199.000000	58.583828
1200.000000	58.558562
1201.000000	58.541473
1202.000000	58.543157
1203.000000	58.559634
