PE UV       SUBTECH     SPECTRUM    ASCII       PEDS        4.00        
   -1
C.CHRY.MV84-TX3.ASC
23/11/29
15:25:22.00
23/11/29
15:25:22.00
Vinicio Soto Monge
C. CHRYSARGYREA #84 MV23
250,000000
1
Lambda 1050
1050L1511233
PerkinElmer UV WinLab 6.3.2.0749 / 2.02.05 Lambda 900 UV/VIS/NIR, Aug  7 2015 09:38:08

0
0
3350/servo 860,8/2
0
0
UV/VIS
1
1
1
DoubleDePol,CommonBeamDepol,RBeamAtt,SBeamAtt,60mm sphere, WB InGaAs Detector
0
0
0
0
Program
Program
3350/servo 860,8/2
3350/0,4 860,8/0,4
3350/0,4 860,8/0,4
0
20.00
 
 
 
0
 
860,8
319,2
860,8
Front
100
on
S:100 R:100
0
0
0
0
 
0
 
 
 
0
 
 
0
0
0
0
0
 
 
 
 
0
0


0
0
#HDR
-1
-1
#GR
nm
%R
1.0
0.0
2200,000000
-1,000000
1951
8
82,444112
0,255158
#DATA
284.000000	5.437092
285.000000	5.429787
286.000000	5.422190
287.000000	5.415739
288.000000	5.409522
289.000000	5.403509
290.000000	5.398265
291.000000	5.394992
292.000000	5.391083
293.000000	5.387072
294.000000	5.385134
295.000000	5.384679
296.000000	5.384250
297.000000	5.384062
298.000000	5.384252
299.000000	5.384785
300.000000	5.385032
301.000000	5.385067
302.000000	5.386588
303.000000	5.388002
304.000000	5.388736
305.000000	5.388452
306.000000	5.389230
307.000000	5.392571
308.000000	5.393872
309.000000	5.394309
310.000000	5.395384
311.000000	5.396501
312.000000	5.399426
313.000000	5.401536
314.000000	5.402174
315.000000	5.404494
316.000000	5.405695
317.000000	5.404396
318.000000	5.403672
319.000000	5.400587
320.000000	5.398594
321.000000	5.399024
322.000000	5.400599
323.000000	5.401744
324.000000	5.405818
325.000000	5.409597
326.000000	5.411855
327.000000	5.417269
328.000000	5.424154
329.000000	5.429864
330.000000	5.437344
331.000000	5.448756
332.000000	5.459303
333.000000	5.473498
334.000000	5.490694
335.000000	5.506944
336.000000	5.526091
337.000000	5.547604
338.000000	5.571138
339.000000	5.595235
340.000000	5.622093
341.000000	5.652711
342.000000	5.685726
343.000000	5.722832
344.000000	5.764800
345.000000	5.809583
346.000000	5.857681
347.000000	5.908775
348.000000	5.962257
349.000000	6.022546
350.000000	6.085395
351.000000	6.153375
352.000000	6.230312
353.000000	6.313895
354.000000	6.404632
355.000000	6.503092
356.000000	6.609476
357.000000	6.720462
358.000000	6.842688
359.000000	6.973095
360.000000	7.114161
361.000000	7.265555
362.000000	7.429353
363.000000	7.604041
364.000000	7.793724
365.000000	7.997128
366.000000	8.214869
367.000000	8.450075
368.000000	8.698800
369.000000	8.965030
370.000000	9.251797
371.000000	9.557704
372.000000	9.880129
373.000000	10.222511
374.000000	10.583721
375.000000	10.965195
376.000000	11.366649
377.000000	11.797600
378.000000	12.246104
379.000000	12.713869
380.000000	13.200799
381.000000	13.704819
382.000000	14.225510
383.000000	14.764365
384.000000	15.316279
385.000000	15.883950
386.000000	16.463325
387.000000	17.052073
388.000000	17.649693
389.000000	18.256328
390.000000	18.867202
391.000000	19.481611
392.000000	20.100934
393.000000	20.720312
394.000000	21.339856
395.000000	21.958180
396.000000	22.573065
397.000000	23.180926
398.000000	23.783517
399.000000	24.376949
400.000000	24.960380
401.000000	25.530665
402.000000	26.087621
403.000000	26.631132
404.000000	27.157578
405.000000	27.667402
406.000000	28.157155
407.000000	28.629523
408.000000	29.081407
409.000000	29.515565
410.000000	29.928900
411.000000	30.318293
412.000000	30.674041
413.000000	31.008912
414.000000	31.320576
415.000000	31.608210
416.000000	31.873279
417.000000	32.116217
418.000000	32.336832
419.000000	32.536525
420.000000	32.715381
421.000000	32.874585
422.000000	33.014443
423.000000	33.136185
424.000000	33.239681
425.000000	33.325328
426.000000	33.395834
427.000000	33.451931
428.000000	33.493602
429.000000	33.521566
430.000000	33.538274
431.000000	33.545928
432.000000	33.545421
433.000000	33.538861
434.000000	33.528118
435.000000	33.514044
436.000000	33.499216
437.000000	33.485530
438.000000	33.473744
439.000000	33.464496
440.000000	33.458652
441.000000	33.457887
442.000000	33.461178
443.000000	33.467846
444.000000	33.478597
445.000000	33.493269
446.000000	33.512196
447.000000	33.534267
448.000000	33.558688
449.000000	33.585280
450.000000	33.613159
451.000000	33.641925
452.000000	33.670710
453.000000	33.699327
454.000000	33.725993
455.000000	33.750452
456.000000	33.771659
457.000000	33.790409
458.000000	33.806322
459.000000	33.819088
460.000000	33.828440
461.000000	33.834226
462.000000	33.837558
463.000000	33.839900
464.000000	33.841352
465.000000	33.842473
466.000000	33.843990
467.000000	33.846472
468.000000	33.849791
469.000000	33.855083
470.000000	33.861031
471.000000	33.867376
472.000000	33.875051
473.000000	33.882006
474.000000	33.886972
475.000000	33.889640
476.000000	33.888495
477.000000	33.883713
478.000000	33.874902
479.000000	33.859469
480.000000	33.836367
481.000000	33.805279
482.000000	33.765482
483.000000	33.717882
484.000000	33.663645
485.000000	33.602738
486.000000	33.535511
487.000000	33.463087
488.000000	33.386411
489.000000	33.307111
490.000000	33.227031
491.000000	33.148396
492.000000	33.071801
493.000000	32.998324
494.000000	32.929994
495.000000	32.868868
496.000000	32.814373
497.000000	32.766929
498.000000	32.727384
499.000000	32.695599
500.000000	32.670495
501.000000	32.650020
502.000000	32.632460
503.000000	32.617153
504.000000	32.601803
505.000000	32.585552
506.000000	32.566481
507.000000	32.543340
508.000000	32.516562
509.000000	32.486571
510.000000	32.453136
511.000000	32.417180
512.000000	32.378823
513.000000	32.340006
514.000000	32.303582
515.000000	32.271329
516.000000	32.242782
517.000000	32.221129
518.000000	32.206015
519.000000	32.198880
520.000000	32.202480
521.000000	32.217380
522.000000	32.244724
523.000000	32.285008
524.000000	32.339078
525.000000	32.407282
526.000000	32.489869
527.000000	32.587808
528.000000	32.701598
529.000000	32.830746
530.000000	32.974763
531.000000	33.135392
532.000000	33.311136
533.000000	33.501726
534.000000	33.706814
535.000000	33.927102
536.000000	34.162193
537.000000	34.411307
538.000000	34.674640
539.000000	34.951600
540.000000	35.242005
541.000000	35.544817
542.000000	35.858054
543.000000	36.181680
544.000000	36.514415
545.000000	36.855295
546.000000	37.203636
547.000000	37.558234
548.000000	37.916629
549.000000	38.277074
550.000000	38.638177
551.000000	39.001307
552.000000	39.364623
553.000000	39.728067
554.000000	40.089977
555.000000	40.448693
556.000000	40.804381
557.000000	41.155779
558.000000	41.500926
559.000000	41.840152
560.000000	42.173939
561.000000	42.499315
562.000000	42.814063
563.000000	43.118283
564.000000	43.411358
565.000000	43.691538
566.000000	43.957200
567.000000	44.208977
568.000000	44.444031
569.000000	44.661545
570.000000	44.860438
571.000000	45.039884
572.000000	45.202821
573.000000	45.348519
574.000000	45.477279
575.000000	45.590475
576.000000	45.688697
577.000000	45.774404
578.000000	45.848271
579.000000	45.912850
580.000000	45.968388
581.000000	46.015898
582.000000	46.056819
583.000000	46.093921
584.000000	46.128981
585.000000	46.163585
586.000000	46.198470
587.000000	46.232706
588.000000	46.266893
589.000000	46.301904
590.000000	46.336302
591.000000	46.370049
592.000000	46.402548
593.000000	46.434186
594.000000	46.465101
595.000000	46.491635
596.000000	46.515989
597.000000	46.537118
598.000000	46.553374
599.000000	46.564480
600.000000	46.569083
601.000000	46.567095
602.000000	46.558636
603.000000	46.543754
604.000000	46.523783
605.000000	46.498328
606.000000	46.469386
607.000000	46.434955
608.000000	46.395416
609.000000	46.348784
610.000000	46.296916
611.000000	46.237996
612.000000	46.173250
613.000000	46.100030
614.000000	46.017145
615.000000	45.924131
616.000000	45.820833
617.000000	45.707344
618.000000	45.582592
619.000000	45.447132
620.000000	45.302593
621.000000	45.150046
622.000000	44.992250
623.000000	44.829358
624.000000	44.663107
625.000000	44.496559
626.000000	44.329564
627.000000	44.161031
628.000000	43.990877
629.000000	43.816846
630.000000	43.640225
631.000000	43.460098
632.000000	43.276441
633.000000	43.090109
634.000000	42.899753
635.000000	42.709512
636.000000	42.520662
637.000000	42.330792
638.000000	42.141781
639.000000	41.953104
640.000000	41.765726
641.000000	41.579347
642.000000	41.391806
643.000000	41.204877
644.000000	41.020309
645.000000	40.835739
646.000000	40.654563
647.000000	40.474676
648.000000	40.301394
649.000000	40.134382
650.000000	39.977613
651.000000	39.830895
652.000000	39.695428
653.000000	39.573384
654.000000	39.463840
655.000000	39.363367
656.000000	39.272161
657.000000	39.185856
658.000000	39.102492
659.000000	39.020889
660.000000	38.938253
661.000000	38.853889
662.000000	38.767937
663.000000	38.681122
664.000000	38.595072
665.000000	38.510771
666.000000	38.428953
667.000000	38.353832
668.000000	38.285133
669.000000	38.224818
670.000000	38.169712
671.000000	38.119923
672.000000	38.077011
673.000000	38.040976
674.000000	38.010981
675.000000	37.986605
676.000000	37.966814
677.000000	37.953515
678.000000	37.945547
679.000000	37.943183
680.000000	37.947352
681.000000	37.957014
682.000000	37.973646
683.000000	37.995066
684.000000	38.023616
685.000000	38.057654
686.000000	38.095698
687.000000	38.136764
688.000000	38.179060
689.000000	38.225683
690.000000	38.274015
691.000000	38.322673
692.000000	38.375622
693.000000	38.433250
694.000000	38.494249
695.000000	38.558919
696.000000	38.630175
697.000000	38.706600
698.000000	38.790109
699.000000	38.880568
700.000000	38.978047
701.000000	39.081856
702.000000	39.188701
703.000000	39.299605
704.000000	39.414558
705.000000	39.534544
706.000000	39.659193
707.000000	39.786333
708.000000	39.915085
709.000000	40.045825
710.000000	40.179526
711.000000	40.319267
712.000000	40.459872
713.000000	40.600252
714.000000	40.746435
715.000000	40.896517
716.000000	41.050655
717.000000	41.207148
718.000000	41.364774
719.000000	41.524431
720.000000	41.686057
721.000000	41.850381
722.000000	42.015975
723.000000	42.182181
724.000000	42.346592
725.000000	42.511989
726.000000	42.678336
727.000000	42.844239
728.000000	43.010972
729.000000	43.177990
730.000000	43.347529
731.000000	43.515870
732.000000	43.684772
733.000000	43.852957
734.000000	44.020702
735.000000	44.186144
736.000000	44.351095
737.000000	44.517602
738.000000	44.682407
739.000000	44.844716
740.000000	45.005695
741.000000	45.162891
742.000000	45.318732
743.000000	45.474185
744.000000	45.629889
745.000000	45.783506
746.000000	45.932213
747.000000	46.080255
748.000000	46.230662
749.000000	46.377085
750.000000	46.518980
751.000000	46.657557
752.000000	46.795735
753.000000	46.935244
754.000000	47.069768
755.000000	47.199834
756.000000	47.327942
757.000000	47.450719
758.000000	47.569983
759.000000	47.686013
760.000000	47.800600
761.000000	47.912514
762.000000	48.021871
763.000000	48.127954
764.000000	48.231063
765.000000	48.331254
766.000000	48.430523
767.000000	48.526262
768.000000	48.617840
769.000000	48.707296
770.000000	48.794156
771.000000	48.879681
772.000000	48.963122
773.000000	49.045392
774.000000	49.123477
775.000000	49.196891
776.000000	49.267686
777.000000	49.335925
778.000000	49.404203
779.000000	49.470364
780.000000	49.534049
781.000000	49.596174
782.000000	49.658846
783.000000	49.719584
784.000000	49.778058
785.000000	49.834703
786.000000	49.890441
787.000000	49.944333
788.000000	49.992449
789.000000	50.037218
790.000000	50.082463
791.000000	50.125368
792.000000	50.166529
793.000000	50.205856
794.000000	50.242567
795.000000	50.274580
796.000000	50.306854
797.000000	50.342750
798.000000	50.377176
799.000000	50.411285
800.000000	50.448320
801.000000	50.482928
802.000000	50.517588
803.000000	50.547860
804.000000	50.577628
805.000000	50.604538
806.000000	50.626139
807.000000	50.645068
808.000000	50.663516
809.000000	50.681247
810.000000	50.702222
811.000000	50.725295
812.000000	50.742975
813.000000	50.755856
814.000000	50.764656
815.000000	50.772454
816.000000	50.779378
817.000000	50.785957
818.000000	50.789540
819.000000	50.792409
820.000000	50.797903
821.000000	50.802958
822.000000	50.809098
823.000000	50.816032
824.000000	50.821380
825.000000	50.821688
826.000000	50.815626
827.000000	50.818446
828.000000	50.821109
829.000000	50.821840
830.000000	50.825983
831.000000	50.819560
832.000000	50.818001
833.000000	50.811913
834.000000	50.807903
835.000000	50.792349
836.000000	50.778662
837.000000	50.769541
838.000000	50.770343
839.000000	50.766104
840.000000	50.767172
841.000000	50.759562
842.000000	50.747991
843.000000	50.735773
844.000000	50.731700
845.000000	50.727845
846.000000	50.716289
847.000000	50.709849
848.000000	50.710336
849.000000	50.698424
850.000000	50.690294
851.000000	50.696567
852.000000	50.697310
853.000000	50.692060
854.000000	50.689892
855.000000	50.692887
856.000000	50.696679
857.000000	50.678079
858.000000	50.632421
859.000000	50.639399
860.000000	50.663765
861.000000	50.678799
862.000000	50.676808
863.000000	50.685142
864.000000	50.696371
865.000000	50.694926
866.000000	50.717975
867.000000	50.719559
868.000000	50.761111
869.000000	50.784103
870.000000	50.829636
871.000000	50.862162
872.000000	50.874919
873.000000	50.890168
874.000000	50.906621
875.000000	50.917695
876.000000	50.933391
877.000000	50.944494
878.000000	50.967598
879.000000	50.998356
880.000000	51.015002
881.000000	51.012147
882.000000	51.022432
883.000000	51.037739
884.000000	51.045955
885.000000	51.043942
886.000000	51.075607
887.000000	51.064169
888.000000	51.058267
889.000000	51.052458
890.000000	51.066356
891.000000	51.080986
892.000000	51.074513
893.000000	51.106099
894.000000	51.128950
895.000000	51.116250
896.000000	51.102553
897.000000	51.084624
898.000000	51.099906
899.000000	51.084598
900.000000	51.062787
901.000000	51.005483
902.000000	50.959823
903.000000	50.908882
904.000000	50.847879
905.000000	50.786991
906.000000	50.714610
907.000000	50.664655
908.000000	50.603210
909.000000	50.553809
910.000000	50.495423
911.000000	50.446428
912.000000	50.385144
913.000000	50.331652
914.000000	50.274351
915.000000	50.200006
916.000000	50.140333
917.000000	50.071514
918.000000	49.992330
919.000000	49.899257
920.000000	49.818951
921.000000	49.728859
922.000000	49.658207
923.000000	49.581969
924.000000	49.509719
925.000000	49.383368
926.000000	49.270605
927.000000	49.175607
928.000000	49.075598
929.000000	48.939117
930.000000	48.808656
931.000000	48.685714
932.000000	48.583833
933.000000	48.446920
934.000000	48.327374
935.000000	48.223586
936.000000	48.146751
937.000000	48.029427
938.000000	47.864943
939.000000	47.755107
940.000000	47.611617
941.000000	47.478819
942.000000	47.360458
943.000000	47.232229
944.000000	47.095988
945.000000	46.953109
946.000000	46.781197
947.000000	46.663624
948.000000	46.516728
949.000000	46.317327
950.000000	46.155867
951.000000	45.971318
952.000000	45.770029
953.000000	45.585779
954.000000	45.474468
955.000000	45.311130
956.000000	45.124451
957.000000	44.969531
958.000000	44.808591
959.000000	44.618801
960.000000	44.441397
961.000000	44.230319
962.000000	44.076787
963.000000	43.915293
964.000000	43.725275
965.000000	43.551248
966.000000	43.374219
967.000000	43.179126
968.000000	42.970913
969.000000	42.770714
970.000000	42.563726
971.000000	42.324533
972.000000	42.149888
973.000000	41.965303
974.000000	41.745255
975.000000	41.549838
976.000000	41.365002
977.000000	41.165014
978.000000	40.953358
979.000000	40.733693
980.000000	40.531043
981.000000	40.340395
982.000000	40.100999
983.000000	39.873842
984.000000	39.674184
985.000000	39.491100
986.000000	39.307497
987.000000	39.124024
988.000000	38.927497
989.000000	38.704285
990.000000	38.515775
991.000000	38.314613
992.000000	38.117116
993.000000	37.919196
994.000000	37.736759
995.000000	37.571000
996.000000	37.396684
997.000000	37.181229
998.000000	37.009814
999.000000	36.824813
1000.000000	36.616331
1001.000000	36.425740
1002.000000	36.228660
1003.000000	36.029736
1004.000000	35.856019
1005.000000	35.674848
1006.000000	35.503612
1007.000000	35.295705
1008.000000	35.137677
1009.000000	34.971365
1010.000000	34.767639
1011.000000	34.547367
1012.000000	34.345840
1013.000000	34.185487
1014.000000	33.999250
1015.000000	33.809682
1016.000000	33.670564
1017.000000	33.556228
1018.000000	33.432894
1019.000000	33.293796
1020.000000	33.101026
1021.000000	32.964047
1022.000000	32.841260
1023.000000	32.680016
1024.000000	32.496079
1025.000000	32.340856
1026.000000	32.200587
1027.000000	32.060090
1028.000000	31.914630
1029.000000	31.760735
1030.000000	31.601689
1031.000000	31.467678
1032.000000	31.317746
1033.000000	31.133777
1034.000000	30.990523
1035.000000	30.886799
1036.000000	30.790791
1037.000000	30.696244
1038.000000	30.593238
1039.000000	30.448825
1040.000000	30.316742
1041.000000	30.205018
1042.000000	30.120080
1043.000000	30.032496
1044.000000	29.952836
1045.000000	29.871928
1046.000000	29.794520
1047.000000	29.708978
1048.000000	29.610094
1049.000000	29.515935
1050.000000	29.451604
1051.000000	29.382690
1052.000000	29.261140
1053.000000	29.115429
1054.000000	29.034351
1055.000000	28.989763
1056.000000	28.888163
1057.000000	28.786218
1058.000000	28.711819
1059.000000	28.667567
1060.000000	28.604318
1061.000000	28.511056
1062.000000	28.411414
1063.000000	28.337917
1064.000000	28.277105
1065.000000	28.220675
1066.000000	28.171423
1067.000000	28.162061
1068.000000	28.126269
1069.000000	28.064495
1070.000000	28.003117
1071.000000	27.930582
1072.000000	27.862030
1073.000000	27.795123
1074.000000	27.745451
1075.000000	27.722282
1076.000000	27.683632
1077.000000	27.622022
1078.000000	27.555770
1079.000000	27.467656
1080.000000	27.421688
1081.000000	27.412038
1082.000000	27.354210
1083.000000	27.327007
1084.000000	27.335903
1085.000000	27.288428
1086.000000	27.217212
1087.000000	27.194561
1088.000000	27.191252
1089.000000	27.117829
1090.000000	27.048548
1091.000000	27.016722
1092.000000	26.972697
1093.000000	26.922705
1094.000000	26.893434
1095.000000	26.869450
1096.000000	26.843015
1097.000000	26.844933
1098.000000	26.818030
1099.000000	26.806996
1100.000000	26.761716
1101.000000	26.726167
1102.000000	26.678655
1103.000000	26.636624
1104.000000	26.624297
1105.000000	26.594119
1106.000000	26.561011
1107.000000	26.538158
1108.000000	26.517575
1109.000000	26.522119
1110.000000	26.503188
1111.000000	26.492644
1112.000000	26.487786
1113.000000	26.457197
1114.000000	26.466722
1115.000000	26.419546
1116.000000	26.354325
1117.000000	26.359553
1118.000000	26.342296
1119.000000	26.311277
1120.000000	26.287193
1121.000000	26.241785
1122.000000	26.230222
1123.000000	26.247079
1124.000000	26.286213
1125.000000	26.257700
1126.000000	26.228626
1127.000000	26.261076
1128.000000	26.310614
1129.000000	26.345784
1130.000000	26.311471
1131.000000	26.291990
1132.000000	26.260360
1133.000000	26.255340
1134.000000	26.233242
1135.000000	26.257440
1136.000000	26.292821
1137.000000	26.288329
1138.000000	26.277468
1139.000000	26.265261
1140.000000	26.266735
1141.000000	26.239848
1142.000000	26.208971
1143.000000	26.222241
1144.000000	26.178819
1145.000000	26.164008
1146.000000	26.157938
1147.000000	26.121952
1148.000000	26.130671
1149.000000	26.096295
1150.000000	26.106901
1151.000000	26.113278
1152.000000	26.093295
1153.000000	26.092265
1154.000000	26.059725
1155.000000	26.058447
1156.000000	26.064106
1157.000000	26.046786
1158.000000	26.017412
1159.000000	25.985708
1160.000000	25.984415
1161.000000	26.000160
1162.000000	25.956055
1163.000000	25.928969
1164.000000	25.851933
1165.000000	25.865227
1166.000000	25.854674
1167.000000	25.826888
1168.000000	25.821636
1169.000000	25.776574
1170.000000	25.684534
1171.000000	25.607522
1172.000000	25.560957
1173.000000	25.591783
1174.000000	25.574080
1175.000000	25.497757
1176.000000	25.474758
1177.000000	25.457814
1178.000000	25.412257
1179.000000	25.413180
1180.000000	25.392974
1181.000000	25.368340
1182.000000	25.387968
1183.000000	25.386332
1184.000000	25.401420
1185.000000	25.382337
1186.000000	25.367515
1187.000000	25.358410
1188.000000	25.354633
1189.000000	25.332857
1190.000000	25.308406
1191.000000	25.309521
1192.000000	25.309334
1193.000000	25.298725
1194.000000	25.259032
1195.000000	25.268870
1196.000000	25.274185
