PE UV       SUBTECH     SPECTRUM    ASCII       PEDS        4.00        
   -1
PLATY.001-TX3.ASC
23/11/30
15:38:45.00
23/11/30
15:38:45.00
Vinicio Soto Monge
PLATY 1
250,000000
1
Lambda 1050
1050L1511233
PerkinElmer UV WinLab 6.3.2.0749 / 2.02.05 Lambda 900 UV/VIS/NIR, Aug  7 2015 09:38:08

0
0
3350/servo 860,8/2
0
0
UV/VIS
1
1
1
DoubleDePol,CommonBeamDepol,RBeamAtt,SBeamAtt,60mm sphere, WB InGaAs Detector
0
0
0
0
Program
Program
3350/servo 860,8/2
3350/0,4 860,8/0,4
3350/0,4 860,8/0,4
0
20.00
 
 
 
0
 
860,8
319,2
860,8
Front
100
on
S:100 R:100
0
0
0
0
 
0
 
 
 
0
 
 
0
0
0
0
0
 
 
 
 
0
0


0
0
#HDR
-1
-1
#GR
nm
%R
1.0
0.0
2200,000000
-1,000000
1951
8
35,125412
0,217810
#DATA
284.000000	6.275366
285.000000	6.256731
286.000000	6.240132
287.000000	6.225687
288.000000	6.212003
289.000000	6.199894
290.000000	6.190919
291.000000	6.181072
292.000000	6.174618
293.000000	6.168505
294.000000	6.164305
295.000000	6.161457
296.000000	6.160898
297.000000	6.163111
298.000000	6.165177
299.000000	6.168184
300.000000	6.173842
301.000000	6.177744
302.000000	6.184496
303.000000	6.191661
304.000000	6.197837
305.000000	6.203898
306.000000	6.213074
307.000000	6.222019
308.000000	6.228825
309.000000	6.236844
310.000000	6.245354
311.000000	6.254865
312.000000	6.263615
313.000000	6.269738
314.000000	6.275775
315.000000	6.282012
316.000000	6.287770
317.000000	6.292458
318.000000	6.299847
319.000000	6.303784
320.000000	6.305699
321.000000	6.307011
322.000000	6.310077
323.000000	6.308539
324.000000	6.306401
325.000000	6.305241
326.000000	6.302881
327.000000	6.298360
328.000000	6.291217
329.000000	6.282788
330.000000	6.274660
331.000000	6.267346
332.000000	6.255954
333.000000	6.244171
334.000000	6.233840
335.000000	6.223529
336.000000	6.213157
337.000000	6.201888
338.000000	6.190491
339.000000	6.180835
340.000000	6.169056
341.000000	6.157747
342.000000	6.145635
343.000000	6.135938
344.000000	6.125926
345.000000	6.114456
346.000000	6.104820
347.000000	6.094978
348.000000	6.082770
349.000000	6.072780
350.000000	6.063098
351.000000	6.054230
352.000000	6.046517
353.000000	6.037014
354.000000	6.027644
355.000000	6.021714
356.000000	6.015473
357.000000	6.006017
358.000000	6.000645
359.000000	5.995182
360.000000	5.987295
361.000000	5.980680
362.000000	5.974428
363.000000	5.970706
364.000000	5.967007
365.000000	5.961862
366.000000	5.955616
367.000000	5.952905
368.000000	5.949434
369.000000	5.945467
370.000000	5.938848
371.000000	5.933666
372.000000	5.928303
373.000000	5.924997
374.000000	5.916910
375.000000	5.913193
376.000000	5.908956
377.000000	5.904861
378.000000	5.899624
379.000000	5.895199
380.000000	5.890804
381.000000	5.885981
382.000000	5.882095
383.000000	5.880848
384.000000	5.878103
385.000000	5.875364
386.000000	5.873470
387.000000	5.870348
388.000000	5.866665
389.000000	5.865594
390.000000	5.863365
391.000000	5.861258
392.000000	5.860464
393.000000	5.860440
394.000000	5.860434
395.000000	5.860777
396.000000	5.861546
397.000000	5.861707
398.000000	5.862262
399.000000	5.863697
400.000000	5.865703
401.000000	5.867638
402.000000	5.868444
403.000000	5.870386
404.000000	5.872478
405.000000	5.876116
406.000000	5.879626
407.000000	5.882684
408.000000	5.885230
409.000000	5.891363
410.000000	5.895371
411.000000	5.899582
412.000000	5.904929
413.000000	5.910227
414.000000	5.916122
415.000000	5.922733
416.000000	5.929414
417.000000	5.936495
418.000000	5.944155
419.000000	5.952287
420.000000	5.961031
421.000000	5.970234
422.000000	5.980199
423.000000	5.990705
424.000000	6.001825
425.000000	6.013603
426.000000	6.025685
427.000000	6.038233
428.000000	6.051157
429.000000	6.064715
430.000000	6.078689
431.000000	6.092796
432.000000	6.107659
433.000000	6.123184
434.000000	6.139085
435.000000	6.155452
436.000000	6.172383
437.000000	6.190045
438.000000	6.208254
439.000000	6.226719
440.000000	6.246013
441.000000	6.265857
442.000000	6.286093
443.000000	6.306817
444.000000	6.327894
445.000000	6.349591
446.000000	6.371688
447.000000	6.394135
448.000000	6.417030
449.000000	6.440121
450.000000	6.463455
451.000000	6.487278
452.000000	6.511491
453.000000	6.536207
454.000000	6.561409
455.000000	6.586989
456.000000	6.612677
457.000000	6.638799
458.000000	6.665279
459.000000	6.691961
460.000000	6.719108
461.000000	6.746764
462.000000	6.774951
463.000000	6.803519
464.000000	6.832764
465.000000	6.862296
466.000000	6.892423
467.000000	6.923260
468.000000	6.954615
469.000000	6.986471
470.000000	7.018735
471.000000	7.051787
472.000000	7.085507
473.000000	7.119989
474.000000	7.155421
475.000000	7.191630
476.000000	7.228632
477.000000	7.266798
478.000000	7.306253
479.000000	7.346469
480.000000	7.387406
481.000000	7.429282
482.000000	7.471918
483.000000	7.515837
484.000000	7.561131
485.000000	7.607915
486.000000	7.656084
487.000000	7.705837
488.000000	7.756741
489.000000	7.808960
490.000000	7.862993
491.000000	7.919221
492.000000	7.977367
493.000000	8.037412
494.000000	8.099711
495.000000	8.164434
496.000000	8.231546
497.000000	8.301118
498.000000	8.373688
499.000000	8.448870
500.000000	8.527423
501.000000	8.609537
502.000000	8.695013
503.000000	8.783788
504.000000	8.876513
505.000000	8.973243
506.000000	9.073825
507.000000	9.178678
508.000000	9.288146
509.000000	9.402163
510.000000	9.520793
511.000000	9.643994
512.000000	9.771911
513.000000	9.904498
514.000000	10.042215
515.000000	10.184756
516.000000	10.331937
517.000000	10.484170
518.000000	10.640787
519.000000	10.801463
520.000000	10.966234
521.000000	11.135349
522.000000	11.308154
523.000000	11.485314
524.000000	11.666250
525.000000	11.850910
526.000000	12.038773
527.000000	12.229729
528.000000	12.423649
529.000000	12.619954
530.000000	12.818751
531.000000	13.020057
532.000000	13.223362
533.000000	13.428012
534.000000	13.634082
535.000000	13.841353
536.000000	14.049239
537.000000	14.257349
538.000000	14.465860
539.000000	14.674556
540.000000	14.882701
541.000000	15.090682
542.000000	15.297826
543.000000	15.503651
544.000000	15.708680
545.000000	15.912146
546.000000	16.114608
547.000000	16.315554
548.000000	16.514678
549.000000	16.711610
550.000000	16.907069
551.000000	17.101020
552.000000	17.292284
553.000000	17.481898
554.000000	17.670245
555.000000	17.856420
556.000000	18.040148
557.000000	18.221727
558.000000	18.401254
559.000000	18.578561
560.000000	18.753616
561.000000	18.926303
562.000000	19.096690
563.000000	19.265050
564.000000	19.430751
565.000000	19.593710
566.000000	19.753995
567.000000	19.911783
568.000000	20.066845
569.000000	20.218290
570.000000	20.366452
571.000000	20.510511
572.000000	20.651601
573.000000	20.789199
574.000000	20.922190
575.000000	21.050684
576.000000	21.174013
577.000000	21.292834
578.000000	21.406824
579.000000	21.515040
580.000000	21.618156
581.000000	21.715287
582.000000	21.806363
583.000000	21.890936
584.000000	21.969965
585.000000	22.041774
586.000000	22.107337
587.000000	22.166689
588.000000	22.218837
589.000000	22.263774
590.000000	22.301659
591.000000	22.333040
592.000000	22.357612
593.000000	22.374993
594.000000	22.385993
595.000000	22.389929
596.000000	22.386850
597.000000	22.377195
598.000000	22.361381
599.000000	22.339674
600.000000	22.311522
601.000000	22.277835
602.000000	22.238501
603.000000	22.194013
604.000000	22.145732
605.000000	22.092311
606.000000	22.035256
607.000000	21.974248
608.000000	21.909581
609.000000	21.841377
610.000000	21.771068
611.000000	21.698924
612.000000	21.624144
613.000000	21.547469
614.000000	21.468990
615.000000	21.389471
616.000000	21.308921
617.000000	21.227479
618.000000	21.146301
619.000000	21.064057
620.000000	20.982784
621.000000	20.900611
622.000000	20.818687
623.000000	20.737123
624.000000	20.655271
625.000000	20.573547
626.000000	20.491930
627.000000	20.410027
628.000000	20.327573
629.000000	20.244750
630.000000	20.161506
631.000000	20.078322
632.000000	19.994243
633.000000	19.909451
634.000000	19.824058
635.000000	19.738093
636.000000	19.651414
637.000000	19.564134
638.000000	19.475829
639.000000	19.386150
640.000000	19.295731
641.000000	19.204127
642.000000	19.111035
643.000000	19.016642
644.000000	18.921824
645.000000	18.825269
646.000000	18.727464
647.000000	18.629675
648.000000	18.531006
649.000000	18.431935
650.000000	18.332651
651.000000	18.233644
652.000000	18.135485
653.000000	18.037989
654.000000	17.942437
655.000000	17.847927
656.000000	17.755853
657.000000	17.667403
658.000000	17.582630
659.000000	17.502176
660.000000	17.426389
661.000000	17.355701
662.000000	17.291022
663.000000	17.233506
664.000000	17.183446
665.000000	17.141675
666.000000	17.108476
667.000000	17.085361
668.000000	17.072011
669.000000	17.070597
670.000000	17.082266
671.000000	17.106380
672.000000	17.144841
673.000000	17.198934
674.000000	17.269997
675.000000	17.358678
676.000000	17.466618
677.000000	17.594828
678.000000	17.744500
679.000000	17.916335
680.000000	18.113452
681.000000	18.336813
682.000000	18.586975
683.000000	18.866041
684.000000	19.175369
685.000000	19.515197
686.000000	19.887134
687.000000	20.292524
688.000000	20.731095
689.000000	21.204223
690.000000	21.712537
691.000000	22.258115
692.000000	22.838651
693.000000	23.454352
694.000000	24.106183
695.000000	24.792758
696.000000	25.512484
697.000000	26.264109
698.000000	27.047905
699.000000	27.862553
700.000000	28.706713
701.000000	29.578816
702.000000	30.476785
703.000000	31.398744
704.000000	32.340901
705.000000	33.302427
706.000000	34.283620
707.000000	35.278955
708.000000	36.286740
709.000000	37.304991
710.000000	38.331975
711.000000	39.366315
712.000000	40.403725
713.000000	41.441096
714.000000	42.479497
715.000000	43.512644
716.000000	44.538058
717.000000	45.554273
718.000000	46.559565
719.000000	47.549658
720.000000	48.523266
721.000000	49.479672
722.000000	50.415806
723.000000	51.330677
724.000000	52.220438
725.000000	53.084733
726.000000	53.922126
727.000000	54.733067
728.000000	55.517061
729.000000	56.270467
730.000000	56.995500
731.000000	57.691385
732.000000	58.360158
733.000000	58.999471
734.000000	59.610922
735.000000	60.195364
736.000000	60.753168
737.000000	61.284597
738.000000	61.789896
739.000000	62.271332
740.000000	62.731390
741.000000	63.169445
742.000000	63.586156
743.000000	63.982570
744.000000	64.361577
745.000000	64.723759
746.000000	65.067710
747.000000	65.395039
748.000000	65.708511
749.000000	66.006659
750.000000	66.293253
751.000000	66.571478
752.000000	66.840337
753.000000	67.100294
754.000000	67.351203
755.000000	67.590697
756.000000	67.821834
757.000000	68.044773
758.000000	68.258890
759.000000	68.467471
760.000000	68.670908
761.000000	68.869554
762.000000	69.064202
763.000000	69.252154
764.000000	69.433527
765.000000	69.610084
766.000000	69.786955
767.000000	69.959483
768.000000	70.126535
769.000000	70.289173
770.000000	70.448372
771.000000	70.605368
772.000000	70.762631
773.000000	70.917787
774.000000	71.070666
775.000000	71.222219
776.000000	71.367367
777.000000	71.512032
778.000000	71.656420
779.000000	71.799176
780.000000	71.938123
781.000000	72.075502
782.000000	72.211573
783.000000	72.346977
784.000000	72.480706
785.000000	72.612381
786.000000	72.741437
787.000000	72.868285
788.000000	72.990209
789.000000	73.111871
790.000000	73.235644
791.000000	73.360992
792.000000	73.482044
793.000000	73.605441
794.000000	73.726262
795.000000	73.847712
796.000000	73.966238
797.000000	74.081544
798.000000	74.196849
799.000000	74.313103
800.000000	74.431138
801.000000	74.545569
802.000000	74.660957
803.000000	74.773668
804.000000	74.885848
805.000000	74.994920
806.000000	75.102367
807.000000	75.210370
808.000000	75.319970
809.000000	75.430680
810.000000	75.534283
811.000000	75.640535
812.000000	75.742274
813.000000	75.840845
814.000000	75.940615
815.000000	76.037363
816.000000	76.131124
817.000000	76.230963
818.000000	76.326219
819.000000	76.419568
820.000000	76.516070
821.000000	76.608706
822.000000	76.702262
823.000000	76.793107
824.000000	76.879817
825.000000	76.969618
826.000000	77.054165
827.000000	77.146505
828.000000	77.234092
829.000000	77.322405
830.000000	77.404441
831.000000	77.482252
832.000000	77.569901
833.000000	77.648673
834.000000	77.724662
835.000000	77.802114
836.000000	77.874945
837.000000	77.942472
838.000000	78.022263
839.000000	78.094150
840.000000	78.164785
841.000000	78.237798
842.000000	78.304146
843.000000	78.366579
844.000000	78.432720
845.000000	78.506021
846.000000	78.566569
847.000000	78.633369
848.000000	78.703018
849.000000	78.769867
850.000000	78.828087
851.000000	78.899246
852.000000	78.959833
853.000000	79.029718
854.000000	79.089367
855.000000	79.163298
856.000000	79.230610
857.000000	79.258250
858.000000	79.203959
859.000000	79.274780
860.000000	79.352595
861.000000	79.413327
862.000000	79.420222
863.000000	79.450050
864.000000	79.508935
865.000000	79.561870
866.000000	79.592548
867.000000	79.631725
868.000000	79.678691
869.000000	79.717009
870.000000	79.752837
871.000000	79.830936
872.000000	79.833124
873.000000	79.860243
874.000000	79.908553
875.000000	79.984687
876.000000	80.009117
877.000000	80.037019
878.000000	80.102029
879.000000	80.166735
880.000000	80.200909
881.000000	80.239568
882.000000	80.323764
883.000000	80.387869
884.000000	80.460078
885.000000	80.506239
886.000000	80.565853
887.000000	80.578980
888.000000	80.605758
889.000000	80.661492
890.000000	80.698731
891.000000	80.717193
892.000000	80.798514
893.000000	80.945349
894.000000	80.964745
895.000000	81.007097
896.000000	81.039739
897.000000	81.137687
898.000000	81.218767
899.000000	81.238011
900.000000	81.264438
901.000000	81.312163
902.000000	81.340531
903.000000	81.406853
904.000000	81.473886
905.000000	81.530864
906.000000	81.540804
907.000000	81.649786
908.000000	81.722007
909.000000	81.757101
910.000000	81.755656
911.000000	81.780218
912.000000	81.780007
913.000000	81.754130
914.000000	81.743299
915.000000	81.736342
916.000000	81.781357
917.000000	81.790059
918.000000	81.794552
919.000000	81.793982
920.000000	81.822758
921.000000	81.825798
922.000000	81.852157
923.000000	81.905449
924.000000	81.930615
925.000000	81.953454
926.000000	81.998434
927.000000	81.987516
928.000000	82.026829
929.000000	82.052011
930.000000	82.038194
931.000000	82.062412
932.000000	82.046809
933.000000	82.052634
934.000000	82.100416
935.000000	82.114209
936.000000	82.138867
937.000000	82.154700
938.000000	82.131298
939.000000	82.115559
940.000000	82.158439
941.000000	82.184557
942.000000	82.214927
943.000000	82.217470
944.000000	82.224846
945.000000	82.239255
946.000000	82.258923
947.000000	82.343407
948.000000	82.393434
949.000000	82.388324
950.000000	82.421052
951.000000	82.423391
952.000000	82.412328
953.000000	82.420979
954.000000	82.432181
955.000000	82.447716
956.000000	82.473289
957.000000	82.517476
958.000000	82.545197
959.000000	82.549735
960.000000	82.524161
961.000000	82.482930
962.000000	82.493981
963.000000	82.484019
964.000000	82.490341
965.000000	82.493423
966.000000	82.463812
967.000000	82.479860
968.000000	82.478403
969.000000	82.446349
970.000000	82.439423
971.000000	82.444577
972.000000	82.465767
973.000000	82.499500
974.000000	82.536688
975.000000	82.498640
976.000000	82.489596
977.000000	82.435208
978.000000	82.419629
979.000000	82.422594
980.000000	82.424368
981.000000	82.448984
982.000000	82.399000
983.000000	82.372524
984.000000	82.417452
985.000000	82.446921
986.000000	82.459556
987.000000	82.458398
988.000000	82.460397
989.000000	82.448521
990.000000	82.441547
991.000000	82.427289
992.000000	82.437332
993.000000	82.417976
994.000000	82.406877
995.000000	82.410840
996.000000	82.430894
997.000000	82.444142
998.000000	82.475356
999.000000	82.502199
1000.000000	82.517218
1001.000000	82.550871
1002.000000	82.531410
1003.000000	82.505913
1004.000000	82.508254
1005.000000	82.520651
1006.000000	82.496215
1007.000000	82.469120
1008.000000	82.468805
1009.000000	82.449333
1010.000000	82.446330
1011.000000	82.446270
1012.000000	82.461223
1013.000000	82.461759
1014.000000	82.446779
1015.000000	82.439827
1016.000000	82.420676
1017.000000	82.447850
1018.000000	82.487793
1019.000000	82.461090
1020.000000	82.456602
1021.000000	82.484068
1022.000000	82.490779
1023.000000	82.472317
1024.000000	82.455189
1025.000000	82.438619
1026.000000	82.400121
1027.000000	82.390575
1028.000000	82.376924
1029.000000	82.368840
1030.000000	82.381037
1031.000000	82.396559
1032.000000	82.378592
1033.000000	82.311166
1034.000000	82.263888
1035.000000	82.275128
1036.000000	82.277731
1037.000000	82.277174
1038.000000	82.289491
1039.000000	82.280859
1040.000000	82.284087
1041.000000	82.305657
1042.000000	82.341047
1043.000000	82.351779
1044.000000	82.339778
1045.000000	82.319483
1046.000000	82.300266
1047.000000	82.300587
1048.000000	82.316676
1049.000000	82.331349
1050.000000	82.337884
1051.000000	82.349297
1052.000000	82.327522
1053.000000	82.291847
1054.000000	82.269011
1055.000000	82.245378
1056.000000	82.192807
1057.000000	82.158402
1058.000000	82.153902
1059.000000	82.167319
1060.000000	82.164929
1061.000000	82.195153
1062.000000	82.175448
1063.000000	82.141099
1064.000000	82.129201
1065.000000	82.121738
1066.000000	82.134502
1067.000000	82.160348
1068.000000	82.165732
1069.000000	82.164613
1070.000000	82.165540
1071.000000	82.168663
1072.000000	82.202358
1073.000000	82.164781
1074.000000	82.158500
1075.000000	82.135015
1076.000000	82.112335
1077.000000	82.048878
1078.000000	81.965585
1079.000000	81.942417
1080.000000	81.968246
1081.000000	81.992938
1082.000000	81.978471
1083.000000	81.982188
1084.000000	81.974772
1085.000000	81.921523
1086.000000	81.923202
1087.000000	81.955274
1088.000000	81.974428
1089.000000	81.987677
1090.000000	82.003085
1091.000000	82.012260
1092.000000	81.991924
1093.000000	81.966567
1094.000000	81.973140
1095.000000	82.014795
1096.000000	81.971811
1097.000000	81.911183
1098.000000	81.915859
1099.000000	81.918543
1100.000000	81.883647
1101.000000	81.836914
1102.000000	81.829028
1103.000000	81.846265
1104.000000	81.849953
1105.000000	81.828039
1106.000000	81.816465
1107.000000	81.777572
1108.000000	81.804424
1109.000000	81.806330
1110.000000	81.832063
1111.000000	81.818647
1112.000000	81.852669
1113.000000	81.912886
1114.000000	81.908594
1115.000000	81.854900
1116.000000	81.769329
1117.000000	81.745786
1118.000000	81.675184
1119.000000	81.656683
1120.000000	81.689276
1121.000000	81.658473
1122.000000	81.657655
1123.000000	81.623149
1124.000000	81.636471
1125.000000	81.574116
1126.000000	81.564159
1127.000000	81.608754
1128.000000	81.654447
1129.000000	81.629106
1130.000000	81.525889
1131.000000	81.565957
1132.000000	81.575956
1133.000000	81.589875
1134.000000	81.572183
1135.000000	81.551154
1136.000000	81.531613
1137.000000	81.492730
1138.000000	81.482842
1139.000000	81.471161
1140.000000	81.419527
1141.000000	81.349179
1142.000000	81.351995
1143.000000	81.290830
1144.000000	81.252001
1145.000000	81.174898
1146.000000	81.162054
1147.000000	81.121618
1148.000000	81.048947
1149.000000	81.050954
1150.000000	80.984032
1151.000000	80.999576
1152.000000	80.990314
1153.000000	81.021661
1154.000000	80.956097
1155.000000	80.932503
1156.000000	80.855766
1157.000000	80.760827
1158.000000	80.714948
1159.000000	80.627614
1160.000000	80.576667
1161.000000	80.506132
1162.000000	80.445992
1163.000000	80.374503
1164.000000	80.319221
1165.000000	80.322211
1166.000000	80.246529
1167.000000	80.196550
1168.000000	80.106009
1169.000000	80.040187
1170.000000	80.002933
1171.000000	79.960870
1172.000000	79.889930
1173.000000	79.823862
1174.000000	79.766339
1175.000000	79.701238
1176.000000	79.692265
1177.000000	79.617353
1178.000000	79.598535
1179.000000	79.604052
1180.000000	79.610982
1181.000000	79.588842
1182.000000	79.550577
1183.000000	79.519735
1184.000000	79.440447
1185.000000	79.434873
1186.000000	79.412552
1187.000000	79.349697
1188.000000	79.266073
1189.000000	79.262821
1190.000000	79.197096
1191.000000	79.203170
1192.000000	79.191213
1193.000000	79.223029
1194.000000	79.205587
1195.000000	79.200688
1196.000000	79.194480
1197.000000	79.152207
1198.000000	79.104814
1199.000000	79.089279
1200.000000	79.031868
1201.000000	79.013556
1202.000000	79.037588
1203.000000	79.033006
