PE UV       SUBTECH     SPECTRUM    ASCII       PEDS        4.00        
   -1
C.RESP.MV23-TX3.ASC
23/11/29
12:37:13.00
23/11/29
12:37:13.00
Vinicio Soto Monge
C. RESPLENDENS
250,000000
1
Lambda 1050
1050L1511233
PerkinElmer UV WinLab 6.3.2.0749 / 2.02.05 Lambda 900 UV/VIS/NIR, Aug  7 2015 09:38:08

0
0
3350/servo 860,8/2
0
0
UV/VIS
1
1
1
DoubleDePol,CommonBeamDepol,RBeamAtt,SBeamAtt,60mm sphere, WB InGaAs Detector
0
0
0
0
Program
Program
3350/servo 860,8/2
3350/0,4 860,8/0,4
3350/0,4 860,8/0,4
0
20.00
 
 
 
0
 
860,8
319,2
860,8
Front
100
on
S:100 R:100
0
0
0
0
 
0
 
 
 
0
 
 
0
0
0
0
0
 
 
 
 
0
0


0
0
#HDR
-1
-1
#GR
nm
%R
1.0
0.0
2200,000000
-1,000000
1951
8
73,589983
0,239045
#DATA
284.000000	6.686712
285.000000	6.674540
286.000000	6.661835
287.000000	6.651822
288.000000	6.641055
289.000000	6.630290
290.000000	6.622914
291.000000	6.613512
292.000000	6.605641
293.000000	6.598839
294.000000	6.590356
295.000000	6.584731
296.000000	6.579593
297.000000	6.571192
298.000000	6.565381
299.000000	6.559799
300.000000	6.554686
301.000000	6.549652
302.000000	6.546080
303.000000	6.538793
304.000000	6.532853
305.000000	6.525864
306.000000	6.521256
307.000000	6.516597
308.000000	6.508132
309.000000	6.501674
310.000000	6.494178
311.000000	6.483538
312.000000	6.473188
313.000000	6.463301
314.000000	6.453548
315.000000	6.443821
316.000000	6.431752
317.000000	6.407190
318.000000	6.381646
319.000000	6.357122
320.000000	6.333752
321.000000	6.312671
322.000000	6.293200
323.000000	6.271311
324.000000	6.249298
325.000000	6.230634
326.000000	6.211575
327.000000	6.193104
328.000000	6.174373
329.000000	6.153161
330.000000	6.130315
331.000000	6.110355
332.000000	6.090325
333.000000	6.069620
334.000000	6.049583
335.000000	6.032952
336.000000	6.017767
337.000000	6.001181
338.000000	5.986961
339.000000	5.970308
340.000000	5.954945
341.000000	5.941403
342.000000	5.927368
343.000000	5.916714
344.000000	5.904868
345.000000	5.895255
346.000000	5.887677
347.000000	5.878693
348.000000	5.870966
349.000000	5.866179
350.000000	5.861736
351.000000	5.861202
352.000000	5.873879
353.000000	5.889586
354.000000	5.904417
355.000000	5.920415
356.000000	5.936543
357.000000	5.952092
358.000000	5.974992
359.000000	5.997632
360.000000	6.020722
361.000000	6.047744
362.000000	6.076217
363.000000	6.107589
364.000000	6.144546
365.000000	6.186686
366.000000	6.229836
367.000000	6.278451
368.000000	6.332169
369.000000	6.388436
370.000000	6.445854
371.000000	6.507880
372.000000	6.577480
373.000000	6.652601
374.000000	6.735192
375.000000	6.824495
376.000000	6.921329
377.000000	7.034583
378.000000	7.153948
379.000000	7.281716
380.000000	7.417250
381.000000	7.561991
382.000000	7.715711
383.000000	7.877679
384.000000	8.046475
385.000000	8.224067
386.000000	8.410662
387.000000	8.605571
388.000000	8.808170
389.000000	9.018597
390.000000	9.236858
391.000000	9.462492
392.000000	9.696462
393.000000	9.936957
394.000000	10.186555
395.000000	10.442236
396.000000	10.703912
397.000000	10.971994
398.000000	11.245623
399.000000	11.526412
400.000000	11.811857
401.000000	12.102043
402.000000	12.397403
403.000000	12.696481
404.000000	12.999447
405.000000	13.307328
406.000000	13.617467
407.000000	13.927498
408.000000	14.239752
409.000000	14.553807
410.000000	14.867191
411.000000	15.176962
412.000000	15.476817
413.000000	15.775172
414.000000	16.071509
415.000000	16.364857
416.000000	16.653712
417.000000	16.937717
418.000000	17.217073
419.000000	17.490682
420.000000	17.757070
421.000000	18.016196
422.000000	18.267720
423.000000	18.510117
424.000000	18.742822
425.000000	18.965874
426.000000	19.178351
427.000000	19.380077
428.000000	19.570655
429.000000	19.750035
430.000000	19.919118
431.000000	20.077983
432.000000	20.226471
433.000000	20.364858
434.000000	20.494244
435.000000	20.616084
436.000000	20.731079
437.000000	20.839061
438.000000	20.941501
439.000000	21.040078
440.000000	21.135481
441.000000	21.228802
442.000000	21.320501
443.000000	21.411256
444.000000	21.501853
445.000000	21.593943
446.000000	21.688127
447.000000	21.784762
448.000000	21.883922
449.000000	21.985494
450.000000	22.090019
451.000000	22.198059
452.000000	22.308927
453.000000	22.422505
454.000000	22.539214
455.000000	22.658979
456.000000	22.780507
457.000000	22.904585
458.000000	23.032309
459.000000	23.164208
460.000000	23.299631
461.000000	23.438886
462.000000	23.582618
463.000000	23.731997
464.000000	23.886662
465.000000	24.046682
466.000000	24.211932
467.000000	24.383072
468.000000	24.560989
469.000000	24.744602
470.000000	24.933751
471.000000	25.128504
472.000000	25.329044
473.000000	25.536078
474.000000	25.748604
475.000000	25.967250
476.000000	26.192680
477.000000	26.424648
478.000000	26.664263
479.000000	26.912109
480.000000	27.166343
481.000000	27.428627
482.000000	27.700240
483.000000	27.982912
484.000000	28.278204
485.000000	28.586335
486.000000	28.908553
487.000000	29.244864
488.000000	29.595864
489.000000	29.961729
490.000000	30.343486
491.000000	30.741449
492.000000	31.156024
493.000000	31.586759
494.000000	32.032130
495.000000	32.493085
496.000000	32.967118
497.000000	33.453278
498.000000	33.952868
499.000000	34.465304
500.000000	34.987654
501.000000	35.520025
502.000000	36.063654
503.000000	36.616714
504.000000	37.178535
505.000000	37.748162
506.000000	38.325061
507.000000	38.909149
508.000000	39.499676
509.000000	40.095864
510.000000	40.697252
511.000000	41.304121
512.000000	41.917250
513.000000	42.534502
514.000000	43.155750
515.000000	43.783204
516.000000	44.414348
517.000000	45.048863
518.000000	45.685456
519.000000	46.322945
520.000000	46.963116
521.000000	47.605153
522.000000	48.249508
523.000000	48.896676
524.000000	49.546395
525.000000	50.198785
526.000000	50.852435
527.000000	51.506153
528.000000	52.161387
529.000000	52.817091
530.000000	53.471273
531.000000	54.126782
532.000000	54.783165
533.000000	55.436090
534.000000	56.085656
535.000000	56.734539
536.000000	57.381860
537.000000	58.025097
538.000000	58.666548
539.000000	59.305547
540.000000	59.940287
541.000000	60.571603
542.000000	61.199037
543.000000	61.820328
544.000000	62.435993
545.000000	63.045525
546.000000	63.647499
547.000000	64.240664
548.000000	64.823420
549.000000	65.395975
550.000000	65.956496
551.000000	66.505355
552.000000	67.039083
553.000000	67.557949
554.000000	68.064090
555.000000	68.551993
556.000000	69.022752
557.000000	69.474369
558.000000	69.906746
559.000000	70.320732
560.000000	70.715039
561.000000	71.091219
562.000000	71.449236
563.000000	71.787167
564.000000	72.106502
565.000000	72.409249
566.000000	72.695463
567.000000	72.965876
568.000000	73.224962
569.000000	73.470590
570.000000	73.702607
571.000000	73.920592
572.000000	74.126979
573.000000	74.321637
574.000000	74.503489
575.000000	74.672427
576.000000	74.828800
577.000000	74.972594
578.000000	75.104752
579.000000	75.222506
580.000000	75.324504
581.000000	75.413380
582.000000	75.484920
583.000000	75.539199
584.000000	75.574746
585.000000	75.593624
586.000000	75.594599
587.000000	75.576849
588.000000	75.539300
589.000000	75.480057
590.000000	75.401131
591.000000	75.302019
592.000000	75.184401
593.000000	75.046932
594.000000	74.889270
595.000000	74.713879
596.000000	74.519993
597.000000	74.308272
598.000000	74.081390
599.000000	73.840326
600.000000	73.583606
601.000000	73.314076
602.000000	73.032621
603.000000	72.739285
604.000000	72.437651
605.000000	72.126367
606.000000	71.808861
607.000000	71.485148
608.000000	71.154600
609.000000	70.820647
610.000000	70.483748
611.000000	70.145630
612.000000	69.806695
613.000000	69.468311
614.000000	69.132643
615.000000	68.801995
616.000000	68.473259
617.000000	68.151132
618.000000	67.836984
619.000000	67.529179
620.000000	67.227556
621.000000	66.931582
622.000000	66.642443
623.000000	66.358683
624.000000	66.079042
625.000000	65.804045
626.000000	65.531554
627.000000	65.261239
628.000000	64.993643
629.000000	64.726259
630.000000	64.457389
631.000000	64.189643
632.000000	63.922744
633.000000	63.654849
634.000000	63.387021
635.000000	63.122833
636.000000	62.862590
637.000000	62.610464
638.000000	62.363699
639.000000	62.124132
640.000000	61.893631
641.000000	61.672819
642.000000	61.464125
643.000000	61.268782
644.000000	61.086099
645.000000	60.919737
646.000000	60.768836
647.000000	60.632950
648.000000	60.511866
649.000000	60.408037
650.000000	60.321328
651.000000	60.251159
652.000000	60.196844
653.000000	60.160369
654.000000	60.143303
655.000000	60.143033
656.000000	60.159450
657.000000	60.195255
658.000000	60.253760
659.000000	60.335412
660.000000	60.440773
661.000000	60.571205
662.000000	60.726705
663.000000	60.906389
664.000000	61.110105
665.000000	61.340172
666.000000	61.594919
667.000000	61.874155
668.000000	62.175247
669.000000	62.498622
670.000000	62.842885
671.000000	63.201954
672.000000	63.571938
673.000000	63.952665
674.000000	64.340507
675.000000	64.732951
676.000000	65.129278
677.000000	65.527688
678.000000	65.923993
679.000000	66.316702
680.000000	66.703730
681.000000	67.084256
682.000000	67.458098
683.000000	67.824585
684.000000	68.181484
685.000000	68.528547
686.000000	68.865598
687.000000	69.192710
688.000000	69.508844
689.000000	69.813686
690.000000	70.107466
691.000000	70.393158
692.000000	70.668785
693.000000	70.931558
694.000000	71.182508
695.000000	71.425068
696.000000	71.657991
697.000000	71.880522
698.000000	72.096838
699.000000	72.310502
700.000000	72.517115
701.000000	72.716964
702.000000	72.911002
703.000000	73.101985
704.000000	73.289652
705.000000	73.475075
706.000000	73.660052
707.000000	73.840723
708.000000	74.019833
709.000000	74.200662
710.000000	74.383367
711.000000	74.567859
712.000000	74.750619
713.000000	74.932049
714.000000	75.114170
715.000000	75.295380
716.000000	75.474739
717.000000	75.654976
718.000000	75.834945
719.000000	76.012698
720.000000	76.187248
721.000000	76.359181
722.000000	76.530810
723.000000	76.702761
724.000000	76.872956
725.000000	77.042545
726.000000	77.210078
727.000000	77.378301
728.000000	77.548286
729.000000	77.717243
730.000000	77.882525
731.000000	78.044329
732.000000	78.206078
733.000000	78.364328
734.000000	78.517664
735.000000	78.667099
736.000000	78.811180
737.000000	78.951070
738.000000	79.086682
739.000000	79.215222
740.000000	79.336040
741.000000	79.449636
742.000000	79.560080
743.000000	79.664278
744.000000	79.756881
745.000000	79.842180
746.000000	79.918378
747.000000	79.985731
748.000000	80.044973
749.000000	80.094326
750.000000	80.134811
751.000000	80.169289
752.000000	80.195629
753.000000	80.213374
754.000000	80.224568
755.000000	80.225793
756.000000	80.219944
757.000000	80.204261
758.000000	80.178212
759.000000	80.146264
760.000000	80.104554
761.000000	80.056359
762.000000	79.999617
763.000000	79.932418
764.000000	79.856027
765.000000	79.773057
766.000000	79.686823
767.000000	79.592381
768.000000	79.488893
769.000000	79.379263
770.000000	79.265320
771.000000	79.146814
772.000000	79.023955
773.000000	78.895412
774.000000	78.761535
775.000000	78.624311
776.000000	78.479576
777.000000	78.328989
778.000000	78.176207
779.000000	78.023015
780.000000	77.861839
781.000000	77.695926
782.000000	77.525024
783.000000	77.350430
784.000000	77.173452
785.000000	76.994949
786.000000	76.812486
787.000000	76.624419
788.000000	76.432776
789.000000	76.235360
790.000000	76.041006
791.000000	75.847962
792.000000	75.652664
793.000000	75.456372
794.000000	75.258539
795.000000	75.060014
796.000000	74.858423
797.000000	74.656594
798.000000	74.456038
799.000000	74.257731
800.000000	74.065373
801.000000	73.868892
802.000000	73.671549
803.000000	73.473543
804.000000	73.270950
805.000000	73.071720
806.000000	72.872957
807.000000	72.675223
808.000000	72.474971
809.000000	72.271915
810.000000	72.069240
811.000000	71.863816
812.000000	71.652614
813.000000	71.437703
814.000000	71.217622
815.000000	71.000220
816.000000	70.780562
817.000000	70.560031
818.000000	70.329118
819.000000	70.094059
820.000000	69.857733
821.000000	69.614967
822.000000	69.372537
823.000000	69.118180
824.000000	68.861057
825.000000	68.598815
826.000000	68.319998
827.000000	68.044832
828.000000	67.763593
829.000000	67.477648
830.000000	67.185061
831.000000	66.895918
832.000000	66.604313
833.000000	66.309918
834.000000	66.018519
835.000000	65.714402
836.000000	65.412043
837.000000	65.108392
838.000000	64.811613
839.000000	64.514434
840.000000	64.223879
841.000000	63.929693
842.000000	63.644170
843.000000	63.359845
844.000000	63.089153
845.000000	62.819547
846.000000	62.559866
847.000000	62.306007
848.000000	62.067549
849.000000	61.830650
850.000000	61.604508
851.000000	61.391975
852.000000	61.172361
853.000000	60.968055
854.000000	60.752861
855.000000	60.564162
856.000000	60.401713
857.000000	60.207244
858.000000	60.042376
859.000000	59.918717
860.000000	59.787983
861.000000	59.693437
862.000000	59.576533
863.000000	59.504410
864.000000	59.451074
865.000000	59.358012
866.000000	59.291885
867.000000	59.224658
868.000000	59.157010
869.000000	59.069774
870.000000	59.043364
871.000000	58.972524
872.000000	58.865299
873.000000	58.794446
874.000000	58.717521
875.000000	58.649905
876.000000	58.607944
877.000000	58.508916
878.000000	58.393407
879.000000	58.276007
880.000000	58.171675
881.000000	58.079455
882.000000	58.002498
883.000000	57.848401
884.000000	57.709461
885.000000	57.558066
886.000000	57.444051
887.000000	57.290407
888.000000	57.151694
889.000000	57.017300
890.000000	56.893464
891.000000	56.752729
892.000000	56.612890
893.000000	56.507799
894.000000	56.353749
895.000000	56.161024
896.000000	55.975660
897.000000	55.776571
898.000000	55.584267
899.000000	55.362838
900.000000	55.184295
901.000000	54.966935
902.000000	54.758098
903.000000	54.566573
904.000000	54.419257
905.000000	54.225192
906.000000	54.034248
907.000000	53.879047
908.000000	53.689887
909.000000	53.519561
910.000000	53.319423
911.000000	53.087166
912.000000	52.894061
913.000000	52.737491
914.000000	52.600117
915.000000	52.426104
916.000000	52.213016
917.000000	52.034893
918.000000	51.931252
919.000000	51.813757
920.000000	51.674589
921.000000	51.484509
922.000000	51.290683
923.000000	51.127720
924.000000	50.978788
925.000000	50.793045
926.000000	50.622732
927.000000	50.440436
928.000000	50.199085
929.000000	49.998690
930.000000	49.825614
931.000000	49.610010
932.000000	49.426969
933.000000	49.232963
934.000000	49.100055
935.000000	48.938181
936.000000	48.772555
937.000000	48.582145
938.000000	48.402721
939.000000	48.201500
940.000000	47.979755
941.000000	47.834730
942.000000	47.684024
943.000000	47.485148
944.000000	47.284073
945.000000	47.079661
946.000000	46.918722
947.000000	46.802064
948.000000	46.637828
949.000000	46.451255
950.000000	46.280942
951.000000	46.115750
952.000000	45.912080
953.000000	45.671134
954.000000	45.437193
955.000000	45.237635
956.000000	45.077413
957.000000	44.973325
958.000000	44.813092
959.000000	44.632294
960.000000	44.435976
961.000000	44.226355
962.000000	44.063570
963.000000	43.928541
964.000000	43.769674
965.000000	43.614361
966.000000	43.453435
967.000000	43.288879
968.000000	43.125588
969.000000	42.917095
970.000000	42.732856
971.000000	42.564811
972.000000	42.446575
973.000000	42.307339
974.000000	42.170632
975.000000	42.032399
976.000000	41.862133
977.000000	41.699046
978.000000	41.552707
979.000000	41.387226
980.000000	41.240178
981.000000	41.081590
982.000000	40.907241
983.000000	40.761984
984.000000	40.612178
985.000000	40.468864
986.000000	40.333756
987.000000	40.208144
988.000000	40.112496
989.000000	40.001470
990.000000	39.880380
991.000000	39.718601
992.000000	39.574365
993.000000	39.441025
994.000000	39.299339
995.000000	39.187159
996.000000	39.084416
997.000000	38.968591
998.000000	38.875314
999.000000	38.782626
1000.000000	38.695281
1001.000000	38.652296
1002.000000	38.573729
1003.000000	38.451310
1004.000000	38.346862
1005.000000	38.252075
1006.000000	38.168564
1007.000000	38.050590
1008.000000	37.931122
1009.000000	37.812166
1010.000000	37.719896
1011.000000	37.620428
1012.000000	37.511123
1013.000000	37.436824
1014.000000	37.383527
1015.000000	37.346386
1016.000000	37.286741
1017.000000	37.190062
1018.000000	37.118551
1019.000000	37.072240
1020.000000	36.977199
1021.000000	36.898712
1022.000000	36.809067
1023.000000	36.729022
1024.000000	36.678889
1025.000000	36.601554
1026.000000	36.535348
1027.000000	36.485373
1028.000000	36.425502
1029.000000	36.378463
1030.000000	36.338735
1031.000000	36.305818
1032.000000	36.275625
1033.000000	36.211742
1034.000000	36.144930
1035.000000	36.107520
1036.000000	36.054418
1037.000000	36.023220
1038.000000	35.990262
1039.000000	35.970611
1040.000000	35.928780
1041.000000	35.897716
1042.000000	35.897511
1043.000000	35.879933
1044.000000	35.847336
1045.000000	35.791246
1046.000000	35.728631
1047.000000	35.712630
1048.000000	35.708934
1049.000000	35.678160
1050.000000	35.639706
1051.000000	35.611685
1052.000000	35.582332
1053.000000	35.541294
1054.000000	35.518031
1055.000000	35.528205
1056.000000	35.508456
1057.000000	35.503266
1058.000000	35.491238
1059.000000	35.427230
1060.000000	35.417980
1061.000000	35.419938
1062.000000	35.385334
1063.000000	35.355373
1064.000000	35.362279
1065.000000	35.334441
1066.000000	35.290008
1067.000000	35.280751
1068.000000	35.244342
1069.000000	35.248908
1070.000000	35.221091
1071.000000	35.199058
1072.000000	35.212605
1073.000000	35.178363
1074.000000	35.110235
1075.000000	35.067949
1076.000000	35.004527
1077.000000	34.971498
1078.000000	34.939422
1079.000000	34.920940
1080.000000	34.902687
1081.000000	34.901767
1082.000000	34.869513
1083.000000	34.867074
1084.000000	34.835728
1085.000000	34.803269
1086.000000	34.768483
1087.000000	34.773040
1088.000000	34.756740
1089.000000	34.673509
1090.000000	34.645283
1091.000000	34.601919
1092.000000	34.566631
1093.000000	34.534084
1094.000000	34.525923
1095.000000	34.532486
1096.000000	34.499085
1097.000000	34.470099
1098.000000	34.476320
1099.000000	34.473652
1100.000000	34.442877
1101.000000	34.470719
1102.000000	34.473334
1103.000000	34.462976
1104.000000	34.427892
1105.000000	34.427724
1106.000000	34.402592
1107.000000	34.374953
1108.000000	34.388084
1109.000000	34.408602
1110.000000	34.446065
1111.000000	34.505709
1112.000000	34.497335
1113.000000	34.525177
1114.000000	34.488599
1115.000000	34.452540
1116.000000	34.434914
1117.000000	34.455447
1118.000000	34.430426
1119.000000	34.451331
1120.000000	34.458695
1121.000000	34.456330
1122.000000	34.441278
1123.000000	34.417401
1124.000000	34.440549
1125.000000	34.421894
1126.000000	34.459584
1127.000000	34.502881
1128.000000	34.494828
1129.000000	34.514580
1130.000000	34.470576
1131.000000	34.467912
1132.000000	34.505652
1133.000000	34.502093
1134.000000	34.429298
1135.000000	34.445808
1136.000000	34.389038
1137.000000	34.368755
1138.000000	34.358821
1139.000000	34.359354
1140.000000	34.287774
1141.000000	34.261410
1142.000000	34.193381
1143.000000	34.136024
1144.000000	34.194657
1145.000000	34.166155
1146.000000	34.100838
1147.000000	34.067784
1148.000000	34.056553
1149.000000	34.068135
1150.000000	34.056791
1151.000000	34.109403
1152.000000	34.072449
1153.000000	34.048094
1154.000000	34.037784
1155.000000	34.050027
1156.000000	34.035959
1157.000000	34.036479
1158.000000	34.048155
1159.000000	34.035082
1160.000000	34.015988
1161.000000	33.965268
1162.000000	33.932652
1163.000000	33.909881
1164.000000	33.883146
1165.000000	33.881389
1166.000000	33.852249
1167.000000	33.841785
1168.000000	33.824025
1169.000000	33.864549
1170.000000	33.835651
1171.000000	33.796919
1172.000000	33.797481
1173.000000	33.785111
1174.000000	33.752324
1175.000000	33.748303
1176.000000	33.724438
1177.000000	33.728442
1178.000000	33.732286
1179.000000	33.684207
1180.000000	33.675818
1181.000000	33.682524
1182.000000	33.677025
1183.000000	33.613817
1184.000000	33.558359
1185.000000	33.541562
1186.000000	33.455901
1187.000000	33.428130
1188.000000	33.431228
1189.000000	33.393821
1190.000000	33.357484
1191.000000	33.331974
1192.000000	33.316628
1193.000000	33.319982
1194.000000	33.305276
1195.000000	33.293294
1196.000000	33.308522
1197.000000	33.322428
1198.000000	33.334854
