PE UV       SUBTECH     SPECTRUM    ASCII       PEDS        4.00        
   -1
CICIMAUCR0098-5.Sample.ASC
24/04/25
11:55:07.00
24/04/25
11:55:07.00
Vinicio Soto Monge
C. cupreomarginata
250,000000
1
Lambda 1050
1050L1511233
PerkinElmer UV WinLab 6.3.2.0749 / 2.02.05 Lambda 900 UV/VIS/NIR, Aug  7 2015 09:38:08

0
0
3350/servo 860,8/2
0
0
UV/VIS
1
1
1
DoubleDePol,CommonBeamDepol,RBeamAtt,SBeamAtt,60mm sphere, WB InGaAs Detector
0
0
0
0
Program
Program
3350/servo 860,8/2
3350/0,2 860,8/0,2
3350/0,2 860,8/0,2
0
15.00
 
 
 
0
 
860,8
319,2
860,8
Front
100
on
S:100 R:100
0
0
0
0
 
0
 
 
 
0
 
 
0
0
0
0
0
 
 
 
 
0
0


0
0
#HDR
-1
-1
#GR
nm
%R
1.0
0.0
2500,000000
-1,000000
2251
8
65,296400
4,773000
#DATA
2482.000000	6.895792
2481.000000	6.976011
2480.000000	6.931207
2479.000000	6.896813
2478.000000	6.942434
2477.000000	6.966928
2476.000000	6.966826
2475.000000	6.917225
2474.000000	6.936412
2473.000000	6.951211
2472.000000	6.962540
2471.000000	6.970398
2470.000000	6.970296
2469.000000	6.995607
2468.000000	6.992851
2467.000000	6.993668
2466.000000	7.061232
2465.000000	7.055822
2464.000000	7.066335
2463.000000	7.068682
2462.000000	7.085828
2461.000000	7.094197
2460.000000	7.137675
2459.000000	7.181867
2458.000000	7.228202
2457.000000	7.227488
2456.000000	7.255758
2455.000000	7.289642
2454.000000	7.335977
2453.000000	7.388028
2452.000000	7.424668
2451.000000	7.459062
2450.000000	7.502233
2449.000000	7.574900
2448.000000	7.625318
2447.000000	7.644607
2446.000000	7.707578
2445.000000	7.751260
2444.000000	7.791676
2443.000000	7.820253
2442.000000	7.889755
2441.000000	7.920986
2440.000000	7.957625
2439.000000	8.008553
2438.000000	8.067442
2437.000000	8.111736
2436.000000	8.136639
2435.000000	8.191649
2434.000000	8.229820
2433.000000	8.266255
2432.000000	8.311672
2431.000000	8.348005
2430.000000	8.378827
2429.000000	8.404342
2428.000000	8.424040
2427.000000	8.468334
2426.000000	8.491808
2425.000000	8.500177
2424.000000	8.527223
2423.000000	8.580396
2422.000000	8.611627
2421.000000	8.624078
2420.000000	8.638570
2419.000000	8.687253
2418.000000	8.712054
2417.000000	8.693887
2416.000000	8.714605
2415.000000	8.741651
2414.000000	8.774106
2413.000000	8.791456
2412.000000	8.805745
2411.000000	8.809725
2410.000000	8.835648
2409.000000	8.856265
2408.000000	8.843711
2407.000000	8.834424
2406.000000	8.856060
2405.000000	8.882392
2404.000000	8.897803
2403.000000	8.896170
2402.000000	8.909744
2401.000000	8.924237
2400.000000	8.936994
2399.000000	8.957202
2398.000000	8.986595
2397.000000	8.988432
2396.000000	8.995883
2395.000000	9.015682
2394.000000	9.019357
2393.000000	9.013029
2392.000000	9.032522
2391.000000	9.044667
2390.000000	9.070285
2389.000000	9.079980
2388.000000	9.063549
2387.000000	9.067019
2386.000000	9.073346
2385.000000	9.070897
2384.000000	9.073857
2383.000000	9.078653
2382.000000	9.079062
2381.000000	9.070897
2380.000000	9.071305
2379.000000	9.050995
2378.000000	9.027113
2377.000000	9.019663
2376.000000	9.016091
2375.000000	8.997618
2374.000000	8.980166
2373.000000	8.968735
2372.000000	8.946894
2371.000000	8.922910
2370.000000	8.909336
2369.000000	8.895456
2368.000000	8.860449
2367.000000	8.823707
2366.000000	8.799111
2365.000000	8.774208
2364.000000	8.733282
2363.000000	8.698276
2362.000000	8.665616
2361.000000	8.615199
2360.000000	8.587642
2359.000000	8.560596
2358.000000	8.520793
2357.000000	8.480377
2356.000000	8.453535
2355.000000	8.428429
2354.000000	8.405465
2353.000000	8.395565
2352.000000	8.386788
2351.000000	8.370969
2350.000000	8.379440
2349.000000	8.393830
2348.000000	8.396892
2347.000000	8.414855
2346.000000	8.430878
2345.000000	8.442309
2344.000000	8.450270
2343.000000	8.469865
2342.000000	8.508546
2341.000000	8.522732
2340.000000	8.534775
2339.000000	8.545798
2338.000000	8.544165
2337.000000	8.554371
2336.000000	8.548553
2335.000000	8.543450
2334.000000	8.534673
2333.000000	8.512118
2332.000000	8.484766
2331.000000	8.452719
2330.000000	8.442003
2329.000000	8.412099
2328.000000	8.378011
2327.000000	8.328716
2326.000000	8.295036
2325.000000	8.257478
2324.000000	8.202161
2323.000000	8.137659
2322.000000	8.081322
2321.000000	8.043764
2320.000000	7.992428
2319.000000	7.932315
2318.000000	7.859342
2317.000000	7.800351
2316.000000	7.739013
2315.000000	7.685635
2314.000000	7.611131
2313.000000	7.572349
2312.000000	7.511010
2311.000000	7.468758
2310.000000	7.441712
2309.000000	7.379761
2308.000000	7.366493
2307.000000	7.342815
2306.000000	7.332507
2305.000000	7.350980
2304.000000	7.361288
2303.000000	7.380884
2302.000000	7.402316
2301.000000	7.433649
2300.000000	7.473554
2299.000000	7.504989
2298.000000	7.564490
2297.000000	7.628073
2296.000000	7.671959
2295.000000	7.726459
2294.000000	7.745545
2293.000000	7.784634
2292.000000	7.810761
2291.000000	7.846074
2290.000000	7.869650
2289.000000	7.892409
2288.000000	7.894348
2287.000000	7.893838
2286.000000	7.865261
2285.000000	7.882101
2284.000000	7.882713
2283.000000	7.849646
2282.000000	7.831071
2281.000000	7.794431
2280.000000	7.782286
2279.000000	7.753505
2278.000000	7.733501
2277.000000	7.703700
2276.000000	7.678491
2275.000000	7.664407
2274.000000	7.635013
2273.000000	7.630217
2272.000000	7.627869
2271.000000	7.641647
2270.000000	7.659100
2269.000000	7.658589
2268.000000	7.694310
2267.000000	7.751668
2266.000000	7.800861
2265.000000	7.858117
2264.000000	7.949869
2263.000000	8.036722
2262.000000	8.127351
2261.000000	8.268807
2260.000000	8.380869
2259.000000	8.525080
2258.000000	8.648164
2257.000000	8.790844
2256.000000	8.947506
2255.000000	9.104577
2254.000000	9.266342
2253.000000	9.421780
2252.000000	9.540169
2251.000000	9.678563
2250.000000	9.827162
2249.000000	9.956983
2248.000000	10.077516
2247.000000	10.177126
2246.000000	10.283881
2245.000000	10.382369
2244.000000	10.476469
2243.000000	10.583632
2242.000000	10.650481
2241.000000	10.721821
2240.000000	10.811838
2239.000000	10.867053
2238.000000	10.908489
2237.000000	10.962683
2236.000000	11.040248
2235.000000	11.090258
2234.000000	11.096279
2233.000000	11.134450
2232.000000	11.174458
2231.000000	11.197421
2230.000000	11.215588
2229.000000	11.250390
2228.000000	11.250798
2227.000000	11.279579
2226.000000	11.270292
2225.000000	11.286009
2224.000000	11.250798
2223.000000	11.254983
2222.000000	11.235796
2221.000000	11.221813
2220.000000	11.223038
2219.000000	11.224977
2218.000000	11.207627
2217.000000	11.203136
2216.000000	11.169457
2215.000000	11.146391
2214.000000	11.119447
2213.000000	11.124958
2212.000000	11.098729
2211.000000	11.080256
2210.000000	11.062396
2209.000000	11.060456
2208.000000	11.039942
2207.000000	11.028614
2206.000000	11.022388
2205.000000	10.997996
2204.000000	10.993913
2203.000000	10.983095
2202.000000	10.972889
2201.000000	10.961662
2200.000000	10.927982
2199.000000	10.937882
2198.000000	10.945639
2197.000000	10.915123
2196.000000	10.913898
2195.000000	10.909816
2194.000000	10.906550
2193.000000	10.868992
2192.000000	10.883178
2191.000000	10.884811
2190.000000	10.875115
2189.000000	10.872564
2188.000000	10.854193
2187.000000	10.857357
2186.000000	10.846845
2185.000000	10.829086
2184.000000	10.822146
2183.000000	10.811838
2182.000000	10.781118
2181.000000	10.791222
2180.000000	10.780710
2179.000000	10.771728
2178.000000	10.771014
2177.000000	10.776525
2176.000000	10.747744
2175.000000	10.770810
2174.000000	10.758665
2173.000000	10.745601
2172.000000	10.762339
2171.000000	10.794386
2170.000000	10.789691
2169.000000	10.793467
2168.000000	10.797448
2167.000000	10.806939
2166.000000	10.824596
2165.000000	10.853274
2164.000000	10.859398
2163.000000	10.880524
2162.000000	10.894303
2161.000000	10.899814
2160.000000	10.925023
2159.000000	10.952171
2158.000000	10.963499
2157.000000	10.978196
2156.000000	10.998608
2155.000000	11.012182
2154.000000	11.038309
2153.000000	11.073010
2152.000000	11.099750
2151.000000	11.116691
2150.000000	11.146595
2149.000000	11.165680
2148.000000	11.192930
2147.000000	11.220997
2146.000000	11.231509
2145.000000	11.265189
2144.000000	11.281723
2143.000000	11.305911
2142.000000	11.323771
2141.000000	11.325200
2140.000000	11.342244
2139.000000	11.379802
2138.000000	11.378476
2137.000000	11.378782
2136.000000	11.375822
2135.000000	11.391846
2134.000000	11.412258
2133.000000	11.405930
2132.000000	11.394091
2131.000000	11.399704
2130.000000	11.394295
2129.000000	11.387151
2128.000000	11.378374
2127.000000	11.368066
2126.000000	11.365310
2125.000000	11.364085
2124.000000	11.349797
2123.000000	11.332344
2122.000000	11.316729
2121.000000	11.285907
2120.000000	11.266005
2119.000000	11.255391
2118.000000	11.239266
2117.000000	11.211505
2116.000000	11.172722
2115.000000	11.141084
2114.000000	11.120876
2113.000000	11.111180
2112.000000	11.090768
2111.000000	11.060150
2110.000000	11.026674
2109.000000	10.998302
2108.000000	10.974522
2107.000000	10.947884
2106.000000	10.920634
2105.000000	10.889302
2104.000000	10.858888
2103.000000	10.838578
2102.000000	10.827555
2101.000000	10.801632
2100.000000	10.767034
2099.000000	10.746622
2098.000000	10.720596
2097.000000	10.695898
2096.000000	10.683344
2095.000000	10.663545
2094.000000	10.642929
2093.000000	10.614148
2092.000000	10.580264
2091.000000	10.568629
2090.000000	10.566792
2089.000000	10.553626
2088.000000	10.525151
2087.000000	10.508720
2086.000000	10.491778
2085.000000	10.473509
2084.000000	10.432174
2083.000000	10.404516
2082.000000	10.406149
2081.000000	10.392473
2080.000000	10.372367
2079.000000	10.350016
2078.000000	10.309294
2077.000000	10.286331
2076.000000	10.272348
2075.000000	10.248568
2074.000000	10.220400
2073.000000	10.178147
2072.000000	10.161001
2071.000000	10.119871
2070.000000	10.086803
2069.000000	10.066697
2068.000000	10.036385
2067.000000	10.015667
2066.000000	9.985253
2065.000000	9.964739
2064.000000	9.954329
2063.000000	9.921262
2062.000000	9.897788
2061.000000	9.882275
2060.000000	9.869415
2059.000000	9.855535
2058.000000	9.851759
2057.000000	9.849513
2056.000000	9.852983
2055.000000	9.867170
2054.000000	9.890031
2053.000000	9.899523
2052.000000	9.933917
2051.000000	9.976170
2050.000000	10.012503
2049.000000	10.049653
2048.000000	10.066391
2047.000000	10.125280
2046.000000	10.202641
2045.000000	10.247650
2044.000000	10.319704
2043.000000	10.366754
2042.000000	10.435849
2041.000000	10.480755
2040.000000	10.543726
2039.000000	10.578427
2038.000000	10.628844
2037.000000	10.686100
2036.000000	10.735701
2035.000000	10.776321
2034.000000	10.817043
2033.000000	10.856132
2032.000000	10.888383
2031.000000	10.923492
2030.000000	10.955232
2029.000000	10.970133
2028.000000	10.993709
2027.000000	11.038105
2026.000000	11.054639
2025.000000	11.069336
2024.000000	11.085053
2023.000000	11.103832
2022.000000	11.116181
2021.000000	11.144758
2020.000000	11.141084
2019.000000	11.135981
2018.000000	11.161190
2017.000000	11.159863
2016.000000	11.175784
2015.000000	11.176295
2014.000000	11.181193
2013.000000	11.189460
2012.000000	11.172110
2011.000000	11.169457
2010.000000	11.156291
2009.000000	11.131490
2008.000000	11.142309
2007.000000	11.112609
2006.000000	11.082910
2005.000000	11.086176
2004.000000	11.070764
2003.000000	11.044229
2002.000000	11.014631
2001.000000	10.976563
2000.000000	10.944822
1999.000000	10.910836
1998.000000	10.874299
1997.000000	10.842966
1996.000000	10.815206
1995.000000	10.793263
1994.000000	10.740906
1993.000000	10.679364
1992.000000	10.665280
1991.000000	10.629661
1990.000000	10.579447
1989.000000	10.539542
1988.000000	10.484327
1987.000000	10.425541
1986.000000	10.411048
1985.000000	10.358793
1984.000000	10.342974
1983.000000	10.281534
1982.000000	10.235811
1981.000000	10.170288
1980.000000	10.139772
1979.000000	10.099152
1978.000000	10.037916
1977.000000	10.005053
1976.000000	9.958309
1975.000000	9.922997
1974.000000	9.885949
1973.000000	9.852371
1972.000000	9.820120
1971.000000	9.768682
1970.000000	9.718366
1969.000000	9.690198
1968.000000	9.666213
1967.000000	9.602732
1966.000000	9.583953
1965.000000	9.543027
1964.000000	9.497610
1963.000000	9.475157
1962.000000	9.434537
1961.000000	9.389222
1960.000000	9.367586
1959.000000	9.320536
1958.000000	9.295531
1957.000000	9.261647
1956.000000	9.233683
1955.000000	9.193369
1954.000000	9.177652
1953.000000	9.127438
1952.000000	9.087329
1951.000000	9.066815
1950.000000	9.026501
1949.000000	9.040381
1948.000000	9.012927
1947.000000	9.000680
1946.000000	8.963428
1945.000000	8.951385
1944.000000	8.917807
1943.000000	8.913214
1942.000000	8.918215
1941.000000	8.914031
1940.000000	8.887393
1939.000000	8.903722
1938.000000	8.908213
1937.000000	8.921991
1936.000000	8.911581
1935.000000	8.920256
1934.000000	8.963326
1933.000000	8.981696
1932.000000	9.003027
1931.000000	9.031910
1930.000000	9.082940
1929.000000	9.135399
1928.000000	9.159383
1927.000000	9.226334
1926.000000	9.263076
1925.000000	9.340846
1924.000000	9.401061
1923.000000	9.478219
1922.000000	9.562827
1921.000000	9.618143
1920.000000	9.718060
1919.000000	9.783889
1918.000000	9.890235
1917.000000	9.987805
1916.000000	10.086089
1915.000000	10.182944
1914.000000	10.302354
1913.000000	10.457894
1912.000000	10.575875
1911.000000	10.685998
1910.000000	10.797448
1909.000000	10.915123
1908.000000	11.061783
1907.000000	11.222018
1906.000000	11.394499
1905.000000	11.573615
1904.000000	11.738442
1903.000000	11.909903
1902.000000	12.084731
1901.000000	12.272828
1900.000000	12.485419
1899.000000	12.688213
1898.000000	12.904376
1897.000000	13.088901
1896.000000	13.260974
1895.000000	13.481118
1894.000000	13.697893
1893.000000	13.966413
1892.000000	14.262286
1891.000000	14.550707
1890.000000	14.808613
1889.000000	15.084176
1888.000000	15.403828
1887.000000	15.722868
1886.000000	16.079466
1885.000000	16.496789
1884.000000	16.968205
1883.000000	17.419515
1882.000000	17.857454
1881.000000	18.318358
1880.000000	18.762421
1879.000000	19.218936
1878.000000	19.670144
1877.000000	20.103389
1876.000000	20.533776
1875.000000	20.945691
1874.000000	21.351992
1873.000000	21.724205
1872.000000	22.068454
1871.000000	22.391168
1870.000000	22.677753
1869.000000	22.932393
1868.000000	23.133553
1867.000000	23.287562
1866.000000	23.415749
1865.000000	23.535568
1864.000000	23.650079
1863.000000	23.754282
1862.000000	23.875020
1861.000000	23.972895
1860.000000	24.062504
1859.000000	24.140172
1858.000000	24.184058
1857.000000	24.215798
1856.000000	24.236312
1855.000000	24.251009
1854.000000	24.239782
1853.000000	24.225188
1852.000000	24.217635
1851.000000	24.184262
1850.000000	24.167932
1849.000000	24.165687
1848.000000	24.141090
1847.000000	24.070363
1846.000000	24.000553
1845.000000	23.947074
1844.000000	23.906148
1843.000000	23.913088
1842.000000	23.900228
1841.000000	23.870733
1840.000000	23.847463
1839.000000	23.814294
1838.000000	23.771327
1837.000000	23.708764
1836.000000	23.642935
1835.000000	23.562920
1834.000000	23.476271
1833.000000	23.403604
1832.000000	23.330223
1831.000000	23.255617
1830.000000	23.178459
1829.000000	23.088953
1828.000000	23.019042
1827.000000	22.943721
1826.000000	22.857378
1825.000000	22.782466
1824.000000	22.718985
1823.000000	22.690918
1822.000000	22.686224
1821.000000	22.663770
1820.000000	22.624681
1819.000000	22.578346
1818.000000	22.540584
1817.000000	22.520784
1816.000000	22.513334
1815.000000	22.504455
1814.000000	22.476286
1813.000000	22.442402
1812.000000	22.421071
1811.000000	22.388208
1810.000000	22.338403
1809.000000	22.285434
1808.000000	22.249406
1807.000000	22.200316
1806.000000	22.147142
1805.000000	22.102848
1804.000000	22.052124
1803.000000	21.988031
1802.000000	21.933530
1801.000000	21.900259
1800.000000	21.839839
1799.000000	21.767172
1798.000000	21.729206
1797.000000	21.682667
1796.000000	21.625003
1795.000000	21.575197
1794.000000	21.524576
1793.000000	21.473444
1792.000000	21.419250
1791.000000	21.357401
1790.000000	21.293716
1789.000000	21.244931
1788.000000	21.192064
1787.000000	21.107660
1786.000000	21.038055
1785.000000	20.969777
1784.000000	20.897416
1783.000000	20.823729
1782.000000	20.750042
1781.000000	20.667985
1780.000000	20.592563
1779.000000	20.516528
1778.000000	20.439779
1777.000000	20.338229
1776.000000	20.240762
1775.000000	20.132680
1774.000000	20.024496
1773.000000	19.925600
1772.000000	19.801597
1771.000000	19.681677
1770.000000	19.567471
1769.000000	19.460410
1768.000000	19.355084
1767.000000	19.275784
1766.000000	19.201892
1765.000000	19.140248
1764.000000	19.099832
1763.000000	19.119019
1762.000000	19.129634
1761.000000	19.166579
1760.000000	19.220977
1759.000000	19.286296
1758.000000	19.356615
1757.000000	19.416933
1756.000000	19.486334
1755.000000	19.527974
1754.000000	19.543691
1753.000000	19.539201
1752.000000	19.540017
1751.000000	19.531240
1750.000000	19.491232
1749.000000	19.434181
1748.000000	19.367842
1747.000000	19.318649
1746.000000	19.231081
1745.000000	19.115141
1744.000000	18.983586
1743.000000	18.818758
1742.000000	18.628416
1741.000000	18.454608
1740.000000	18.249671
1739.000000	18.062391
1738.000000	17.900422
1737.000000	17.759069
1736.000000	17.620063
1735.000000	17.550049
1734.000000	17.537802
1733.000000	17.544640
1732.000000	17.605876
1731.000000	17.682217
1730.000000	17.787849
1729.000000	17.903586
1728.000000	18.031977
1727.000000	18.154041
1726.000000	18.227524
1725.000000	18.306519
1724.000000	18.380410
1723.000000	18.422051
1722.000000	18.432869
1721.000000	18.474408
1720.000000	18.504924
1719.000000	18.532582
1718.000000	18.571875
1717.000000	18.608311
1716.000000	18.664342
1715.000000	18.732722
1714.000000	18.793448
1713.000000	18.824372
1712.000000	18.885302
1711.000000	18.908367
1710.000000	18.911735
1709.000000	18.898672
1708.000000	18.897855
1707.000000	18.868564
1706.000000	18.826821
1705.000000	18.787426
1704.000000	18.716086
1703.000000	18.632295
1702.000000	18.529010
1701.000000	18.379186
1700.000000	18.246712
1699.000000	18.109339
1698.000000	17.959617
1697.000000	17.872457
1696.000000	17.823060
1695.000000	17.835716
1694.000000	17.870314
1693.000000	17.988500
1692.000000	18.132915
1691.000000	18.292128
1690.000000	18.427970
1689.000000	18.539216
1688.000000	18.624334
1687.000000	18.649237
1686.000000	18.684549
1685.000000	18.737417
1684.000000	18.837333
1683.000000	19.044311
1682.000000	19.363147
1681.000000	19.753221
1680.000000	20.246273
1679.000000	20.775557
1678.000000	21.306167
1677.000000	21.771663
1676.000000	22.214706
1675.000000	22.597125
1674.000000	22.945967
1673.000000	23.218059
1672.000000	23.472699
1671.000000	23.709886
1670.000000	23.887981
1669.000000	24.053012
1668.000000	24.203041
1667.000000	24.311122
1666.000000	24.428491
1665.000000	24.516569
1664.000000	24.571171
1663.000000	24.648125
1662.000000	24.714668
1661.000000	24.777537
1660.000000	24.769270
1659.000000	24.798255
1658.000000	24.828465
1657.000000	24.834078
1656.000000	24.815810
1655.000000	24.815707
1654.000000	24.792030
1653.000000	24.794989
1652.000000	24.769372
1651.000000	24.725486
1650.000000	24.696705
1649.000000	24.655881
1648.000000	24.608321
1647.000000	24.551168
1646.000000	24.505445
1645.000000	24.425940
1644.000000	24.342353
1643.000000	24.285097
1642.000000	24.233659
1641.000000	24.183037
1640.000000	24.105880
1639.000000	24.025966
1638.000000	23.941563
1637.000000	23.868998
1636.000000	23.771735
1635.000000	23.689883
1634.000000	23.614154
1633.000000	23.520769
1632.000000	23.458614
1631.000000	23.366250
1630.000000	23.276335
1629.000000	23.183869
1628.000000	23.105180
1627.000000	23.014245
1626.000000	22.912899
1625.000000	22.806961
1624.000000	22.721843
1623.000000	22.640501
1622.000000	22.549055
1621.000000	22.459650
1620.000000	22.379737
1619.000000	22.304417
1618.000000	22.216645
1617.000000	22.138671
1616.000000	22.051002
1615.000000	21.970884
1614.000000	21.898218
1613.000000	21.809936
1612.000000	21.729614
1611.000000	21.671746
1610.000000	21.570094
1609.000000	21.495591
1608.000000	21.429047
1607.000000	21.359340
1606.000000	21.283612
1605.000000	21.200637
1604.000000	21.122357
1603.000000	21.052344
1602.000000	20.999579
1601.000000	20.922625
1600.000000	20.844549
1599.000000	20.779537
1598.000000	20.721363
1597.000000	20.659514
1596.000000	20.578989
1595.000000	20.501831
1594.000000	20.461722
1593.000000	20.413958
1592.000000	20.369153
