PE UV       SUBTECH     SPECTRUM    ASCII       PEDS        4.00        
   -1
2-STRIGIDIA BELTI INBIO0004211063.ASC
23/11/17
10:41:59.00
23/11/17
10:41:59.00
Vinicio Soto Monge

250,000000
1
Lambda 1050
1050L1511233
PerkinElmer UV WinLab 6.3.2.0749 / 2.02.05 Lambda 900 UV/VIS/NIR, Aug  7 2015 09:38:08

0
0
3350/servo 860,8/2
0
0
UV/VIS
1
1
1
DoubleDePol,CommonBeamDepol,RBeamAtt,SBeamAtt,60mm sphere, WB InGaAs Detector
0
0
0
0
Program
Program
3350/servo 860,8/2
3350/0,4 860,8/0,4
3350/0,4 860,8/0,4
0
20.00
 
 
 
0
 
860,8
319,2
860,8
Front
100
on
S:100 R:100
0
0
0
0
 
0
 
 
 
0
 
 
0
0
0
0
0
 
 
 
 
0
0


0
0
#HDR
-1
-1
#GR
nm
%R
1.0
0.0
2200,000000
-1,000000
1951
8
108,797053
5,244670
#DATA
250.000000	4.287865
251.000000	4.280625
252.000000	4.208678
253.000000	4.184380
254.000000	4.185047
255.000000	4.123422
256.000000	4.142991
257.000000	4.082203
258.000000	4.096830
259.000000	4.091195
260.000000	4.085498
261.000000	4.047961
262.000000	4.010572
263.000000	4.053890
264.000000	3.993093
265.000000	3.994314
266.000000	4.022997
267.000000	3.950696
268.000000	3.976053
269.000000	3.941312
270.000000	3.942511
271.000000	3.945219
272.000000	3.965785
273.000000	3.956437
274.000000	3.855705
275.000000	3.884725
276.000000	3.872598
277.000000	3.912077
278.000000	3.890628
279.000000	3.904588
280.000000	3.905424
281.000000	3.884219
282.000000	3.891334
283.000000	3.854927
284.000000	3.846477
285.000000	3.848496
286.000000	3.840710
287.000000	3.868103
288.000000	3.816943
289.000000	3.852264
290.000000	3.811236
291.000000	3.842375
292.000000	3.840865
293.000000	3.809229
294.000000	3.802755
295.000000	3.797539
296.000000	3.767954
297.000000	3.788803
298.000000	3.801432
299.000000	3.800039
300.000000	3.843771
301.000000	3.813429
302.000000	3.784967
303.000000	3.783630
304.000000	3.802349
305.000000	3.836765
306.000000	3.766404
307.000000	3.736364
308.000000	3.782278
309.000000	3.794106
310.000000	3.708357
311.000000	3.712394
312.000000	3.687577
313.000000	3.717274
314.000000	3.705327
315.000000	3.657759
316.000000	3.706044
317.000000	3.885823
318.000000	3.942007
319.000000	3.861507
320.000000	3.878617
321.000000	3.781811
322.000000	3.949742
323.000000	3.722796
324.000000	3.869240
325.000000	3.888344
326.000000	3.931741
327.000000	3.814247
328.000000	3.748812
329.000000	3.714961
330.000000	3.797160
331.000000	3.741615
332.000000	3.755723
333.000000	3.698333
334.000000	3.761668
335.000000	3.748873
336.000000	3.774799
337.000000	3.824033
338.000000	3.811336
339.000000	3.749608
340.000000	3.779030
341.000000	3.791528
342.000000	3.763031
343.000000	3.751781
344.000000	3.776535
345.000000	3.764210
346.000000	3.767163
347.000000	3.758286
348.000000	3.772287
349.000000	3.746905
350.000000	3.730775
350.166136	31.306659
350.166136	76.735556
350.601937	31.449238
350.601937	76.974486
351.000000	3.788317
351.037728	31.515551
351.037728	77.112969
351.473509	31.552359
351.473509	77.116594
351.909281	77.172771
351.909281	31.567083
352.000000	3.790064
352.345042	31.591255
352.345042	77.251309
352.780794	77.242482
352.780794	31.575397
353.000000	3.732103
353.216536	77.282935
353.216536	31.597281
353.652267	31.625730
353.652267	77.334036
354.000000	3.740967
354.087989	31.575035
354.087989	77.265609
354.523701	31.565370
354.523701	77.294785
354.959403	31.528994
354.959403	77.178018
355.000000	3.796863
355.395095	77.307542
355.395095	31.595403
355.830777	77.289871
355.830777	31.571219
356.000000	3.759386
356.266449	77.292370
356.266449	31.552765
356.702110	31.504942
356.702110	77.257623
357.000000	3.764123
357.137762	31.520674
357.137762	77.377006
357.573404	77.319357
357.573404	31.507936
358.000000	3.784671
358.009035	31.416460
358.009035	77.095012
358.444656	31.462415
358.444656	77.142787
358.880268	77.203470
358.880268	31.499363
359.000000	3.765024
359.315869	77.278591
359.315869	31.527392
359.751459	31.493238
359.751459	77.223529
360.000000	3.732376
360.187040	77.313700
360.187040	31.539367
360.622610	31.591917
360.622610	77.415837
361.000000	3.744101
361.058170	31.627775
361.058170	77.478501
361.493720	31.598872
361.493720	77.445515
361.929260	77.476816
361.929260	31.609910
362.000000	3.723373
362.364789	77.625468
362.364789	31.639250
362.800308	77.482624
362.800308	31.564299
363.000000	3.752881
363.235816	31.533531
363.235816	77.459358
363.671314	31.588145
363.671314	77.560325
364.000000	3.754945
364.106802	31.614741
364.106802	77.629845
364.542279	31.652701
364.542279	77.705621
364.977746	31.675633
364.977746	77.806215
365.000000	3.722821
365.413203	77.902911
365.413203	31.740386
365.848649	77.814909
365.848649	31.686981
366.000000	3.728405
366.284084	31.643256
366.284084	77.697364
366.719509	31.610697
366.719509	77.653401
367.000000	3.768203
367.154924	31.666830
367.154924	77.720582
367.590328	77.370301
368.000000	3.715785
368.025721	31.667175
368.025721	77.703813
368.461104	31.710571
368.461104	77.828446
368.896477	77.804772
368.896477	31.719298
369.000000	3.723016
369.331838	31.651647
369.331838	77.593044
369.767189	31.659751
369.767189	77.652407
370.000000	3.748752
370.202530	77.640961
370.202530	31.687887
370.637859	31.667458
370.637859	77.581051
371.000000	3.725146
371.073178	31.692226
371.073178	77.662383
371.508486	31.715490
371.508486	77.722028
371.943784	77.618759
371.943784	31.657303
372.000000	3.727223
372.379071	77.489419
372.379071	31.614003
372.814347	77.462545
372.814347	31.617557
373.000000	3.713377
373.249612	77.621384
373.249612	31.671888
373.684866	31.603931
373.684866	77.542303
374.000000	3.720074
374.120110	31.660610
374.120110	77.645344
374.555343	77.717218
374.555343	31.683870
374.990565	77.767860
374.990565	31.711273
375.000000	3.711289
375.425776	77.785592
375.425776	31.719669
375.860976	77.769858
375.860976	31.725231
376.000000	3.631215
376.296165	77.802752
376.296165	31.736670
376.731343	31.757682
376.731343	77.851985
377.000000	3.538453
377.166511	77.743261
377.166511	31.721714
377.601667	77.722568
377.601667	31.692488
378.000000	3.534704
378.036812	31.693098
378.036812	77.714760
378.471946	31.721352
378.471946	77.721744
378.907070	77.642503
378.907070	31.665952
379.000000	3.538035
379.342182	77.557501
379.342182	31.633118
379.777283	77.429288
380.000000	3.533605
380.212373	31.659672
380.212373	77.667961
380.647452	77.566273
380.647452	31.600751
381.000000	3.523025
381.082520	77.547776
381.082520	31.553789
381.517576	31.535990
381.517576	77.431574
381.952622	77.355548
381.952622	31.499842
382.000000	3.519595
382.387656	31.489536
382.387656	77.341281
382.822679	31.566997
382.822679	77.505980
383.000000	3.513709
383.257691	31.544208
383.257691	77.410008
383.692692	77.424583
383.692692	31.535888
384.000000	3.515011
384.127681	31.575063
384.127681	77.475881
384.562659	31.509434
384.562659	77.367355
384.997626	77.262997
384.997626	31.467147
385.000000	3.510639
385.432581	31.453280
385.432581	77.237947
385.867525	31.528929
385.867525	77.401249
386.000000	3.503299
386.302458	31.497919
386.302458	77.368618
386.737379	31.517477
386.737379	77.382200
387.000000	3.503285
387.172289	31.503474
387.172289	77.332883
387.607188	77.146134
387.607188	31.409004
388.000000	3.509129
388.042075	31.361239
388.042075	77.045657
388.476951	77.076825
388.476951	31.351203
388.911815	76.948789
388.911815	31.311892
389.000000	3.513039
389.346668	76.806601
389.346668	31.237567
389.781509	76.882707
389.781509	31.266651
390.000000	3.510523
390.216338	31.275761
390.216338	76.868420
390.651157	76.843071
390.651157	31.277524
391.000000	3.509232
391.085963	31.292271
391.085963	76.828408
391.520758	76.849798
391.520758	31.282634
391.955541	31.240498
391.955541	76.767156
392.000000	3.512607
392.390313	76.627796
392.390313	31.178496
392.825073	31.180909
392.825073	76.607223
393.000000	3.509610
393.259821	31.203680
393.259821	76.607222
393.694558	31.207574
393.694558	76.580578
394.000000	3.501166
394.129283	31.169789
394.129283	76.501822
394.563996	31.236158
394.563996	76.537442
394.998698	76.637298
394.998698	31.265946
395.000000	3.503935
395.433388	76.607158
395.433388	31.248908
395.868066	76.474805
395.868066	31.182868
396.000000	3.511534
396.302732	76.381553
396.302732	31.127814
396.737386	31.077118
396.737386	76.245198
397.000000	3.508543
397.172029	76.049284
397.172029	31.012218
397.606659	30.878080
397.606659	75.718850
398.000000	3.500529
398.041278	30.726420
398.041278	75.295307
398.475885	30.634584
398.475885	75.068744
398.910480	30.469296
398.910480	74.641728
399.000000	3.496637
399.345063	30.151101
399.345063	73.898023
399.779634	29.873063
399.779634	73.209303
400.000000	3.497113
400.214194	72.033116
400.214194	29.395369
400.648741	70.862428
400.648741	28.934192
401.000000	3.500875
401.083276	69.553080
401.083276	28.396506
401.517799	67.725281
401.952310	26.996956
401.952310	66.075965
402.000000	3.499273
402.386809	26.207766
402.386809	64.106525
402.821296	25.346344
402.821296	61.973743
403.000000	3.503101
403.255771	59.709488
403.255771	24.436114
403.690234	57.295882
403.690234	23.441260
404.000000	3.508751
404.124684	22.402056
404.124684	54.787425
404.559123	52.132859
404.559123	21.294207
404.993549	49.535614
404.993549	20.237600
405.000000	3.500589
405.427963	46.913802
405.427963	19.155302
405.862365	44.497649
405.862365	18.148930
406.000000	3.496447
406.296754	17.196435
406.296754	42.179636
406.731131	16.283545
406.731131	39.936210
407.000000	3.509623
407.165496	15.437207
407.165496	37.868679
407.599849	14.664527
407.599849	35.954001
408.000000	3.511204
408.034190	34.143728
408.034190	13.942874
408.468518	32.478098
408.468518	13.282790
408.902833	12.660265
408.902833	30.918016
409.000000	3.512309
409.337137	29.489101
409.337137	12.097950
409.771428	28.149310
409.771428	11.583660
410.000000	3.510585
410.205706	11.090970
410.205706	26.886985
410.639973	25.785473
410.639973	10.669165
411.000000	3.504352
411.074226	10.304545
411.074226	24.817111
411.508467	9.985366
411.508467	23.956269
411.942696	9.695691
411.942696	23.169434
412.000000	3.509488
412.376912	9.443274
412.376912	22.482963
412.811116	9.233419
412.811116	21.891198
413.000000	3.511947
413.245307	9.045223
413.245307	21.348837
413.679486	20.811308
414.000000	3.517451
414.113652	8.728653
414.113652	20.429181
414.547805	8.588968
414.547805	20.012752
414.981946	8.464884
414.981946	19.647137
415.000000	3.515807
415.416074	8.364661
415.416074	19.330267
415.850190	19.059859
415.850190	8.282405
416.000000	3.511820
416.284293	18.802287
416.284293	8.207302
416.718383	18.586779
416.718383	8.148192
417.000000	3.510679
417.152460	8.092871
417.152460	18.390315
417.586525	8.058895
417.586525	18.241032
418.000000	3.511131
418.020577	8.037476
418.020577	18.116990
418.454616	8.012925
418.454616	17.992000
418.888643	17.897955
418.888643	8.001422
419.000000	3.505943
419.322656	7.993593
419.322656	17.810364
419.756657	17.672943
420.000000	3.512063
420.190645	17.648065
420.190645	7.982081
420.624620	17.574894
420.624620	7.980703
421.000000	3.519671
421.058582	7.979724
421.058582	17.509466
421.492531	7.986771
421.492531	17.458549
421.926468	17.419693
421.926468	7.995932
422.000000	3.516006
422.360391	8.015073
422.360391	17.403676
422.794301	8.041475
422.794301	17.412182
423.000000	3.518960
423.228199	17.443268
423.228199	8.077394
423.662083	8.119699
423.662083	17.492424
424.000000	3.520043
424.095955	17.559360
424.095955	8.169285
424.529813	8.217707
424.529813	17.622181
424.963658	8.267362
424.963658	17.695461
425.000000	3.521481
425.397491	17.756595
425.397491	8.313861
425.831310	17.811450
425.831310	8.357768
426.000000	3.527571
426.265116	17.861026
426.265116	8.398644
426.698909	17.910881
426.698909	8.439445
427.000000	3.532307
427.132689	17.970463
427.132689	8.484204
427.566455	8.534165
427.566455	18.043756
428.000000	3.527144
428.000209	18.133696
428.000209	8.591574
428.433949	18.224295
428.433949	8.650058
428.867676	18.323014
428.867676	8.709816
429.000000	3.530840
429.301389	8.769247
429.301389	18.418059
429.735090	18.515884
429.735090	8.828051
430.000000	3.538315
430.168777	18.597301
430.168777	8.880067
430.602451	18.667751
430.602451	8.927937
431.000000	3.539295
431.036111	8.967199
431.036111	18.713948
431.469759	18.766319
431.469759	9.006374
431.903392	9.044066
431.903392	18.814602
432.000000	3.537863
432.337013	18.860023
432.337013	9.080971
432.770620	18.908440
432.770620	9.118749
433.000000	3.537945
433.204213	9.162547
433.204213	18.973188
433.637794	19.058072
433.637794	9.213432
434.000000	3.536522
434.071360	9.266691
434.071360	19.150918
434.504914	19.256517
434.504914	9.326703
434.938453	9.389540
434.938453	19.374853
435.000000	3.539911
435.371979	9.455698
435.371979	19.495551
435.805492	9.522078
435.805492	19.620368
436.000000	3.541118
436.238991	9.585086
436.238991	19.734979
436.672477	19.844256
436.672477	9.643517
437.000000	3.529657
437.105949	19.948640
437.105949	9.699786
437.539407	9.746407
437.539407	20.029104
437.972852	20.102548
437.972852	9.788409
438.000000	3.531857
438.406283	9.832638
438.406283	20.175939
438.839700	9.876591
438.839700	20.253839
439.000000	3.537475
439.273104	9.924932
439.273104	20.341321
439.706494	9.974505
439.706494	20.432731
440.000000	3.536046
440.139871	20.536227
440.139871	10.029145
440.573233	10.082168
440.573233	20.636562
441.000000	3.539185
441.006582	20.733635
441.006582	10.134263
441.439917	20.819063
441.439917	10.179535
441.873238	10.219028
441.873238	20.890597
442.000000	3.539625
442.306546	20.949875
442.306546	10.253020
442.739839	10.279468
442.739839	20.995909
443.000000	3.543833
443.173119	21.028027
443.173119	10.300603
443.606385	21.063186
443.606385	10.322521
444.000000	3.557841
444.039636	10.344268
444.039636	21.097753
444.472874	10.370402
444.472874	21.145318
444.906099	21.196028
444.906099	10.398322
445.000000	3.559260
445.339309	21.263214
445.339309	10.433120
445.772505	21.339631
445.772505	10.472001
446.000000	3.554945
446.205687	21.428687
446.205687	10.516695
446.638855	10.561466
446.638855	21.516345
447.000000	3.566220
447.072009	10.606324
447.072009	21.604654
447.505149	10.653488
447.505149	21.698939
447.938275	10.699346
447.938275	21.790477
448.000000	3.565576
448.371387	10.742094
448.371387	21.875127
448.804485	21.946348
448.804485	10.777876
449.000000	3.560952
449.237569	22.002974
449.237569	10.807367
449.670638	10.833472
449.670638	22.053646
450.000000	3.559700
450.103694	22.087723
450.103694	10.852351
450.536735	22.114792
450.536735	10.868968
450.969762	22.146834
450.969762	10.886133
451.000000	3.565743
451.402774	10.905772
451.402774	22.183806
451.835773	22.222531
451.835773	10.925756
452.000000	3.572635
452.268757	10.952452
452.268757	22.274144
452.701727	10.978850
452.701727	22.325699
453.000000	3.569430
453.134683	22.383831
453.134683	11.008573
453.567624	11.034787
453.567624	22.435506
454.000000	3.565939
454.000551	11.060084
454.000551	22.485912
454.433464	22.467898
454.866362	11.097330
454.866362	22.557541
455.000000	3.564584
455.299246	11.112543
455.299246	22.588217
455.732116	22.609459
455.732116	11.123361
456.000000	3.563719
456.164971	22.629987
456.164971	11.133218
456.597811	11.143805
456.597811	22.652640
457.000000	3.570287
457.030638	22.674807
457.030638	11.154131
457.463449	11.166237
457.463449	22.701815
457.896246	11.176244
457.896246	22.726544
458.000000	3.572865
458.329029	11.187011
458.329029	22.751789
458.761797	11.198170
458.761797	22.777862
459.000000	3.573993
459.194551	22.803831
459.194551	11.209402
459.627290	22.827016
459.627290	11.218923
460.000000	3.576867
460.060014	22.854143
460.060014	11.229982
460.492724	22.884773
460.492724	11.242578
460.925419	22.913283
460.925419	11.253640
461.000000	3.572918
461.358099	11.266031
461.358099	22.945942
461.790765	22.969961
461.790765	11.274050
462.000000	3.575185
462.223416	22.990787
462.223416	11.279647
462.656052	11.283017
462.656052	23.007682
463.000000	3.583762
463.088674	23.020976
463.088674	11.283844
463.521281	23.035369
463.521281	11.284884
463.953873	23.051214
463.953873	11.285909
464.000000	3.586269
464.386450	23.063433
464.386450	11.284152
464.819012	11.285902
464.819012	23.083260
465.000000	3.589211
465.251560	11.289371
465.251560	23.106913
465.684093	23.132118
465.684093	11.293529
466.000000	3.598717
466.116611	23.166151
466.116611	11.301657
466.549114	23.205555
466.549114	11.312592
466.981602	23.247965
466.981602	11.325304
467.000000	3.597495
467.414075	11.336980
467.414075	23.288406
467.846533	11.348490
467.846533	23.329190
468.000000	3.600032
468.278977	23.369657
468.278977	11.359883
468.711405	23.406201
468.711405	11.369445
469.000000	3.604749
469.143818	11.379918
469.143818	23.444716
469.576216	11.387812
469.576216	23.477332
470.000000	3.600524
470.008600	23.504986
470.008600	11.392664
470.440968	23.525228
470.440968	11.394038
470.873321	23.542483
470.873321	11.394054
471.000000	3.603690
471.305659	23.555466
471.305659	11.392199
471.737982	23.572304
471.737982	11.392020
472.000000	3.613053
472.170289	11.389200
472.170289	23.584241
472.602582	23.530775
473.000000	3.616140
473.034859	11.384249
473.034859	23.609430
473.467122	23.629670
473.467122	11.385362
473.899369	23.653793
473.899369	11.389442
474.000000	3.624265
474.331600	11.398305
474.331600	23.685528
474.763817	23.724063
474.763817	11.411179
475.000000	3.630010
475.196018	11.431783
475.196018	23.776810
475.628204	11.460059
475.628204	23.843880
476.000000	3.639070
476.060375	23.920305
476.060375	11.494191
476.492530	11.531232
476.492530	24.001657
476.924670	24.017882
477.000000	3.650856
477.356795	24.162454
477.356795	11.606149
477.788904	24.240585
477.788904	11.642751
478.000000	3.664639
478.220998	24.308495
478.220998	11.673980
478.653076	11.702316
478.653076	24.371473
479.000000	3.676625
479.085139	24.363144
479.517186	11.755517
479.517186	24.489453
479.949219	24.548013
479.949219	11.782281
480.000000	3.686704
480.381235	11.815967
480.381235	24.618424
480.813236	11.857040
480.813236	24.700101
481.000000	3.702232
481.245221	11.906947
481.245221	24.798733
481.677191	11.964135
481.677191	24.909721
482.000000	3.724450
482.109146	25.024001
482.109146	12.024475
482.541084	12.087001
482.541084	25.142019
482.973008	25.259954
482.973008	12.149533
483.000000	3.749555
483.404915	12.211125
483.404915	25.376749
483.836807	25.486290
483.836807	12.268328
484.000000	3.777971
484.268683	12.320538
484.268683	25.589744
484.700544	25.683906
484.700544	12.366982
485.000000	3.806362
485.132388	12.406687
485.132388	25.767538
485.564217	12.441327
485.564217	25.842776
485.996031	25.914389
485.996031	12.472472
486.000000	3.835608
486.427828	12.498880
486.427828	25.979290
486.859610	26.039539
486.859610	12.522525
487.000000	3.866336
487.291376	26.098381
487.291376	12.544437
487.723126	12.568381
487.723126	26.162496
488.000000	3.903519
488.154860	12.594224
488.154860	26.229304
488.586579	26.305143
488.586579	12.624791
489.000000	3.955071
489.018281	12.662794
489.018281	26.392795
489.449968	26.497312
489.449968	12.710276
489.881639	26.623463
489.881639	12.770198
490.000000	4.000066
490.313293	12.840513
490.313293	26.767209
490.744932	12.920799
490.744932	26.927686
491.000000	4.047031
491.176555	13.005355
491.176555	27.095542
491.608162	27.268935
491.608162	13.092749
492.000000	4.104694
492.039753	27.438835
492.039753	13.177503
492.471328	27.594169
492.471328	13.252987
492.902886	13.317549
492.902886	27.731813
493.000000	4.171123
493.334429	27.853900
493.334429	13.371240
493.765956	27.955107
493.765956	13.412189
494.000000	4.235259
494.197466	13.447699
494.197466	28.050081
494.628960	13.478800
494.628960	28.137434
495.000000	4.310518
495.060439	28.231331
495.060439	13.513425
495.491901	28.339020
495.491901	13.555674
495.923347	28.465843
495.923347	13.609709
496.000000	4.387364
496.354776	13.675340
496.354776	28.611845
496.786190	28.782642
496.786190	13.755409
497.000000	4.471569
497.217587	28.972907
497.217587	13.846738
497.648968	29.174720
497.648968	13.945391
498.000000	4.563183
498.080332	14.049904
498.080332	29.388262
498.511681	29.600582
498.511681	14.153909
498.943013	29.812731
498.943013	14.255911
499.000000	4.665338
499.374328	14.351917
499.374328	30.016186
499.805628	30.209830
499.805628	14.440511
500.000000	4.770475
