PE UV       SUBTECH     SPECTRUM    ASCII       PEDS        4.00        
   -1
CICIMAUCR0019-1.Sample.ASC
24/04/17
11:27:54.00
24/04/17
11:27:54.00
Vinicio Soto Monge
C. cupreomarginata
250,000000
1
Lambda 1050
1050L1511233
PerkinElmer UV WinLab 6.3.2.0749 / 2.02.05 Lambda 900 UV/VIS/NIR, Aug  7 2015 09:38:08

0
0
3350/servo 860,8/2
0
0
UV/VIS
1
1
1
DoubleDePol,CommonBeamDepol,RBeamAtt,SBeamAtt,60mm sphere, WB InGaAs Detector
0
0
0
0
Program
Program
3350/servo 860,8/2
3350/0,2 860,8/0,2
3350/0,2 860,8/0,2
0
15.00
 
 
 
0
 
860,8
319,2
860,8
Front
100
on
S:100 R:100
0
0
0
0
 
0
 
 
 
0
 
 
0
0
0
0
0
 
 
 
 
0
0


0
0
#HDR
-1
-1
#GR
nm
%R
1.0
0.0
2500,000000
-1,000000
2251
8
46,208200
3,615000
#DATA
2482.000000	6.063598
2481.000000	5.988701
2480.000000	6.018188
2479.000000	6.009696
2478.000000	5.969593
2477.000000	5.955439
2476.000000	5.945060
2475.000000	5.989526
2474.000000	5.896229
2473.000000	5.958860
2472.000000	5.903424
2471.000000	5.916634
2470.000000	5.924183
2469.000000	5.937040
2468.000000	5.956265
2467.000000	5.951311
2466.000000	5.928193
2465.000000	5.954024
2464.000000	5.952491
2463.000000	5.960039
2462.000000	5.954614
2461.000000	5.985280
2460.000000	6.026444
2459.000000	6.024675
2458.000000	6.046731
2457.000000	6.043783
2456.000000	6.073152
2455.000000	6.097331
2454.000000	6.107593
2453.000000	6.152649
2452.000000	6.177536
2451.000000	6.221295
2450.000000	6.285105
2449.000000	6.283571
2448.000000	6.307043
2447.000000	6.331222
2446.000000	6.350684
2445.000000	6.384771
2444.000000	6.414848
2443.000000	6.441858
2442.000000	6.463560
2441.000000	6.493755
2440.000000	6.518996
2439.000000	6.558155
2438.000000	6.571365
2437.000000	6.600262
2436.000000	6.607457
2435.000000	6.654518
2434.000000	6.659118
2433.000000	6.670441
2432.000000	6.704528
2431.000000	6.762795
2430.000000	6.773056
2429.000000	6.768456
2428.000000	6.764328
2427.000000	6.778246
2426.000000	6.794759
2425.000000	6.815753
2424.000000	6.826959
2423.000000	6.822123
2422.000000	6.832030
2421.000000	6.857153
2420.000000	6.909286
2419.000000	6.958825
2418.000000	6.984891
2417.000000	7.012019
2416.000000	7.039147
2415.000000	7.050824
2414.000000	7.060732
2413.000000	7.084204
2412.000000	7.099183
2411.000000	7.141526
2410.000000	7.159219
2409.000000	7.169716
2408.000000	7.171957
2407.000000	7.208757
2406.000000	7.244967
2405.000000	7.260772
2404.000000	7.256880
2403.000000	7.275751
2402.000000	7.300638
2401.000000	7.340741
2400.000000	7.359613
2399.000000	7.368812
2398.000000	7.382377
2397.000000	7.398771
2396.000000	7.429556
2395.000000	7.451022
2394.000000	7.463761
2393.000000	7.482750
2392.000000	7.498202
2391.000000	7.515304
2390.000000	7.536063
2389.000000	7.528986
2388.000000	7.532289
2387.000000	7.552340
2386.000000	7.555878
2385.000000	7.560596
2384.000000	7.563309
2383.000000	7.544437
2382.000000	7.545145
2381.000000	7.550807
2380.000000	7.557058
2379.000000	7.556468
2378.000000	7.528750
2377.000000	7.524504
2376.000000	7.540427
2375.000000	7.543848
2374.000000	7.523678
2373.000000	7.508345
2372.000000	7.502566
2371.000000	7.479802
2370.000000	7.460340
2369.000000	7.440053
2368.000000	7.426725
2367.000000	7.404315
2366.000000	7.362561
2365.000000	7.304177
2364.000000	7.270090
2363.000000	7.258649
2362.000000	7.226095
2361.000000	7.199203
2360.000000	7.170542
2359.000000	7.152731
2358.000000	7.130085
2357.000000	7.109562
2356.000000	7.093403
2355.000000	7.078306
2354.000000	7.099537
2353.000000	7.108973
2352.000000	7.110152
2351.000000	7.122891
2350.000000	7.155562
2349.000000	7.188116
2348.000000	7.216188
2347.000000	7.240367
2346.000000	7.271741
2345.000000	7.292500
2344.000000	7.321161
2343.000000	7.352182
2342.000000	7.381433
2341.000000	7.422951
2340.000000	7.417643
2339.000000	7.404787
2338.000000	7.423894
2337.000000	7.426489
2336.000000	7.421064
2335.000000	7.411982
2334.000000	7.391694
2333.000000	7.373530
2332.000000	7.342392
2331.000000	7.321515
2330.000000	7.300756
2329.000000	7.255818
2328.000000	7.225152
2327.000000	7.189413
2326.000000	7.155798
2325.000000	7.118762
2324.000000	7.058373
2323.000000	7.009896
2322.000000	6.960830
2321.000000	6.904450
2320.000000	6.858805
2319.000000	6.797825
2318.000000	6.726113
2317.000000	6.669380
2316.000000	6.599554
2315.000000	6.535155
2314.000000	6.480309
2313.000000	6.445868
2312.000000	6.414258
2311.000000	6.351038
2310.000000	6.350802
2309.000000	6.355638
2308.000000	6.325679
2307.000000	6.337592
2306.000000	6.340894
2305.000000	6.343253
2304.000000	6.384653
2303.000000	6.434191
2302.000000	6.491160
2301.000000	6.535391
2300.000000	6.578560
2299.000000	6.636944
2298.000000	6.678108
2297.000000	6.703585
2296.000000	6.776949
2295.000000	6.811507
2294.000000	6.836984
2293.000000	6.857979
2292.000000	6.872369
2291.000000	6.903861
2290.000000	6.898907
2289.000000	6.907753
2288.000000	6.880389
2287.000000	6.875907
2286.000000	6.859276
2285.000000	6.854912
2284.000000	6.827902
2283.000000	6.803133
2282.000000	6.792046
2281.000000	6.774590
2280.000000	6.757723
2279.000000	6.708303
2278.000000	6.707595
2277.000000	6.684595
2276.000000	6.656759
2275.000000	6.648739
2274.000000	6.623970
2273.000000	6.646144
2272.000000	6.648267
2271.000000	6.645554
2270.000000	6.698513
2269.000000	6.713256
2268.000000	6.763620
2267.000000	6.815753
2266.000000	6.888410
2265.000000	6.956819
2264.000000	7.064860
2263.000000	7.143531
2262.000000	7.262659
2261.000000	7.363623
2260.000000	7.514478
2259.000000	7.645637
2258.000000	7.798026
2257.000000	7.916092
2256.000000	8.082753
2255.000000	8.197163
2254.000000	8.357926
2253.000000	8.488966
2252.000000	8.617412
2251.000000	8.752581
2250.000000	8.856965
2249.000000	8.957692
2248.000000	9.072102
2247.000000	9.180496
2246.000000	9.273322
2245.000000	9.353409
2244.000000	9.438921
2243.000000	9.547905
2242.000000	9.618438
2241.000000	9.657951
2240.000000	9.739217
2239.000000	9.803499
2238.000000	9.845252
2237.000000	9.895970
2236.000000	9.969924
2235.000000	10.019108
2234.000000	10.039277
2233.000000	10.080559
2232.000000	10.110636
2231.000000	10.110282
2230.000000	10.159466
2229.000000	10.159348
2228.000000	10.190133
2227.000000	10.246984
2226.000000	10.231297
2225.000000	10.220681
2224.000000	10.237784
2223.000000	10.235779
2222.000000	10.206056
2221.000000	10.228820
2220.000000	10.235071
2219.000000	10.228938
2218.000000	10.206882
2217.000000	10.200866
2216.000000	10.187892
2215.000000	10.193318
2214.000000	10.159348
2213.000000	10.159113
2212.000000	10.124318
2211.000000	10.151564
2210.000000	10.113467
2209.000000	10.112051
2208.000000	10.132456
2207.000000	10.132928
2206.000000	10.110990
2205.000000	10.110754
2204.000000	10.108513
2203.000000	10.079262
2202.000000	10.100256
2201.000000	10.096954
2200.000000	10.091646
2199.000000	10.094005
2198.000000	10.067349
2197.000000	10.067821
2196.000000	10.055436
2195.000000	10.058031
2194.000000	10.074898
2193.000000	10.043405
2192.000000	10.044821
2191.000000	10.050482
2190.000000	10.020523
2189.000000	10.006841
2188.000000	10.004129
2187.000000	9.983606
2186.000000	9.977708
2185.000000	9.963790
2184.000000	9.956949
2183.000000	9.944211
2182.000000	9.934185
2181.000000	9.939729
2180.000000	9.934303
2179.000000	9.931708
2178.000000	9.930411
2177.000000	9.913426
2176.000000	9.913191
2175.000000	9.893493
2174.000000	9.911185
2173.000000	9.910124
2172.000000	9.912483
2171.000000	9.906821
2170.000000	9.931708
2169.000000	9.955416
2168.000000	9.952113
2167.000000	9.950698
2166.000000	9.947631
2165.000000	9.969924
2164.000000	9.969570
2163.000000	9.991980
2162.000000	10.029370
2161.000000	10.036682
2160.000000	10.046472
2159.000000	10.066877
2158.000000	10.100020
2157.000000	10.138708
2156.000000	10.156518
2155.000000	10.157343
2154.000000	10.195794
2153.000000	10.238963
2152.000000	10.268686
2151.000000	10.290389
2150.000000	10.300768
2149.000000	10.339101
2148.000000	10.356322
2147.000000	10.367409
2146.000000	10.386753
2145.000000	10.403147
2144.000000	10.429332
2143.000000	10.452214
2142.000000	10.453275
2141.000000	10.479932
2140.000000	10.512957
2139.000000	10.528408
2138.000000	10.542090
2137.000000	10.574762
2136.000000	10.588326
2135.000000	10.590921
2134.000000	10.616516
2133.000000	10.621469
2132.000000	10.637392
2131.000000	10.642110
2130.000000	10.652962
2129.000000	10.658741
2128.000000	10.657090
2127.000000	10.661100
2126.000000	10.676197
2125.000000	10.676551
2124.000000	10.662633
2123.000000	10.660628
2122.000000	10.652018
2121.000000	10.647418
2120.000000	10.668059
2119.000000	10.654731
2118.000000	10.627013
2117.000000	10.615100
2116.000000	10.609910
2115.000000	10.606018
2114.000000	10.604603
2113.000000	10.600239
2112.000000	10.568393
2111.000000	10.559311
2110.000000	10.556362
2109.000000	10.544095
2108.000000	10.518854
2107.000000	10.508357
2106.000000	10.520034
2105.000000	10.496798
2104.000000	10.469316
2103.000000	10.463065
2102.000000	10.457403
2101.000000	10.458819
2100.000000	10.451624
2099.000000	10.449383
2098.000000	10.450327
2097.000000	10.451388
2096.000000	10.450798
2095.000000	10.420840
2094.000000	10.404445
2093.000000	10.420014
2092.000000	10.405624
2091.000000	10.399491
2090.000000	10.403265
2089.000000	10.391235
2088.000000	10.397132
2087.000000	10.412701
2086.000000	10.420132
2085.000000	10.427091
2084.000000	10.428270
2083.000000	10.424732
2082.000000	10.407747
2081.000000	10.408337
2080.000000	10.426501
2079.000000	10.426383
2078.000000	10.422137
2077.000000	10.409752
2076.000000	10.393711
2075.000000	10.387460
2074.000000	10.385455
2073.000000	10.375547
2072.000000	10.374958
2071.000000	10.361865
2070.000000	10.369650
2069.000000	10.387696
2068.000000	10.375194
2067.000000	10.343466
2066.000000	10.338394
2065.000000	10.347948
2064.000000	10.349245
2063.000000	10.341107
2062.000000	10.345707
2061.000000	10.344291
2060.000000	10.344881
2059.000000	10.325302
2058.000000	10.348301
2057.000000	10.391824
2056.000000	10.403147
2055.000000	10.423788
2054.000000	10.448439
2053.000000	10.496090
2052.000000	10.564618
2051.000000	10.623475
2050.000000	10.659921
2049.000000	10.711228
2048.000000	10.785535
2047.000000	10.843566
2046.000000	10.934976
2045.000000	11.013057
2044.000000	11.114729
2043.000000	11.183846
2042.000000	11.264169
2041.000000	11.366902
2040.000000	11.443096
2039.000000	11.517640
2038.000000	11.600203
2037.000000	11.675100
2036.000000	11.752357
2035.000000	11.816874
2034.000000	11.890474
2033.000000	11.951453
2032.000000	12.036612
2031.000000	12.094878
2030.000000	12.151847
2029.000000	12.209760
2028.000000	12.271446
2027.000000	12.318626
2026.000000	12.368046
2025.000000	12.424543
2024.000000	12.483989
2023.000000	12.512415
2022.000000	12.551691
2021.000000	12.603706
2020.000000	12.619983
2019.000000	12.647229
2018.000000	12.705142
2017.000000	12.744655
2016.000000	12.784403
2015.000000	12.785818
2014.000000	12.846916
2013.000000	12.864018
2012.000000	12.877228
2011.000000	12.885013
2010.000000	12.902469
2009.000000	12.896336
2008.000000	12.920751
2007.000000	12.941864
2006.000000	12.922638
2005.000000	12.933490
2004.000000	12.933608
2003.000000	12.918510
2002.000000	12.929008
2001.000000	12.926413
2000.000000	12.913085
1999.000000	12.920044
1998.000000	12.864962
1997.000000	12.865080
1996.000000	12.864962
1995.000000	12.859418
1994.000000	12.826511
1993.000000	12.804336
1992.000000	12.758572
1991.000000	12.719296
1990.000000	12.676481
1989.000000	12.642629
1988.000000	12.619394
1987.000000	12.567378
1986.000000	12.534117
1985.000000	12.492599
1984.000000	12.480097
1983.000000	12.421123
1982.000000	12.369697
1981.000000	12.312492
1980.000000	12.273923
1979.000000	12.204216
1978.000000	12.180508
1977.000000	12.144652
1976.000000	12.118586
1975.000000	12.053596
1974.000000	12.031894
1973.000000	11.965843
1972.000000	11.923381
1971.000000	11.857684
1970.000000	11.870069
1969.000000	11.792105
1968.000000	11.744926
1967.000000	11.680644
1966.000000	11.631106
1965.000000	11.620019
1964.000000	11.570716
1963.000000	11.522947
1962.000000	11.489568
1961.000000	11.437553
1960.000000	11.393322
1959.000000	11.341661
1958.000000	11.312292
1957.000000	11.263343
1956.000000	11.209677
1955.000000	11.173231
1954.000000	11.131477
1953.000000	11.078165
1952.000000	11.048796
1951.000000	11.007278
1950.000000	10.977083
1949.000000	10.932145
1948.000000	10.889212
1947.000000	10.845689
1946.000000	10.832597
1945.000000	10.776689
1944.000000	10.778930
1943.000000	10.757228
1942.000000	10.720900
1941.000000	10.682920
1940.000000	10.638100
1939.000000	10.650485
1938.000000	10.646003
1937.000000	10.694479
1936.000000	10.731987
1935.000000	10.717007
1934.000000	10.731869
1933.000000	10.754043
1932.000000	10.753100
1931.000000	10.773033
1930.000000	10.791079
1929.000000	10.847576
1928.000000	10.921530
1927.000000	11.006334
1926.000000	11.060826
1925.000000	11.166508
1924.000000	11.181251
1923.000000	11.193754
1922.000000	11.274313
1921.000000	11.443096
1920.000000	11.618839
1919.000000	11.785264
1918.000000	11.891889
1917.000000	11.964545
1916.000000	11.979525
1915.000000	12.028591
1914.000000	12.197375
1913.000000	12.447425
1912.000000	12.701250
1911.000000	12.906008
1910.000000	13.009566
1909.000000	13.003669
1908.000000	13.047899
1907.000000	13.178468
1906.000000	13.365652
1905.000000	13.685763
1904.000000	13.942890
1903.000000	14.103418
1902.000000	14.210515
1901.000000	14.316668
1900.000000	14.549969
1899.000000	14.894850
1898.000000	15.208238
1897.000000	15.452981
1896.000000	15.546749
1895.000000	15.559016
1894.000000	15.678026
1893.000000	15.827702
1892.000000	16.086009
1891.000000	16.402699
1890.000000	16.679406
1889.000000	16.889354
1888.000000	17.094230
1887.000000	17.245203
1886.000000	17.444772
1885.000000	17.752734
1884.000000	18.171096
1883.000000	18.568346
1882.000000	18.932334
1881.000000	19.292902
1880.000000	19.556162
1879.000000	19.788402
1878.000000	20.077257
1877.000000	20.353727
1876.000000	20.582075
1875.000000	20.869515
1874.000000	21.082411
1873.000000	21.381882
1872.000000	21.688193
1871.000000	21.982828
1870.000000	22.372529
1869.000000	22.686625
1868.000000	22.920162
1867.000000	23.066536
1866.000000	23.081397
1865.000000	23.086941
1864.000000	23.040233
1863.000000	22.919218
1862.000000	22.867793
1861.000000	22.893388
1860.000000	22.945993
1859.000000	23.016172
1858.000000	23.120674
1857.000000	23.111238
1856.000000	22.980315
1855.000000	22.933136
1854.000000	22.996592
1853.000000	22.993408
1852.000000	22.933136
1851.000000	22.795845
1850.000000	22.499441
1849.000000	22.348821
1848.000000	22.531169
1847.000000	22.810588
1846.000000	22.909782
1845.000000	22.719414
1844.000000	22.350708
1843.000000	22.086268
1842.000000	22.137104
1841.000000	22.333606
1840.000000	22.383498
1839.000000	22.308954
1838.000000	22.208345
1837.000000	22.225093
1836.000000	22.335021
1835.000000	22.410508
1834.000000	22.315795
1833.000000	22.088745
1832.000000	21.909110
1831.000000	21.834213
1830.000000	21.867356
1829.000000	21.839285
1828.000000	21.735962
1827.000000	21.696096
1826.000000	21.732424
1825.000000	21.706711
1824.000000	21.576024
1823.000000	21.337415
1822.000000	21.225836
1821.000000	21.346497
1820.000000	21.533091
1819.000000	21.603742
1818.000000	21.509856
1817.000000	21.395564
1816.000000	21.428117
1815.000000	21.487799
1814.000000	21.496409
1813.000000	21.467984
1812.000000	21.425758
1811.000000	21.442979
1810.000000	21.444984
1809.000000	21.378343
1808.000000	21.294836
1807.000000	21.272308
1806.000000	21.288939
1805.000000	21.272544
1804.000000	21.219349
1803.000000	21.135016
1802.000000	21.080170
1801.000000	21.114375
1800.000000	21.126288
1799.000000	21.062360
1798.000000	20.980386
1797.000000	20.940284
1796.000000	20.929904
1795.000000	20.893930
1794.000000	20.863028
1793.000000	20.846043
1792.000000	20.811602
1791.000000	20.772679
1790.000000	20.714885
1789.000000	20.633147
1788.000000	20.579716
1787.000000	20.531593
1786.000000	20.467194
1785.000000	20.410932
1784.000000	20.350189
1783.000000	20.274702
1782.000000	20.201928
1781.000000	20.143780
1780.000000	20.064872
1779.000000	20.003303
1778.000000	19.926283
1777.000000	19.828504
1776.000000	19.748064
1775.000000	19.654649
1774.000000	19.556752
1773.000000	19.463926
1772.000000	19.338430
1771.000000	19.220128
1770.000000	19.129543
1769.000000	19.011713
1768.000000	18.911693
1767.000000	18.843283
1766.000000	18.764376
1765.000000	18.712714
1764.000000	18.688181
1763.000000	18.647017
1762.000000	18.687474
1761.000000	18.745976
1760.000000	18.795396
1759.000000	18.845052
1758.000000	18.887514
1757.000000	18.937995
1756.000000	19.008764
1755.000000	19.041082
1754.000000	19.064554
1753.000000	19.051698
1752.000000	19.037072
1751.000000	19.037544
1750.000000	18.981400
1749.000000	18.916293
1748.000000	18.858616
1747.000000	18.778176
1746.000000	18.680279
1745.000000	18.569643
1744.000000	18.431054
1743.000000	18.242219
1742.000000	18.051261
1741.000000	17.859949
1740.000000	17.641981
1739.000000	17.481689
1738.000000	17.287665
1737.000000	17.157804
1736.000000	17.034312
1735.000000	16.930871
1734.000000	16.918723
1733.000000	16.919430
1732.000000	16.960830
1731.000000	17.019804
1730.000000	17.094112
1729.000000	17.188824
1728.000000	17.265608
1727.000000	17.342628
1726.000000	17.404905
1725.000000	17.489946
1724.000000	17.522499
1723.000000	17.549981
1722.000000	17.567556
1721.000000	17.538540
1720.000000	17.542315
1719.000000	17.525802
1718.000000	17.553402
1717.000000	17.578053
1716.000000	17.619099
1715.000000	17.646227
1714.000000	17.705555
1713.000000	17.743534
1712.000000	17.757452
1711.000000	17.786939
1710.000000	17.773021
1709.000000	17.756391
1708.000000	17.736575
1707.000000	17.714519
1706.000000	17.714283
1705.000000	17.684560
1704.000000	17.608248
1703.000000	17.511176
1702.000000	17.451259
1701.000000	17.315146
1700.000000	17.200029
1699.000000	17.055661
1698.000000	16.920138
1697.000000	16.828492
1696.000000	16.756780
1695.000000	16.770698
1694.000000	16.779308
1693.000000	16.891477
1692.000000	16.961184
1691.000000	17.127609
1690.000000	17.274808
1689.000000	17.362444
1688.000000	17.395233
1687.000000	17.402900
1686.000000	17.415992
1685.000000	17.418587
1684.000000	17.472253
1683.000000	17.631955
1682.000000	17.878113
1681.000000	18.235260
1680.000000	18.666597
1679.000000	19.169528
1678.000000	19.659956
1677.000000	20.131395
1676.000000	20.493968
1675.000000	20.857484
1674.000000	21.187031
1673.000000	21.440620
1672.000000	21.657173
1671.000000	21.847305
1670.000000	22.049350
1669.000000	22.175673
1668.000000	22.310606
1667.000000	22.449195
1666.000000	22.514538
1665.000000	22.594625
1664.000000	22.663978
1663.000000	22.702312
1662.000000	22.769188
1661.000000	22.804101
1660.000000	22.859537
1659.000000	22.881121
1658.000000	22.903885
1657.000000	22.905654
1656.000000	22.880177
1655.000000	22.875695
1654.000000	22.906362
1653.000000	22.887136
1652.000000	22.863547
1651.000000	22.840901
1650.000000	22.845855
1649.000000	22.805634
1648.000000	22.789004
1647.000000	22.754327
1646.000000	22.697240
1645.000000	22.640035
1644.000000	22.611492
1643.000000	22.556292
1642.000000	22.507815
1641.000000	22.480097
1640.000000	22.410272
1639.000000	22.374652
1638.000000	22.321457
1637.000000	22.276519
1636.000000	22.226273
1635.000000	22.181217
1634.000000	22.128022
1633.000000	22.060438
1632.000000	21.990141
1631.000000	21.912884
1630.000000	21.861813
1629.000000	21.802839
1628.000000	21.729475
1627.000000	21.658942
1626.000000	21.599260
1625.000000	21.530614
1624.000000	21.474943
1623.000000	21.400989
1622.000000	21.345082
1621.000000	21.283631
1620.000000	21.212272
1619.000000	21.140560
1618.000000	21.117206
1617.000000	21.054576
1616.000000	20.996545
1615.000000	20.917638
1614.000000	20.875648
1613.000000	20.825048
1612.000000	20.767726
1611.000000	20.725028
1610.000000	20.676905
1609.000000	20.659921
1608.000000	20.617696
1607.000000	20.558603
1606.000000	20.519681
1605.000000	20.478163
1604.000000	20.423907
1603.000000	20.383450
1602.000000	20.340517
1601.000000	20.268569
1600.000000	20.216672
1599.000000	20.201928
1598.000000	20.174328
1597.000000	20.128682
1596.000000	20.089052
1595.000000	20.056852
1594.000000	20.030903
