PE UV       SUBTECH     SPECTRUM    ASCII       PEDS        4.00        
   -1
CICIMAUCR0009-2.Sample.ASC
24/04/17
11:40:36.00
24/04/17
11:40:36.00
Vinicio Soto Monge
C. kalinini
250,000000
1
Lambda 1050
1050L1511233
PerkinElmer UV WinLab 6.3.2.0749 / 2.02.05 Lambda 900 UV/VIS/NIR, Aug  7 2015 09:38:08

0
0
3350/servo 860,8/2
0
0
UV/VIS
1
1
1
DoubleDePol,CommonBeamDepol,RBeamAtt,SBeamAtt,60mm sphere, WB InGaAs Detector
0
0
0
0
Program
Program
3350/servo 860,8/2
3350/0,2 860,8/0,2
3350/0,2 860,8/0,2
0
15.00
 
 
 
0
 
860,8
319,2
860,8
Front
100
on
S:100 R:100
0
0
0
0
 
0
 
 
 
0
 
 
0
0
0
0
0
 
 
 
 
0
0


0
0
#HDR
-1
-1
#GR
nm
%R
1.0
0.0
2500,000000
-1,000000
2251
8
97,179300
5,310100
#DATA
2482.000000	9.716341
2481.000000	9.752631
2480.000000	9.790243
2479.000000	9.733826
2478.000000	9.766151
2477.000000	9.784652
2476.000000	9.757917
2475.000000	9.807930
2474.000000	9.822873
2473.000000	9.812809
2472.000000	9.774588
2471.000000	9.826329
2470.000000	9.855402
2469.000000	9.849709
2468.000000	9.833953
2467.000000	9.871361
2466.000000	9.870650
2465.000000	9.933268
2464.000000	9.972099
2463.000000	9.991108
2462.000000	10.026483
2461.000000	10.067245
2460.000000	10.125391
2459.000000	10.220131
2458.000000	10.280512
2457.000000	10.326154
2456.000000	10.411644
2455.000000	10.508417
2454.000000	10.580285
2453.000000	10.681734
2452.000000	10.771696
2451.000000	10.883921
2450.000000	10.978661
2449.000000	11.079398
2448.000000	11.176578
2447.000000	11.265524
2446.000000	11.379273
2445.000000	11.463543
2444.000000	11.558283
2443.000000	11.670202
2442.000000	11.773989
2441.000000	11.866493
2440.000000	11.978107
2439.000000	12.070611
2438.000000	12.154575
2437.000000	12.229900
2436.000000	12.317931
2435.000000	12.426902
2434.000000	12.512798
2433.000000	12.588123
2432.000000	12.656027
2431.000000	12.732164
2430.000000	12.802101
2429.000000	12.856384
2428.000000	12.929675
2427.000000	13.000120
2426.000000	13.061111
2425.000000	13.110921
2424.000000	13.169981
2423.000000	13.227516
2422.000000	13.271735
2421.000000	13.315852
2420.000000	13.350617
2419.000000	13.395243
2418.000000	13.432346
2417.000000	13.451253
2416.000000	13.473312
2415.000000	13.499132
2414.000000	13.535015
2413.000000	13.574354
2412.000000	13.595905
2411.000000	13.618573
2410.000000	13.646832
2409.000000	13.658421
2408.000000	13.685155
2407.000000	13.721649
2406.000000	13.741776
2405.000000	13.754381
2404.000000	13.783352
2403.000000	13.814457
2402.000000	13.820963
2401.000000	13.844953
2400.000000	13.873009
2399.000000	13.897304
2398.000000	13.927698
2397.000000	13.955856
2396.000000	13.967647
2395.000000	13.973442
2394.000000	14.009528
2393.000000	14.043277
2392.000000	14.053544
2391.000000	14.070316
2390.000000	14.078347
2389.000000	14.076009
2388.000000	14.081295
2387.000000	14.091663
2386.000000	14.087191
2385.000000	14.083633
2384.000000	14.087902
2383.000000	14.068080
2382.000000	14.043988
2381.000000	14.014712
2380.000000	14.000989
2379.000000	13.978016
2378.000000	13.948333
2377.000000	13.920277
2376.000000	13.894661
2375.000000	13.853695
2374.000000	13.802767
2373.000000	13.761090
2372.000000	13.712297
2371.000000	13.666045
2370.000000	13.621623
2369.000000	13.556057
2368.000000	13.482867
2367.000000	13.419639
2366.000000	13.349703
2365.000000	13.268991
2364.000000	13.192040
2363.000000	13.094453
2362.000000	13.001848
2361.000000	12.911784
2360.000000	12.824465
2359.000000	12.743448
2358.000000	12.660194
2357.000000	12.574806
2356.000000	12.496026
2355.000000	12.434933
2354.000000	12.397118
2353.000000	12.372112
2352.000000	12.343954
2351.000000	12.346902
2350.000000	12.367842
2349.000000	12.369672
2348.000000	12.403420
2347.000000	12.462379
2346.000000	12.492671
2345.000000	12.544616
2344.000000	12.600626
2343.000000	12.631732
2342.000000	12.678187
2341.000000	12.710614
2340.000000	12.731148
2339.000000	12.756561
2338.000000	12.763067
2337.000000	12.763372
2336.000000	12.757069
2335.000000	12.720576
2334.000000	12.704312
2333.000000	12.673104
2332.000000	12.614654
2331.000000	12.544209
2330.000000	12.463904
2329.000000	12.409520
2328.000000	12.323827
2327.000000	12.225224
2326.000000	12.133940
2325.000000	12.013990
2324.000000	11.900546
2323.000000	11.787509
2322.000000	11.657190
2321.000000	11.533073
2320.000000	11.407125
2319.000000	11.255155
2318.000000	11.100034
2317.000000	10.940134
2316.000000	10.778507
2315.000000	10.638735
2314.000000	10.497133
2313.000000	10.372406
2312.000000	10.226026
2311.000000	10.117767
2310.000000	10.031260
2309.000000	9.942620
2308.000000	9.897283
2307.000000	9.864246
2306.000000	9.847371
2305.000000	9.836190
2304.000000	9.876139
2303.000000	9.922289
2302.000000	9.989380
2301.000000	10.073853
2300.000000	10.176318
2299.000000	10.270042
2298.000000	10.393855
2297.000000	10.494999
2296.000000	10.599396
2295.000000	10.700133
2294.000000	10.777999
2293.000000	10.845903
2292.000000	10.904251
2291.000000	10.933730
2290.000000	10.999194
2289.000000	11.020846
2288.000000	11.007022
2287.000000	11.014239
2286.000000	11.008546
2285.000000	10.983133
2284.000000	10.946335
2283.000000	10.881989
2282.000000	10.837974
2281.000000	10.795686
2280.000000	10.740794
2279.000000	10.693932
2278.000000	10.637820
2277.000000	10.597058
2276.000000	10.530882
2275.000000	10.509637
2274.000000	10.488290
2273.000000	10.489306
2272.000000	10.501911
2271.000000	10.499980
2270.000000	10.544808
2269.000000	10.582318
2268.000000	10.671264
2267.000000	10.742421
2266.000000	10.853832
2265.000000	11.011189
2264.000000	11.169767
2263.000000	11.361280
2262.000000	11.567940
2261.000000	11.809364
2260.000000	12.077015
2259.000000	12.343852
2258.000000	12.624514
2257.000000	12.905177
2256.000000	13.205966
2255.000000	13.493947
2254.000000	13.779997
2253.000000	14.091155
2252.000000	14.355959
2251.000000	14.623712
2250.000000	14.872659
2249.000000	15.086637
2248.000000	15.326841
2247.000000	15.542751
2246.000000	15.723286
2245.000000	15.899043
2244.000000	16.067989
2243.000000	16.240595
2242.000000	16.380773
2241.000000	16.488525
2240.000000	16.622096
2239.000000	16.744994
2238.000000	16.835769
2237.000000	16.922682
2236.000000	17.028604
2235.000000	17.102810
2234.000000	17.150587
2233.000000	17.192569
2232.000000	17.249393
2231.000000	17.283853
2230.000000	17.317602
2229.000000	17.354603
2228.000000	17.360906
2227.000000	17.347182
2226.000000	17.333053
2225.000000	17.334883
2224.000000	17.310893
2223.000000	17.307233
2222.000000	17.253967
2221.000000	17.217779
2220.000000	17.202633
2219.000000	17.147232
2218.000000	17.098236
2217.000000	17.062454
2216.000000	17.004716
2215.000000	16.967308
2214.000000	16.931018
2213.000000	16.873787
2212.000000	16.839429
2211.000000	16.797040
2210.000000	16.768984
2209.000000	16.739301
2208.000000	16.714701
2207.000000	16.674752
2206.000000	16.660724
2205.000000	16.630533
2204.000000	16.590685
2203.000000	16.574726
2202.000000	16.554091
2201.000000	16.526441
2200.000000	16.522578
2199.000000	16.491676
2198.000000	16.479173
2197.000000	16.465145
2196.000000	16.461384
2195.000000	16.449694
2194.000000	16.443899
2193.000000	16.428448
2192.000000	16.398054
2191.000000	16.374572
2190.000000	16.365017
2189.000000	16.342654
2188.000000	16.332997
2187.000000	16.330252
2186.000000	16.327101
2185.000000	16.317342
2184.000000	16.302806
2183.000000	16.290506
2182.000000	16.265906
2181.000000	16.257672
2180.000000	16.261433
2179.000000	16.270175
2178.000000	16.253708
2177.000000	16.243949
2176.000000	16.228295
2175.000000	16.245982
2174.000000	16.269769
2173.000000	16.298333
2172.000000	16.307482
2171.000000	16.314089
2170.000000	16.331878
2169.000000	16.377927
2168.000000	16.413404
2167.000000	16.429770
2166.000000	16.457318
2165.000000	16.496454
2164.000000	16.560800
2163.000000	16.596988
2162.000000	16.629008
2161.000000	16.674650
2160.000000	16.739098
2159.000000	16.785248
2158.000000	16.848069
2157.000000	16.914957
2156.000000	16.953076
2155.000000	17.025758
2154.000000	17.104843
2153.000000	17.167664
2152.000000	17.226826
2151.000000	17.297373
2150.000000	17.369749
2149.000000	17.434807
2148.000000	17.517755
2147.000000	17.591047
2146.000000	17.650310
2145.000000	17.722991
2144.000000	17.782865
2143.000000	17.844568
2142.000000	17.909930
2141.000000	17.980883
2140.000000	18.034048
2139.000000	18.091989
2138.000000	18.143222
2137.000000	18.193540
2136.000000	18.234608
2135.000000	18.291228
2134.000000	18.326095
2133.000000	18.353846
2132.000000	18.386476
2131.000000	18.422360
2130.000000	18.440047
2129.000000	18.449094
2128.000000	18.471051
2127.000000	18.495143
2126.000000	18.497278
2125.000000	18.502970
2124.000000	18.511204
2123.000000	18.509374
2122.000000	18.499514
2121.000000	18.483351
2120.000000	18.462004
2119.000000	18.433948
2118.000000	18.421953
2117.000000	18.410568
2116.000000	18.385053
2115.000000	18.351101
2114.000000	18.323757
2113.000000	18.301698
2112.000000	18.273032
2111.000000	18.229119
2110.000000	18.187746
2109.000000	18.172397
2108.000000	18.138648
2107.000000	18.088127
2106.000000	18.050719
2105.000000	18.013920
2104.000000	17.993285
2103.000000	17.950998
2102.000000	17.907999
2101.000000	17.892243
2100.000000	17.855648
2099.000000	17.819764
2098.000000	17.788252
2097.000000	17.752166
2096.000000	17.734986
2095.000000	17.709268
2094.000000	17.679382
2093.000000	17.666168
2092.000000	17.645126
2091.000000	17.632419
2090.000000	17.620322
2089.000000	17.584947
2088.000000	17.562787
2087.000000	17.570919
2086.000000	17.547539
2085.000000	17.510436
2084.000000	17.497425
2083.000000	17.481669
2082.000000	17.435518
2081.000000	17.392214
2080.000000	17.369038
2079.000000	17.328072
2078.000000	17.289241
2077.000000	17.253561
2076.000000	17.188300
2075.000000	17.136660
2074.000000	17.076990
2073.000000	17.024030
2072.000000	16.979607
2071.000000	16.931018
2070.000000	16.871856
2069.000000	16.816862
2068.000000	16.754549
2067.000000	16.688577
2066.000000	16.638665
2065.000000	16.580419
2064.000000	16.516378
2063.000000	16.452540
2062.000000	16.422756
2061.000000	16.383620
2060.000000	16.338689
2059.000000	16.304026
2058.000000	16.281764
2057.000000	16.272818
2056.000000	16.263771
2055.000000	16.293352
2054.000000	16.314496
2053.000000	16.351701
2052.000000	16.416047
2051.000000	16.497165
2050.000000	16.592109
2049.000000	16.705756
2048.000000	16.815947
2047.000000	16.971374
2046.000000	17.119278
2045.000000	17.290664
2044.000000	17.474146
2043.000000	17.655088
2042.000000	17.837655
2041.000000	18.028863
2040.000000	18.223833
2039.000000	18.395727
2038.000000	18.584190
2037.000000	18.753238
2036.000000	18.920558
2035.000000	19.090724
2034.000000	19.260890
2033.000000	19.405542
2032.000000	19.537995
2031.000000	19.680308
2030.000000	19.820588
2029.000000	19.960360
2028.000000	20.076854
2027.000000	20.195076
2026.000000	20.294797
2025.000000	20.410985
2024.000000	20.532867
2023.000000	20.652410
2022.000000	20.741559
2021.000000	20.836401
2020.000000	20.933275
2019.000000	21.035233
2018.000000	21.110862
2017.000000	21.203976
2016.000000	21.268525
2015.000000	21.329211
2014.000000	21.399961
2013.000000	21.468068
2012.000000	21.526519
2011.000000	21.566570
2010.000000	21.614245
2009.000000	21.656837
2008.000000	21.689366
2007.000000	21.705122
2006.000000	21.730128
2005.000000	21.771094
2004.000000	21.770078
2003.000000	21.764487
2002.000000	21.768756
2001.000000	21.759709
2000.000000	21.747206
1999.000000	21.733076
1998.000000	21.700141
1997.000000	21.673203
1996.000000	21.653482
1995.000000	21.613431
1994.000000	21.585579
1993.000000	21.523062
1992.000000	21.469492
1991.000000	21.414904
1990.000000	21.372312
1989.000000	21.290583
1988.000000	21.226746
1987.000000	21.159960
1986.000000	21.068168
1985.000000	21.006262
1984.000000	20.925855
1983.000000	20.835689
1982.000000	20.778967
1981.000000	20.696933
1980.000000	20.598229
1979.000000	20.528191
1978.000000	20.437313
1977.000000	20.364327
1976.000000	20.291340
1975.000000	20.184809
1974.000000	20.090475
1973.000000	20.036396
1972.000000	19.964833
1971.000000	19.860334
1970.000000	19.799546
1969.000000	19.717106
1968.000000	19.670956
1967.000000	19.572963
1966.000000	19.498858
1965.000000	19.435732
1964.000000	19.371590
1963.000000	19.291589
1962.000000	19.211792
1961.000000	19.150292
1960.000000	19.086658
1959.000000	19.019466
1958.000000	18.925031
1957.000000	18.848995
1956.000000	18.787190
1955.000000	18.701396
1954.000000	18.646808
1953.000000	18.560404
1952.000000	18.477964
1951.000000	18.415041
1950.000000	18.358929
1949.000000	18.285332
1948.000000	18.255040
1947.000000	18.192930
1946.000000	18.119131
1945.000000	18.099105
1944.000000	18.073285
1943.000000	18.034963
1942.000000	18.013311
1941.000000	18.013616
1940.000000	17.998266
1939.000000	18.015242
1938.000000	18.035471
1937.000000	18.047567
1936.000000	18.075827
1935.000000	18.107644
1934.000000	18.163451
1933.000000	18.207060
1932.000000	18.303223
1931.000000	18.375600
1930.000000	18.473084
1929.000000	18.591408
1928.000000	18.704953
1927.000000	18.826936
1926.000000	18.968436
1925.000000	19.105159
1924.000000	19.246761
1923.000000	19.401679
1922.000000	19.588922
1921.000000	19.798326
1920.000000	20.027959
1919.000000	20.222420
1918.000000	20.428063
1917.000000	20.636755
1916.000000	20.826642
1915.000000	21.032691
1914.000000	21.320672
1913.000000	21.632644
1912.000000	21.932315
1911.000000	22.180347
1910.000000	22.470768
1909.000000	22.690743
1908.000000	22.950770
1907.000000	23.261521
1906.000000	23.638550
1905.000000	24.008361
1904.000000	24.361807
1903.000000	24.691872
1902.000000	24.999167
1901.000000	25.327403
1900.000000	25.685626
1899.000000	26.051066
1898.000000	26.410611
1897.000000	26.781845
1896.000000	27.070233
1895.000000	27.364923
1894.000000	27.680249
1893.000000	28.018751
1892.000000	28.391409
1891.000000	28.779823
1890.000000	29.125542
1889.000000	29.443918
1888.000000	29.804174
1887.000000	30.147047
1886.000000	30.515029
1885.000000	30.951321
1884.000000	31.419532
1883.000000	31.912343
1882.000000	32.398038
1881.000000	32.892678
1880.000000	33.368920
1879.000000	33.816292
1878.000000	34.260716
1877.000000	34.690705
1876.000000	35.086337
1875.000000	35.457469
1874.000000	35.807154
1873.000000	36.126240
1872.000000	36.408936
1871.000000	36.660932
1870.000000	36.856918
1869.000000	37.022205
1868.000000	37.169092
1867.000000	37.265459
1866.000000	37.308458
1865.000000	37.355421
1864.000000	37.390898
1863.000000	37.426679
1862.000000	37.483096
1861.000000	37.528840
1860.000000	37.566350
1859.000000	37.570721
1858.000000	37.547239
1857.000000	37.531788
1856.000000	37.491229
1855.000000	37.446603
1854.000000	37.393439
1853.000000	37.311101
1852.000000	37.214531
1851.000000	37.154048
1850.000000	37.088990
1849.000000	37.037656
1848.000000	36.988456
1847.000000	36.903780
1846.000000	36.792572
1845.000000	36.670792
1844.000000	36.575036
1843.000000	36.546776
1842.000000	36.549114
1841.000000	36.514959
1840.000000	36.464641
1839.000000	36.394298
1838.000000	36.319380
1837.000000	36.256152
1836.000000	36.174017
1835.000000	36.087917
1834.000000	35.984639
1833.000000	35.870686
1832.000000	35.787331
1831.000000	35.718818
1830.000000	35.629059
1829.000000	35.532591
1828.000000	35.433276
1827.000000	35.340061
1826.000000	35.256503
1825.000000	35.181890
1824.000000	35.120797
1823.000000	35.103719
1822.000000	35.142754
1821.000000	35.146921
1820.000000	35.110022
1819.000000	35.056247
1818.000000	35.015891
1817.000000	35.013960
1816.000000	35.018128
1815.000000	35.005523
1814.000000	34.988954
1813.000000	34.987429
1812.000000	34.968928
1811.000000	34.942905
1810.000000	34.890554
1809.000000	34.835052
1808.000000	34.803235
1807.000000	34.762167
1806.000000	34.724149
1805.000000	34.669663
1804.000000	34.593322
1803.000000	34.544224
1802.000000	34.518811
1801.000000	34.475914
1800.000000	34.406079
1799.000000	34.319471
1798.000000	34.272304
1797.000000	34.233981
1796.000000	34.179699
1795.000000	34.114845
1794.000000	34.056496
1793.000000	34.004959
1792.000000	33.944780
1791.000000	33.874030
1790.000000	33.816698
1789.000000	33.750116
1788.000000	33.671335
1787.000000	33.609937
1786.000000	33.535833
1785.000000	33.431029
1784.000000	33.338119
1783.000000	33.257102
1782.000000	33.164293
1781.000000	33.068435
1780.000000	32.957634
1779.000000	32.845511
1778.000000	32.745079
1777.000000	32.620758
1776.000000	32.492168
1775.000000	32.335420
1774.000000	32.166880
1773.000000	32.002610
1772.000000	31.836307
1771.000000	31.655162
1770.000000	31.503192
1769.000000	31.332619
1768.000000	31.166417
1767.000000	31.028170
1766.000000	30.890126
1765.000000	30.785526
1764.000000	30.720062
1763.000000	30.694852
1762.000000	30.699426
1761.000000	30.720672
1760.000000	30.771498
1759.000000	30.857191
1758.000000	30.930685
1757.000000	30.996556
1756.000000	31.044536
1755.000000	31.093634
1754.000000	31.101766
1753.000000	31.099327
1752.000000	31.069848
1751.000000	31.024917
1750.000000	30.963926
1749.000000	30.883925
1748.000000	30.782985
1747.000000	30.646059
1746.000000	30.479044
1745.000000	30.297289
1744.000000	30.082193
1743.000000	29.850934
1742.000000	29.591415
1741.000000	29.281172
1740.000000	28.969811
1739.000000	28.689657
1738.000000	28.381955
1737.000000	28.118472
1736.000000	27.900835
1735.000000	27.762282
1734.000000	27.669880
1733.000000	27.627186
1732.000000	27.643552
1731.000000	27.712676
1730.000000	27.789424
1729.000000	27.908865
1728.000000	28.010416
1727.000000	28.124775
1726.000000	28.221853
1725.000000	28.276643
1724.000000	28.331942
1723.000000	28.387851
1722.000000	28.415806
1721.000000	28.456975
1720.000000	28.492451
1719.000000	28.563608
1718.000000	28.646150
1717.000000	28.754410
1716.000000	28.883610
1715.000000	28.999392
1714.000000	29.085491
1713.000000	29.218961
1712.000000	29.312075
1711.000000	29.371236
1710.000000	29.432736
1709.000000	29.455506
1708.000000	29.460690
1707.000000	29.466078
1706.000000	29.436294
1705.000000	29.426230
1704.000000	29.369610
1703.000000	29.292659
1702.000000	29.218046
1701.000000	29.070244
1700.000000	28.893267
1699.000000	28.722694
1698.000000	28.574688
1697.000000	28.442947
1696.000000	28.368537
1695.000000	28.328486
1694.000000	28.363760
1693.000000	28.476797
1692.000000	28.618602
1691.000000	28.798222
1690.000000	28.952428
1689.000000	29.065974
1688.000000	29.132353
1687.000000	29.167627
1686.000000	29.187652
1685.000000	29.235530
1684.000000	29.351719
1683.000000	29.614999
1682.000000	29.966106
1681.000000	30.525296
1680.000000	31.126163
1679.000000	31.777145
1678.000000	32.463807
1677.000000	33.027164
1676.000000	33.567955
1675.000000	34.040334
1674.000000	34.464224
1673.000000	34.818584
1672.000000	35.148446
1671.000000	35.445576
1670.000000	35.728983
1669.000000	35.935337
1668.000000	36.150637
1667.000000	36.335848
1666.000000	36.469216
1665.000000	36.639890
1664.000000	36.764821
1663.000000	36.868709
1662.000000	36.996893
1661.000000	37.082383
1660.000000	37.179664
1659.000000	37.242180
1658.000000	37.312625
1657.000000	37.346984
1656.000000	37.384799
1655.000000	37.410923
1654.000000	37.416616
1653.000000	37.416209
1652.000000	37.403909
1651.000000	37.403706
1650.000000	37.373617
1649.000000	37.342714
1648.000000	37.308559
1647.000000	37.270033
1646.000000	37.223680
1645.000000	37.164518
1644.000000	37.082891
1643.000000	37.025457
1642.000000	36.965686
1641.000000	36.888938
1640.000000	36.831708
1639.000000	36.769192
1638.000000	36.685938
1637.000000	36.619966
1636.000000	36.552977
1635.000000	36.470029
1634.000000	36.390537
1633.000000	36.294475
1632.000000	36.202073
1631.000000	36.089849
1630.000000	36.004664
1629.000000	35.913380
1628.000000	35.806442
1627.000000	35.703163
1626.000000	35.604357
1625.000000	35.503518
1624.000000	35.400747
1623.000000	35.298892
1622.000000	35.192868
1621.000000	35.104532
1620.000000	35.000542
1619.000000	34.899601
1618.000000	34.817059
1617.000000	34.723844
1616.000000	34.627274
1615.000000	34.519218
1614.000000	34.437388
1613.000000	34.347730
1612.000000	34.253499
1611.000000	34.163435
1610.000000	34.071236
1609.000000	33.981172
1608.000000	33.900358
1607.000000	33.797893
1606.000000	33.710675
1605.000000	33.621831
