PE UV       SUBTECH     SPECTRUM    ASCII       PEDS        4.00        
   -1
ANGSOL0004-1.Sample.ASC
24/03/07
11:04:30.00
24/03/07
11:04:30.00
Vinicio Soto Monge

250,000000
1
Lambda 1050
1050L1511233
PerkinElmer UV WinLab 6.3.2.0749 / 2.02.05 Lambda 900 UV/VIS/NIR, Aug  7 2015 09:38:08

0
0
3350/servo 860,8/2
0
0
UV/VIS
1
1
1
DoubleDePol,CommonBeamDepol,RBeamAtt,SBeamAtt,60mm sphere, WB InGaAs Detector
0
0
0
0
Program
Program
3350/servo 860,8/2
3350/0,2 860,8/0,2
3350/0,2 860,8/0,2
0
15.00
 
 
 
0
 
860,8
319,2
860,8
Front
100
on
S:100 R:100
0
0
0
0
 
0
 
 
 
0
 
 
0
0
0
0
0
 
 
 
 
0
0


0
0
#HDR
-1
-1
#GR
nm
%R
1.0
0.0
2500,000000
-1,000000
2251
8
19,015500
1,364900
#DATA
250.000000	nan
251.000000	nan
252.000000	nan
253.000000	nan
254.000000	nan
255.000000	nan
256.000000	nan
257.000000	nan
258.000000	nan
259.000000	nan
260.000000	nan
261.000000	nan
262.000000	nan
263.000000	nan
264.000000	nan
265.000000	nan
266.000000	nan
267.000000	nan
268.000000	nan
269.000000	nan
270.000000	nan
271.000000	nan
272.000000	nan
273.000000	nan
274.000000	nan
275.000000	nan
276.000000	nan
277.000000	nan
278.000000	nan
279.000000	nan
280.000000	nan
281.000000	nan
282.000000	nan
283.000000	nan
284.000000	1.989863
285.000000	1.985112
286.000000	1.980068
287.000000	1.976999
288.000000	1.972955
289.000000	1.970759
290.000000	1.967645
291.000000	1.963548
292.000000	1.960857
293.000000	1.960333
294.000000	1.957441
295.000000	1.955623
296.000000	1.953078
297.000000	1.952234
298.000000	1.950573
299.000000	1.949105
300.000000	1.947229
301.000000	1.945399
302.000000	1.944949
303.000000	1.942584
304.000000	1.942042
305.000000	1.942300
306.000000	1.942765
307.000000	1.942995
308.000000	1.942723
309.000000	1.942927
310.000000	1.942688
311.000000	1.943508
312.000000	1.941415
313.000000	1.941113
314.000000	1.941646
315.000000	1.942427
316.000000	1.943437
317.000000	1.953282
318.000000	1.958350
319.000000	1.974240
320.000000	1.987720
321.000000	2.001482
322.000000	2.016534
323.000000	2.024633
324.000000	2.028342
325.000000	2.034482
326.000000	2.035692
327.000000	2.039638
328.000000	2.041278
329.000000	2.045274
330.000000	2.052764
331.000000	2.053658
332.000000	2.056680
333.000000	2.063050
334.000000	2.066404
335.000000	2.069551
336.000000	2.075003
337.000000	2.076347
338.000000	2.077463
339.000000	2.079751
340.000000	2.079651
341.000000	2.080308
342.000000	2.083212
343.000000	2.086563
344.000000	2.087850
345.000000	2.091290
346.000000	2.092705
347.000000	2.094534
348.000000	2.098190
349.000000	2.100014
350.000000	2.101949
351.000000	2.103773
352.000000	2.095615
353.000000	2.093398
354.000000	2.080518
355.000000	2.068683
356.000000	2.056295
357.000000	2.041959
358.000000	2.036844
359.000000	2.035746
360.000000	2.030953
361.000000	2.032676
362.000000	2.029639
363.000000	2.027475
364.000000	2.026922
365.000000	2.020371
366.000000	2.020658
367.000000	2.017603
368.000000	2.009614
369.000000	2.006591
370.000000	2.003853
371.000000	1.998975
372.000000	1.996657
373.000000	1.995289
374.000000	1.992199
375.000000	1.990894
376.000000	1.989689
377.000000	1.982881
378.000000	1.976608
379.000000	1.971884
380.000000	1.965428
381.000000	1.960576
382.000000	1.957181
383.000000	1.951222
384.000000	1.947519
385.000000	1.943114
386.000000	1.938588
387.000000	1.934743
388.000000	1.929459
389.000000	1.924569
390.000000	1.922103
391.000000	1.921502
392.000000	1.920498
393.000000	1.918083
394.000000	1.915010
395.000000	1.914028
396.000000	1.912059
397.000000	1.911562
398.000000	1.911162
399.000000	1.909365
400.000000	1.910037
401.000000	1.910629
402.000000	1.910727
403.000000	1.914054
404.000000	1.916576
405.000000	1.919424
406.000000	1.922896
407.000000	1.927091
408.000000	1.932259
409.000000	1.937354
410.000000	1.943176
411.000000	1.948605
412.000000	1.957873
413.000000	1.967059
414.000000	1.976682
415.000000	1.986525
416.000000	1.996577
417.000000	2.006497
418.000000	2.016475
419.000000	2.026593
420.000000	2.036986
421.000000	2.047660
422.000000	2.058592
423.000000	2.069417
424.000000	2.080648
425.000000	2.092142
426.000000	2.103450
427.000000	2.114879
428.000000	2.126542
429.000000	2.138487
430.000000	2.150949
431.000000	2.163612
432.000000	2.176160
433.000000	2.188865
434.000000	2.201772
435.000000	2.214897
436.000000	2.228164
437.000000	2.241728
438.000000	2.255489
439.000000	2.269500
440.000000	2.283818
441.000000	2.298148
442.000000	2.312733
443.000000	2.327690
444.000000	2.342817
445.000000	2.358168
446.000000	2.374088
447.000000	2.390220
448.000000	2.406809
449.000000	2.423919
450.000000	2.441614
451.000000	2.459810
452.000000	2.478634
453.000000	2.497910
454.000000	2.517598
455.000000	2.538139
456.000000	2.559132
457.000000	2.580336
458.000000	2.602318
459.000000	2.625075
460.000000	2.648594
461.000000	2.673030
462.000000	2.698372
463.000000	2.724548
464.000000	2.751524
465.000000	2.779426
466.000000	2.808433
467.000000	2.838324
468.000000	2.869012
469.000000	2.900698
470.000000	2.933487
471.000000	2.967319
472.000000	3.001994
473.000000	3.037693
474.000000	3.074535
475.000000	3.112419
476.000000	3.151410
477.000000	3.191188
478.000000	3.232151
479.000000	3.274218
480.000000	3.317157
481.000000	3.360716
482.000000	3.405047
483.000000	3.450574
484.000000	3.497345
485.000000	3.545447
486.000000	3.595328
487.000000	3.646631
488.000000	3.699215
489.000000	3.753208
490.000000	3.808497
491.000000	3.865300
492.000000	3.923893
493.000000	3.984022
494.000000	4.045501
495.000000	4.108405
496.000000	4.172551
497.000000	4.238053
498.000000	4.305213
499.000000	4.373947
500.000000	4.444085
501.000000	4.515312
502.000000	4.587747
503.000000	4.661609
504.000000	4.737223
505.000000	4.814263
506.000000	4.892444
507.000000	4.971844
508.000000	5.052511
509.000000	5.134513
510.000000	5.217702
511.000000	5.301696
512.000000	5.387016
513.000000	5.473381
514.000000	5.561013
515.000000	5.649963
516.000000	5.740090
517.000000	5.831461
518.000000	5.923759
519.000000	6.016488
520.000000	6.109656
521.000000	6.203125
522.000000	6.296968
523.000000	6.390994
524.000000	6.485147
525.000000	6.579055
526.000000	6.672326
527.000000	6.764801
528.000000	6.856356
529.000000	6.946906
530.000000	7.036584
531.000000	7.125092
532.000000	7.212556
533.000000	7.298282
534.000000	7.382516
535.000000	7.465406
536.000000	7.547159
537.000000	7.627145
538.000000	7.705778
539.000000	7.782869
540.000000	7.858291
541.000000	7.932194
542.000000	8.004348
543.000000	8.074592
544.000000	8.143318
545.000000	8.210229
546.000000	8.275512
547.000000	8.338764
548.000000	8.399518
549.000000	8.457510
550.000000	8.512907
551.000000	8.565692
552.000000	8.615733
553.000000	8.662607
554.000000	8.706198
555.000000	8.746415
556.000000	8.783008
557.000000	8.816233
558.000000	8.845879
559.000000	8.871795
560.000000	8.887261
561.000000	8.898670
562.000000	8.906304
563.000000	8.910362
564.000000	8.910848
565.000000	8.907565
566.000000	8.900405
567.000000	8.889384
568.000000	8.874758
569.000000	8.856544
570.000000	8.834482
571.000000	8.808859
572.000000	8.780075
573.000000	8.747270
574.000000	8.710298
575.000000	8.669791
576.000000	8.625691
577.000000	8.578273
578.000000	8.527210
579.000000	8.472258
580.000000	8.414310
581.000000	8.353151
582.000000	8.288874
583.000000	8.222647
584.000000	8.154850
585.000000	8.085074
586.000000	8.014255
587.000000	7.942469
588.000000	7.869978
589.000000	7.796794
590.000000	7.723149
591.000000	7.649044
592.000000	7.573617
593.000000	7.497455
594.000000	7.420992
595.000000	7.351257
596.000000	7.282587
597.000000	7.214400
598.000000	7.147101
599.000000	7.080036
600.000000	7.014019
601.000000	6.949322
602.000000	6.885566
603.000000	6.823217
604.000000	6.761530
605.000000	6.700782
606.000000	6.641038
607.000000	6.582190
608.000000	6.524526
609.000000	6.468642
610.000000	6.413417
611.000000	6.359504
612.000000	6.306816
613.000000	6.255878
614.000000	6.206284
615.000000	6.157598
616.000000	6.110301
617.000000	6.064194
618.000000	6.018818
619.000000	5.974043
620.000000	5.929649
621.000000	5.885333
622.000000	5.841659
623.000000	5.797914
624.000000	5.754950
625.000000	5.712215
626.000000	5.670228
627.000000	5.629100
628.000000	5.589055
629.000000	5.550108
630.000000	5.512029
631.000000	5.474781
632.000000	5.438309
633.000000	5.401938
634.000000	5.366828
635.000000	5.332247
636.000000	5.298336
637.000000	5.264874
638.000000	5.231866
639.000000	5.200210
640.000000	5.169377
641.000000	5.139122
642.000000	5.109893
643.000000	5.081375
644.000000	5.053597
645.000000	5.026731
646.000000	5.000951
647.000000	4.975671
648.000000	4.951013
649.000000	4.926986
650.000000	4.903677
651.000000	4.881296
652.000000	4.859761
653.000000	4.839063
654.000000	4.818396
655.000000	4.798856
656.000000	4.779929
657.000000	4.761111
658.000000	4.743341
659.000000	4.725761
660.000000	4.708752
661.000000	4.692163
662.000000	4.676643
663.000000	4.661623
664.000000	4.646908
665.000000	4.632750
666.000000	4.619133
667.000000	4.605754
668.000000	4.593288
669.000000	4.581087
670.000000	4.569015
671.000000	4.557181
672.000000	4.546178
673.000000	4.535492
674.000000	4.524776
675.000000	4.514682
676.000000	4.504712
677.000000	4.495148
678.000000	4.486161
679.000000	4.477055
680.000000	4.468696
681.000000	4.459922
682.000000	4.451453
683.000000	4.443259
684.000000	4.435471
685.000000	4.428041
686.000000	4.420614
687.000000	4.413161
688.000000	4.405621
689.000000	4.398676
690.000000	4.391525
691.000000	4.384734
692.000000	4.378018
693.000000	4.371058
694.000000	4.364549
695.000000	4.358291
696.000000	4.351859
697.000000	4.345489
698.000000	4.339385
699.000000	4.333026
700.000000	4.326677
701.000000	4.320182
702.000000	4.313922
703.000000	4.307359
704.000000	4.301057
705.000000	4.294876
706.000000	4.288852
707.000000	4.282716
708.000000	4.276713
709.000000	4.270647
710.000000	4.264170
711.000000	4.258025
712.000000	4.252099
713.000000	4.246114
714.000000	4.239882
715.000000	4.233660
716.000000	4.227855
717.000000	4.222181
718.000000	4.216340
719.000000	4.210527
720.000000	4.204574
721.000000	4.198452
722.000000	4.192588
723.000000	4.186994
724.000000	4.181319
725.000000	4.175624
726.000000	4.170026
727.000000	4.165032
728.000000	4.160263
729.000000	4.155344
730.000000	4.150527
731.000000	4.145753
732.000000	4.141307
733.000000	4.137236
734.000000	4.133249
735.000000	4.129066
736.000000	4.125008
737.000000	4.121228
738.000000	4.117584
739.000000	4.114162
740.000000	4.111146
741.000000	4.108529
742.000000	4.106270
743.000000	4.104112
744.000000	4.102188
745.000000	4.101200
746.000000	4.100223
747.000000	4.098500
748.000000	4.097209
749.000000	4.096845
750.000000	4.096671
751.000000	4.096895
752.000000	4.097570
753.000000	4.098760
754.000000	4.100178
755.000000	4.101617
756.000000	4.103615
757.000000	4.105820
758.000000	4.108058
759.000000	4.111303
760.000000	4.115497
761.000000	4.120050
762.000000	4.124813
763.000000	4.130197
764.000000	4.136535
765.000000	4.142556
766.000000	4.148713
767.000000	4.155136
768.000000	4.162105
769.000000	4.170032
770.000000	4.178492
771.000000	4.187736
772.000000	4.197529
773.000000	4.207688
774.000000	4.218063
775.000000	4.228743
776.000000	4.239817
777.000000	4.251471
778.000000	4.263904
779.000000	4.277438
780.000000	4.290613
781.000000	4.303958
782.000000	4.318773
783.000000	4.334056
784.000000	4.349588
785.000000	4.365908
786.000000	4.382431
787.000000	4.398676
788.000000	4.415709
789.000000	4.433008
790.000000	4.451441
791.000000	4.470777
792.000000	4.490536
793.000000	4.510274
794.000000	4.530353
795.000000	4.551387
796.000000	4.573017
797.000000	4.594564
798.000000	4.616614
799.000000	4.638860
800.000000	4.661206
801.000000	4.684310
802.000000	4.708104
803.000000	4.732030
804.000000	4.756265
805.000000	4.781074
806.000000	4.806037
807.000000	4.831604
808.000000	4.857203
809.000000	4.883545
810.000000	4.909518
811.000000	4.936147
812.000000	4.962786
813.000000	4.990309
814.000000	5.018277
815.000000	5.047073
816.000000	5.076313
817.000000	5.104290
818.000000	5.133471
819.000000	5.162581
820.000000	5.191238
821.000000	5.221612
822.000000	5.252421
823.000000	5.282342
824.000000	5.313474
825.000000	5.344497
826.000000	5.374773
827.000000	5.405461
828.000000	5.437676
829.000000	5.469222
830.000000	5.500656
831.000000	5.531924
832.000000	5.563142
833.000000	5.594993
834.000000	5.627700
835.000000	5.659761
836.000000	5.694164
837.000000	5.727457
838.000000	5.759136
839.000000	5.791325
840.000000	5.823247
841.000000	5.859082
842.000000	5.892680
843.000000	5.927642
844.000000	5.958383
845.000000	5.992011
846.000000	6.023459
847.000000	6.057039
848.000000	6.089092
849.000000	6.117376
850.000000	6.144444
851.000000	6.169155
852.000000	6.192016
853.000000	6.221837
854.000000	6.257480
855.000000	6.285687
856.000000	6.306594
857.000000	6.341867
858.000000	6.385663
859.000000	6.422481
860.000000	6.460327
861.000000	6.499003
862.000000	6.538055
863.000000	6.577137
864.000000	6.617667
865.000000	6.658412
866.000000	6.699641
867.000000	6.741977
868.000000	6.783874
869.000000	6.825128
870.000000	6.868747
871.000000	6.911107
872.000000	6.954617
873.000000	7.000762
874.000000	7.046871
875.000000	7.093948
876.000000	7.137454
877.000000	7.183074
878.000000	7.229803
879.000000	7.280109
880.000000	7.328944
881.000000	7.380368
882.000000	7.430285
883.000000	7.481579
884.000000	7.536674
885.000000	7.594437
886.000000	7.654977
887.000000	7.719262
888.000000	7.776183
889.000000	7.828115
890.000000	7.889317
891.000000	7.955804
892.000000	8.008994
893.000000	8.055614
894.000000	8.109257
895.000000	8.163174
896.000000	8.216971
897.000000	8.271563
898.000000	8.325737
899.000000	8.379860
900.000000	8.434269
901.000000	8.488703
902.000000	8.543483
903.000000	8.599060
904.000000	8.654794
905.000000	8.711469
906.000000	8.767666
907.000000	8.824554
908.000000	8.881166
909.000000	8.938397
910.000000	8.996003
911.000000	9.053086
912.000000	9.111251
913.000000	9.167986
914.000000	9.225823
915.000000	9.284006
916.000000	9.341980
917.000000	9.400906
918.000000	9.459603
919.000000	9.518360
920.000000	9.575800
921.000000	9.634146
922.000000	9.692126
923.000000	9.750257
924.000000	9.808757
925.000000	9.866183
926.000000	9.923923
927.000000	9.982077
928.000000	10.039274
929.000000	10.096163
930.000000	10.152606
931.000000	10.209740
932.000000	10.265717
933.000000	10.322280
934.000000	10.378783
935.000000	10.434766
936.000000	10.490457
937.000000	10.546451
938.000000	10.601560
939.000000	10.656246
940.000000	10.709800
941.000000	10.763274
942.000000	10.816594
943.000000	10.869389
944.000000	10.921466
945.000000	10.974117
946.000000	11.026569
947.000000	11.078331
948.000000	11.130734
949.000000	11.182194
950.000000	11.233189
951.000000	11.284731
952.000000	11.334763
953.000000	11.385080
954.000000	11.435517
955.000000	11.485834
956.000000	11.535934
957.000000	11.586257
958.000000	11.636026
959.000000	11.685389
960.000000	11.734486
961.000000	11.784517
962.000000	11.833780
963.000000	11.883094
964.000000	11.931777
965.000000	11.980560
966.000000	12.028886
967.000000	12.077514
968.000000	12.125103
969.000000	12.172926
970.000000	12.220426
971.000000	12.268540
972.000000	12.315320
973.000000	12.361911
974.000000	12.408809
975.000000	12.455834
976.000000	12.503437
977.000000	12.550529
978.000000	12.597491
979.000000	12.644294
980.000000	12.689709
981.000000	12.736089
982.000000	12.782091
983.000000	12.827057
984.000000	12.872489
985.000000	12.917497
986.000000	12.962071
987.000000	13.006857
988.000000	13.051943
989.000000	13.096257
990.000000	13.140709
991.000000	13.184517
992.000000	13.227966
993.000000	13.271580
994.000000	13.314837
995.000000	13.357951
996.000000	13.400549
997.000000	13.442826
998.000000	13.485389
999.000000	13.528643
1000.000000	13.571140
1001.000000	13.613440
1002.000000	13.655869
1003.000000	13.699037
1004.000000	13.740929
1005.000000	13.782680
1006.000000	13.824320
1007.000000	13.866060
1008.000000	13.907831
1009.000000	13.949503
1010.000000	13.991071
1011.000000	14.032100
1012.000000	14.072411
1013.000000	14.112374
1014.000000	14.152566
1015.000000	14.192940
1016.000000	14.233240
1017.000000	14.273554
1018.000000	14.313546
1019.000000	14.353631
1020.000000	14.393514
1021.000000	14.432891
1022.000000	14.472594
1023.000000	14.511723
1024.000000	14.551100
1025.000000	14.590711
1026.000000	14.630874
1027.000000	14.671231
1028.000000	14.711457
1029.000000	14.751331
1030.000000	14.791080
1031.000000	14.830989
1032.000000	14.870734
1033.000000	14.910260
1034.000000	14.950023
1035.000000	14.989711
1036.000000	15.028751
1037.000000	15.067677
1038.000000	15.107194
1039.000000	15.147071
1040.000000	15.186706
1041.000000	15.225689
1042.000000	15.264557
1043.000000	15.303534
1044.000000	15.342163
1045.000000	15.380603
1046.000000	15.418860
1047.000000	15.457274
1048.000000	15.496597
1049.000000	15.535766
1050.000000	15.574169
1051.000000	15.612254
1052.000000	15.650017
1053.000000	15.688206
1054.000000	15.726471
1055.000000	15.764743
1056.000000	15.802980
1057.000000	15.841051
1058.000000	15.878786
1059.000000	15.916309
1060.000000	15.953246
1061.000000	15.989951
1062.000000	16.026420
1063.000000	16.062871
1064.000000	16.099626
1065.000000	16.136491
1066.000000	16.173437
1067.000000	16.210663
1068.000000	16.247031
1069.000000	16.282814
1070.000000	16.319577
1071.000000	16.356697
1072.000000	16.393054
1073.000000	16.428366
1074.000000	16.463409
1075.000000	16.498529
1076.000000	16.533649
1077.000000	16.568691
1078.000000	16.603737
1079.000000	16.638831
1080.000000	16.673877
1081.000000	16.708854
1082.000000	16.743583
1083.000000	16.777846
1084.000000	16.811911
1085.000000	16.846611
1086.000000	16.881060
1087.000000	16.915449
1088.000000	16.948843
1089.000000	16.981943
1090.000000	17.015066
1091.000000	17.047851
1092.000000	17.080346
1093.000000	17.112454
1094.000000	17.144969
1095.000000	17.177046
1096.000000	17.208549
1097.000000	17.240151
1098.000000	17.270743
1099.000000	17.301166
1100.000000	17.331880
1101.000000	17.362163
1102.000000	17.392026
1103.000000	17.422029
1104.000000	17.451577
1105.000000	17.479311
1106.000000	17.506906
1107.000000	17.534680
1108.000000	17.562169
1109.000000	17.589797
1110.000000	17.617274
1111.000000	17.644763
1112.000000	17.671694
1113.000000	17.697546
1114.000000	17.722946
1115.000000	17.748200
1116.000000	17.772851
1117.000000	17.796803
1118.000000	17.820934
1119.000000	17.844229
1120.000000	17.866751
1121.000000	17.888766
1122.000000	17.910529
1123.000000	17.932069
1124.000000	17.953043
1125.000000	17.973737
1126.000000	17.993651
1127.000000	18.012549
1128.000000	18.030883
1129.000000	18.047846
1130.000000	18.064397
1131.000000	18.079511
1132.000000	18.092449
1133.000000	18.104677
1134.000000	18.116077
1135.000000	18.126829
1136.000000	18.136860
1137.000000	18.146291
1138.000000	18.153411
1139.000000	18.159634
1140.000000	18.165191
1141.000000	18.169634
1142.000000	18.173251
1143.000000	18.175757
1144.000000	18.177254
1145.000000	18.177409
1146.000000	18.177026
1147.000000	18.177129
1148.000000	18.176743
1149.000000	18.175511
1150.000000	18.173471
1151.000000	18.171586
1152.000000	18.169317
1153.000000	18.165683
1154.000000	18.161486
1155.000000	18.155780
1156.000000	18.149289
1157.000000	18.140849
1158.000000	18.132034
1159.000000	18.122703
1160.000000	18.111526
1161.000000	18.098866
1162.000000	18.084503
1163.000000	18.069246
1164.000000	18.052654
1165.000000	18.035043
1166.000000	18.017417
1167.000000	17.999120
1168.000000	17.980689
1169.000000	17.961009
1170.000000	17.940643
1171.000000	17.919263
1172.000000	17.897437
1173.000000	17.876857
1174.000000	17.856437
1175.000000	17.836469
1176.000000	17.816343
1177.000000	17.795446
1178.000000	17.775363
1179.000000	17.754649
1180.000000	17.734803
1181.000000	17.714109
1182.000000	17.692751
1183.000000	17.672503
1184.000000	17.652480
1185.000000	17.632337
1186.000000	17.611903
1187.000000	17.592289
1188.000000	17.572623
1189.000000	17.554651
1190.000000	17.538214
1191.000000	17.523086
1192.000000	17.509926
1193.000000	17.498689
1194.000000	17.487726
1195.000000	17.479380
1196.000000	17.473640
1197.000000	17.470331
1198.000000	17.469211
1199.000000	17.470066
