PE UV       SUBTECH     SPECTRUM    ASCII       PEDS        4.00        
   -1
ANGSOL0002-1.Sample.ASC
24/03/07
10:01:25.00
24/03/07
10:01:25.00
Vinicio Soto Monge

250,000000
1
Lambda 1050
1050L1511233
PerkinElmer UV WinLab 6.3.2.0749 / 2.02.05 Lambda 900 UV/VIS/NIR, Aug  7 2015 09:38:08

0
0
3350/servo 860,8/2
0
0
UV/VIS
1
1
1
DoubleDePol,CommonBeamDepol,RBeamAtt,SBeamAtt,60mm sphere, WB InGaAs Detector
0
0
0
0
Program
Program
3350/servo 860,8/2
3350/0,2 860,8/0,2
3350/0,2 860,8/0,2
0
15.00
 
 
 
0
 
860,8
319,2
860,8
Front
100
on
S:100 R:100
0
0
0
0
 
0
 
 
 
0
 
 
0
0
0
0
0
 
 
 
 
0
0


0
0
#HDR
-1
-1
#GR
nm
%R
1.0
0.0
2500,000000
-1,000000
2251
8
19,902300
1,770900
#DATA
250.000000	nan
251.000000	nan
252.000000	nan
253.000000	nan
254.000000	nan
255.000000	nan
256.000000	nan
257.000000	nan
258.000000	nan
259.000000	nan
260.000000	nan
261.000000	nan
262.000000	nan
263.000000	nan
264.000000	nan
265.000000	nan
266.000000	nan
267.000000	nan
268.000000	nan
269.000000	nan
270.000000	nan
271.000000	nan
272.000000	nan
273.000000	nan
274.000000	nan
275.000000	nan
276.000000	nan
277.000000	nan
278.000000	nan
279.000000	nan
280.000000	nan
281.000000	nan
282.000000	nan
283.000000	nan
284.000000	2.204161
285.000000	2.197847
286.000000	2.193708
287.000000	2.188649
288.000000	2.184161
289.000000	2.178670
290.000000	2.173116
291.000000	2.169233
292.000000	2.165243
293.000000	2.160956
294.000000	2.155811
295.000000	2.151828
296.000000	2.147838
297.000000	2.144517
298.000000	2.141837
299.000000	2.137820
300.000000	2.134891
301.000000	2.132208
302.000000	2.130698
303.000000	2.127875
304.000000	2.125262
305.000000	2.122691
306.000000	2.119993
307.000000	2.118799
308.000000	2.116599
309.000000	2.114280
310.000000	2.111722
311.000000	2.109255
312.000000	2.105806
313.000000	2.103794
314.000000	2.101500
315.000000	2.099179
316.000000	2.097599
317.000000	2.097201
318.000000	2.096675
319.000000	2.098978
320.000000	2.100127
321.000000	2.101734
322.000000	2.103001
323.000000	2.102959
324.000000	2.102919
325.000000	2.106687
326.000000	2.106532
327.000000	2.107292
328.000000	2.104089
329.000000	2.105068
330.000000	2.106678
331.000000	2.107301
332.000000	2.107398
333.000000	2.104794
334.000000	2.106019
335.000000	2.106420
336.000000	2.106635
337.000000	2.105298
338.000000	2.105329
339.000000	2.106131
340.000000	2.105739
341.000000	2.106228
342.000000	2.105888
343.000000	2.105575
344.000000	2.108048
345.000000	2.108635
346.000000	2.110093
347.000000	2.112296
348.000000	2.114402
349.000000	2.115198
350.000000	2.116201
351.000000	2.117115
352.000000	2.116854
353.000000	2.115095
354.000000	2.110880
355.000000	2.109589
356.000000	2.106329
357.000000	2.104062
358.000000	2.102977
359.000000	2.102117
360.000000	2.097839
361.000000	2.096794
362.000000	2.094800
363.000000	2.097228
364.000000	2.095444
365.000000	2.092600
366.000000	2.090805
367.000000	2.089094
368.000000	2.090792
369.000000	2.089926
370.000000	2.090069
371.000000	2.090233
372.000000	2.090388
373.000000	2.089975
374.000000	2.088903
375.000000	2.090981
376.000000	2.089723
377.000000	2.083986
378.000000	2.079143
379.000000	2.071792
380.000000	2.065943
381.000000	2.060021
382.000000	2.054102
383.000000	2.047818
384.000000	2.042999
385.000000	2.037831
386.000000	2.033166
387.000000	2.028724
388.000000	2.024595
389.000000	2.021286
390.000000	2.017202
391.000000	2.013547
392.000000	2.010469
393.000000	2.006929
394.000000	2.003635
395.000000	2.000718
396.000000	1.998469
397.000000	1.996625
398.000000	1.994759
399.000000	1.993732
400.000000	1.992657
401.000000	1.991988
402.000000	1.990931
403.000000	1.989882
404.000000	1.989226
405.000000	1.988214
406.000000	1.987819
407.000000	1.988105
408.000000	1.989074
409.000000	1.989673
410.000000	1.988707
411.000000	1.990949
412.000000	1.997919
413.000000	2.004838
414.000000	2.011869
415.000000	2.019128
416.000000	2.026716
417.000000	2.034121
418.000000	2.041553
419.000000	2.049034
420.000000	2.056585
421.000000	2.064117
422.000000	2.071644
423.000000	2.079580
424.000000	2.087505
425.000000	2.095168
426.000000	2.103001
427.000000	2.111069
428.000000	2.119142
429.000000	2.127264
430.000000	2.135253
431.000000	2.143098
432.000000	2.151111
433.000000	2.159300
434.000000	2.167479
435.000000	2.175951
436.000000	2.184565
437.000000	2.193377
438.000000	2.202137
439.000000	2.210715
440.000000	2.219511
441.000000	2.228633
442.000000	2.237642
443.000000	2.246673
444.000000	2.255980
445.000000	2.265478
446.000000	2.275345
447.000000	2.285460
448.000000	2.295858
449.000000	2.306444
450.000000	2.317237
451.000000	2.328334
452.000000	2.339917
453.000000	2.351910
454.000000	2.364584
455.000000	2.377820
456.000000	2.391405
457.000000	2.405513
458.000000	2.420344
459.000000	2.435692
460.000000	2.451839
461.000000	2.468788
462.000000	2.486411
463.000000	2.505086
464.000000	2.524554
465.000000	2.544827
466.000000	2.566222
467.000000	2.588646
468.000000	2.611964
469.000000	2.636476
470.000000	2.661911
471.000000	2.688295
472.000000	2.715849
473.000000	2.744508
474.000000	2.774356
475.000000	2.805142
476.000000	2.836929
477.000000	2.869991
478.000000	2.904217
479.000000	2.939555
480.000000	2.975985
481.000000	3.013185
482.000000	3.051207
483.000000	3.090428
484.000000	3.131136
485.000000	3.173429
486.000000	3.217169
487.000000	3.262529
488.000000	3.309468
489.000000	3.357957
490.000000	3.408111
491.000000	3.460152
492.000000	3.514418
493.000000	3.570449
494.000000	3.628454
495.000000	3.688542
496.000000	3.750680
497.000000	3.814860
498.000000	3.881237
499.000000	3.950291
500.000000	4.021998
501.000000	4.096114
502.000000	4.172597
503.000000	4.251687
504.000000	4.333637
505.000000	4.418330
506.000000	4.506059
507.000000	4.596547
508.000000	4.689988
509.000000	4.786347
510.000000	4.885829
511.000000	4.988197
512.000000	5.093231
513.000000	5.200935
514.000000	5.311347
515.000000	5.424265
516.000000	5.539894
517.000000	5.658142
518.000000	5.778641
519.000000	5.900919
520.000000	6.024703
521.000000	6.150003
522.000000	6.276316
523.000000	6.403072
524.000000	6.529907
525.000000	6.656152
526.000000	6.781805
527.000000	6.906069
528.000000	7.028678
529.000000	7.149931
530.000000	7.269592
531.000000	7.387806
532.000000	7.504395
533.000000	7.619149
534.000000	7.731846
535.000000	7.842473
536.000000	7.950891
537.000000	8.056979
538.000000	8.160961
539.000000	8.262114
540.000000	8.360560
541.000000	8.455837
542.000000	8.548066
543.000000	8.636417
544.000000	8.721518
545.000000	8.802328
546.000000	8.878784
547.000000	8.950934
548.000000	9.018639
549.000000	9.081701
550.000000	9.140731
551.000000	9.195288
552.000000	9.245716
553.000000	9.291351
554.000000	9.332059
555.000000	9.368597
556.000000	9.400985
557.000000	9.429234
558.000000	9.453795
559.000000	9.474187
560.000000	9.485016
561.000000	9.491479
562.000000	9.494885
563.000000	9.494955
564.000000	9.491622
565.000000	9.484527
566.000000	9.473312
567.000000	9.458140
568.000000	9.439183
569.000000	9.416102
570.000000	9.388880
571.000000	9.357440
572.000000	9.321503
573.000000	9.280780
574.000000	9.235713
575.000000	9.186169
576.000000	9.132147
577.000000	9.074457
578.000000	9.013981
579.000000	8.950196
580.000000	8.884979
581.000000	8.818159
582.000000	8.750369
583.000000	8.681938
584.000000	8.612626
585.000000	8.542083
586.000000	8.470425
587.000000	8.397600
588.000000	8.323818
589.000000	8.249249
590.000000	8.173380
591.000000	8.096477
592.000000	8.018961
593.000000	7.940900
594.000000	7.863272
595.000000	7.792206
596.000000	7.722353
597.000000	7.652865
598.000000	7.584449
599.000000	7.517136
600.000000	7.450956
601.000000	7.386305
602.000000	7.323265
603.000000	7.261333
604.000000	7.200945
605.000000	7.141900
606.000000	7.084307
607.000000	7.028714
608.000000	6.975515
609.000000	6.924276
610.000000	6.875675
611.000000	6.829446
612.000000	6.785311
613.000000	6.743176
614.000000	6.702906
615.000000	6.663290
616.000000	6.624597
617.000000	6.586855
618.000000	6.550234
619.000000	6.514346
620.000000	6.479615
621.000000	6.446316
622.000000	6.414460
623.000000	6.384360
624.000000	6.355773
625.000000	6.329207
626.000000	6.304142
627.000000	6.280803
628.000000	6.258932
629.000000	6.238276
630.000000	6.218744
631.000000	6.200230
632.000000	6.183017
633.000000	6.166919
634.000000	6.151714
635.000000	6.137548
636.000000	6.124078
637.000000	6.111262
638.000000	6.099800
639.000000	6.088977
640.000000	6.079369
641.000000	6.070864
642.000000	6.062952
643.000000	6.055805
644.000000	6.049515
645.000000	6.044098
646.000000	6.038975
647.000000	6.033827
648.000000	6.029285
649.000000	6.024721
650.000000	6.020494
651.000000	6.016878
652.000000	6.013566
653.000000	6.009905
654.000000	6.006265
655.000000	6.002351
656.000000	5.998492
657.000000	5.994478
658.000000	5.990091
659.000000	5.985949
660.000000	5.981558
661.000000	5.977034
662.000000	5.971884
663.000000	5.966858
664.000000	5.961893
665.000000	5.956457
666.000000	5.950845
667.000000	5.945075
668.000000	5.939277
669.000000	5.933057
670.000000	5.926786
671.000000	5.920757
672.000000	5.914562
673.000000	5.907816
674.000000	5.901140
675.000000	5.894413
676.000000	5.887324
677.000000	5.880421
678.000000	5.873532
679.000000	5.866410
680.000000	5.858589
681.000000	5.851108
682.000000	5.844250
683.000000	5.836748
684.000000	5.829327
685.000000	5.822703
686.000000	5.815851
687.000000	5.808453
688.000000	5.801430
689.000000	5.794566
690.000000	5.787781
691.000000	5.781391
692.000000	5.774825
693.000000	5.768763
694.000000	5.762555
695.000000	5.756354
696.000000	5.750912
697.000000	5.746250
698.000000	5.741644
699.000000	5.737229
700.000000	5.733318
701.000000	5.729280
702.000000	5.725473
703.000000	5.722510
704.000000	5.719891
705.000000	5.717530
706.000000	5.715725
707.000000	5.713951
708.000000	5.712398
709.000000	5.711578
710.000000	5.711243
711.000000	5.711511
712.000000	5.712301
713.000000	5.713279
714.000000	5.714789
715.000000	5.717011
716.000000	5.720010
717.000000	5.723224
718.000000	5.726828
719.000000	5.731207
720.000000	5.735667
721.000000	5.740660
722.000000	5.746138
723.000000	5.751568
724.000000	5.758001
725.000000	5.765223
726.000000	5.772534
727.000000	5.780778
728.000000	5.789234
729.000000	5.798480
730.000000	5.807851
731.000000	5.817374
732.000000	5.827292
733.000000	5.837699
734.000000	5.848163
735.000000	5.859005
736.000000	5.871138
737.000000	5.883578
738.000000	5.896023
739.000000	5.909287
740.000000	5.923012
741.000000	5.936324
742.000000	5.950842
743.000000	5.966442
744.000000	5.981908
745.000000	5.997219
746.000000	6.013235
747.000000	6.029431
748.000000	6.045529
749.000000	6.062432
750.000000	6.079941
751.000000	6.097613
752.000000	6.115601
753.000000	6.134270
754.000000	6.153215
755.000000	6.172455
756.000000	6.192871
757.000000	6.214086
758.000000	6.235766
759.000000	6.257276
760.000000	6.279263
761.000000	6.301681
762.000000	6.323614
763.000000	6.346242
764.000000	6.369736
765.000000	6.394035
766.000000	6.418316
767.000000	6.442749
768.000000	6.467966
769.000000	6.493420
770.000000	6.519800
771.000000	6.546989
772.000000	6.574224
773.000000	6.601862
774.000000	6.629553
775.000000	6.657571
776.000000	6.686246
777.000000	6.714905
778.000000	6.744039
779.000000	6.773373
780.000000	6.802990
781.000000	6.833026
782.000000	6.863536
783.000000	6.894824
784.000000	6.927029
785.000000	6.959140
786.000000	6.991753
787.000000	7.024399
788.000000	7.057835
789.000000	7.091515
790.000000	7.124808
791.000000	7.158141
792.000000	7.191635
793.000000	7.225885
794.000000	7.261391
795.000000	7.297182
796.000000	7.333067
797.000000	7.369611
798.000000	7.406332
799.000000	7.443719
800.000000	7.481384
801.000000	7.519640
802.000000	7.557494
803.000000	7.595573
804.000000	7.635126
805.000000	7.674754
806.000000	7.714553
807.000000	7.755005
808.000000	7.796026
809.000000	7.838058
810.000000	7.880078
811.000000	7.921979
812.000000	7.964066
813.000000	8.007053
814.000000	8.050732
815.000000	8.093630
816.000000	8.137312
817.000000	8.180487
818.000000	8.224087
819.000000	8.268465
820.000000	8.313857
821.000000	8.358858
822.000000	8.403622
823.000000	8.448556
824.000000	8.494994
825.000000	8.542839
826.000000	8.589131
827.000000	8.635949
828.000000	8.681436
829.000000	8.727236
830.000000	8.773204
831.000000	8.820429
832.000000	8.865770
833.000000	8.911904
834.000000	8.956549
835.000000	9.001672
836.000000	9.046639
837.000000	9.092315
838.000000	9.140360
839.000000	9.187749
840.000000	9.235181
841.000000	9.281777
842.000000	9.326237
843.000000	9.370888
844.000000	9.413197
845.000000	9.457156
846.000000	9.501051
847.000000	9.548932
848.000000	9.592611
849.000000	9.636345
850.000000	9.685150
851.000000	9.729367
852.000000	9.775173
853.000000	9.821417
854.000000	9.864239
855.000000	9.905062
856.000000	9.944663
857.000000	9.984322
858.000000	10.043133
859.000000	10.084987
860.000000	10.126293
861.000000	10.168845
862.000000	10.210546
863.000000	10.254407
864.000000	10.297928
865.000000	10.340534
866.000000	10.382267
867.000000	10.426557
868.000000	10.470314
869.000000	10.514742
870.000000	10.558496
871.000000	10.603008
872.000000	10.647665
873.000000	10.689350
874.000000	10.731311
875.000000	10.773609
876.000000	10.816415
877.000000	10.860732
878.000000	10.904919
879.000000	10.951092
880.000000	10.995972
881.000000	11.041718
882.000000	11.083998
883.000000	11.129824
884.000000	11.175545
885.000000	11.217514
886.000000	11.263853
887.000000	11.309500
888.000000	11.355830
889.000000	11.403756
890.000000	11.453989
891.000000	11.506353
892.000000	11.559561
893.000000	11.593860
894.000000	11.643709
895.000000	11.693791
896.000000	11.744771
897.000000	11.796217
898.000000	11.847406
899.000000	11.898780
900.000000	11.950874
901.000000	12.003091
902.000000	12.055691
903.000000	12.108651
904.000000	12.161411
905.000000	12.215689
906.000000	12.269731
907.000000	12.324606
908.000000	12.379691
909.000000	12.435037
910.000000	12.490569
911.000000	12.546989
912.000000	12.604054
913.000000	12.660237
914.000000	12.716574
915.000000	12.773497
916.000000	12.829437
917.000000	12.885706
918.000000	12.941460
919.000000	12.997886
920.000000	13.054263
921.000000	13.110289
922.000000	13.166443
923.000000	13.221603
924.000000	13.277240
925.000000	13.331949
926.000000	13.385929
927.000000	13.439971
928.000000	13.492909
929.000000	13.546731
930.000000	13.600149
931.000000	13.652183
932.000000	13.705109
933.000000	13.756377
934.000000	13.807317
935.000000	13.858694
936.000000	13.909666
937.000000	13.960311
938.000000	14.010009
939.000000	14.059046
940.000000	14.107820
941.000000	14.155534
942.000000	14.202020
943.000000	14.248060
944.000000	14.293840
945.000000	14.338763
946.000000	14.382763
947.000000	14.426723
948.000000	14.470526
949.000000	14.514269
950.000000	14.557294
951.000000	14.601054
952.000000	14.643769
953.000000	14.686771
954.000000	14.729569
955.000000	14.771583
956.000000	14.813269
957.000000	14.855066
958.000000	14.896094
959.000000	14.937031
960.000000	14.977629
961.000000	15.018320
962.000000	15.058949
963.000000	15.099997
964.000000	15.140280
965.000000	15.180183
966.000000	15.220183
967.000000	15.259103
968.000000	15.298600
969.000000	15.337557
970.000000	15.376166
971.000000	15.414814
972.000000	15.452720
973.000000	15.490014
974.000000	15.527857
975.000000	15.564889
976.000000	15.603143
977.000000	15.641211
978.000000	15.679546
979.000000	15.717046
980.000000	15.754414
981.000000	15.791417
982.000000	15.828326
983.000000	15.865671
984.000000	15.902297
985.000000	15.938220
986.000000	15.973837
987.000000	16.009234
988.000000	16.044249
989.000000	16.078937
990.000000	16.113969
991.000000	16.148366
992.000000	16.182320
993.000000	16.216514
994.000000	16.250531
995.000000	16.284731
996.000000	16.318291
997.000000	16.351040
998.000000	16.383294
999.000000	16.415011
1000.000000	16.446837
1001.000000	16.479031
1002.000000	16.511254
1003.000000	16.543274
1004.000000	16.574934
1005.000000	16.606037
1006.000000	16.636966
1007.000000	16.668131
1008.000000	16.699920
1009.000000	16.731386
1010.000000	16.762280
1011.000000	16.792303
1012.000000	16.822423
1013.000000	16.852269
1014.000000	16.882049
1015.000000	16.911949
1016.000000	16.941900
1017.000000	16.971163
1018.000000	16.999794
1019.000000	17.028211
1020.000000	17.056863
1021.000000	17.085317
1022.000000	17.114074
1023.000000	17.142366
1024.000000	17.170323
1025.000000	17.198863
1026.000000	17.227754
1027.000000	17.256249
1028.000000	17.284517
1029.000000	17.312209
1030.000000	17.339243
1031.000000	17.366780
1032.000000	17.394409
1033.000000	17.422037
1034.000000	17.449611
1035.000000	17.476911
1036.000000	17.503671
1037.000000	17.530231
1038.000000	17.557031
1039.000000	17.583637
1040.000000	17.609894
1041.000000	17.635849
1042.000000	17.661426
1043.000000	17.687251
1044.000000	17.713571
1045.000000	17.739580
1046.000000	17.765217
1047.000000	17.790571
1048.000000	17.815711
1049.000000	17.840751
1050.000000	17.865460
1051.000000	17.889831
1052.000000	17.914480
1053.000000	17.939397
1054.000000	17.964651
1055.000000	17.989869
1056.000000	18.014880
1057.000000	18.040054
1058.000000	18.065243
1059.000000	18.089671
1060.000000	18.113111
1061.000000	18.136249
1062.000000	18.159589
1063.000000	18.182946
1064.000000	18.206074
1065.000000	18.229406
1066.000000	18.252460
1067.000000	18.275317
1068.000000	18.298091
1069.000000	18.321343
1070.000000	18.344894
1071.000000	18.368300
1072.000000	18.391529
1073.000000	18.414280
1074.000000	18.437006
1075.000000	18.460260
1076.000000	18.482946
1077.000000	18.505309
1078.000000	18.527634
1079.000000	18.549883
1080.000000	18.572303
1081.000000	18.594766
1082.000000	18.617237
1083.000000	18.639646
1084.000000	18.661449
1085.000000	18.683417
1086.000000	18.705149
1087.000000	18.726791
1088.000000	18.748263
1089.000000	18.768749
1090.000000	18.789097
1091.000000	18.809237
1092.000000	18.828600
1093.000000	18.847531
1094.000000	18.866337
1095.000000	18.886020
1096.000000	18.905857
1097.000000	18.925469
1098.000000	18.943980
1099.000000	18.963066
1100.000000	18.982237
1101.000000	19.001589
1102.000000	19.020720
1103.000000	19.039023
1104.000000	19.056920
1105.000000	19.074569
1106.000000	19.091709
1107.000000	19.108480
1108.000000	19.125046
1109.000000	19.141360
1110.000000	19.156906
1111.000000	19.173131
1112.000000	19.188880
1113.000000	19.203700
1114.000000	19.218123
1115.000000	19.232726
1116.000000	19.246769
1117.000000	19.260500
1118.000000	19.273603
1119.000000	19.287509
1120.000000	19.300326
1121.000000	19.312497
1122.000000	19.324794
1123.000000	19.336863
1124.000000	19.349083
1125.000000	19.361294
1126.000000	19.373243
1127.000000	19.385131
1128.000000	19.396823
1129.000000	19.408763
1130.000000	19.419063
1131.000000	19.428857
1132.000000	19.437769
1133.000000	19.445989
1134.000000	19.453226
1135.000000	19.461134
1136.000000	19.468503
1137.000000	19.475117
1138.000000	19.481926
1139.000000	19.487569
1140.000000	19.492003
1141.000000	19.496603
1142.000000	19.500031
1143.000000	19.502634
1144.000000	19.505191
1145.000000	19.508474
1146.000000	19.511363
1147.000000	19.514511
1148.000000	19.517043
1149.000000	19.519300
1150.000000	19.519569
1151.000000	19.520114
1152.000000	19.520586
1153.000000	19.520694
1154.000000	19.520237
1155.000000	19.519729
1156.000000	19.518760
1157.000000	19.517131
1158.000000	19.513971
1159.000000	19.510034
1160.000000	19.505403
1161.000000	19.499891
1162.000000	19.493537
1163.000000	19.486009
1164.000000	19.477523
1165.000000	19.469197
1166.000000	19.460009
1167.000000	19.450080
1168.000000	19.440254
1169.000000	19.430289
1170.000000	19.417889
1171.000000	19.405160
1172.000000	19.393557
1173.000000	19.381060
1174.000000	19.368751
1175.000000	19.356557
1176.000000	19.344366
1177.000000	19.333057
1178.000000	19.321571
1179.000000	19.309720
1180.000000	19.297034
1181.000000	19.284349
1182.000000	19.270691
1183.000000	19.257583
1184.000000	19.244066
1185.000000	19.232083
1186.000000	19.220220
1187.000000	19.208469
1188.000000	19.196294
1189.000000	19.184877
1190.000000	19.173597
1191.000000	19.163243
1192.000000	19.153257
1193.000000	19.144574
1194.000000	19.137077
1195.000000	19.130751
1196.000000	19.125071
