PE UV       SUBTECH     SPECTRUM    ASCII       PEDS        4.00        
   -1
ANGSOL0011-3.Sample.ASC
24/03/07
13:52:18.00
24/03/07
13:52:18.00
Vinicio Soto Monge
Chrysina resplendens. Sector Santa Maria, manta #560, crater bosque, sendero adentro/ 8 Abril 2016/ Col: Sergio rios / BioCol-0000415.
250,000000
1
Lambda 1050
1050L1511233
PerkinElmer UV WinLab 6.3.2.0749 / 2.02.05 Lambda 900 UV/VIS/NIR, Aug  7 2015 09:38:08

0
0
3350/servo 860,8/2
0
0
UV/VIS
1
1
1
DoubleDePol,CommonBeamDepol,RBeamAtt,SBeamAtt,60mm sphere, WB InGaAs Detector
0
0
0
0
Program
Program
3350/servo 860,8/2
3350/0,2 860,8/0,2
3350/0,2 860,8/0,2
0
15.00
 
 
 
0
 
860,8
319,2
860,8
Front
100
on
S:100 R:100
0
0
0
0
 
0
 
 
 
0
 
 
0
0
0
0
0
 
 
 
 
0
0


0
0
#HDR
-1
-1
#GR
nm
%R
1.0
0.0
2500,000000
-1,000000
2251
8
22,796100
1,694900
#DATA
250.000000	nan
251.000000	nan
252.000000	nan
253.000000	nan
254.000000	nan
255.000000	nan
256.000000	nan
257.000000	nan
258.000000	nan
259.000000	nan
260.000000	nan
261.000000	nan
262.000000	nan
263.000000	nan
264.000000	nan
265.000000	nan
266.000000	nan
267.000000	nan
268.000000	nan
269.000000	nan
270.000000	nan
271.000000	nan
272.000000	nan
273.000000	nan
274.000000	nan
275.000000	nan
276.000000	nan
277.000000	nan
278.000000	nan
279.000000	nan
280.000000	nan
281.000000	nan
282.000000	nan
283.000000	nan
284.000000	1.950696
285.000000	1.946512
286.000000	1.941982
287.000000	1.938319
288.000000	1.936331
289.000000	1.933595
290.000000	1.931359
291.000000	1.928289
292.000000	1.925844
293.000000	1.922643
294.000000	1.919474
295.000000	1.916060
296.000000	1.914318
297.000000	1.911475
298.000000	1.909688
299.000000	1.907904
300.000000	1.906635
301.000000	1.904300
302.000000	1.901851
303.000000	1.899958
304.000000	1.898013
305.000000	1.896552
306.000000	1.895125
307.000000	1.893320
308.000000	1.891500
309.000000	1.890857
310.000000	1.889457
311.000000	1.887306
312.000000	1.885923
313.000000	1.884852
314.000000	1.883658
315.000000	1.881958
316.000000	1.883330
317.000000	1.903203
318.000000	1.925582
319.000000	1.948416
320.000000	1.965648
321.000000	1.982346
322.000000	1.992440
323.000000	2.009443
324.000000	2.027244
325.000000	2.039142
326.000000	2.047156
327.000000	2.056979
328.000000	2.066216
329.000000	2.078362
330.000000	2.088409
331.000000	2.098926
332.000000	2.107094
333.000000	2.113607
334.000000	2.117806
335.000000	2.118785
336.000000	2.122687
337.000000	2.127373
338.000000	2.133423
339.000000	2.136769
340.000000	2.139654
341.000000	2.145259
342.000000	2.148585
343.000000	2.154639
344.000000	2.159884
345.000000	2.164750
346.000000	2.170295
347.000000	2.174900
348.000000	2.180530
349.000000	2.184476
350.000000	2.188008
351.000000	2.188004
352.000000	2.169571
353.000000	2.149938
354.000000	2.129090
355.000000	2.113667
356.000000	2.100362
357.000000	2.094011
358.000000	2.079821
359.000000	2.062729
360.000000	2.052757
361.000000	2.046934
362.000000	2.037375
363.000000	2.028602
364.000000	2.017542
365.000000	2.008497
366.000000	1.998536
367.000000	1.989915
368.000000	1.981585
369.000000	1.975846
370.000000	1.972281
371.000000	1.966228
372.000000	1.956988
373.000000	1.946240
374.000000	1.939553
375.000000	1.931406
376.000000	1.925216
377.000000	1.920179
378.000000	1.912376
379.000000	1.905000
380.000000	1.898619
381.000000	1.891881
382.000000	1.885418
383.000000	1.878700
384.000000	1.873502
385.000000	1.868891
386.000000	1.866187
387.000000	1.863294
388.000000	1.859566
389.000000	1.857691
390.000000	1.855512
391.000000	1.852578
392.000000	1.848748
393.000000	1.845698
394.000000	1.845682
395.000000	1.844589
396.000000	1.843649
397.000000	1.844920
398.000000	1.846958
399.000000	1.848996
400.000000	1.851784
401.000000	1.855774
402.000000	1.861589
403.000000	1.869097
404.000000	1.877144
405.000000	1.887158
406.000000	1.898962
407.000000	1.913742
408.000000	1.929868
409.000000	1.946131
410.000000	1.965779
411.000000	1.982032
412.000000	2.001910
413.000000	2.023161
414.000000	2.046356
415.000000	2.071630
416.000000	2.099165
417.000000	2.129009
418.000000	2.160942
419.000000	2.195394
420.000000	2.232633
421.000000	2.272835
422.000000	2.315949
423.000000	2.362176
424.000000	2.411477
425.000000	2.464104
426.000000	2.520047
427.000000	2.579399
428.000000	2.642119
429.000000	2.708091
430.000000	2.777373
431.000000	2.849711
432.000000	2.925522
433.000000	3.004712
434.000000	3.087046
435.000000	3.172404
436.000000	3.260331
437.000000	3.351040
438.000000	3.444527
439.000000	3.540288
440.000000	3.638383
441.000000	3.738704
442.000000	3.840948
443.000000	3.944755
444.000000	4.049963
445.000000	4.156508
446.000000	4.264221
447.000000	4.372737
448.000000	4.481847
449.000000	4.591138
450.000000	4.700462
451.000000	4.809723
452.000000	4.918555
453.000000	5.026742
454.000000	5.134287
455.000000	5.240852
456.000000	5.345709
457.000000	5.449154
458.000000	5.550908
459.000000	5.650893
460.000000	5.748890
461.000000	5.844672
462.000000	5.938200
463.000000	6.029266
464.000000	6.117888
465.000000	6.203854
466.000000	6.286971
467.000000	6.367036
468.000000	6.443815
469.000000	6.517223
470.000000	6.587325
471.000000	6.654027
472.000000	6.716956
473.000000	6.776034
474.000000	6.831297
475.000000	6.882598
476.000000	6.929858
477.000000	6.973081
478.000000	7.012202
479.000000	7.047163
480.000000	7.077565
481.000000	7.103078
482.000000	7.123893
483.000000	7.140583
484.000000	7.153552
485.000000	7.162909
486.000000	7.168772
487.000000	7.171211
488.000000	7.170526
489.000000	7.167103
490.000000	7.161329
491.000000	7.153833
492.000000	7.144752
493.000000	7.134712
494.000000	7.124211
495.000000	7.113641
496.000000	7.103650
497.000000	7.095104
498.000000	7.088378
499.000000	7.083794
500.000000	7.082177
501.000000	7.084027
502.000000	7.089831
503.000000	7.100053
504.000000	7.115180
505.000000	7.135074
506.000000	7.160140
507.000000	7.190596
508.000000	7.226138
509.000000	7.266684
510.000000	7.312029
511.000000	7.361805
512.000000	7.415979
513.000000	7.473999
514.000000	7.535314
515.000000	7.600145
516.000000	7.668389
517.000000	7.739653
518.000000	7.813296
519.000000	7.889015
520.000000	7.966197
521.000000	8.044679
522.000000	8.124244
523.000000	8.204972
524.000000	8.286644
525.000000	8.369140
526.000000	8.452553
527.000000	8.537149
528.000000	8.622832
529.000000	8.709681
530.000000	8.798121
531.000000	8.888719
532.000000	8.981787
533.000000	9.078096
534.000000	9.178056
535.000000	9.282386
536.000000	9.391371
537.000000	9.505723
538.000000	9.625944
539.000000	9.752506
540.000000	9.886224
541.000000	10.027426
542.000000	10.176832
543.000000	10.335187
544.000000	10.502661
545.000000	10.679610
546.000000	10.865895
547.000000	11.061715
548.000000	11.267687
549.000000	11.483875
550.000000	11.709896
551.000000	11.945993
552.000000	12.191472
553.000000	12.446229
554.000000	12.709876
555.000000	12.981828
556.000000	13.261579
557.000000	13.549130
558.000000	13.843381
559.000000	14.143585
560.000000	14.435722
561.000000	14.730561
562.000000	15.028944
563.000000	15.329875
564.000000	15.632378
565.000000	15.935763
566.000000	16.238643
567.000000	16.539344
568.000000	16.836934
569.000000	17.130164
570.000000	17.417553
571.000000	17.699021
572.000000	17.972995
573.000000	18.238914
574.000000	18.495665
575.000000	18.742162
576.000000	18.978287
577.000000	19.203094
578.000000	19.416474
579.000000	19.618644
580.000000	19.809411
581.000000	19.988580
582.000000	20.156575
583.000000	20.313196
584.000000	20.458906
585.000000	20.594404
586.000000	20.719754
587.000000	20.836073
588.000000	20.943014
589.000000	21.041453
590.000000	21.132350
591.000000	21.216377
592.000000	21.293176
593.000000	21.363787
594.000000	21.428506
595.000000	21.500936
596.000000	21.569912
597.000000	21.634492
598.000000	21.694433
599.000000	21.749554
600.000000	21.800741
601.000000	21.848136
602.000000	21.892257
603.000000	21.932445
604.000000	21.969369
605.000000	22.002936
606.000000	22.032694
607.000000	22.059027
608.000000	22.081621
609.000000	22.100616
610.000000	22.116518
611.000000	22.128476
612.000000	22.136965
613.000000	22.140961
614.000000	22.141436
615.000000	22.137572
616.000000	22.129552
617.000000	22.117643
618.000000	22.101743
619.000000	22.081186
620.000000	22.056260
621.000000	22.026595
622.000000	21.991668
623.000000	21.952309
624.000000	21.907614
625.000000	21.857173
626.000000	21.801352
627.000000	21.740495
628.000000	21.674071
629.000000	21.602474
630.000000	21.525369
631.000000	21.442726
632.000000	21.353923
633.000000	21.259589
634.000000	21.160026
635.000000	21.053837
636.000000	20.940476
637.000000	20.819836
638.000000	20.691906
639.000000	20.555957
640.000000	20.411869
641.000000	20.258871
642.000000	20.096380
643.000000	19.924614
644.000000	19.743739
645.000000	19.553468
646.000000	19.353974
647.000000	19.145480
648.000000	18.929261
649.000000	18.704388
650.000000	18.472153
651.000000	18.234159
652.000000	17.990619
653.000000	17.742575
654.000000	17.491638
655.000000	17.238489
656.000000	16.984546
657.000000	16.731633
658.000000	16.480287
659.000000	16.231952
660.000000	15.987431
661.000000	15.747294
662.000000	15.512956
663.000000	15.285234
664.000000	15.064454
665.000000	14.852222
666.000000	14.649270
667.000000	14.456175
668.000000	14.273400
669.000000	14.101547
670.000000	13.941683
671.000000	13.794835
672.000000	13.660823
673.000000	13.540575
674.000000	13.434355
675.000000	13.342469
676.000000	13.265535
677.000000	13.203663
678.000000	13.156325
679.000000	13.123336
680.000000	13.104994
681.000000	13.101083
682.000000	13.110696
683.000000	13.133320
684.000000	13.168801
685.000000	13.216455
686.000000	13.275397
687.000000	13.344161
688.000000	13.422412
689.000000	13.508658
690.000000	13.602010
691.000000	13.701519
692.000000	13.805461
693.000000	13.913028
694.000000	14.023348
695.000000	14.135776
696.000000	14.248488
697.000000	14.360203
698.000000	14.470922
699.000000	14.579939
700.000000	14.685878
701.000000	14.787798
702.000000	14.885196
703.000000	14.977777
704.000000	15.065325
705.000000	15.147006
706.000000	15.222583
707.000000	15.292199
708.000000	15.355443
709.000000	15.413371
710.000000	15.465714
711.000000	15.512296
712.000000	15.554487
713.000000	15.592947
714.000000	15.627855
715.000000	15.659015
716.000000	15.687463
717.000000	15.714316
718.000000	15.739565
719.000000	15.763248
720.000000	15.785742
721.000000	15.807504
722.000000	15.829341
723.000000	15.851593
724.000000	15.875032
725.000000	15.898838
726.000000	15.923615
727.000000	15.949783
728.000000	15.977645
729.000000	16.007811
730.000000	16.041196
731.000000	16.078592
732.000000	16.120037
733.000000	16.165050
734.000000	16.213552
735.000000	16.266390
736.000000	16.323812
737.000000	16.385851
738.000000	16.452600
739.000000	16.524022
740.000000	16.600094
741.000000	16.680475
742.000000	16.765561
743.000000	16.854967
744.000000	16.947642
745.000000	17.044065
746.000000	17.144474
747.000000	17.247859
748.000000	17.354109
749.000000	17.463003
750.000000	17.574437
751.000000	17.687872
752.000000	17.802259
753.000000	17.917322
754.000000	18.033000
755.000000	18.149429
756.000000	18.265965
757.000000	18.382307
758.000000	18.497451
759.000000	18.610305
760.000000	18.721783
761.000000	18.832061
762.000000	18.940254
763.000000	19.046652
764.000000	19.150643
765.000000	19.249697
766.000000	19.344078
767.000000	19.434674
768.000000	19.521269
769.000000	19.603854
770.000000	19.681504
771.000000	19.753981
772.000000	19.821220
773.000000	19.884617
774.000000	19.942608
775.000000	19.995298
776.000000	20.044471
777.000000	20.089129
778.000000	20.129673
779.000000	20.166864
780.000000	20.200761
781.000000	20.230991
782.000000	20.257821
783.000000	20.281337
784.000000	20.302300
785.000000	20.320950
786.000000	20.337264
787.000000	20.351846
788.000000	20.364651
789.000000	20.376334
790.000000	20.386074
791.000000	20.393780
792.000000	20.400495
793.000000	20.407435
794.000000	20.414382
795.000000	20.420357
796.000000	20.425542
797.000000	20.430609
798.000000	20.434453
799.000000	20.437574
800.000000	20.442186
801.000000	20.446645
802.000000	20.450961
803.000000	20.453985
804.000000	20.457879
805.000000	20.462264
806.000000	20.467431
807.000000	20.473445
808.000000	20.479083
809.000000	20.485052
810.000000	20.491816
811.000000	20.499089
812.000000	20.506758
813.000000	20.514655
814.000000	20.522271
815.000000	20.530301
816.000000	20.536979
817.000000	20.542832
818.000000	20.548107
819.000000	20.551667
820.000000	20.556159
821.000000	20.560053
822.000000	20.563598
823.000000	20.567440
824.000000	20.571616
825.000000	20.575141
826.000000	20.579310
827.000000	20.582563
828.000000	20.583799
829.000000	20.583942
830.000000	20.584042
831.000000	20.582628
832.000000	20.581484
833.000000	20.579420
834.000000	20.576813
835.000000	20.571504
836.000000	20.567916
837.000000	20.563611
838.000000	20.556011
839.000000	20.547819
840.000000	20.537746
841.000000	20.526490
842.000000	20.514943
843.000000	20.501257
844.000000	20.486918
845.000000	20.470491
846.000000	20.449367
847.000000	20.424021
848.000000	20.396773
849.000000	20.370582
850.000000	20.337753
851.000000	20.308558
852.000000	20.270421
853.000000	20.228421
854.000000	20.187617
855.000000	20.141368
856.000000	20.097373
857.000000	20.053757
858.000000	20.013950
859.000000	19.980164
860.000000	19.946056
861.000000	19.911072
862.000000	19.875987
863.000000	19.841266
864.000000	19.806903
865.000000	19.772752
866.000000	19.739300
867.000000	19.703989
868.000000	19.669549
869.000000	19.634902
870.000000	19.601690
871.000000	19.567306
872.000000	19.533560
873.000000	19.503955
874.000000	19.474329
875.000000	19.446710
876.000000	19.420268
877.000000	19.394939
878.000000	19.371603
879.000000	19.349834
880.000000	19.330969
881.000000	19.315982
882.000000	19.305748
883.000000	19.297401
884.000000	19.288896
885.000000	19.286888
886.000000	19.283281
887.000000	19.289741
888.000000	19.300786
889.000000	19.311902
890.000000	19.327077
891.000000	19.340736
892.000000	19.354199
893.000000	19.363685
894.000000	19.365862
895.000000	19.368903
896.000000	19.372295
897.000000	19.376750
898.000000	19.381254
899.000000	19.386131
900.000000	19.390950
901.000000	19.396859
902.000000	19.404078
903.000000	19.411853
904.000000	19.419990
905.000000	19.428865
906.000000	19.437810
907.000000	19.447321
908.000000	19.457880
909.000000	19.468637
910.000000	19.478907
911.000000	19.489659
912.000000	19.499068
913.000000	19.509137
914.000000	19.519033
915.000000	19.528545
916.000000	19.538096
917.000000	19.546565
918.000000	19.555346
919.000000	19.563693
920.000000	19.571335
921.000000	19.578107
922.000000	19.584830
923.000000	19.591306
924.000000	19.597710
925.000000	19.603897
926.000000	19.609406
927.000000	19.614071
928.000000	19.618617
929.000000	19.623050
930.000000	19.626850
931.000000	19.630566
932.000000	19.633529
933.000000	19.636078
934.000000	19.638326
935.000000	19.641053
936.000000	19.642988
937.000000	19.644268
938.000000	19.645118
939.000000	19.645468
940.000000	19.644930
941.000000	19.644226
942.000000	19.642323
943.000000	19.639386
944.000000	19.635795
945.000000	19.632630
946.000000	19.628957
947.000000	19.625403
948.000000	19.620454
949.000000	19.615143
950.000000	19.608962
951.000000	19.602424
952.000000	19.596191
953.000000	19.589101
954.000000	19.581293
955.000000	19.572871
956.000000	19.564233
957.000000	19.555025
958.000000	19.545803
959.000000	19.535858
960.000000	19.525354
961.000000	19.514368
962.000000	19.502892
963.000000	19.490530
964.000000	19.477517
965.000000	19.463907
966.000000	19.449825
967.000000	19.435228
968.000000	19.420287
969.000000	19.405001
970.000000	19.388605
971.000000	19.371352
972.000000	19.353914
973.000000	19.336076
974.000000	19.318237
975.000000	19.300423
976.000000	19.282232
977.000000	19.264218
978.000000	19.245713
979.000000	19.226794
980.000000	19.207709
981.000000	19.188492
982.000000	19.169283
983.000000	19.150315
984.000000	19.130985
985.000000	19.112302
986.000000	19.093334
987.000000	19.073985
988.000000	19.055219
989.000000	19.036700
990.000000	19.018597
991.000000	19.000350
992.000000	18.982152
993.000000	18.964081
994.000000	18.946582
995.000000	18.929523
996.000000	18.912850
997.000000	18.896529
998.000000	18.880690
999.000000	18.865553
1000.000000	18.851462
1001.000000	18.837699
1002.000000	18.824055
1003.000000	18.811124
1004.000000	18.798628
1005.000000	18.786735
1006.000000	18.775240
1007.000000	18.764271
1008.000000	18.753861
1009.000000	18.743909
1010.000000	18.734617
1011.000000	18.725883
1012.000000	18.717757
1013.000000	18.710543
1014.000000	18.704379
1015.000000	18.698746
1016.000000	18.693470
1017.000000	18.689127
1018.000000	18.685521
1019.000000	18.682588
1020.000000	18.680013
1021.000000	18.678497
1022.000000	18.677977
1023.000000	18.677832
1024.000000	18.678262
1025.000000	18.679318
1026.000000	18.681223
1027.000000	18.683886
1028.000000	18.686627
1029.000000	18.689515
1030.000000	18.692855
1031.000000	18.696351
1032.000000	18.700522
1033.000000	18.704989
1034.000000	18.709812
1035.000000	18.714886
1036.000000	18.720070
1037.000000	18.725622
1038.000000	18.731126
1039.000000	18.736771
1040.000000	18.742678
1041.000000	18.748668
1042.000000	18.754556
1043.000000	18.760441
1044.000000	18.766173
1045.000000	18.771782
1046.000000	18.777467
1047.000000	18.783127
1048.000000	18.788846
1049.000000	18.794150
1050.000000	18.799379
1051.000000	18.805006
1052.000000	18.810325
1053.000000	18.815426
1054.000000	18.820606
1055.000000	18.825647
1056.000000	18.830335
1057.000000	18.835016
1058.000000	18.839794
1059.000000	18.844228
1060.000000	18.848667
1061.000000	18.853389
1062.000000	18.858215
1063.000000	18.863220
1064.000000	18.868632
1065.000000	18.874230
1066.000000	18.879998
1067.000000	18.886138
1068.000000	18.892664
1069.000000	18.899843
1070.000000	18.907730
1071.000000	18.916042
1072.000000	18.924529
1073.000000	18.933480
1074.000000	18.942846
1075.000000	18.952142
1076.000000	18.962005
1077.000000	18.972569
1078.000000	18.983325
1079.000000	18.994458
1080.000000	19.006336
1081.000000	19.018511
1082.000000	19.030963
1083.000000	19.043710
1084.000000	19.056783
1085.000000	19.070072
1086.000000	19.083274
1087.000000	19.096973
1088.000000	19.111064
1089.000000	19.125128
1090.000000	19.139159
1091.000000	19.153512
1092.000000	19.167544
1093.000000	19.181549
1094.000000	19.196195
1095.000000	19.210804
1096.000000	19.224456
1097.000000	19.237751
1098.000000	19.251120
1099.000000	19.264009
1100.000000	19.276721
1101.000000	19.289226
1102.000000	19.301032
1103.000000	19.312519
1104.000000	19.323229
1105.000000	19.333019
1106.000000	19.342260
1107.000000	19.351227
1108.000000	19.359597
1109.000000	19.367791
1110.000000	19.376068
1111.000000	19.383581
1112.000000	19.390366
1113.000000	19.397153
1114.000000	19.403676
1115.000000	19.409137
1116.000000	19.414168
1117.000000	19.418924
1118.000000	19.423238
1119.000000	19.427410
1120.000000	19.430685
1121.000000	19.433404
1122.000000	19.435434
1123.000000	19.437086
1124.000000	19.438389
1125.000000	19.439056
1126.000000	19.439115
1127.000000	19.438781
1128.000000	19.437553
1129.000000	19.436013
1130.000000	19.433250
1131.000000	19.430090
1132.000000	19.425343
1133.000000	19.418665
1134.000000	19.411667
1135.000000	19.404665
1136.000000	19.397450
1137.000000	19.389067
1138.000000	19.379273
1139.000000	19.368000
1140.000000	19.355796
1141.000000	19.343307
1142.000000	19.329910
1143.000000	19.315506
1144.000000	19.300121
1145.000000	19.284212
1146.000000	19.268215
1147.000000	19.251752
1148.000000	19.234207
1149.000000	19.216283
1150.000000	19.198160
1151.000000	19.179295
1152.000000	19.159835
1153.000000	19.139770
1154.000000	19.119065
1155.000000	19.098055
1156.000000	19.076129
1157.000000	19.053512
1158.000000	19.029998
1159.000000	19.005628
1160.000000	18.980369
1161.000000	18.953660
1162.000000	18.926206
1163.000000	18.898024
1164.000000	18.868149
1165.000000	18.837670
1166.000000	18.806870
1167.000000	18.776649
1168.000000	18.746872
1169.000000	18.715903
1170.000000	18.683807
1171.000000	18.651108
1172.000000	18.618809
1173.000000	18.587369
1174.000000	18.556482
1175.000000	18.526167
