PE UV       SUBTECH     SPECTRUM    ASCII       PEDS        4.00        
   -1
ANGSOL0005-1.Sample.ASC
24/03/07
14:30:02.00
24/03/07
14:30:02.00
Vinicio Soto Monge
Chrysina macropus. Mexico, Hidalgo. Tlanchinol. 7-28 Junio 1992.
250,000000
1
Lambda 1050
1050L1511233
PerkinElmer UV WinLab 6.3.2.0749 / 2.02.05 Lambda 900 UV/VIS/NIR, Aug  7 2015 09:38:08

0
0
3350/servo 860,8/2
0
0
UV/VIS
1
1
1
DoubleDePol,CommonBeamDepol,RBeamAtt,SBeamAtt,60mm sphere, WB InGaAs Detector
0
0
0
0
Program
Program
3350/servo 860,8/2
3350/0,2 860,8/0,2
3350/0,2 860,8/0,2
0
15.00
 
 
 
0
 
860,8
319,2
860,8
Front
100
on
S:100 R:100
0
0
0
0
 
0
 
 
 
0
 
 
0
0
0
0
0
 
 
 
 
0
0


0
0
#HDR
-1
-1
#GR
nm
%R
1.0
0.0
2500,000000
-1,000000
2251
8
20,004000
1,803500
#DATA
250.000000	nan
251.000000	nan
252.000000	nan
253.000000	nan
254.000000	nan
255.000000	nan
256.000000	nan
257.000000	nan
258.000000	nan
259.000000	nan
260.000000	nan
261.000000	nan
262.000000	nan
263.000000	nan
264.000000	nan
265.000000	nan
266.000000	nan
267.000000	nan
268.000000	nan
269.000000	nan
270.000000	nan
271.000000	nan
272.000000	nan
273.000000	nan
274.000000	nan
275.000000	nan
276.000000	nan
277.000000	nan
278.000000	nan
279.000000	nan
280.000000	nan
281.000000	nan
282.000000	nan
283.000000	nan
284.000000	2.182859
285.000000	2.177603
286.000000	2.171341
287.000000	2.166211
288.000000	2.161544
289.000000	2.156207
290.000000	2.150118
291.000000	2.145140
292.000000	2.141307
293.000000	2.139009
294.000000	2.135107
295.000000	2.132227
296.000000	2.128710
297.000000	2.124452
298.000000	2.121680
299.000000	2.119143
300.000000	2.116349
301.000000	2.114440
302.000000	2.113654
303.000000	2.111040
304.000000	2.109579
305.000000	2.107574
306.000000	2.106134
307.000000	2.104210
308.000000	2.102549
309.000000	2.102124
310.000000	2.098497
311.000000	2.097066
312.000000	2.095297
313.000000	2.092560
314.000000	2.091069
315.000000	2.089157
316.000000	2.088497
317.000000	2.092148
318.000000	2.099178
319.000000	2.099898
320.000000	2.105238
321.000000	2.111192
322.000000	2.115641
323.000000	2.119597
324.000000	2.122776
325.000000	2.128468
326.000000	2.129684
327.000000	2.128127
328.000000	2.125740
329.000000	2.129096
330.000000	2.132478
331.000000	2.131459
332.000000	2.134880
333.000000	2.138495
334.000000	2.141746
335.000000	2.143288
336.000000	2.145179
337.000000	2.145370
338.000000	2.145786
339.000000	2.146996
340.000000	2.147295
341.000000	2.149308
342.000000	2.152057
343.000000	2.153611
344.000000	2.155678
345.000000	2.157268
346.000000	2.162371
347.000000	2.164809
348.000000	2.167185
349.000000	2.169548
350.000000	2.171711
351.000000	2.169721
352.000000	2.168051
353.000000	2.165257
354.000000	2.167280
355.000000	2.163641
356.000000	2.159207
357.000000	2.154713
358.000000	2.150665
359.000000	2.148412
360.000000	2.143996
361.000000	2.143067
362.000000	2.145615
363.000000	2.149386
364.000000	2.147223
365.000000	2.145278
366.000000	2.148104
367.000000	2.147516
368.000000	2.146040
369.000000	2.145212
370.000000	2.145902
371.000000	2.143646
372.000000	2.143796
373.000000	2.146120
374.000000	2.145669
375.000000	2.147011
376.000000	2.145714
377.000000	2.140115
378.000000	2.135995
379.000000	2.130082
380.000000	2.126798
381.000000	2.120520
382.000000	2.115937
383.000000	2.112283
384.000000	2.108211
385.000000	2.105271
386.000000	2.105070
387.000000	2.101864
388.000000	2.096002
389.000000	2.092184
390.000000	2.089342
391.000000	2.087538
392.000000	2.087224
393.000000	2.085969
394.000000	2.085126
395.000000	2.085201
396.000000	2.085676
397.000000	2.085847
398.000000	2.084840
399.000000	2.084747
400.000000	2.084636
401.000000	2.084914
402.000000	2.084875
403.000000	2.085811
404.000000	2.086232
405.000000	2.088231
406.000000	2.091966
407.000000	2.094547
408.000000	2.096692
409.000000	2.101231
410.000000	2.105429
411.000000	2.110463
412.000000	2.119352
413.000000	2.128519
414.000000	2.138223
415.000000	2.148095
416.000000	2.158155
417.000000	2.168383
418.000000	2.178816
419.000000	2.189516
420.000000	2.199919
421.000000	2.210195
422.000000	2.220966
423.000000	2.231785
424.000000	2.242454
425.000000	2.253246
426.000000	2.264376
427.000000	2.275569
428.000000	2.286642
429.000000	2.298112
430.000000	2.309579
431.000000	2.320870
432.000000	2.332317
433.000000	2.343969
434.000000	2.355750
435.000000	2.367660
436.000000	2.379674
437.000000	2.391697
438.000000	2.403962
439.000000	2.416230
440.000000	2.428268
441.000000	2.440569
442.000000	2.453271
443.000000	2.466130
444.000000	2.478972
445.000000	2.492059
446.000000	2.505624
447.000000	2.519245
448.000000	2.533124
449.000000	2.547424
450.000000	2.562004
451.000000	2.576929
452.000000	2.592122
453.000000	2.607521
454.000000	2.623318
455.000000	2.639906
456.000000	2.657069
457.000000	2.674586
458.000000	2.692725
459.000000	2.711459
460.000000	2.730829
461.000000	2.750938
462.000000	2.771948
463.000000	2.793879
464.000000	2.816503
465.000000	2.840161
466.000000	2.864670
467.000000	2.889953
468.000000	2.916121
469.000000	2.943382
470.000000	2.971736
471.000000	3.000969
472.000000	3.031161
473.000000	3.062262
474.000000	3.094432
475.000000	3.127767
476.000000	3.162056
477.000000	3.197085
478.000000	3.233268
479.000000	3.270751
480.000000	3.308864
481.000000	3.347458
482.000000	3.387073
483.000000	3.427822
484.000000	3.469595
485.000000	3.512530
486.000000	3.556783
487.000000	3.602667
488.000000	3.650126
489.000000	3.698706
490.000000	3.748426
491.000000	3.799949
492.000000	3.853326
493.000000	3.908288
494.000000	3.964782
495.000000	4.023266
496.000000	4.083504
497.000000	4.145529
498.000000	4.209525
499.000000	4.275329
500.000000	4.343204
501.000000	4.413233
502.000000	4.485420
503.000000	4.559587
504.000000	4.635840
505.000000	4.714271
506.000000	4.795193
507.000000	4.878575
508.000000	4.964320
509.000000	5.052091
510.000000	5.142166
511.000000	5.234209
512.000000	5.327989
513.000000	5.423809
514.000000	5.521679
515.000000	5.621640
516.000000	5.723711
517.000000	5.827655
518.000000	5.933027
519.000000	6.039570
520.000000	6.147324
521.000000	6.256473
522.000000	6.366701
523.000000	6.477780
524.000000	6.589863
525.000000	6.702352
526.000000	6.814647
527.000000	6.926581
528.000000	7.037690
529.000000	7.148034
530.000000	7.256842
531.000000	7.364291
532.000000	7.470183
533.000000	7.574220
534.000000	7.676009
535.000000	7.775624
536.000000	7.872669
537.000000	7.967052
538.000000	8.059305
539.000000	8.149167
540.000000	8.235910
541.000000	8.319624
542.000000	8.400355
543.000000	8.478027
544.000000	8.552658
545.000000	8.623984
546.000000	8.691921
547.000000	8.756560
548.000000	8.817659
549.000000	8.874918
550.000000	8.928424
551.000000	8.978844
552.000000	9.025848
553.000000	9.069337
554.000000	9.109111
555.000000	9.145449
556.000000	9.178046
557.000000	9.206900
558.000000	9.232359
559.000000	9.254195
560.000000	9.266415
561.000000	9.275035
562.000000	9.279863
563.000000	9.281602
564.000000	9.280607
565.000000	9.276920
566.000000	9.269905
567.000000	9.259519
568.000000	9.246094
569.000000	9.229634
570.000000	9.209936
571.000000	9.186899
572.000000	9.160845
573.000000	9.131427
574.000000	9.098172
575.000000	9.061942
576.000000	9.021982
577.000000	8.978623
578.000000	8.931800
579.000000	8.881219
580.000000	8.827208
581.000000	8.770358
582.000000	8.710470
583.000000	8.648161
584.000000	8.583513
585.000000	8.516783
586.000000	8.448065
587.000000	8.377636
588.000000	8.305760
589.000000	8.233108
590.000000	8.159218
591.000000	8.084322
592.000000	8.008282
593.000000	7.930514
594.000000	7.851429
595.000000	7.777133
596.000000	7.702267
597.000000	7.626594
598.000000	7.549887
599.000000	7.472301
600.000000	7.394510
601.000000	7.316647
602.000000	7.238520
603.000000	7.161111
604.000000	7.084539
605.000000	7.008205
606.000000	6.933348
607.000000	6.859393
608.000000	6.786263
609.000000	6.715367
610.000000	6.645622
611.000000	6.577508
612.000000	6.510975
613.000000	6.446189
614.000000	6.383322
615.000000	6.322194
616.000000	6.263073
617.000000	6.206197
618.000000	6.151038
619.000000	6.097281
620.000000	6.045325
621.000000	5.994553
622.000000	5.944898
623.000000	5.896820
624.000000	5.849639
625.000000	5.803382
626.000000	5.758020
627.000000	5.713997
628.000000	5.671441
629.000000	5.630469
630.000000	5.591086
631.000000	5.552937
632.000000	5.516644
633.000000	5.482009
634.000000	5.449032
635.000000	5.417182
636.000000	5.387064
637.000000	5.358420
638.000000	5.330663
639.000000	5.303760
640.000000	5.278065
641.000000	5.253176
642.000000	5.229249
643.000000	5.206569
644.000000	5.183846
645.000000	5.162044
646.000000	5.141237
647.000000	5.120985
648.000000	5.101558
649.000000	5.083744
650.000000	5.066295
651.000000	5.049298
652.000000	5.033139
653.000000	5.017071
654.000000	5.001606
655.000000	4.986568
656.000000	4.971772
657.000000	4.957553
658.000000	4.943274
659.000000	4.929494
660.000000	4.916129
661.000000	4.902642
662.000000	4.889352
663.000000	4.876080
664.000000	4.862793
665.000000	4.850011
666.000000	4.837298
667.000000	4.824453
668.000000	4.811940
669.000000	4.799460
670.000000	4.786977
671.000000	4.774353
672.000000	4.761936
673.000000	4.749369
674.000000	4.737161
675.000000	4.725072
676.000000	4.712723
677.000000	4.700350
678.000000	4.687455
679.000000	4.674804
680.000000	4.662246
681.000000	4.649724
682.000000	4.637059
683.000000	4.624062
684.000000	4.610592
685.000000	4.597798
686.000000	4.584798
687.000000	4.571562
688.000000	4.558174
689.000000	4.544740
690.000000	4.531256
691.000000	4.517933
692.000000	4.504392
693.000000	4.491025
694.000000	4.477544
695.000000	4.463620
696.000000	4.449661
697.000000	4.435272
698.000000	4.421172
699.000000	4.407344
700.000000	4.393466
701.000000	4.379477
702.000000	4.365314
703.000000	4.351570
704.000000	4.337716
705.000000	4.323718
706.000000	4.309615
707.000000	4.295333
708.000000	4.281296
709.000000	4.267182
710.000000	4.252738
711.000000	4.238462
712.000000	4.224497
713.000000	4.210897
714.000000	4.197463
715.000000	4.184000
716.000000	4.170662
717.000000	4.157797
718.000000	4.145239
719.000000	4.132588
720.000000	4.119905
721.000000	4.107341
722.000000	4.094894
723.000000	4.082865
724.000000	4.071266
725.000000	4.060022
726.000000	4.048465
727.000000	4.037575
728.000000	4.026950
729.000000	4.016227
730.000000	4.005925
731.000000	3.996280
732.000000	3.987451
733.000000	3.978768
734.000000	3.969999
735.000000	3.961465
736.000000	3.953772
737.000000	3.946604
738.000000	3.939167
739.000000	3.932074
740.000000	3.926039
741.000000	3.920350
742.000000	3.914987
743.000000	3.909913
744.000000	3.905291
745.000000	3.901661
746.000000	3.898264
747.000000	3.895058
748.000000	3.892216
749.000000	3.889975
750.000000	3.888532
751.000000	3.886961
752.000000	3.885742
753.000000	3.885201
754.000000	3.885598
755.000000	3.886632
756.000000	3.888036
757.000000	3.890050
758.000000	3.892942
759.000000	3.895981
760.000000	3.898691
761.000000	3.902360
762.000000	3.906480
763.000000	3.911102
764.000000	3.916645
765.000000	3.922710
766.000000	3.928973
767.000000	3.935247
768.000000	3.941791
769.000000	3.949224
770.000000	3.957178
771.000000	3.965054
772.000000	3.974295
773.000000	3.984382
774.000000	3.994308
775.000000	4.004114
776.000000	4.014515
777.000000	4.026066
778.000000	4.038289
779.000000	4.051202
780.000000	4.063695
781.000000	4.076435
782.000000	4.090418
783.000000	4.105853
784.000000	4.121193
785.000000	4.136009
786.000000	4.151923
787.000000	4.168272
788.000000	4.184654
789.000000	4.201210
790.000000	4.218292
791.000000	4.235146
792.000000	4.252419
793.000000	4.270955
794.000000	4.289994
795.000000	4.309445
796.000000	4.329932
797.000000	4.350492
798.000000	4.371123
799.000000	4.391984
800.000000	4.413233
801.000000	4.435418
802.000000	4.458108
803.000000	4.480953
804.000000	4.503828
805.000000	4.526963
806.000000	4.550824
807.000000	4.573997
808.000000	4.597563
809.000000	4.623216
810.000000	4.649133
811.000000	4.675698
812.000000	4.702487
813.000000	4.728965
814.000000	4.755721
815.000000	4.782857
816.000000	4.811498
817.000000	4.839399
818.000000	4.866146
819.000000	4.893263
820.000000	4.921200
821.000000	4.948909
822.000000	4.977775
823.000000	5.007444
824.000000	5.037585
825.000000	5.066499
826.000000	5.095236
827.000000	5.125305
828.000000	5.155913
829.000000	5.185842
830.000000	5.216754
831.000000	5.247882
832.000000	5.280554
833.000000	5.313551
834.000000	5.345704
835.000000	5.377599
836.000000	5.408604
837.000000	5.440335
838.000000	5.472334
839.000000	5.505461
840.000000	5.538718
841.000000	5.572236
842.000000	5.605329
843.000000	5.638957
844.000000	5.672114
845.000000	5.704684
846.000000	5.737664
847.000000	5.770261
848.000000	5.800199
849.000000	5.832134
850.000000	5.863581
851.000000	5.891412
852.000000	5.924413
853.000000	5.955983
854.000000	5.986387
855.000000	6.020332
856.000000	6.051056
857.000000	6.084430
858.000000	6.126816
859.000000	6.161421
860.000000	6.197394
861.000000	6.235351
862.000000	6.272889
863.000000	6.309139
864.000000	6.347327
865.000000	6.385269
866.000000	6.423998
867.000000	6.461409
868.000000	6.498430
869.000000	6.537716
870.000000	6.576904
871.000000	6.616645
872.000000	6.656540
873.000000	6.697506
874.000000	6.737780
875.000000	6.778427
876.000000	6.819221
877.000000	6.861416
878.000000	6.902767
879.000000	6.944556
880.000000	6.986769
881.000000	7.029312
882.000000	7.072353
883.000000	7.118711
884.000000	7.163823
885.000000	7.210577
886.000000	7.260792
887.000000	7.306340
888.000000	7.354902
889.000000	7.405905
890.000000	7.453241
891.000000	7.504263
892.000000	7.552693
893.000000	7.591849
894.000000	7.638769
895.000000	7.687217
896.000000	7.735577
897.000000	7.783614
898.000000	7.831491
899.000000	7.879069
900.000000	7.927717
901.000000	7.976423
902.000000	8.025017
903.000000	8.075091
904.000000	8.125051
905.000000	8.176086
906.000000	8.227537
907.000000	8.279363
908.000000	8.330800
909.000000	8.382577
910.000000	8.434397
911.000000	8.487140
912.000000	8.539629
913.000000	8.593309
914.000000	8.646523
915.000000	8.700780
916.000000	8.755306
917.000000	8.810143
918.000000	8.864909
919.000000	8.919163
920.000000	8.974217
921.000000	9.029189
922.000000	9.084440
923.000000	9.138151
924.000000	9.192069
925.000000	9.246603
926.000000	9.301431
927.000000	9.355777
928.000000	9.410977
929.000000	9.466429
930.000000	9.520691
931.000000	9.574454
932.000000	9.628926
933.000000	9.683480
934.000000	9.738154
935.000000	9.792214
936.000000	9.845211
937.000000	9.898934
938.000000	9.952029
939.000000	10.004046
940.000000	10.055840
941.000000	10.107734
942.000000	10.159237
943.000000	10.210886
944.000000	10.262769
945.000000	10.314846
946.000000	10.365651
947.000000	10.417283
948.000000	10.468277
949.000000	10.519480
950.000000	10.570606
951.000000	10.620591
952.000000	10.669906
953.000000	10.719763
954.000000	10.770271
955.000000	10.819751
956.000000	10.868766
957.000000	10.918346
958.000000	10.968371
959.000000	11.017806
960.000000	11.067711
961.000000	11.117211
962.000000	11.166440
963.000000	11.215380
964.000000	11.264094
965.000000	11.312789
966.000000	11.361374
967.000000	11.409977
968.000000	11.458849
969.000000	11.507011
970.000000	11.555566
971.000000	11.604157
972.000000	11.653086
973.000000	11.701677
974.000000	11.750831
975.000000	11.800729
976.000000	11.850217
977.000000	11.899083
978.000000	11.947620
979.000000	11.996054
980.000000	12.043991
981.000000	12.092269
982.000000	12.140034
983.000000	12.187529
984.000000	12.234771
985.000000	12.282043
986.000000	12.329469
987.000000	12.377723
988.000000	12.425320
989.000000	12.471394
990.000000	12.518126
991.000000	12.565511
992.000000	12.611977
993.000000	12.658331
994.000000	12.704566
995.000000	12.750080
996.000000	12.795920
997.000000	12.842106
998.000000	12.888543
999.000000	12.934726
1000.000000	12.981157
1001.000000	13.028217
1002.000000	13.073931
1003.000000	13.119451
1004.000000	13.165320
1005.000000	13.210551
1006.000000	13.255780
1007.000000	13.300029
1008.000000	13.343883
1009.000000	13.387309
1010.000000	13.430060
1011.000000	13.473491
1012.000000	13.517414
1013.000000	13.561443
1014.000000	13.605183
1015.000000	13.649231
1016.000000	13.692974
1017.000000	13.735969
1018.000000	13.779260
1019.000000	13.822714
1020.000000	13.865943
1021.000000	13.909160
1022.000000	13.952214
1023.000000	13.995791
1024.000000	14.040031
1025.000000	14.083897
1026.000000	14.127631
1027.000000	14.171637
1028.000000	14.215743
1029.000000	14.259754
1030.000000	14.304434
1031.000000	14.349080
1032.000000	14.393320
1033.000000	14.437109
1034.000000	14.481051
1035.000000	14.524689
1036.000000	14.567860
1037.000000	14.611574
1038.000000	14.655531
1039.000000	14.699057
1040.000000	14.742611
1041.000000	14.785811
1042.000000	14.829300
1043.000000	14.873006
1044.000000	14.916589
1045.000000	14.960097
1046.000000	15.003531
1047.000000	15.046803
1048.000000	15.090091
1049.000000	15.133106
1050.000000	15.176291
1051.000000	15.220197
1052.000000	15.264023
1053.000000	15.307226
1054.000000	15.349760
1055.000000	15.392574
1056.000000	15.435543
1057.000000	15.477997
1058.000000	15.520246
1059.000000	15.562777
1060.000000	15.604994
1061.000000	15.646369
1062.000000	15.687503
1063.000000	15.729543
1064.000000	15.771097
1065.000000	15.811894
1066.000000	15.852526
1067.000000	15.893523
1068.000000	15.934563
1069.000000	15.975329
1070.000000	16.015494
1071.000000	16.055889
1072.000000	16.096331
1073.000000	16.136831
1074.000000	16.177091
1075.000000	16.217023
1076.000000	16.257011
1077.000000	16.296957
1078.000000	16.337609
1079.000000	16.378646
1080.000000	16.419811
1081.000000	16.460331
1082.000000	16.500466
1083.000000	16.540706
1084.000000	16.580746
1085.000000	16.620320
1086.000000	16.659163
1087.000000	16.698220
1088.000000	16.737609
1089.000000	16.776663
1090.000000	16.814957
1091.000000	16.853117
1092.000000	16.891660
1093.000000	16.929731
1094.000000	16.967049
1095.000000	17.003831
1096.000000	17.041169
1097.000000	17.078329
1098.000000	17.114440
1099.000000	17.150346
1100.000000	17.186669
1101.000000	17.222863
1102.000000	17.258414
1103.000000	17.293440
1104.000000	17.328331
1105.000000	17.363483
1106.000000	17.398074
1107.000000	17.432291
1108.000000	17.466134
1109.000000	17.499791
1110.000000	17.533223
1111.000000	17.566346
1112.000000	17.598866
1113.000000	17.630509
1114.000000	17.661714
1115.000000	17.691871
1116.000000	17.722223
1117.000000	17.752737
1118.000000	17.782186
1119.000000	17.811811
1120.000000	17.840674
1121.000000	17.868846
1122.000000	17.896606
1123.000000	17.923851
1124.000000	17.950920
1125.000000	17.977911
1126.000000	18.003160
1127.000000	18.028106
1128.000000	18.053174
1129.000000	18.077694
1130.000000	18.101203
1131.000000	18.122960
1132.000000	18.143351
1133.000000	18.162266
1134.000000	18.181480
1135.000000	18.199329
1136.000000	18.217574
1137.000000	18.233643
1138.000000	18.248100
1139.000000	18.261663
1140.000000	18.273463
1141.000000	18.284486
1142.000000	18.295037
1143.000000	18.304537
1144.000000	18.314249
1145.000000	18.323286
1146.000000	18.331860
1147.000000	18.339886
1148.000000	18.347514
1149.000000	18.354211
1150.000000	18.360466
1151.000000	18.366154
1152.000000	18.370023
1153.000000	18.373849
1154.000000	18.375789
1155.000000	18.377203
1156.000000	18.377897
1157.000000	18.377511
1158.000000	18.375377
1159.000000	18.372534
1160.000000	18.367937
1161.000000	18.363509
1162.000000	18.357320
1163.000000	18.349251
1164.000000	18.339703
1165.000000	18.329323
1166.000000	18.318986
1167.000000	18.308580
1168.000000	18.297469
1169.000000	18.284640
1170.000000	18.271051
1171.000000	18.255557
1172.000000	18.241780
1173.000000	18.228277
1174.000000	18.214383
1175.000000	18.201000
1176.000000	18.187729
1177.000000	18.174003
1178.000000	18.160654
1179.000000	18.146423
1180.000000	18.132454
1181.000000	18.117937
1182.000000	18.103894
1183.000000	18.089503
1184.000000	18.074514
1185.000000	18.060054
1186.000000	18.046357
1187.000000	18.033637
1188.000000	18.021469
1189.000000	18.011069
1190.000000	18.001937
1191.000000	17.994354
1192.000000	17.988203
1193.000000	17.985183
1194.000000	17.982880
1195.000000	17.982083
1196.000000	17.982371
1197.000000	17.984877
