PE UV       SUBTECH     SPECTRUM    ASCII       PEDS        4.00        
   -1
ANGSOL0012-3.Sample.ASC
24/03/07
14:04:49.00
24/03/07
14:04:49.00
Vinicio Soto Monge
Chrysina kalinini. ASolis000517. Costa Rica. Los Gigantes del Bosque, Altamira, 1400 m, 26-Nov-2019. A. Solis. 9.03075 -83.0053. A. Soolis 000517. 
250,000000
1
Lambda 1050
1050L1511233
PerkinElmer UV WinLab 6.3.2.0749 / 2.02.05 Lambda 900 UV/VIS/NIR, Aug  7 2015 09:38:08

0
0
3350/servo 860,8/2
0
0
UV/VIS
1
1
1
DoubleDePol,CommonBeamDepol,RBeamAtt,SBeamAtt,60mm sphere, WB InGaAs Detector
0
0
0
0
Program
Program
3350/servo 860,8/2
3350/0,2 860,8/0,2
3350/0,2 860,8/0,2
0
15.00
 
 
 
0
 
860,8
319,2
860,8
Front
100
on
S:100 R:100
0
0
0
0
 
0
 
 
 
0
 
 
0
0
0
0
0
 
 
 
 
0
0


0
0
#HDR
-1
-1
#GR
nm
%R
1.0
0.0
2500,000000
-1,000000
2251
8
22,935600
1,743800
#DATA
250.000000	nan
251.000000	nan
252.000000	nan
253.000000	nan
254.000000	nan
255.000000	nan
256.000000	nan
257.000000	nan
258.000000	nan
259.000000	nan
260.000000	nan
261.000000	nan
262.000000	nan
263.000000	nan
264.000000	nan
265.000000	nan
266.000000	nan
267.000000	nan
268.000000	nan
269.000000	nan
270.000000	nan
271.000000	nan
272.000000	nan
273.000000	nan
274.000000	nan
275.000000	nan
276.000000	nan
277.000000	nan
278.000000	nan
279.000000	nan
280.000000	nan
281.000000	nan
282.000000	nan
283.000000	nan
284.000000	1.937654
285.000000	1.933014
286.000000	1.929038
287.000000	1.924717
288.000000	1.919708
289.000000	1.916159
290.000000	1.912273
291.000000	1.907551
292.000000	1.903409
293.000000	1.899553
294.000000	1.894904
295.000000	1.890800
296.000000	1.887410
297.000000	1.884286
298.000000	1.881233
299.000000	1.878869
300.000000	1.877964
301.000000	1.875495
302.000000	1.873127
303.000000	1.870121
304.000000	1.868006
305.000000	1.866313
306.000000	1.864240
307.000000	1.862666
308.000000	1.860916
309.000000	1.859118
310.000000	1.857639
311.000000	1.856055
312.000000	1.856088
313.000000	1.856629
314.000000	1.857569
315.000000	1.857467
316.000000	1.858584
317.000000	1.874028
318.000000	1.894267
319.000000	1.910990
320.000000	1.924607
321.000000	1.938563
322.000000	1.951734
323.000000	1.960766
324.000000	1.976274
325.000000	1.991245
326.000000	2.002147
327.000000	2.010888
328.000000	2.019280
329.000000	2.031001
330.000000	2.037982
331.000000	2.046981
332.000000	2.055519
333.000000	2.062187
334.000000	2.068751
335.000000	2.072185
336.000000	2.079038
337.000000	2.086490
338.000000	2.093670
339.000000	2.100728
340.000000	2.105378
341.000000	2.110948
342.000000	2.114916
343.000000	2.118047
344.000000	2.122046
345.000000	2.127635
346.000000	2.134770
347.000000	2.140701
348.000000	2.145223
349.000000	2.150400
350.000000	2.156498
351.000000	2.161168
352.000000	2.149730
353.000000	2.133257
354.000000	2.121773
355.000000	2.113761
356.000000	2.103380
357.000000	2.094871
358.000000	2.091573
359.000000	2.082094
360.000000	2.072565
361.000000	2.069049
362.000000	2.066138
363.000000	2.063518
364.000000	2.057193
365.000000	2.055850
366.000000	2.052140
367.000000	2.049338
368.000000	2.048424
369.000000	2.047267
370.000000	2.047407
371.000000	2.044660
372.000000	2.042092
373.000000	2.039117
374.000000	2.034449
375.000000	2.034802
376.000000	2.038329
377.000000	2.039736
378.000000	2.043866
379.000000	2.047166
380.000000	2.050855
381.000000	2.054084
382.000000	2.058622
383.000000	2.065520
384.000000	2.072623
385.000000	2.081346
386.000000	2.091948
387.000000	2.105455
388.000000	2.120338
389.000000	2.137122
390.000000	2.155101
391.000000	2.177081
392.000000	2.200205
393.000000	2.225260
394.000000	2.251887
395.000000	2.280863
396.000000	2.311031
397.000000	2.344049
398.000000	2.379756
399.000000	2.418818
400.000000	2.459937
401.000000	2.503951
402.000000	2.550365
403.000000	2.598383
404.000000	2.648880
405.000000	2.702624
406.000000	2.759415
407.000000	2.817610
408.000000	2.879682
409.000000	2.944615
410.000000	3.009047
411.000000	3.072080
412.000000	3.140277
413.000000	3.209444
414.000000	3.279502
415.000000	3.350455
416.000000	3.422105
417.000000	3.494252
418.000000	3.566864
419.000000	3.639367
420.000000	3.712038
421.000000	3.784530
422.000000	3.856642
423.000000	3.928572
424.000000	3.999818
425.000000	4.070389
426.000000	4.140169
427.000000	4.208722
428.000000	4.276007
429.000000	4.341632
430.000000	4.405637
431.000000	4.467838
432.000000	4.528228
433.000000	4.586933
434.000000	4.643562
435.000000	4.697986
436.000000	4.750087
437.000000	4.799796
438.000000	4.847024
439.000000	4.891609
440.000000	4.933566
441.000000	4.972594
442.000000	5.008668
443.000000	5.041458
444.000000	5.071403
445.000000	5.098469
446.000000	5.122569
447.000000	5.143659
448.000000	5.161700
449.000000	5.177095
450.000000	5.189577
451.000000	5.198939
452.000000	5.205617
453.000000	5.209905
454.000000	5.212214
455.000000	5.212543
456.000000	5.211126
457.000000	5.208538
458.000000	5.204866
459.000000	5.200385
460.000000	5.195754
461.000000	5.191389
462.000000	5.187486
463.000000	5.184358
464.000000	5.182520
465.000000	5.182317
466.000000	5.184186
467.000000	5.188089
468.000000	5.194087
469.000000	5.202669
470.000000	5.214081
471.000000	5.228321
472.000000	5.245501
473.000000	5.265651
474.000000	5.288804
475.000000	5.315016
476.000000	5.344056
477.000000	5.375926
478.000000	5.410886
479.000000	5.448571
480.000000	5.488465
481.000000	5.529972
482.000000	5.573115
483.000000	5.618225
484.000000	5.665361
485.000000	5.714583
486.000000	5.765767
487.000000	5.818713
488.000000	5.873112
489.000000	5.928625
490.000000	5.984912
491.000000	6.041978
492.000000	6.099805
493.000000	6.158146
494.000000	6.216923
495.000000	6.275942
496.000000	6.335061
497.000000	6.394574
498.000000	6.454458
499.000000	6.514720
500.000000	6.575842
501.000000	6.637848
502.000000	6.701356
503.000000	6.766607
504.000000	6.833731
505.000000	6.903274
506.000000	6.975567
507.000000	7.050988
508.000000	7.129945
509.000000	7.212647
510.000000	7.299062
511.000000	7.389851
512.000000	7.485138
513.000000	7.584945
514.000000	7.689306
515.000000	7.798284
516.000000	7.912411
517.000000	8.031636
518.000000	8.155455
519.000000	8.283238
520.000000	8.415405
521.000000	8.551686
522.000000	8.692054
523.000000	8.836455
524.000000	8.984980
525.000000	9.137767
526.000000	9.294629
527.000000	9.454966
528.000000	9.618602
529.000000	9.785457
530.000000	9.955392
531.000000	10.127707
532.000000	10.301982
533.000000	10.477717
534.000000	10.654800
535.000000	10.831997
536.000000	11.008699
537.000000	11.184272
538.000000	11.358525
539.000000	11.531089
540.000000	11.701090
541.000000	11.867861
542.000000	12.031053
543.000000	12.190552
544.000000	12.346123
545.000000	12.497883
546.000000	12.645475
547.000000	12.788870
548.000000	12.927976
549.000000	13.062667
550.000000	13.193654
551.000000	13.320729
552.000000	13.443764
553.000000	13.563189
554.000000	13.679428
555.000000	13.792005
556.000000	13.901703
557.000000	14.008190
558.000000	14.111534
559.000000	14.211572
560.000000	14.297554
561.000000	14.378410
562.000000	14.455485
563.000000	14.528974
564.000000	14.598616
565.000000	14.664949
566.000000	14.728606
567.000000	14.789236
568.000000	14.847216
569.000000	14.902003
570.000000	14.954028
571.000000	15.003030
572.000000	15.049313
573.000000	15.092630
574.000000	15.133420
575.000000	15.171510
576.000000	15.207716
577.000000	15.241800
578.000000	15.273770
579.000000	15.302872
580.000000	15.329116
581.000000	15.352315
582.000000	15.372122
583.000000	15.388360
584.000000	15.401045
585.000000	15.410152
586.000000	15.416216
587.000000	15.418853
588.000000	15.417932
589.000000	15.412986
590.000000	15.404344
591.000000	15.391006
592.000000	15.372992
593.000000	15.349907
594.000000	15.321993
595.000000	15.300216
596.000000	15.275806
597.000000	15.247282
598.000000	15.215124
599.000000	15.179409
600.000000	15.139533
601.000000	15.095475
602.000000	15.047575
603.000000	14.995902
604.000000	14.940448
605.000000	14.881981
606.000000	14.820897
607.000000	14.757653
608.000000	14.692380
609.000000	14.624174
610.000000	14.554076
611.000000	14.481055
612.000000	14.405617
613.000000	14.327634
614.000000	14.247944
615.000000	14.166908
616.000000	14.085359
617.000000	14.003968
618.000000	13.923123
619.000000	13.843306
620.000000	13.764669
621.000000	13.687947
622.000000	13.614042
623.000000	13.543519
624.000000	13.477268
625.000000	13.416010
626.000000	13.360295
627.000000	13.311322
628.000000	13.269622
629.000000	13.235339
630.000000	13.208758
631.000000	13.189281
632.000000	13.177040
633.000000	13.171884
634.000000	13.173079
635.000000	13.180347
636.000000	13.193002
637.000000	13.211206
638.000000	13.234018
639.000000	13.261341
640.000000	13.292666
641.000000	13.327471
642.000000	13.364633
643.000000	13.403817
644.000000	13.445467
645.000000	13.489138
646.000000	13.534608
647.000000	13.581678
648.000000	13.630789
649.000000	13.681660
650.000000	13.733510
651.000000	13.785940
652.000000	13.838416
653.000000	13.890817
654.000000	13.942765
655.000000	13.994396
656.000000	14.044418
657.000000	14.092825
658.000000	14.139456
659.000000	14.183565
660.000000	14.224532
661.000000	14.262240
662.000000	14.296800
663.000000	14.328367
664.000000	14.357117
665.000000	14.382991
666.000000	14.407291
667.000000	14.430501
668.000000	14.452664
669.000000	14.474576
670.000000	14.497142
671.000000	14.521070
672.000000	14.546095
673.000000	14.573297
674.000000	14.603213
675.000000	14.635311
676.000000	14.670243
677.000000	14.708302
678.000000	14.749219
679.000000	14.792890
680.000000	14.839173
681.000000	14.888771
682.000000	14.941899
683.000000	14.997581
684.000000	15.056017
685.000000	15.117432
686.000000	15.182037
687.000000	15.250128
688.000000	15.321906
689.000000	15.397904
690.000000	15.477835
691.000000	15.562780
692.000000	15.652997
693.000000	15.747804
694.000000	15.847274
695.000000	15.951460
696.000000	16.061205
697.000000	16.175581
698.000000	16.294226
699.000000	16.416681
700.000000	16.543158
701.000000	16.672803
702.000000	16.805294
703.000000	16.940075
704.000000	17.076434
705.000000	17.213375
706.000000	17.351233
707.000000	17.489901
708.000000	17.628866
709.000000	17.767505
710.000000	17.906087
711.000000	18.044477
712.000000	18.182983
713.000000	18.321526
714.000000	18.459815
715.000000	18.598272
716.000000	18.736882
717.000000	18.874180
718.000000	19.010811
719.000000	19.147267
720.000000	19.283088
721.000000	19.417913
722.000000	19.551098
723.000000	19.681917
724.000000	19.810254
725.000000	19.935994
726.000000	20.058387
727.000000	20.176844
728.000000	20.291368
729.000000	20.402303
730.000000	20.509567
731.000000	20.612074
732.000000	20.710157
733.000000	20.804403
734.000000	20.894861
735.000000	20.980894
736.000000	21.062507
737.000000	21.140018
738.000000	21.213447
739.000000	21.283655
740.000000	21.350614
741.000000	21.414067
742.000000	21.474652
743.000000	21.532765
744.000000	21.588751
745.000000	21.642358
746.000000	21.693871
747.000000	21.743106
748.000000	21.790546
749.000000	21.836177
750.000000	21.879876
751.000000	21.921623
752.000000	21.962009
753.000000	22.001734
754.000000	22.040483
755.000000	22.078163
756.000000	22.114730
757.000000	22.151185
758.000000	22.187638
759.000000	22.224040
760.000000	22.260424
761.000000	22.296942
762.000000	22.333759
763.000000	22.371324
764.000000	22.409580
765.000000	22.447517
766.000000	22.485808
767.000000	22.524655
768.000000	22.563205
769.000000	22.601334
770.000000	22.639726
771.000000	22.678227
772.000000	22.715782
773.000000	22.752624
774.000000	22.788882
775.000000	22.825459
776.000000	22.861504
777.000000	22.896324
778.000000	22.930271
779.000000	22.962978
780.000000	22.994684
781.000000	23.024951
782.000000	23.053573
783.000000	23.081204
784.000000	23.108274
785.000000	23.135640
786.000000	23.161724
787.000000	23.186678
788.000000	23.211154
789.000000	23.234098
790.000000	23.256359
791.000000	23.276807
792.000000	23.296233
793.000000	23.315363
794.000000	23.332621
795.000000	23.348212
796.000000	23.362195
797.000000	23.374469
798.000000	23.384237
799.000000	23.390402
800.000000	23.395538
801.000000	23.398862
802.000000	23.399340
803.000000	23.396091
804.000000	23.390814
805.000000	23.382391
806.000000	23.370119
807.000000	23.355370
808.000000	23.339311
809.000000	23.320661
810.000000	23.298016
811.000000	23.273138
812.000000	23.245362
813.000000	23.213444
814.000000	23.177075
815.000000	23.136716
816.000000	23.092923
817.000000	23.046320
818.000000	22.996528
819.000000	22.942616
820.000000	22.882513
821.000000	22.817492
822.000000	22.749649
823.000000	22.676153
824.000000	22.598362
825.000000	22.515226
826.000000	22.429309
827.000000	22.339392
828.000000	22.245780
829.000000	22.149330
830.000000	22.049283
831.000000	21.946158
832.000000	21.839733
833.000000	21.730325
834.000000	21.621122
835.000000	21.509690
836.000000	21.395471
837.000000	21.280346
838.000000	21.166210
839.000000	21.051920
840.000000	20.935961
841.000000	20.821518
842.000000	20.704974
843.000000	20.587906
844.000000	20.472635
845.000000	20.359896
846.000000	20.245736
847.000000	20.128682
848.000000	20.013222
849.000000	19.900967
850.000000	19.788811
851.000000	19.682986
852.000000	19.579156
853.000000	19.471035
854.000000	19.366923
855.000000	19.261786
856.000000	19.166597
857.000000	19.081855
858.000000	19.031657
859.000000	18.967648
860.000000	18.909114
861.000000	18.854708
862.000000	18.804560
863.000000	18.757956
864.000000	18.715926
865.000000	18.678514
866.000000	18.644633
867.000000	18.614368
868.000000	18.588282
869.000000	18.564330
870.000000	18.542592
871.000000	18.524493
872.000000	18.508237
873.000000	18.494464
874.000000	18.481477
875.000000	18.471719
876.000000	18.463320
877.000000	18.458754
878.000000	18.455730
879.000000	18.453190
880.000000	18.451144
881.000000	18.451862
882.000000	18.458263
883.000000	18.466541
884.000000	18.475926
885.000000	18.489032
886.000000	18.499127
887.000000	18.510290
888.000000	18.528699
889.000000	18.546603
890.000000	18.570566
891.000000	18.589884
892.000000	18.601965
893.000000	18.584712
894.000000	18.585125
895.000000	18.584991
896.000000	18.585299
897.000000	18.585413
898.000000	18.584674
899.000000	18.583450
900.000000	18.581950
901.000000	18.580872
902.000000	18.579824
903.000000	18.578950
904.000000	18.578056
905.000000	18.577704
906.000000	18.577344
907.000000	18.577279
908.000000	18.577052
909.000000	18.577542
910.000000	18.578354
911.000000	18.578943
912.000000	18.580330
913.000000	18.581052
914.000000	18.581587
915.000000	18.582209
916.000000	18.582723
917.000000	18.583310
918.000000	18.583348
919.000000	18.583185
920.000000	18.582942
921.000000	18.582948
922.000000	18.583085
923.000000	18.582726
924.000000	18.582478
925.000000	18.581815
926.000000	18.580887
927.000000	18.579369
928.000000	18.577335
929.000000	18.575645
930.000000	18.573601
931.000000	18.570471
932.000000	18.566825
933.000000	18.563591
934.000000	18.559583
935.000000	18.555453
936.000000	18.550898
937.000000	18.545613
938.000000	18.539849
939.000000	18.533359
940.000000	18.525952
941.000000	18.518005
942.000000	18.509042
943.000000	18.498825
944.000000	18.487975
945.000000	18.476615
946.000000	18.465000
947.000000	18.452777
948.000000	18.440736
949.000000	18.427573
950.000000	18.413868
951.000000	18.400088
952.000000	18.385484
953.000000	18.370436
954.000000	18.355575
955.000000	18.339685
956.000000	18.323468
957.000000	18.306737
958.000000	18.289754
959.000000	18.272419
960.000000	18.254681
961.000000	18.236669
962.000000	18.219044
963.000000	18.201276
964.000000	18.182956
965.000000	18.164733
966.000000	18.146389
967.000000	18.128024
968.000000	18.109194
969.000000	18.090206
970.000000	18.070545
971.000000	18.050385
972.000000	18.030555
973.000000	18.010691
974.000000	17.990721
975.000000	17.971275
976.000000	17.951789
977.000000	17.933185
978.000000	17.915110
979.000000	17.896779
980.000000	17.877911
981.000000	17.858685
982.000000	17.839007
983.000000	17.819102
984.000000	17.799468
985.000000	17.779566
986.000000	17.759593
987.000000	17.739335
988.000000	17.719225
989.000000	17.698475
990.000000	17.678230
991.000000	17.657727
992.000000	17.636774
993.000000	17.615791
994.000000	17.595023
995.000000	17.574535
996.000000	17.553942
997.000000	17.533159
998.000000	17.511888
999.000000	17.490850
1000.000000	17.470069
1001.000000	17.449601
1002.000000	17.429149
1003.000000	17.408830
1004.000000	17.388741
1005.000000	17.368958
1006.000000	17.349262
1007.000000	17.329890
1008.000000	17.310403
1009.000000	17.291201
1010.000000	17.271779
1011.000000	17.252815
1012.000000	17.234221
1013.000000	17.215601
1014.000000	17.197268
1015.000000	17.179583
1016.000000	17.162750
1017.000000	17.146360
1018.000000	17.130116
1019.000000	17.114271
1020.000000	17.098971
1021.000000	17.084232
1022.000000	17.070003
1023.000000	17.055830
1024.000000	17.042035
1025.000000	17.028857
1026.000000	17.016040
1027.000000	17.004047
1028.000000	16.992551
1029.000000	16.981281
1030.000000	16.970294
1031.000000	16.959483
1032.000000	16.949062
1033.000000	16.939498
1034.000000	16.930430
1035.000000	16.921460
1036.000000	16.912830
1037.000000	16.904737
1038.000000	16.897118
1039.000000	16.889807
1040.000000	16.882728
1041.000000	16.876105
1042.000000	16.870077
1043.000000	16.864356
1044.000000	16.858761
1045.000000	16.853930
1046.000000	16.849254
1047.000000	16.844501
1048.000000	16.840028
1049.000000	16.835971
1050.000000	16.832378
1051.000000	16.828461
1052.000000	16.824828
1053.000000	16.821776
1054.000000	16.818992
1055.000000	16.816305
1056.000000	16.813751
1057.000000	16.811530
1058.000000	16.810048
1059.000000	16.808887
1060.000000	16.807906
1061.000000	16.807184
1062.000000	16.806513
1063.000000	16.806362
1064.000000	16.806910
1065.000000	16.807679
1066.000000	16.808897
1067.000000	16.810556
1068.000000	16.812732
1069.000000	16.815412
1070.000000	16.818625
1071.000000	16.822152
1072.000000	16.825888
1073.000000	16.830163
1074.000000	16.834949
1075.000000	16.840193
1076.000000	16.845750
1077.000000	16.851290
1078.000000	16.857048
1079.000000	16.863136
1080.000000	16.869084
1081.000000	16.875175
1082.000000	16.881571
1083.000000	16.887830
1084.000000	16.894122
1085.000000	16.900394
1086.000000	16.907240
1087.000000	16.914089
1088.000000	16.920959
1089.000000	16.927982
1090.000000	16.934940
1091.000000	16.941974
1092.000000	16.949166
1093.000000	16.956145
1094.000000	16.963123
1095.000000	16.970393
1096.000000	16.977800
1097.000000	16.985408
1098.000000	16.992949
1099.000000	17.000092
1100.000000	17.007095
1101.000000	17.014117
1102.000000	17.021138
1103.000000	17.027801
1104.000000	17.034062
1105.000000	17.040325
1106.000000	17.046490
1107.000000	17.052770
1108.000000	17.058968
1109.000000	17.064984
1110.000000	17.070817
1111.000000	17.076110
1112.000000	17.081100
1113.000000	17.086215
1114.000000	17.091493
1115.000000	17.097094
1116.000000	17.102878
1117.000000	17.108462
1118.000000	17.114370
1119.000000	17.120532
1120.000000	17.126230
1121.000000	17.131593
1122.000000	17.137273
1123.000000	17.142503
1124.000000	17.147774
1125.000000	17.153064
1126.000000	17.157848
1127.000000	17.161910
1128.000000	17.165762
1129.000000	17.169634
1130.000000	17.172573
1131.000000	17.174807
1132.000000	17.175745
1133.000000	17.175744
1134.000000	17.175427
1135.000000	17.175699
1136.000000	17.175746
1137.000000	17.174641
1138.000000	17.172919
1139.000000	17.170388
1140.000000	17.167598
1141.000000	17.164160
1142.000000	17.159932
1143.000000	17.154963
1144.000000	17.149758
1145.000000	17.144507
1146.000000	17.139610
1147.000000	17.134626
1148.000000	17.129097
1149.000000	17.123308
1150.000000	17.116670
1151.000000	17.109992
1152.000000	17.102720
1153.000000	17.095281
1154.000000	17.087758
1155.000000	17.080484
1156.000000	17.072445
1157.000000	17.063158
1158.000000	17.053494
1159.000000	17.043214
1160.000000	17.032063
1161.000000	17.020333
1162.000000	17.008730
1163.000000	16.996023
1164.000000	16.981818
1165.000000	16.967924
1166.000000	16.953822
1167.000000	16.939702
1168.000000	16.925745
1169.000000	16.911390
1170.000000	16.895990
1171.000000	16.879894
1172.000000	16.864276
1173.000000	16.848798
1174.000000	16.833636
