PE UV       SUBTECH     SPECTRUM    ASCII       PEDS        4.00        
   -1
ANGSOL0009-1.Sample.ASC
24/03/07
16:38:04.00
24/03/07
16:38:04.00
Vinicio Soto Monge
Chrysina adelaida. Coleccion del instituto de biologia, UNAM. Mexico, D.F. Mexico Queretaro Pinal de Amoles Desv. a Mision de Bucareli. 2250 msnm 27-IV-1998. N 21 6 36, O 99 59 25. E. Barrera C. Mayorga. 
250,000000
1
Lambda 1050
1050L1511233
PerkinElmer UV WinLab 6.3.2.0749 / 2.02.05 Lambda 900 UV/VIS/NIR, Aug  7 2015 09:38:08

0
0
3350/servo 860,8/2
0
0
UV/VIS
1
1
1
DoubleDePol,CommonBeamDepol,RBeamAtt,SBeamAtt,60mm sphere, WB InGaAs Detector
0
0
0
0
Program
Program
3350/servo 860,8/2
3350/0,2 860,8/0,2
3350/0,2 860,8/0,2
0
15.00
 
 
 
0
 
860,8
319,2
860,8
Front
100
on
S:100 R:100
0
0
0
0
 
0
 
 
 
0
 
 
0
0
0
0
0
 
 
 
 
0
0


0
0
#HDR
-1
-1
#GR
nm
%R
1.0
0.0
2500,000000
-1,000000
2251
8
19,232200
1,456000
#DATA
250.000000	nan
251.000000	nan
252.000000	nan
253.000000	nan
254.000000	nan
255.000000	nan
256.000000	nan
257.000000	nan
258.000000	nan
259.000000	nan
260.000000	nan
261.000000	nan
262.000000	nan
263.000000	nan
264.000000	nan
265.000000	nan
266.000000	nan
267.000000	nan
268.000000	nan
269.000000	nan
270.000000	nan
271.000000	nan
272.000000	nan
273.000000	nan
274.000000	nan
275.000000	nan
276.000000	nan
277.000000	nan
278.000000	nan
279.000000	nan
280.000000	nan
281.000000	nan
282.000000	nan
283.000000	nan
284.000000	1.776279
285.000000	1.773346
286.000000	1.769004
287.000000	1.766357
288.000000	1.763371
289.000000	1.761061
290.000000	1.757740
291.000000	1.754866
292.000000	1.752082
293.000000	1.749937
294.000000	1.747364
295.000000	1.746020
296.000000	1.743187
297.000000	1.742072
298.000000	1.741663
299.000000	1.740980
300.000000	1.738385
301.000000	1.737240
302.000000	1.734552
303.000000	1.733332
304.000000	1.731290
305.000000	1.731982
306.000000	1.731066
307.000000	1.730781
308.000000	1.730989
309.000000	1.730418
310.000000	1.730424
311.000000	1.729148
312.000000	1.729725
313.000000	1.728065
314.000000	1.730259
315.000000	1.730747
316.000000	1.733236
317.000000	1.747097
318.000000	1.750074
319.000000	1.760453
320.000000	1.758842
321.000000	1.763476
322.000000	1.773380
323.000000	1.778793
324.000000	1.785150
325.000000	1.788251
326.000000	1.794111
327.000000	1.803469
328.000000	1.810803
329.000000	1.818867
330.000000	1.818780
331.000000	1.823141
332.000000	1.824050
333.000000	1.827290
334.000000	1.832852
335.000000	1.837728
336.000000	1.840696
337.000000	1.846379
338.000000	1.850392
339.000000	1.849920
340.000000	1.849836
341.000000	1.852962
342.000000	1.856084
343.000000	1.857965
344.000000	1.857602
345.000000	1.858499
346.000000	1.860749
347.000000	1.859157
348.000000	1.857081
349.000000	1.855997
350.000000	1.855920
351.000000	1.853493
352.000000	1.838923
353.000000	1.835289
354.000000	1.825158
355.000000	1.826831
356.000000	1.821660
357.000000	1.809332
358.000000	1.802419
359.000000	1.794418
360.000000	1.788480
361.000000	1.782369
362.000000	1.774131
363.000000	1.766347
364.000000	1.758730
365.000000	1.757206
366.000000	1.752867
367.000000	1.751557
368.000000	1.746781
369.000000	1.740365
370.000000	1.736510
371.000000	1.732081
372.000000	1.727950
373.000000	1.721963
374.000000	1.721655
375.000000	1.720979
376.000000	1.716727
377.000000	1.709026
378.000000	1.703067
379.000000	1.699448
380.000000	1.694066
381.000000	1.687964
382.000000	1.686849
383.000000	1.686859
384.000000	1.684801
385.000000	1.681945
386.000000	1.680906
387.000000	1.680868
388.000000	1.680065
389.000000	1.679925
390.000000	1.679267
391.000000	1.680421
392.000000	1.681828
393.000000	1.683305
394.000000	1.685782
395.000000	1.689969
396.000000	1.692123
397.000000	1.693535
398.000000	1.696499
399.000000	1.700093
400.000000	1.705205
401.000000	1.710535
402.000000	1.714821
403.000000	1.720970
404.000000	1.727211
405.000000	1.733816
406.000000	1.741886
407.000000	1.750332
408.000000	1.760375
409.000000	1.770357
410.000000	1.779194
411.000000	1.790237
412.000000	1.804530
413.000000	1.819180
414.000000	1.834376
415.000000	1.849920
416.000000	1.866041
417.000000	1.882041
418.000000	1.897933
419.000000	1.914001
420.000000	1.930091
421.000000	1.946467
422.000000	1.963091
423.000000	1.979759
424.000000	1.996150
425.000000	2.012677
426.000000	2.029339
427.000000	2.045981
428.000000	2.062487
429.000000	2.078987
430.000000	2.095400
431.000000	2.111720
432.000000	2.127981
433.000000	2.143925
434.000000	2.159618
435.000000	2.175401
436.000000	2.191140
437.000000	2.206476
438.000000	2.221325
439.000000	2.236086
440.000000	2.250637
441.000000	2.264601
442.000000	2.278155
443.000000	2.291700
444.000000	2.304870
445.000000	2.317434
446.000000	2.329905
447.000000	2.342252
448.000000	2.354242
449.000000	2.365769
450.000000	2.376561
451.000000	2.386919
452.000000	2.397313
453.000000	2.407277
454.000000	2.416914
455.000000	2.426235
456.000000	2.435115
457.000000	2.443650
458.000000	2.451968
459.000000	2.459942
460.000000	2.467642
461.000000	2.475185
462.000000	2.482410
463.000000	2.489301
464.000000	2.495906
465.000000	2.502473
466.000000	2.509091
467.000000	2.515565
468.000000	2.521853
469.000000	2.528235
470.000000	2.534433
471.000000	2.540517
472.000000	2.546712
473.000000	2.552864
474.000000	2.559108
475.000000	2.565372
476.000000	2.571629
477.000000	2.578085
478.000000	2.584532
479.000000	2.591537
480.000000	2.599023
481.000000	2.606438
482.000000	2.613934
483.000000	2.621867
484.000000	2.630605
485.000000	2.640261
486.000000	2.650727
487.000000	2.662034
488.000000	2.674480
489.000000	2.688037
490.000000	2.702619
491.000000	2.718417
492.000000	2.735504
493.000000	2.753841
494.000000	2.773463
495.000000	2.794442
496.000000	2.816718
497.000000	2.840326
498.000000	2.865594
499.000000	2.892308
500.000000	2.920699
501.000000	2.950632
502.000000	2.982185
503.000000	3.015641
504.000000	3.050916
505.000000	3.088105
506.000000	3.127098
507.000000	3.168118
508.000000	3.211212
509.000000	3.256297
510.000000	3.303081
511.000000	3.351600
512.000000	3.401825
513.000000	3.453858
514.000000	3.507228
515.000000	3.562066
516.000000	3.618393
517.000000	3.676385
518.000000	3.735425
519.000000	3.795214
520.000000	3.855834
521.000000	3.917212
522.000000	3.979208
523.000000	4.041681
524.000000	4.104697
525.000000	4.168192
526.000000	4.231749
527.000000	4.295131
528.000000	4.358421
529.000000	4.421888
530.000000	4.485208
531.000000	4.548535
532.000000	4.611850
533.000000	4.674606
534.000000	4.737153
535.000000	4.798894
536.000000	4.859937
537.000000	4.920219
538.000000	4.979738
539.000000	5.038111
540.000000	5.095298
541.000000	5.151322
542.000000	5.205946
543.000000	5.259223
544.000000	5.310628
545.000000	5.360466
546.000000	5.408599
547.000000	5.455293
548.000000	5.500112
549.000000	5.543000
550.000000	5.584244
551.000000	5.623907
552.000000	5.661873
553.000000	5.697713
554.000000	5.731709
555.000000	5.763889
556.000000	5.794241
557.000000	5.822579
558.000000	5.849008
559.000000	5.873177
560.000000	5.891104
561.000000	5.906484
562.000000	5.919914
563.000000	5.931562
564.000000	5.941234
565.000000	5.948770
566.000000	5.953897
567.000000	5.957166
568.000000	5.958531
569.000000	5.957833
570.000000	5.954850
571.000000	5.949890
572.000000	5.943255
573.000000	5.934465
574.000000	5.923840
575.000000	5.911360
576.000000	5.897182
577.000000	5.881635
578.000000	5.864499
579.000000	5.846037
580.000000	5.826489
581.000000	5.805949
582.000000	5.784017
583.000000	5.761207
584.000000	5.737448
585.000000	5.712816
586.000000	5.687153
587.000000	5.660417
588.000000	5.633371
589.000000	5.605800
590.000000	5.578337
591.000000	5.550301
592.000000	5.522292
593.000000	5.493703
594.000000	5.465036
595.000000	5.440904
596.000000	5.417383
597.000000	5.394232
598.000000	5.371081
599.000000	5.348038
600.000000	5.325511
601.000000	5.303697
602.000000	5.281918
603.000000	5.260579
604.000000	5.240091
605.000000	5.220425
606.000000	5.201706
607.000000	5.183297
608.000000	5.165854
609.000000	5.149553
610.000000	5.133944
611.000000	5.119223
612.000000	5.105305
613.000000	5.092188
614.000000	5.079975
615.000000	5.068069
616.000000	5.057056
617.000000	5.046435
618.000000	5.036758
619.000000	5.027859
620.000000	5.019929
621.000000	5.013411
622.000000	5.007852
623.000000	5.003286
624.000000	5.000027
625.000000	4.997358
626.000000	4.996293
627.000000	4.995967
628.000000	4.997075
629.000000	4.999534
630.000000	5.002712
631.000000	5.006868
632.000000	5.011794
633.000000	5.018104
634.000000	5.025180
635.000000	5.033340
636.000000	5.042403
637.000000	5.052311
638.000000	5.063289
639.000000	5.074761
640.000000	5.087114
641.000000	5.100109
642.000000	5.114502
643.000000	5.130101
644.000000	5.146024
645.000000	5.163026
646.000000	5.181050
647.000000	5.200002
648.000000	5.219767
649.000000	5.240392
650.000000	5.262811
651.000000	5.285959
652.000000	5.310749
653.000000	5.336293
654.000000	5.363265
655.000000	5.391317
656.000000	5.419835
657.000000	5.448446
658.000000	5.478246
659.000000	5.508781
660.000000	5.539949
661.000000	5.571099
662.000000	5.603124
663.000000	5.635826
664.000000	5.668763
665.000000	5.702511
666.000000	5.737001
667.000000	5.772772
668.000000	5.808453
669.000000	5.845100
670.000000	5.882224
671.000000	5.920255
672.000000	5.958910
673.000000	5.998353
674.000000	6.038361
675.000000	6.079344
676.000000	6.120668
677.000000	6.162154
678.000000	6.204089
679.000000	6.246760
680.000000	6.289720
681.000000	6.332860
682.000000	6.376425
683.000000	6.420666
684.000000	6.465305
685.000000	6.509764
686.000000	6.554688
687.000000	6.599663
688.000000	6.645223
689.000000	6.690424
690.000000	6.735591
691.000000	6.780860
692.000000	6.827823
693.000000	6.874827
694.000000	6.921744
695.000000	6.969000
696.000000	7.016354
697.000000	7.063802
698.000000	7.111520
699.000000	7.159725
700.000000	7.207766
701.000000	7.255655
702.000000	7.303279
703.000000	7.351618
704.000000	7.400196
705.000000	7.448513
706.000000	7.496249
707.000000	7.544194
708.000000	7.591595
709.000000	7.639235
710.000000	7.686947
711.000000	7.734702
712.000000	7.782265
713.000000	7.829908
714.000000	7.877344
715.000000	7.924959
716.000000	7.972453
717.000000	8.019116
718.000000	8.065453
719.000000	8.111793
720.000000	8.158151
721.000000	8.204267
722.000000	8.250322
723.000000	8.296304
724.000000	8.342803
725.000000	8.388512
726.000000	8.433707
727.000000	8.478395
728.000000	8.522488
729.000000	8.566391
730.000000	8.610053
731.000000	8.653540
732.000000	8.697136
733.000000	8.740325
734.000000	8.782972
735.000000	8.825245
736.000000	8.867674
737.000000	8.909570
738.000000	8.950881
739.000000	8.991789
740.000000	9.032784
741.000000	9.073727
742.000000	9.114141
743.000000	9.154637
744.000000	9.194359
745.000000	9.233514
746.000000	9.272898
747.000000	9.311773
748.000000	9.349661
749.000000	9.386960
750.000000	9.423712
751.000000	9.460864
752.000000	9.498662
753.000000	9.536069
754.000000	9.572561
755.000000	9.608549
756.000000	9.644594
757.000000	9.680524
758.000000	9.715870
759.000000	9.751008
760.000000	9.786435
761.000000	9.821554
762.000000	9.855069
763.000000	9.888882
764.000000	9.923204
765.000000	9.957513
766.000000	9.991553
767.000000	10.025204
768.000000	10.058114
769.000000	10.090474
770.000000	10.123126
771.000000	10.155511
772.000000	10.188247
773.000000	10.220818
774.000000	10.252635
775.000000	10.285359
776.000000	10.318365
777.000000	10.350545
778.000000	10.382415
779.000000	10.414819
780.000000	10.446906
781.000000	10.478971
782.000000	10.511133
783.000000	10.542838
784.000000	10.575285
785.000000	10.608130
786.000000	10.640195
787.000000	10.671007
788.000000	10.702209
789.000000	10.734063
790.000000	10.765623
791.000000	10.798017
792.000000	10.830014
793.000000	10.860615
794.000000	10.891225
795.000000	10.922886
796.000000	10.955520
797.000000	10.989379
798.000000	11.023971
799.000000	11.056285
800.000000	11.087475
801.000000	11.119956
802.000000	11.153449
803.000000	11.187017
804.000000	11.221026
805.000000	11.255093
806.000000	11.288769
807.000000	11.322830
808.000000	11.357068
809.000000	11.391815
810.000000	11.424790
811.000000	11.456781
812.000000	11.490063
813.000000	11.524696
814.000000	11.559796
815.000000	11.595316
816.000000	11.629294
817.000000	11.663457
818.000000	11.699219
819.000000	11.733591
820.000000	11.767339
821.000000	11.801201
822.000000	11.835687
823.000000	11.870494
824.000000	11.903825
825.000000	11.937697
826.000000	11.970622
827.000000	12.005729
828.000000	12.040833
829.000000	12.075022
830.000000	12.108804
831.000000	12.141071
832.000000	12.172655
833.000000	12.203659
834.000000	12.235814
835.000000	12.268268
836.000000	12.301761
837.000000	12.330924
838.000000	12.362254
839.000000	12.392976
840.000000	12.422465
841.000000	12.452413
842.000000	12.480444
843.000000	12.509579
844.000000	12.537563
845.000000	12.563045
846.000000	12.592485
847.000000	12.620981
848.000000	12.642925
849.000000	12.669931
850.000000	12.693542
851.000000	12.717258
852.000000	12.738891
853.000000	12.759851
854.000000	12.780653
855.000000	12.799170
856.000000	12.819925
857.000000	12.839805
858.000000	12.891881
859.000000	12.918441
860.000000	12.945782
861.000000	12.974029
862.000000	13.001042
863.000000	13.030146
864.000000	13.060391
865.000000	13.090613
866.000000	13.122326
867.000000	13.154907
868.000000	13.187132
869.000000	13.219694
870.000000	13.253224
871.000000	13.285590
872.000000	13.321224
873.000000	13.355101
874.000000	13.389574
875.000000	13.425902
876.000000	13.462002
877.000000	13.499413
878.000000	13.536173
879.000000	13.574074
880.000000	13.615067
881.000000	13.652691
882.000000	13.691597
883.000000	13.735836
884.000000	13.774984
885.000000	13.817314
886.000000	13.861540
887.000000	13.906936
888.000000	13.952404
889.000000	13.998468
890.000000	14.048354
891.000000	14.096641
892.000000	14.145734
893.000000	14.162143
894.000000	14.205526
895.000000	14.248720
896.000000	14.290849
897.000000	14.332677
898.000000	14.374029
899.000000	14.414223
900.000000	14.454626
901.000000	14.494409
902.000000	14.533809
903.000000	14.573069
904.000000	14.612594
905.000000	14.652306
906.000000	14.691569
907.000000	14.730866
908.000000	14.770689
909.000000	14.811271
910.000000	14.850469
911.000000	14.889949
912.000000	14.930317
913.000000	14.970094
914.000000	15.009103
915.000000	15.048297
916.000000	15.088034
917.000000	15.126829
918.000000	15.166323
919.000000	15.205991
920.000000	15.244511
921.000000	15.281649
922.000000	15.319940
923.000000	15.357806
924.000000	15.397143
925.000000	15.435031
926.000000	15.471180
927.000000	15.507891
928.000000	15.544591
929.000000	15.581143
930.000000	15.616234
931.000000	15.651866
932.000000	15.687029
933.000000	15.721037
934.000000	15.756089
935.000000	15.791640
936.000000	15.826737
937.000000	15.861591
938.000000	15.896794
939.000000	15.932031
940.000000	15.966226
941.000000	15.999563
942.000000	16.032089
943.000000	16.064103
944.000000	16.095223
945.000000	16.126883
946.000000	16.157860
947.000000	16.187811
948.000000	16.218097
949.000000	16.248186
950.000000	16.277906
951.000000	16.307683
952.000000	16.337580
953.000000	16.366534
954.000000	16.394234
955.000000	16.422674
956.000000	16.451954
957.000000	16.481337
958.000000	16.510011
959.000000	16.537420
960.000000	16.564880
961.000000	16.593583
962.000000	16.622066
963.000000	16.649617
964.000000	16.676943
965.000000	16.704597
966.000000	16.731220
967.000000	16.757031
968.000000	16.783543
969.000000	16.809777
970.000000	16.834243
971.000000	16.858669
972.000000	16.882803
973.000000	16.906917
974.000000	16.930786
975.000000	16.954066
976.000000	16.977406
977.000000	17.001477
978.000000	17.025646
979.000000	17.049931
980.000000	17.072660
981.000000	17.096003
982.000000	17.119054
983.000000	17.141249
984.000000	17.164471
985.000000	17.187357
986.000000	17.208766
987.000000	17.230043
988.000000	17.250994
989.000000	17.271380
990.000000	17.291480
991.000000	17.311274
992.000000	17.330977
993.000000	17.350674
994.000000	17.370229
995.000000	17.389214
996.000000	17.407551
997.000000	17.425783
998.000000	17.444106
999.000000	17.461600
1000.000000	17.478891
1001.000000	17.496703
1002.000000	17.515231
1003.000000	17.533183
1004.000000	17.550291
1005.000000	17.567426
1006.000000	17.585109
1007.000000	17.603006
1008.000000	17.619889
1009.000000	17.636020
1010.000000	17.652963
1011.000000	17.670354
1012.000000	17.686814
1013.000000	17.701974
1014.000000	17.716534
1015.000000	17.732126
1016.000000	17.747529
1017.000000	17.762726
1018.000000	17.777843
1019.000000	17.792626
1020.000000	17.807577
1021.000000	17.822534
1022.000000	17.837663
1023.000000	17.852871
1024.000000	17.868234
1025.000000	17.884109
1026.000000	17.899394
1027.000000	17.913869
1028.000000	17.929026
1029.000000	17.944617
1030.000000	17.960466
1031.000000	17.976483
1032.000000	17.992083
1033.000000	18.007954
1034.000000	18.024280
1035.000000	18.040840
1036.000000	18.056740
1037.000000	18.071831
1038.000000	18.087234
1039.000000	18.102803
1040.000000	18.118529
1041.000000	18.134009
1042.000000	18.149394
1043.000000	18.165243
1044.000000	18.180994
1045.000000	18.196194
1046.000000	18.210940
1047.000000	18.225926
1048.000000	18.241483
1049.000000	18.256954
1050.000000	18.272577
1051.000000	18.288060
1052.000000	18.303740
1053.000000	18.319537
1054.000000	18.335023
1055.000000	18.350426
1056.000000	18.365960
1057.000000	18.381240
1058.000000	18.396306
1059.000000	18.411929
1060.000000	18.427317
1061.000000	18.442437
1062.000000	18.457477
1063.000000	18.471931
1064.000000	18.485909
1065.000000	18.499829
1066.000000	18.513909
1067.000000	18.527711
1068.000000	18.541700
1069.000000	18.555940
1070.000000	18.570049
1071.000000	18.584546
1072.000000	18.599546
1073.000000	18.614486
1074.000000	18.629317
1075.000000	18.643323
1076.000000	18.658006
1077.000000	18.672580
1078.000000	18.686631
1079.000000	18.701600
1080.000000	18.716474
1081.000000	18.731091
1082.000000	18.746094
1083.000000	18.760851
1084.000000	18.775780
1085.000000	18.789874
1086.000000	18.803294
1087.000000	18.816526
1088.000000	18.830346
1089.000000	18.843871
1090.000000	18.856989
1091.000000	18.870374
1092.000000	18.883906
1093.000000	18.897611
1094.000000	18.910577
1095.000000	18.923234
1096.000000	18.936003
1097.000000	18.948983
1098.000000	18.961297
1099.000000	18.973100
1100.000000	18.984786
1101.000000	18.995997
1102.000000	19.007734
1103.000000	19.018729
1104.000000	19.028720
1105.000000	19.037914
1106.000000	19.047417
1107.000000	19.057026
1108.000000	19.065800
1109.000000	19.074474
1110.000000	19.083169
1111.000000	19.090891
1112.000000	19.098440
1113.000000	19.105517
1114.000000	19.111931
1115.000000	19.117917
1116.000000	19.123889
1117.000000	19.129414
1118.000000	19.135480
1119.000000	19.141471
1120.000000	19.147474
1121.000000	19.153269
1122.000000	19.158806
1123.000000	19.163343
1124.000000	19.168160
1125.000000	19.172071
1126.000000	19.175523
1127.000000	19.178297
1128.000000	19.180423
1129.000000	19.182580
1130.000000	19.183654
1131.000000	19.183640
1132.000000	19.181477
1133.000000	19.178229
1134.000000	19.175214
1135.000000	19.172494
1136.000000	19.169586
1137.000000	19.164914
1138.000000	19.159103
1139.000000	19.153609
1140.000000	19.147240
1141.000000	19.139174
1142.000000	19.129837
1143.000000	19.119934
1144.000000	19.109334
1145.000000	19.098574
1146.000000	19.087846
1147.000000	19.076883
1148.000000	19.065446
1149.000000	19.053331
1150.000000	19.041474
1151.000000	19.028811
1152.000000	19.015754
1153.000000	19.001794
1154.000000	18.986991
1155.000000	18.970974
1156.000000	18.954714
1157.000000	18.937649
1158.000000	18.918949
1159.000000	18.899389
1160.000000	18.879260
1161.000000	18.857717
1162.000000	18.835166
1163.000000	18.811940
1164.000000	18.786583
1165.000000	18.761171
1166.000000	18.735303
1167.000000	18.710494
1168.000000	18.687080
1169.000000	18.662583
1170.000000	18.636480
1171.000000	18.609789
1172.000000	18.583331
1173.000000	18.557794
1174.000000	18.530769
1175.000000	18.504974
1176.000000	18.478680
1177.000000	18.452709
1178.000000	18.427160
1179.000000	18.401380
1180.000000	18.375114
1181.000000	18.348423
1182.000000	18.321866
