PE UV       SUBTECH     SPECTRUM    ASCII       PEDS        4.00        
   -1
ANGSOL0013-3.Sample.ASC
24/03/07
14:17:16.00
24/03/07
14:17:16.00
Vinicio Soto Monge
Chrysina cupreomarginata. San Jose, Costa Rica. P.N. Braulio Carrillo. ET. Zurqui tunel. 1500 m. 20 setiembre 85. M Chavarria D.
250,000000
1
Lambda 1050
1050L1511233
PerkinElmer UV WinLab 6.3.2.0749 / 2.02.05 Lambda 900 UV/VIS/NIR, Aug  7 2015 09:38:08

0
0
3350/servo 860,8/2
0
0
UV/VIS
1
1
1
DoubleDePol,CommonBeamDepol,RBeamAtt,SBeamAtt,60mm sphere, WB InGaAs Detector
0
0
0
0
Program
Program
3350/servo 860,8/2
3350/0,2 860,8/0,2
3350/0,2 860,8/0,2
0
15.00
 
 
 
0
 
860,8
319,2
860,8
Front
100
on
S:100 R:100
0
0
0
0
 
0
 
 
 
0
 
 
0
0
0
0
0
 
 
 
 
0
0


0
0
#HDR
-1
-1
#GR
nm
%R
1.0
0.0
2500,000000
-1,000000
2251
8
19,827500
1,626300
#DATA
250.000000	nan
251.000000	nan
252.000000	nan
253.000000	nan
254.000000	nan
255.000000	nan
256.000000	nan
257.000000	nan
258.000000	nan
259.000000	nan
260.000000	nan
261.000000	nan
262.000000	nan
263.000000	nan
264.000000	nan
265.000000	nan
266.000000	nan
267.000000	nan
268.000000	nan
269.000000	nan
270.000000	nan
271.000000	nan
272.000000	nan
273.000000	nan
274.000000	nan
275.000000	nan
276.000000	nan
277.000000	nan
278.000000	nan
279.000000	nan
280.000000	nan
281.000000	nan
282.000000	nan
283.000000	nan
284.000000	2.076419
285.000000	2.072847
286.000000	2.068050
287.000000	2.065155
288.000000	2.060888
289.000000	2.058035
290.000000	2.055567
291.000000	2.051270
292.000000	2.047429
293.000000	2.044217
294.000000	2.041041
295.000000	2.036030
296.000000	2.032153
297.000000	2.026877
298.000000	2.023281
299.000000	2.019906
300.000000	2.016264
301.000000	2.012261
302.000000	2.008605
303.000000	2.004403
304.000000	2.002167
305.000000	1.999445
306.000000	1.997294
307.000000	1.994922
308.000000	1.993534
309.000000	1.990714
310.000000	1.989242
311.000000	1.986077
312.000000	1.985597
313.000000	1.982822
314.000000	1.980568
315.000000	1.978221
316.000000	1.979921
317.000000	2.001182
318.000000	2.018592
319.000000	2.034791
320.000000	2.053452
321.000000	2.061167
322.000000	2.070592
323.000000	2.077889
324.000000	2.090861
325.000000	2.104567
326.000000	2.108033
327.000000	2.107339
328.000000	2.112975
329.000000	2.119327
330.000000	2.128402
331.000000	2.137472
332.000000	2.140919
333.000000	2.144261
334.000000	2.150318
335.000000	2.157843
336.000000	2.162049
337.000000	2.167292
338.000000	2.170039
339.000000	2.175180
340.000000	2.180080
341.000000	2.182036
342.000000	2.185584
343.000000	2.187388
344.000000	2.189305
345.000000	2.191838
346.000000	2.194931
347.000000	2.194766
348.000000	2.195910
349.000000	2.195980
350.000000	2.197897
351.000000	2.195962
352.000000	2.173338
353.000000	2.154839
354.000000	2.138726
355.000000	2.120374
356.000000	2.111474
357.000000	2.101784
358.000000	2.093591
359.000000	2.077720
360.000000	2.059499
361.000000	2.052467
362.000000	2.049851
363.000000	2.041398
364.000000	2.031006
365.000000	2.017848
366.000000	2.004349
367.000000	1.998071
368.000000	1.989074
369.000000	1.978879
370.000000	1.969791
371.000000	1.960016
372.000000	1.948759
373.000000	1.937472
374.000000	1.924454
375.000000	1.910610
376.000000	1.904255
377.000000	1.892558
378.000000	1.881209
379.000000	1.871658
380.000000	1.861402
381.000000	1.849940
382.000000	1.841461
383.000000	1.831795
384.000000	1.823605
385.000000	1.814649
386.000000	1.806292
387.000000	1.798566
388.000000	1.790788
389.000000	1.781935
390.000000	1.772308
391.000000	1.765073
392.000000	1.756899
393.000000	1.749565
394.000000	1.744620
395.000000	1.741658
396.000000	1.739130
397.000000	1.736257
398.000000	1.733758
399.000000	1.732354
400.000000	1.733484
401.000000	1.733286
402.000000	1.733824
403.000000	1.737325
404.000000	1.740892
405.000000	1.743964
406.000000	1.751881
407.000000	1.761813
408.000000	1.774826
409.000000	1.787874
410.000000	1.803611
411.000000	1.815870
412.000000	1.833783
413.000000	1.853345
414.000000	1.874494
415.000000	1.897607
416.000000	1.922654
417.000000	1.949558
418.000000	1.978369
419.000000	2.009245
420.000000	2.041933
421.000000	2.076685
422.000000	2.113609
423.000000	2.152621
424.000000	2.193634
425.000000	2.236793
426.000000	2.282255
427.000000	2.329591
428.000000	2.378816
429.000000	2.429638
430.000000	2.482205
431.000000	2.536597
432.000000	2.592640
433.000000	2.650413
434.000000	2.709606
435.000000	2.770221
436.000000	2.832325
437.000000	2.895695
438.000000	2.960230
439.000000	3.025824
440.000000	3.092222
441.000000	3.159273
442.000000	3.227045
443.000000	3.295306
444.000000	3.363758
445.000000	3.432449
446.000000	3.501841
447.000000	3.571613
448.000000	3.640944
449.000000	3.709754
450.000000	3.777787
451.000000	3.845290
452.000000	3.912464
453.000000	3.978854
454.000000	4.044100
455.000000	4.108254
456.000000	4.171194
457.000000	4.232751
458.000000	4.292857
459.000000	4.351276
460.000000	4.407726
461.000000	4.462289
462.000000	4.514871
463.000000	4.565384
464.000000	4.613909
465.000000	4.659961
466.000000	4.703532
467.000000	4.744669
468.000000	4.783323
469.000000	4.819622
470.000000	4.853485
471.000000	4.884863
472.000000	4.913602
473.000000	4.939545
474.000000	4.963055
475.000000	4.984640
476.000000	5.004607
477.000000	5.023257
478.000000	5.040944
479.000000	5.057908
480.000000	5.074069
481.000000	5.089325
482.000000	5.104332
483.000000	5.120292
484.000000	5.137871
485.000000	5.157865
486.000000	5.180567
487.000000	5.205896
488.000000	5.234218
489.000000	5.266001
490.000000	5.301252
491.000000	5.340041
492.000000	5.382454
493.000000	5.428719
494.000000	5.479319
495.000000	5.533980
496.000000	5.592445
497.000000	5.654683
498.000000	5.720389
499.000000	5.789306
500.000000	5.861555
501.000000	5.936992
502.000000	6.015040
503.000000	6.095501
504.000000	6.178408
505.000000	6.263478
506.000000	6.350303
507.000000	6.438998
508.000000	6.529266
509.000000	6.620430
510.000000	6.711680
511.000000	6.802975
512.000000	6.893869
513.000000	6.983963
514.000000	7.073131
515.000000	7.161521
516.000000	7.249023
517.000000	7.335467
518.000000	7.420560
519.000000	7.503684
520.000000	7.584502
521.000000	7.662650
522.000000	7.738574
523.000000	7.812577
524.000000	7.884928
525.000000	7.956551
526.000000	8.027963
527.000000	8.099711
528.000000	8.172200
529.000000	8.245563
530.000000	8.320659
531.000000	8.397911
532.000000	8.478065
533.000000	8.561537
534.000000	8.648855
535.000000	8.740093
536.000000	8.835714
537.000000	8.936619
538.000000	9.043171
539.000000	9.155386
540.000000	9.273297
541.000000	9.397447
542.000000	9.527583
543.000000	9.663753
544.000000	9.806166
545.000000	9.954888
546.000000	10.109591
547.000000	10.269971
548.000000	10.435917
549.000000	10.607294
550.000000	10.783628
551.000000	10.964684
552.000000	11.149932
553.000000	11.338783
554.000000	11.531293
555.000000	11.726982
556.000000	11.925668
557.000000	12.126370
558.000000	12.329131
559.000000	12.533156
560.000000	12.726343
561.000000	12.918202
562.000000	13.108964
563.000000	13.297898
564.000000	13.484559
565.000000	13.668130
566.000000	13.848336
567.000000	14.023958
568.000000	14.195256
569.000000	14.361907
570.000000	14.523604
571.000000	14.679633
572.000000	14.829650
573.000000	14.973438
574.000000	15.110695
575.000000	15.241507
576.000000	15.365507
577.000000	15.482612
578.000000	15.592389
579.000000	15.695671
580.000000	15.791960
581.000000	15.881315
582.000000	15.963467
583.000000	16.038531
584.000000	16.107020
585.000000	16.168679
586.000000	16.223814
587.000000	16.273624
588.000000	16.318149
589.000000	16.357924
590.000000	16.393320
591.000000	16.424974
592.000000	16.453525
593.000000	16.478217
594.000000	16.500167
595.000000	16.531001
596.000000	16.560200
597.000000	16.587436
598.000000	16.612585
599.000000	16.635503
600.000000	16.656408
601.000000	16.675102
602.000000	16.691908
603.000000	16.705858
604.000000	16.717692
605.000000	16.726622
606.000000	16.731888
607.000000	16.734231
608.000000	16.732119
609.000000	16.726222
610.000000	16.715647
611.000000	16.700720
612.000000	16.681044
613.000000	16.657859
614.000000	16.630559
615.000000	16.600066
616.000000	16.566278
617.000000	16.530575
618.000000	16.492992
619.000000	16.453664
620.000000	16.413360
621.000000	16.371928
622.000000	16.328608
623.000000	16.284317
624.000000	16.237411
625.000000	16.188386
626.000000	16.136276
627.000000	16.080723
628.000000	16.021885
629.000000	15.958633
630.000000	15.890318
631.000000	15.816582
632.000000	15.737639
633.000000	15.652661
634.000000	15.561602
635.000000	15.464785
636.000000	15.362346
637.000000	15.254818
638.000000	15.142243
639.000000	15.024066
640.000000	14.902091
641.000000	14.777483
642.000000	14.650133
643.000000	14.522393
644.000000	14.394497
645.000000	14.268329
646.000000	14.144010
647.000000	14.022886
648.000000	13.905165
649.000000	13.792085
650.000000	13.683542
651.000000	13.580585
652.000000	13.482365
653.000000	13.389557
654.000000	13.301048
655.000000	13.216896
656.000000	13.136682
657.000000	13.060163
658.000000	12.986363
659.000000	12.916386
660.000000	12.848796
661.000000	12.784145
662.000000	12.722971
663.000000	12.665054
664.000000	12.611290
665.000000	12.561197
666.000000	12.516222
667.000000	12.476297
668.000000	12.442347
669.000000	12.414982
670.000000	12.394601
671.000000	12.380877
672.000000	12.374345
673.000000	12.375587
674.000000	12.384951
675.000000	12.401793
676.000000	12.426078
677.000000	12.457097
678.000000	12.494612
679.000000	12.537859
680.000000	12.585983
681.000000	12.638899
682.000000	12.695426
683.000000	12.754751
684.000000	12.815566
685.000000	12.878066
686.000000	12.940691
687.000000	13.003057
688.000000	13.064751
689.000000	13.126469
690.000000	13.187113
691.000000	13.246993
692.000000	13.306442
693.000000	13.365837
694.000000	13.424446
695.000000	13.483095
696.000000	13.541627
697.000000	13.599776
698.000000	13.657287
699.000000	13.714454
700.000000	13.772069
701.000000	13.829294
702.000000	13.885444
703.000000	13.940983
704.000000	13.996025
705.000000	14.049351
706.000000	14.101849
707.000000	14.152898
708.000000	14.202066
709.000000	14.248720
710.000000	14.293064
711.000000	14.334985
712.000000	14.374914
713.000000	14.411853
714.000000	14.445508
715.000000	14.476120
716.000000	14.503302
717.000000	14.527665
718.000000	14.549640
719.000000	14.569226
720.000000	14.585535
721.000000	14.600184
722.000000	14.613958
723.000000	14.626019
724.000000	14.636881
725.000000	14.645465
726.000000	14.654373
727.000000	14.663187
728.000000	14.671831
729.000000	14.681257
730.000000	14.691412
731.000000	14.702213
732.000000	14.713979
733.000000	14.727559
734.000000	14.741653
735.000000	14.756484
736.000000	14.772433
737.000000	14.788939
738.000000	14.805821
739.000000	14.822852
740.000000	14.840155
741.000000	14.857111
742.000000	14.873493
743.000000	14.890030
744.000000	14.906745
745.000000	14.923535
746.000000	14.940497
747.000000	14.956786
748.000000	14.973529
749.000000	14.991548
750.000000	15.010552
751.000000	15.031192
752.000000	15.053434
753.000000	15.076602
754.000000	15.100988
755.000000	15.127675
756.000000	15.155804
757.000000	15.185216
758.000000	15.216290
759.000000	15.248280
760.000000	15.283704
761.000000	15.319050
762.000000	15.353768
763.000000	15.388500
764.000000	15.422442
765.000000	15.455207
766.000000	15.486744
767.000000	15.517221
768.000000	15.546652
769.000000	15.574870
770.000000	15.601597
771.000000	15.626526
772.000000	15.650645
773.000000	15.674438
774.000000	15.696382
775.000000	15.717507
776.000000	15.739389
777.000000	15.761683
778.000000	15.783392
779.000000	15.805582
780.000000	15.827899
781.000000	15.849866
782.000000	15.872493
783.000000	15.895259
784.000000	15.916155
785.000000	15.936246
786.000000	15.955400
787.000000	15.972282
788.000000	15.988409
789.000000	16.003312
790.000000	16.017197
791.000000	16.030608
792.000000	16.043383
793.000000	16.054997
794.000000	16.065210
795.000000	16.075255
796.000000	16.086368
797.000000	16.099515
798.000000	16.113084
799.000000	16.127765
800.000000	16.143925
801.000000	16.161714
802.000000	16.180128
803.000000	16.199104
804.000000	16.220097
805.000000	16.242477
806.000000	16.266306
807.000000	16.292232
808.000000	16.318434
809.000000	16.346113
810.000000	16.375325
811.000000	16.404071
812.000000	16.432382
813.000000	16.461890
814.000000	16.491486
815.000000	16.522114
816.000000	16.553711
817.000000	16.585910
818.000000	16.618564
819.000000	16.652943
820.000000	16.687962
821.000000	16.724033
822.000000	16.762909
823.000000	16.803432
824.000000	16.845412
825.000000	16.887098
826.000000	16.927564
827.000000	16.969093
828.000000	17.011253
829.000000	17.054072
830.000000	17.095306
831.000000	17.136413
832.000000	17.175549
833.000000	17.212514
834.000000	17.246976
835.000000	17.280552
836.000000	17.314438
837.000000	17.346701
838.000000	17.379211
839.000000	17.409637
840.000000	17.438066
841.000000	17.466224
842.000000	17.492821
843.000000	17.517792
844.000000	17.542853
845.000000	17.565451
846.000000	17.587217
847.000000	17.611289
848.000000	17.632691
849.000000	17.654861
850.000000	17.673857
851.000000	17.687022
852.000000	17.702078
853.000000	17.713616
854.000000	17.722462
855.000000	17.730904
856.000000	17.732690
857.000000	17.748812
858.000000	17.760499
859.000000	17.783627
860.000000	17.807441
861.000000	17.833034
862.000000	17.858380
863.000000	17.884608
864.000000	17.912092
865.000000	17.941245
866.000000	17.969647
867.000000	17.998945
868.000000	18.030024
869.000000	18.063033
870.000000	18.096337
871.000000	18.128732
872.000000	18.162677
873.000000	18.196182
874.000000	18.231174
875.000000	18.267354
876.000000	18.303805
877.000000	18.339866
878.000000	18.378054
879.000000	18.416464
880.000000	18.457046
881.000000	18.499241
882.000000	18.539519
883.000000	18.582274
884.000000	18.624084
885.000000	18.668651
886.000000	18.718883
887.000000	18.767184
888.000000	18.818507
889.000000	18.872582
890.000000	18.927097
891.000000	18.987877
892.000000	19.033034
893.000000	19.081133
894.000000	19.117336
895.000000	19.153603
896.000000	19.188821
897.000000	19.223682
898.000000	19.257906
899.000000	19.291170
900.000000	19.323386
901.000000	19.355785
902.000000	19.388303
903.000000	19.421075
904.000000	19.454068
905.000000	19.486341
906.000000	19.518479
907.000000	19.550233
908.000000	19.581256
909.000000	19.611641
910.000000	19.641421
911.000000	19.669604
912.000000	19.697649
913.000000	19.724631
914.000000	19.749975
915.000000	19.773892
916.000000	19.796097
917.000000	19.816979
918.000000	19.836810
919.000000	19.855722
920.000000	19.873321
921.000000	19.889747
922.000000	19.904715
923.000000	19.919122
924.000000	19.932856
925.000000	19.944897
926.000000	19.955261
927.000000	19.964750
928.000000	19.974435
929.000000	19.982370
930.000000	19.988615
931.000000	19.993529
932.000000	19.996297
933.000000	19.997768
934.000000	19.997805
935.000000	19.997112
936.000000	19.993993
937.000000	19.989164
938.000000	19.982675
939.000000	19.974230
940.000000	19.964266
941.000000	19.952997
942.000000	19.940435
943.000000	19.927282
944.000000	19.912654
945.000000	19.897869
946.000000	19.882945
947.000000	19.867166
948.000000	19.850793
949.000000	19.834724
950.000000	19.818364
951.000000	19.801319
952.000000	19.783935
953.000000	19.766053
954.000000	19.747974
955.000000	19.729385
956.000000	19.710966
957.000000	19.692163
958.000000	19.672679
959.000000	19.652790
960.000000	19.633751
961.000000	19.615319
962.000000	19.597090
963.000000	19.578315
964.000000	19.560240
965.000000	19.543010
966.000000	19.526231
967.000000	19.510312
968.000000	19.494530
969.000000	19.479756
970.000000	19.465236
971.000000	19.452130
972.000000	19.439406
973.000000	19.427220
974.000000	19.416330
975.000000	19.406722
976.000000	19.397600
977.000000	19.389064
978.000000	19.381006
979.000000	19.373964
980.000000	19.366911
981.000000	19.359705
982.000000	19.353001
983.000000	19.346116
984.000000	19.339021
985.000000	19.332281
986.000000	19.326002
987.000000	19.320129
988.000000	19.314493
989.000000	19.309084
990.000000	19.304314
991.000000	19.299406
992.000000	19.294825
993.000000	19.290472
994.000000	19.286028
995.000000	19.281899
996.000000	19.277830
997.000000	19.273822
998.000000	19.269451
999.000000	19.265092
1000.000000	19.260621
1001.000000	19.256350
1002.000000	19.251795
1003.000000	19.246960
1004.000000	19.241517
1005.000000	19.235981
1006.000000	19.230352
1007.000000	19.224474
1008.000000	19.218350
1009.000000	19.211612
1010.000000	19.204514
1011.000000	19.197307
1012.000000	19.190192
1013.000000	19.182663
1014.000000	19.174484
1015.000000	19.166505
1016.000000	19.159214
1017.000000	19.152189
1018.000000	19.145452
1019.000000	19.138917
1020.000000	19.132680
1021.000000	19.126763
1022.000000	19.121538
1023.000000	19.116748
1024.000000	19.112115
1025.000000	19.107845
1026.000000	19.104057
1027.000000	19.100590
1028.000000	19.097595
1029.000000	19.095245
1030.000000	19.093069
1031.000000	19.091198
1032.000000	19.089858
1033.000000	19.089507
1034.000000	19.089793
1035.000000	19.090564
1036.000000	19.091994
1037.000000	19.094126
1038.000000	19.097169
1039.000000	19.101006
1040.000000	19.105342
1041.000000	19.110469
1042.000000	19.116455
1043.000000	19.122951
1044.000000	19.130094
1045.000000	19.138006
1046.000000	19.146586
1047.000000	19.155966
1048.000000	19.166034
1049.000000	19.176722
1050.000000	19.187744
1051.000000	19.199079
1052.000000	19.210707
1053.000000	19.222660
1054.000000	19.234919
1055.000000	19.247614
1056.000000	19.260505
1057.000000	19.273410
1058.000000	19.286742
1059.000000	19.300222
1060.000000	19.313389
1061.000000	19.326376
1062.000000	19.339733
1063.000000	19.353259
1064.000000	19.366398
1065.000000	19.379494
1066.000000	19.392328
1067.000000	19.405073
1068.000000	19.417572
1069.000000	19.429775
1070.000000	19.441733
1071.000000	19.453321
1072.000000	19.464997
1073.000000	19.476533
1074.000000	19.487748
1075.000000	19.498911
1076.000000	19.509285
1077.000000	19.519194
1078.000000	19.529196
1079.000000	19.538935
1080.000000	19.548278
1081.000000	19.557280
1082.000000	19.565860
1083.000000	19.574038
1084.000000	19.581620
1085.000000	19.588700
1086.000000	19.595448
1087.000000	19.601690
1088.000000	19.607494
1089.000000	19.612876
1090.000000	19.617752
1091.000000	19.622711
1092.000000	19.627164
1093.000000	19.630982
1094.000000	19.634476
1095.000000	19.637955
1096.000000	19.640952
1097.000000	19.643470
1098.000000	19.645923
1099.000000	19.648197
1100.000000	19.650330
1101.000000	19.652537
1102.000000	19.654490
1103.000000	19.656290
1104.000000	19.657896
1105.000000	19.659274
1106.000000	19.660886
1107.000000	19.662070
1108.000000	19.663079
1109.000000	19.663999
1110.000000	19.664226
1111.000000	19.664306
1112.000000	19.664705
1113.000000	19.664779
1114.000000	19.664841
1115.000000	19.665025
1116.000000	19.665269
1117.000000	19.665331
1118.000000	19.665500
1119.000000	19.665974
1120.000000	19.666492
1121.000000	19.666967
1122.000000	19.667767
1123.000000	19.669042
1124.000000	19.670450
1125.000000	19.671470
1126.000000	19.671650
1127.000000	19.672455
1128.000000	19.672939
1129.000000	19.673553
1130.000000	19.674065
1131.000000	19.673820
1132.000000	19.672935
1133.000000	19.670861
1134.000000	19.668681
1135.000000	19.667155
1136.000000	19.665993
1137.000000	19.663516
1138.000000	19.659787
1139.000000	19.655484
1140.000000	19.650622
1141.000000	19.645214
1142.000000	19.639705
1143.000000	19.633098
1144.000000	19.626320
1145.000000	19.620123
1146.000000	19.613998
1147.000000	19.607022
1148.000000	19.600265
1149.000000	19.592730
1150.000000	19.584681
1151.000000	19.576265
1152.000000	19.567060
1153.000000	19.557665
1154.000000	19.547330
1155.000000	19.536724
1156.000000	19.525136
1157.000000	19.512691
1158.000000	19.498230
1159.000000	19.482987
1160.000000	19.467281
1161.000000	19.450589
1162.000000	19.432602
1163.000000	19.413727
1164.000000	19.393082
1165.000000	19.371121
1166.000000	19.349229
1167.000000	19.327523
1168.000000	19.305808
1169.000000	19.282926
1170.000000	19.258801
1171.000000	19.232663
1172.000000	19.207405
1173.000000	19.182481
1174.000000	19.157882
1175.000000	19.132844
1176.000000	19.107498
