PE UV       SUBTECH     SPECTRUM    ASCII       PEDS        4.00        
   -1
ANGSOL0006-1.Sample.ASC
24/03/07
14:42:38.00
24/03/07
14:42:38.00
Vinicio Soto Monge
Chrysina macropus. Mexico, Hidalgo. Tlanchinol. 7-28 Junio 1992.
250,000000
1
Lambda 1050
1050L1511233
PerkinElmer UV WinLab 6.3.2.0749 / 2.02.05 Lambda 900 UV/VIS/NIR, Aug  7 2015 09:38:08

0
0
3350/servo 860,8/2
0
0
UV/VIS
1
1
1
DoubleDePol,CommonBeamDepol,RBeamAtt,SBeamAtt,60mm sphere, WB InGaAs Detector
0
0
0
0
Program
Program
3350/servo 860,8/2
3350/0,2 860,8/0,2
3350/0,2 860,8/0,2
0
15.00
 
 
 
0
 
860,8
319,2
860,8
Front
100
on
S:100 R:100
0
0
0
0
 
0
 
 
 
0
 
 
0
0
0
0
0
 
 
 
 
0
0


0
0
#HDR
-1
-1
#GR
nm
%R
1.0
0.0
2500,000000
-1,000000
2251
8
20,245400
1,393300
#DATA
250.000000	nan
251.000000	nan
252.000000	nan
253.000000	nan
254.000000	nan
255.000000	nan
256.000000	nan
257.000000	nan
258.000000	nan
259.000000	nan
260.000000	nan
261.000000	nan
262.000000	nan
263.000000	nan
264.000000	nan
265.000000	nan
266.000000	nan
267.000000	nan
268.000000	nan
269.000000	nan
270.000000	nan
271.000000	nan
272.000000	nan
273.000000	nan
274.000000	nan
275.000000	nan
276.000000	nan
277.000000	nan
278.000000	nan
279.000000	nan
280.000000	nan
281.000000	nan
282.000000	nan
283.000000	nan
284.000000	1.872909
285.000000	1.867873
286.000000	1.862737
287.000000	1.859254
288.000000	1.854994
289.000000	1.850114
290.000000	1.847026
291.000000	1.845003
292.000000	1.843549
293.000000	1.840276
294.000000	1.837482
295.000000	1.834304
296.000000	1.832008
297.000000	1.826855
298.000000	1.824228
299.000000	1.821082
300.000000	1.818904
301.000000	1.816864
302.000000	1.814125
303.000000	1.811417
304.000000	1.810198
305.000000	1.808260
306.000000	1.804664
307.000000	1.801703
308.000000	1.797978
309.000000	1.797206
310.000000	1.797736
311.000000	1.796662
312.000000	1.794377
313.000000	1.792681
314.000000	1.792130
315.000000	1.789768
316.000000	1.790396
317.000000	1.804129
318.000000	1.814047
319.000000	1.831452
320.000000	1.851946
321.000000	1.855236
322.000000	1.858307
323.000000	1.861346
324.000000	1.867055
325.000000	1.867908
326.000000	1.872713
327.000000	1.875090
328.000000	1.878261
329.000000	1.874842
330.000000	1.874845
331.000000	1.882323
332.000000	1.884847
333.000000	1.886803
334.000000	1.891994
335.000000	1.895673
336.000000	1.898813
337.000000	1.898893
338.000000	1.902422
339.000000	1.904297
340.000000	1.903145
341.000000	1.902834
342.000000	1.905061
343.000000	1.908080
344.000000	1.909811
345.000000	1.910814
346.000000	1.912461
347.000000	1.913706
348.000000	1.916114
349.000000	1.916757
350.000000	1.919171
351.000000	1.918154
352.000000	1.903525
353.000000	1.892780
354.000000	1.875340
355.000000	1.855328
356.000000	1.852704
357.000000	1.848336
358.000000	1.843724
359.000000	1.836909
360.000000	1.835347
361.000000	1.827091
362.000000	1.822280
363.000000	1.817853
364.000000	1.817974
365.000000	1.816383
366.000000	1.807479
367.000000	1.805235
368.000000	1.801490
369.000000	1.792724
370.000000	1.785977
371.000000	1.778591
372.000000	1.774365
373.000000	1.765625
374.000000	1.759146
375.000000	1.755534
376.000000	1.752546
377.000000	1.745506
378.000000	1.737670
379.000000	1.730077
380.000000	1.721875
381.000000	1.714443
382.000000	1.708442
383.000000	1.701324
384.000000	1.695491
385.000000	1.689562
386.000000	1.684322
387.000000	1.678736
388.000000	1.673223
389.000000	1.667107
390.000000	1.661141
391.000000	1.656140
392.000000	1.652084
393.000000	1.647959
394.000000	1.644712
395.000000	1.640322
396.000000	1.638640
397.000000	1.635125
398.000000	1.632538
399.000000	1.631760
400.000000	1.629545
401.000000	1.626690
402.000000	1.623997
403.000000	1.622879
404.000000	1.624072
405.000000	1.624547
406.000000	1.626996
407.000000	1.629473
408.000000	1.633238
409.000000	1.636277
410.000000	1.639757
411.000000	1.642356
412.000000	1.648057
413.000000	1.654282
414.000000	1.660738
415.000000	1.667121
416.000000	1.673416
417.000000	1.680047
418.000000	1.686808
419.000000	1.694145
420.000000	1.701756
421.000000	1.709353
422.000000	1.717217
423.000000	1.724955
424.000000	1.732934
425.000000	1.741185
426.000000	1.749527
427.000000	1.758167
428.000000	1.767071
429.000000	1.776315
430.000000	1.785620
431.000000	1.795164
432.000000	1.804846
433.000000	1.814672
434.000000	1.824585
435.000000	1.834820
436.000000	1.845358
437.000000	1.856016
438.000000	1.866721
439.000000	1.877533
440.000000	1.888701
441.000000	1.899965
442.000000	1.911251
443.000000	1.922734
444.000000	1.934614
445.000000	1.946566
446.000000	1.958841
447.000000	1.971297
448.000000	1.983664
449.000000	1.995977
450.000000	2.008479
451.000000	2.021396
452.000000	2.034570
453.000000	2.047979
454.000000	2.061360
455.000000	2.074934
456.000000	2.088632
457.000000	2.102319
458.000000	2.116368
459.000000	2.130685
460.000000	2.145195
461.000000	2.159812
462.000000	2.174668
463.000000	2.189913
464.000000	2.205466
465.000000	2.221316
466.000000	2.237707
467.000000	2.254548
468.000000	2.271729
469.000000	2.289699
470.000000	2.308285
471.000000	2.327324
472.000000	2.347086
473.000000	2.367807
474.000000	2.389444
475.000000	2.411709
476.000000	2.434876
477.000000	2.459296
478.000000	2.484995
479.000000	2.511788
480.000000	2.539884
481.000000	2.569086
482.000000	2.599541
483.000000	2.631751
484.000000	2.666005
485.000000	2.702516
486.000000	2.741005
487.000000	2.782076
488.000000	2.825681
489.000000	2.871940
490.000000	2.921022
491.000000	2.973215
492.000000	3.028444
493.000000	3.086742
494.000000	3.148297
495.000000	3.213223
496.000000	3.281407
497.000000	3.352601
498.000000	3.427034
499.000000	3.504698
500.000000	3.585762
501.000000	3.669928
502.000000	3.757298
503.000000	3.848343
504.000000	3.942471
505.000000	4.039638
506.000000	4.140077
507.000000	4.243501
508.000000	4.349760
509.000000	4.458709
510.000000	4.570113
511.000000	4.683806
512.000000	4.799528
513.000000	4.916794
514.000000	5.035443
515.000000	5.155753
516.000000	5.277795
517.000000	5.401151
518.000000	5.525316
519.000000	5.650118
520.000000	5.775289
521.000000	5.901476
522.000000	6.027592
523.000000	6.153773
524.000000	6.279583
525.000000	6.404345
526.000000	6.528136
527.000000	6.650486
528.000000	6.771226
529.000000	6.889857
530.000000	7.006400
531.000000	7.120777
532.000000	7.232226
533.000000	7.340663
534.000000	7.446443
535.000000	7.549141
536.000000	7.648708
537.000000	7.745177
538.000000	7.838237
539.000000	7.928328
540.000000	8.015528
541.000000	8.099582
542.000000	8.180585
543.000000	8.258506
544.000000	8.333831
545.000000	8.406570
546.000000	8.476644
547.000000	8.544223
548.000000	8.609085
549.000000	8.671338
550.000000	8.730580
551.000000	8.786691
552.000000	8.839777
553.000000	8.889213
554.000000	8.935207
555.000000	8.977124
556.000000	9.014908
557.000000	9.048108
558.000000	9.076567
559.000000	9.100739
560.000000	9.114457
561.000000	9.122978
562.000000	9.127118
563.000000	9.126490
564.000000	9.121800
565.000000	9.112536
566.000000	9.098486
567.000000	9.080321
568.000000	9.057845
569.000000	9.031322
570.000000	9.000383
571.000000	8.965518
572.000000	8.926377
573.000000	8.882616
574.000000	8.834335
575.000000	8.781263
576.000000	8.723902
577.000000	8.662479
578.000000	8.596856
579.000000	8.526737
580.000000	8.452869
581.000000	8.375449
582.000000	8.294760
583.000000	8.211063
584.000000	8.124624
585.000000	8.035610
586.000000	7.944726
587.000000	7.852153
588.000000	7.758446
589.000000	7.663333
590.000000	7.567154
591.000000	7.469448
592.000000	7.370818
593.000000	7.271646
594.000000	7.171783
595.000000	7.077831
596.000000	6.983832
597.000000	6.890661
598.000000	6.798190
599.000000	6.706752
600.000000	6.616090
601.000000	6.527269
602.000000	6.440720
603.000000	6.356372
604.000000	6.273571
605.000000	6.193110
606.000000	6.114302
607.000000	6.037876
608.000000	5.964158
609.000000	5.892307
610.000000	5.823172
611.000000	5.756069
612.000000	5.691039
613.000000	5.628161
614.000000	5.567689
615.000000	5.509083
616.000000	5.452103
617.000000	5.396847
618.000000	5.343211
619.000000	5.291176
620.000000	5.241020
621.000000	5.192174
622.000000	5.144674
623.000000	5.098349
624.000000	5.053499
625.000000	5.010095
626.000000	4.968051
627.000000	4.928072
628.000000	4.889683
629.000000	4.853536
630.000000	4.819307
631.000000	4.787104
632.000000	4.755954
633.000000	4.726536
634.000000	4.698147
635.000000	4.671428
636.000000	4.645593
637.000000	4.620704
638.000000	4.596633
639.000000	4.573411
640.000000	4.551028
641.000000	4.529748
642.000000	4.508704
643.000000	4.488594
644.000000	4.469938
645.000000	4.452003
646.000000	4.434862
647.000000	4.418618
648.000000	4.403108
649.000000	4.388365
650.000000	4.374321
651.000000	4.361038
652.000000	4.347931
653.000000	4.335734
654.000000	4.323928
655.000000	4.312411
656.000000	4.301508
657.000000	4.290650
658.000000	4.280651
659.000000	4.270865
660.000000	4.261595
661.000000	4.252613
662.000000	4.244247
663.000000	4.236360
664.000000	4.228412
665.000000	4.220767
666.000000	4.213833
667.000000	4.207426
668.000000	4.201339
669.000000	4.195739
670.000000	4.190101
671.000000	4.184665
672.000000	4.179322
673.000000	4.174563
674.000000	4.170250
675.000000	4.166286
676.000000	4.162919
677.000000	4.159914
678.000000	4.156639
679.000000	4.153430
680.000000	4.150195
681.000000	4.147193
682.000000	4.144327
683.000000	4.141947
684.000000	4.139804
685.000000	4.137753
686.000000	4.135802
687.000000	4.133875
688.000000	4.131516
689.000000	4.129488
690.000000	4.127414
691.000000	4.125389
692.000000	4.123309
693.000000	4.120869
694.000000	4.118818
695.000000	4.117138
696.000000	4.115992
697.000000	4.114488
698.000000	4.113290
699.000000	4.111829
700.000000	4.110334
701.000000	4.108810
702.000000	4.107606
703.000000	4.106142
704.000000	4.104354
705.000000	4.103325
706.000000	4.102271
707.000000	4.101144
708.000000	4.099848
709.000000	4.098572
710.000000	4.097290
711.000000	4.095619
712.000000	4.094280
713.000000	4.093116
714.000000	4.092165
715.000000	4.091736
716.000000	4.091566
717.000000	4.091269
718.000000	4.090849
719.000000	4.089987
720.000000	4.089091
721.000000	4.088216
722.000000	4.088011
723.000000	4.088250
724.000000	4.088403
725.000000	4.088789
726.000000	4.089097
727.000000	4.089740
728.000000	4.090713
729.000000	4.091785
730.000000	4.092874
731.000000	4.094000
732.000000	4.095582
733.000000	4.097180
734.000000	4.099102
735.000000	4.101320
736.000000	4.103918
737.000000	4.106479
738.000000	4.109496
739.000000	4.113258
740.000000	4.116965
741.000000	4.120993
742.000000	4.124977
743.000000	4.129269
744.000000	4.134039
745.000000	4.139055
746.000000	4.144597
747.000000	4.150313
748.000000	4.156526
749.000000	4.163429
750.000000	4.170118
751.000000	4.176683
752.000000	4.183867
753.000000	4.191631
754.000000	4.200463
755.000000	4.209448
756.000000	4.218387
757.000000	4.227899
758.000000	4.237622
759.000000	4.247105
760.000000	4.256747
761.000000	4.267063
762.000000	4.278136
763.000000	4.289498
764.000000	4.301171
765.000000	4.313411
766.000000	4.325749
767.000000	4.338070
768.000000	4.350607
769.000000	4.364106
770.000000	4.377752
771.000000	4.391271
772.000000	4.405632
773.000000	4.420732
774.000000	4.435029
775.000000	4.449733
776.000000	4.465701
777.000000	4.482121
778.000000	4.499005
779.000000	4.516004
780.000000	4.532871
781.000000	4.550172
782.000000	4.568255
783.000000	4.586006
784.000000	4.603523
785.000000	4.621721
786.000000	4.640593
787.000000	4.659692
788.000000	4.678834
789.000000	4.697115
790.000000	4.715247
791.000000	4.735360
792.000000	4.756015
793.000000	4.776497
794.000000	4.797408
795.000000	4.819166
796.000000	4.840458
797.000000	4.861870
798.000000	4.883755
799.000000	4.905985
800.000000	4.928565
801.000000	4.952561
802.000000	4.976431
803.000000	5.000462
804.000000	5.023856
805.000000	5.048175
806.000000	5.072653
807.000000	5.097044
808.000000	5.122262
809.000000	5.148802
810.000000	5.175659
811.000000	5.201975
812.000000	5.228307
813.000000	5.254035
814.000000	5.281693
815.000000	5.310039
816.000000	5.338648
817.000000	5.366338
818.000000	5.394154
819.000000	5.423114
820.000000	5.451869
821.000000	5.480412
822.000000	5.508885
823.000000	5.539429
824.000000	5.569570
825.000000	5.599849
826.000000	5.629668
827.000000	5.658838
828.000000	5.689207
829.000000	5.718328
830.000000	5.749310
831.000000	5.780964
832.000000	5.811105
833.000000	5.840929
834.000000	5.871494
835.000000	5.903873
836.000000	5.934898
837.000000	5.964881
838.000000	5.996235
839.000000	6.026373
840.000000	6.057707
841.000000	6.092235
842.000000	6.123684
843.000000	6.152419
844.000000	6.183926
845.000000	6.213246
846.000000	6.242520
847.000000	6.269841
848.000000	6.298740
849.000000	6.323154
850.000000	6.345451
851.000000	6.372294
852.000000	6.400030
853.000000	6.424386
854.000000	6.449074
855.000000	6.472981
856.000000	6.494973
857.000000	6.530489
858.000000	6.567363
859.000000	6.604851
860.000000	6.642773
861.000000	6.681190
862.000000	6.720197
863.000000	6.759936
864.000000	6.802244
865.000000	6.843118
866.000000	6.884245
867.000000	6.928017
868.000000	6.972121
869.000000	7.016097
870.000000	7.057626
871.000000	7.101072
872.000000	7.146789
873.000000	7.191844
874.000000	7.239881
875.000000	7.287017
876.000000	7.331292
877.000000	7.379170
878.000000	7.429533
879.000000	7.478604
880.000000	7.529917
881.000000	7.582124
882.000000	7.637855
883.000000	7.693363
884.000000	7.752632
885.000000	7.814729
886.000000	7.873328
887.000000	7.932670
888.000000	7.996173
889.000000	8.059190
890.000000	8.124658
891.000000	8.192969
892.000000	8.249371
893.000000	8.303111
894.000000	8.358357
895.000000	8.414640
896.000000	8.471529
897.000000	8.528271
898.000000	8.585594
899.000000	8.643069
900.000000	8.700426
901.000000	8.759211
902.000000	8.817831
903.000000	8.877386
904.000000	8.936751
905.000000	8.997591
906.000000	9.058126
907.000000	9.119674
908.000000	9.182123
909.000000	9.244586
910.000000	9.306389
911.000000	9.369397
912.000000	9.433277
913.000000	9.497537
914.000000	9.561126
915.000000	9.624617
916.000000	9.688477
917.000000	9.752449
918.000000	9.817251
919.000000	9.881911
920.000000	9.946717
921.000000	10.011189
922.000000	10.075497
923.000000	10.140577
924.000000	10.205846
925.000000	10.270691
926.000000	10.335654
927.000000	10.400317
928.000000	10.464420
929.000000	10.528671
930.000000	10.593549
931.000000	10.657137
932.000000	10.720751
933.000000	10.783286
934.000000	10.846611
935.000000	10.909911
936.000000	10.972189
937.000000	11.034563
938.000000	11.097120
939.000000	11.160017
940.000000	11.222000
941.000000	11.283546
942.000000	11.344277
943.000000	11.403969
944.000000	11.463129
945.000000	11.523189
946.000000	11.582426
947.000000	11.641543
948.000000	11.700394
949.000000	11.759294
950.000000	11.817894
951.000000	11.876480
952.000000	11.934489
953.000000	11.992046
954.000000	12.049683
955.000000	12.106866
956.000000	12.163551
957.000000	12.220200
958.000000	12.276563
959.000000	12.332537
960.000000	12.388537
961.000000	12.444626
962.000000	12.500623
963.000000	12.556583
964.000000	12.611891
965.000000	12.666411
966.000000	12.720691
967.000000	12.776026
968.000000	12.831420
969.000000	12.885669
970.000000	12.939437
971.000000	12.993509
972.000000	13.047566
973.000000	13.100323
974.000000	13.153043
975.000000	13.205917
976.000000	13.259003
977.000000	13.311363
978.000000	13.364509
979.000000	13.417569
980.000000	13.470326
981.000000	13.523217
982.000000	13.575300
983.000000	13.626834
984.000000	13.677774
985.000000	13.729180
986.000000	13.780094
987.000000	13.830563
988.000000	13.880240
989.000000	13.929483
990.000000	13.979334
991.000000	14.029380
992.000000	14.078969
993.000000	14.127946
994.000000	14.176806
995.000000	14.225280
996.000000	14.273251
997.000000	14.320591
998.000000	14.368574
999.000000	14.416506
1000.000000	14.464180
1001.000000	14.512260
1002.000000	14.559077
1003.000000	14.605646
1004.000000	14.652331
1005.000000	14.698914
1006.000000	14.744551
1007.000000	14.790474
1008.000000	14.836714
1009.000000	14.882123
1010.000000	14.927774
1011.000000	14.972843
1012.000000	15.018800
1013.000000	15.064354
1014.000000	15.109117
1015.000000	15.153420
1016.000000	15.197397
1017.000000	15.241409
1018.000000	15.286060
1019.000000	15.330514
1020.000000	15.374909
1021.000000	15.418743
1022.000000	15.463103
1023.000000	15.507500
1024.000000	15.551611
1025.000000	15.595440
1026.000000	15.638863
1027.000000	15.682640
1028.000000	15.727160
1029.000000	15.771663
1030.000000	15.816183
1031.000000	15.861017
1032.000000	15.905654
1033.000000	15.949920
1034.000000	15.994443
1035.000000	16.039154
1036.000000	16.083629
1037.000000	16.128154
1038.000000	16.172514
1039.000000	16.216589
1040.000000	16.261471
1041.000000	16.306731
1042.000000	16.350571
1043.000000	16.394371
1044.000000	16.438780
1045.000000	16.483014
1046.000000	16.527111
1047.000000	16.570326
1048.000000	16.612609
1049.000000	16.655289
1050.000000	16.698237
1051.000000	16.741329
1052.000000	16.784257
1053.000000	16.827220
1054.000000	16.870463
1055.000000	16.913931
1056.000000	16.957437
1057.000000	17.001031
1058.000000	17.044317
1059.000000	17.087137
1060.000000	17.129374
1061.000000	17.171769
1062.000000	17.213846
1063.000000	17.255280
1064.000000	17.296711
1065.000000	17.337649
1066.000000	17.378334
1067.000000	17.419297
1068.000000	17.460557
1069.000000	17.501543
1070.000000	17.542583
1071.000000	17.583551
1072.000000	17.624377
1073.000000	17.665117
1074.000000	17.705949
1075.000000	17.746457
1076.000000	17.786286
1077.000000	17.826454
1078.000000	17.866880
1079.000000	17.906551
1080.000000	17.945523
1081.000000	17.985000
1082.000000	18.024463
1083.000000	18.063937
1084.000000	18.103500
1085.000000	18.142963
1086.000000	18.182311
1087.000000	18.221160
1088.000000	18.258969
1089.000000	18.296986
1090.000000	18.334874
1091.000000	18.372049
1092.000000	18.408143
1093.000000	18.444223
1094.000000	18.480580
1095.000000	18.516263
1096.000000	18.551946
1097.000000	18.587283
1098.000000	18.622471
1099.000000	18.657237
1100.000000	18.692351
1101.000000	18.726791
1102.000000	18.760229
1103.000000	18.793111
1104.000000	18.825603
1105.000000	18.857457
1106.000000	18.889374
1107.000000	18.920134
1108.000000	18.950283
1109.000000	18.980280
1110.000000	19.009469
1111.000000	19.038260
1112.000000	19.066671
1113.000000	19.093914
1114.000000	19.120754
1115.000000	19.147466
1116.000000	19.173426
1117.000000	19.199157
1118.000000	19.224557
1119.000000	19.248977
1120.000000	19.272946
1121.000000	19.295569
1122.000000	19.317700
1123.000000	19.339774
1124.000000	19.360517
1125.000000	19.380434
1126.000000	19.399357
1127.000000	19.417340
1128.000000	19.435323
1129.000000	19.451506
1130.000000	19.466600
1131.000000	19.479080
1132.000000	19.489709
1133.000000	19.498294
1134.000000	19.505740
1135.000000	19.511883
1136.000000	19.517646
1137.000000	19.522146
1138.000000	19.524163
1139.000000	19.525386
1140.000000	19.524983
1141.000000	19.523014
1142.000000	19.520823
1143.000000	19.517157
1144.000000	19.512523
1145.000000	19.507620
1146.000000	19.502106
1147.000000	19.495760
1148.000000	19.488574
1149.000000	19.480880
1150.000000	19.473246
1151.000000	19.464497
1152.000000	19.454663
1153.000000	19.443774
1154.000000	19.431871
1155.000000	19.418549
1156.000000	19.404689
1157.000000	19.388557
1158.000000	19.370323
1159.000000	19.350854
1160.000000	19.328980
1161.000000	19.306617
1162.000000	19.283049
1163.000000	19.257437
1164.000000	19.231100
1165.000000	19.203611
1166.000000	19.176277
1167.000000	19.148194
1168.000000	19.120246
1169.000000	19.091460
1170.000000	19.060703
1171.000000	19.029560
1172.000000	18.998574
1173.000000	18.968531
1174.000000	18.938089
1175.000000	18.908006
1176.000000	18.878469
1177.000000	18.848737
1178.000000	18.819074
1179.000000	18.789449
1180.000000	18.758786
1181.000000	18.728814
1182.000000	18.698346
1183.000000	18.669074
1184.000000	18.639794
1185.000000	18.610186
1186.000000	18.581257
1187.000000	18.553569
1188.000000	18.526594
1189.000000	18.500914
1190.000000	18.477114
1191.000000	18.456169
1192.000000	18.437660
1193.000000	18.421783
1194.000000	18.408209
1195.000000	18.397783
1196.000000	18.390066
