PE UV       SUBTECH     SPECTRUM    ASCII       PEDS        4.00        
   -1
ANGSOL0007-1.Sample.ASC
24/03/07
16:13:12.00
24/03/07
16:13:12.00
Vinicio Soto Monge
Chrysina auripes. (en otra etiqueta Plusiotis cholchihoilli). Mexico, Oaxaca, b Esperanza. 1-VII-1992. J. Blackaller col.
250,000000
1
Lambda 1050
1050L1511233
PerkinElmer UV WinLab 6.3.2.0749 / 2.02.05 Lambda 900 UV/VIS/NIR, Aug  7 2015 09:38:08

0
0
3350/servo 860,8/2
0
0
UV/VIS
1
1
1
DoubleDePol,CommonBeamDepol,RBeamAtt,SBeamAtt,60mm sphere, WB InGaAs Detector
0
0
0
0
Program
Program
3350/servo 860,8/2
3350/0,2 860,8/0,2
3350/0,2 860,8/0,2
0
15.00
 
 
 
0
 
860,8
319,2
860,8
Front
100
on
S:100 R:100
0
0
0
0
 
0
 
 
 
0
 
 
0
0
0
0
0
 
 
 
 
0
0


0
0
#HDR
-1
-1
#GR
nm
%R
1.0
0.0
2500,000000
-1,000000
2251
8
19,667200
2,645400
#DATA
250.000000	nan
251.000000	nan
252.000000	nan
253.000000	nan
254.000000	nan
255.000000	nan
256.000000	nan
257.000000	nan
258.000000	nan
259.000000	nan
260.000000	nan
261.000000	nan
262.000000	nan
263.000000	nan
264.000000	nan
265.000000	nan
266.000000	nan
267.000000	nan
268.000000	nan
269.000000	nan
270.000000	nan
271.000000	nan
272.000000	nan
273.000000	nan
274.000000	nan
275.000000	nan
276.000000	nan
277.000000	nan
278.000000	nan
279.000000	nan
280.000000	nan
281.000000	nan
282.000000	nan
283.000000	nan
284.000000	3.181983
285.000000	3.180119
286.000000	3.178638
287.000000	3.178967
288.000000	3.179118
289.000000	3.178338
290.000000	3.176130
291.000000	3.175897
292.000000	3.174349
293.000000	3.172822
294.000000	3.171933
295.000000	3.169167
296.000000	3.165964
297.000000	3.165998
298.000000	3.163914
299.000000	3.163570
300.000000	3.162279
301.000000	3.161861
302.000000	3.161672
303.000000	3.161384
304.000000	3.159943
305.000000	3.158503
306.000000	3.159894
307.000000	3.160300
308.000000	3.161204
309.000000	3.161532
310.000000	3.161638
311.000000	3.161922
312.000000	3.163843
313.000000	3.164134
314.000000	3.168368
315.000000	3.171338
316.000000	3.172078
317.000000	3.184256
318.000000	3.192170
319.000000	3.204772
320.000000	3.221126
321.000000	3.236299
322.000000	3.247269
323.000000	3.258305
324.000000	3.268017
325.000000	3.285263
326.000000	3.292659
327.000000	3.305658
328.000000	3.318806
329.000000	3.330519
330.000000	3.343593
331.000000	3.355384
332.000000	3.364363
333.000000	3.373434
334.000000	3.380409
335.000000	3.389701
336.000000	3.401136
337.000000	3.407587
338.000000	3.416721
339.000000	3.428521
340.000000	3.439950
341.000000	3.447811
342.000000	3.456780
343.000000	3.465325
344.000000	3.473456
345.000000	3.485677
346.000000	3.494857
347.000000	3.503725
348.000000	3.513651
349.000000	3.520078
350.000000	3.526632
351.000000	3.535205
352.000000	3.535611
353.000000	3.536543
354.000000	3.533944
355.000000	3.528651
356.000000	3.524690
357.000000	3.522531
358.000000	3.521329
359.000000	3.523033
360.000000	3.516482
361.000000	3.514732
362.000000	3.510684
363.000000	3.505441
364.000000	3.504013
365.000000	3.501646
366.000000	3.501327
367.000000	3.500652
368.000000	3.501879
369.000000	3.505332
370.000000	3.508408
371.000000	3.505986
372.000000	3.505726
373.000000	3.504632
374.000000	3.501396
375.000000	3.500110
376.000000	3.500414
377.000000	3.491779
378.000000	3.483035
379.000000	3.475398
380.000000	3.463761
381.000000	3.455805
382.000000	3.447328
383.000000	3.438724
384.000000	3.431454
385.000000	3.426195
386.000000	3.419412
387.000000	3.410505
388.000000	3.406311
389.000000	3.399823
390.000000	3.393145
391.000000	3.386793
392.000000	3.382252
393.000000	3.377067
394.000000	3.371867
395.000000	3.368869
396.000000	3.368603
397.000000	3.367122
398.000000	3.366218
399.000000	3.364483
400.000000	3.362730
401.000000	3.361160
402.000000	3.360677
403.000000	3.360401
404.000000	3.359491
405.000000	3.358410
406.000000	3.359726
407.000000	3.363433
408.000000	3.367590
409.000000	3.371294
410.000000	3.373753
411.000000	3.378086
412.000000	3.391476
413.000000	3.405048
414.000000	3.418960
415.000000	3.433808
416.000000	3.448585
417.000000	3.463408
418.000000	3.478619
419.000000	3.494136
420.000000	3.509898
421.000000	3.526375
422.000000	3.542923
423.000000	3.559667
424.000000	3.576835
425.000000	3.594284
426.000000	3.611827
427.000000	3.629527
428.000000	3.647435
429.000000	3.665728
430.000000	3.684438
431.000000	3.703027
432.000000	3.722146
433.000000	3.741346
434.000000	3.760447
435.000000	3.779959
436.000000	3.799893
437.000000	3.819972
438.000000	3.840314
439.000000	3.861022
440.000000	3.881978
441.000000	3.903185
442.000000	3.924558
443.000000	3.945629
444.000000	3.966916
445.000000	3.988380
446.000000	4.010060
447.000000	4.031570
448.000000	4.053012
449.000000	4.074975
450.000000	4.096912
451.000000	4.118679
452.000000	4.140214
453.000000	4.161762
454.000000	4.183458
455.000000	4.205051
456.000000	4.226719
457.000000	4.248270
458.000000	4.269972
459.000000	4.291857
460.000000	4.313376
461.000000	4.334948
462.000000	4.356908
463.000000	4.378749
464.000000	4.400303
465.000000	4.421714
466.000000	4.443611
467.000000	4.465641
468.000000	4.487684
469.000000	4.509990
470.000000	4.532132
471.000000	4.554305
472.000000	4.576633
473.000000	4.598890
474.000000	4.621168
475.000000	4.643418
476.000000	4.665768
477.000000	4.688207
478.000000	4.711068
479.000000	4.734542
480.000000	4.758393
481.000000	4.782592
482.000000	4.807314
483.000000	4.832661
484.000000	4.858418
485.000000	4.884837
486.000000	4.912133
487.000000	4.940593
488.000000	4.969880
489.000000	5.000168
490.000000	5.031409
491.000000	5.063308
492.000000	5.096296
493.000000	5.130294
494.000000	5.165259
495.000000	5.201638
496.000000	5.239353
497.000000	5.277960
498.000000	5.317895
499.000000	5.359156
500.000000	5.401827
501.000000	5.445488
502.000000	5.490729
503.000000	5.537274
504.000000	5.585098
505.000000	5.634601
506.000000	5.685361
507.000000	5.737304
508.000000	5.790443
509.000000	5.844731
510.000000	5.900023
511.000000	5.956720
512.000000	6.014576
513.000000	6.073110
514.000000	6.132533
515.000000	6.192954
516.000000	6.254046
517.000000	6.316114
518.000000	6.379031
519.000000	6.442444
520.000000	6.506426
521.000000	6.570941
522.000000	6.635985
523.000000	6.701724
524.000000	6.768081
525.000000	6.834737
526.000000	6.901519
527.000000	6.968375
528.000000	7.035578
529.000000	7.102478
530.000000	7.169161
531.000000	7.235500
532.000000	7.301582
533.000000	7.366927
534.000000	7.431904
535.000000	7.495809
536.000000	7.558710
537.000000	7.620007
538.000000	7.679402
539.000000	7.737174
540.000000	7.793293
541.000000	7.847553
542.000000	7.899552
543.000000	7.949265
544.000000	7.997058
545.000000	8.042618
546.000000	8.085187
547.000000	8.124710
548.000000	8.162013
549.000000	8.196373
550.000000	8.227692
551.000000	8.256270
552.000000	8.281593
553.000000	8.303881
554.000000	8.322461
555.000000	8.337705
556.000000	8.349698
557.000000	8.357943
558.000000	8.362300
559.000000	8.362542
560.000000	8.353157
561.000000	8.339545
562.000000	8.322114
563.000000	8.301059
564.000000	8.276954
565.000000	8.249391
566.000000	8.218199
567.000000	8.184108
568.000000	8.147072
569.000000	8.106780
570.000000	8.063583
571.000000	8.017788
572.000000	7.969673
573.000000	7.919427
574.000000	7.867285
575.000000	7.813152
576.000000	7.757263
577.000000	7.699924
578.000000	7.641746
579.000000	7.582339
580.000000	7.522095
581.000000	7.461253
582.000000	7.400634
583.000000	7.339511
584.000000	7.278217
585.000000	7.216824
586.000000	7.155323
587.000000	7.094385
588.000000	7.033237
589.000000	6.973247
590.000000	6.913499
591.000000	6.854271
592.000000	6.796300
593.000000	6.739138
594.000000	6.683047
595.000000	6.633662
596.000000	6.586860
597.000000	6.541201
598.000000	6.496797
599.000000	6.453405
600.000000	6.411255
601.000000	6.371167
602.000000	6.332183
603.000000	6.294601
604.000000	6.258271
605.000000	6.224137
606.000000	6.191594
607.000000	6.160607
608.000000	6.131332
609.000000	6.103296
610.000000	6.077025
611.000000	6.052093
612.000000	6.028907
613.000000	6.006917
614.000000	5.986447
615.000000	5.966857
616.000000	5.948999
617.000000	5.931800
618.000000	5.915921
619.000000	5.901122
620.000000	5.887408
621.000000	5.874833
622.000000	5.862887
623.000000	5.852298
624.000000	5.842681
625.000000	5.834371
626.000000	5.826811
627.000000	5.820114
628.000000	5.814806
629.000000	5.810380
630.000000	5.807193
631.000000	5.804666
632.000000	5.803681
633.000000	5.803396
634.000000	5.804604
635.000000	5.807119
636.000000	5.809956
637.000000	5.814394
638.000000	5.820164
639.000000	5.827467
640.000000	5.835446
641.000000	5.844827
642.000000	5.855627
643.000000	5.867839
644.000000	5.881418
645.000000	5.896315
646.000000	5.912393
647.000000	5.929932
648.000000	5.949039
649.000000	5.968809
650.000000	5.990037
651.000000	6.011978
652.000000	6.035653
653.000000	6.060740
654.000000	6.086831
655.000000	6.114616
656.000000	6.143696
657.000000	6.174061
658.000000	6.205782
659.000000	6.238347
660.000000	6.271809
661.000000	6.307396
662.000000	6.343968
663.000000	6.381905
664.000000	6.420980
665.000000	6.461166
666.000000	6.501870
667.000000	6.543586
668.000000	6.586170
669.000000	6.629580
670.000000	6.673725
671.000000	6.719492
672.000000	6.765093
673.000000	6.811331
674.000000	6.858009
675.000000	6.905368
676.000000	6.952886
677.000000	7.000688
678.000000	7.049122
679.000000	7.098272
680.000000	7.147409
681.000000	7.197315
682.000000	7.246842
683.000000	7.297101
684.000000	7.347836
685.000000	7.399089
686.000000	7.450738
687.000000	7.503056
688.000000	7.555582
689.000000	7.608516
690.000000	7.661661
691.000000	7.714803
692.000000	7.768651
693.000000	7.823196
694.000000	7.878014
695.000000	7.933504
696.000000	7.988987
697.000000	8.044508
698.000000	8.099914
699.000000	8.155499
700.000000	8.212064
701.000000	8.269610
702.000000	8.327193
703.000000	8.385796
704.000000	8.444550
705.000000	8.502911
706.000000	8.560763
707.000000	8.619267
708.000000	8.678377
709.000000	8.737732
710.000000	8.797019
711.000000	8.856448
712.000000	8.916026
713.000000	8.975161
714.000000	9.033887
715.000000	9.092580
716.000000	9.151228
717.000000	9.210438
718.000000	9.269164
719.000000	9.328110
720.000000	9.387239
721.000000	9.446501
722.000000	9.504503
723.000000	9.562492
724.000000	9.620797
725.000000	9.679028
726.000000	9.737447
727.000000	9.794941
728.000000	9.851635
729.000000	9.908392
730.000000	9.965241
731.000000	10.021620
732.000000	10.078361
733.000000	10.134913
734.000000	10.191108
735.000000	10.246496
736.000000	10.301422
737.000000	10.355697
738.000000	10.409242
739.000000	10.462347
740.000000	10.515523
741.000000	10.568587
742.000000	10.621367
743.000000	10.673041
744.000000	10.723978
745.000000	10.775069
746.000000	10.825557
747.000000	10.874945
748.000000	10.924807
749.000000	10.974313
750.000000	11.023156
751.000000	11.071624
752.000000	11.119340
753.000000	11.166365
754.000000	11.212653
755.000000	11.258250
756.000000	11.302834
757.000000	11.347075
758.000000	11.390519
759.000000	11.433165
760.000000	11.475876
761.000000	11.517933
762.000000	11.559132
763.000000	11.599987
764.000000	11.640059
765.000000	11.678963
766.000000	11.718099
767.000000	11.755894
768.000000	11.791413
769.000000	11.827400
770.000000	11.863287
771.000000	11.897778
772.000000	11.931079
773.000000	11.963851
774.000000	11.996055
775.000000	12.027957
776.000000	12.059341
777.000000	12.090842
778.000000	12.122233
779.000000	12.151715
780.000000	12.180349
781.000000	12.209531
782.000000	12.238211
783.000000	12.265383
784.000000	12.292164
785.000000	12.318831
786.000000	12.344179
787.000000	12.369000
788.000000	12.393468
789.000000	12.417363
790.000000	12.440227
791.000000	12.462526
792.000000	12.484703
793.000000	12.507117
794.000000	12.529652
795.000000	12.549261
796.000000	12.569365
797.000000	12.589345
798.000000	12.608133
799.000000	12.627493
800.000000	12.647399
801.000000	12.665289
802.000000	12.682596
803.000000	12.702489
804.000000	12.722339
805.000000	12.740573
806.000000	12.757613
807.000000	12.775345
808.000000	12.795647
809.000000	12.814119
810.000000	12.831832
811.000000	12.849551
812.000000	12.866450
813.000000	12.882413
814.000000	12.898794
815.000000	12.914336
816.000000	12.927669
817.000000	12.943477
818.000000	12.960670
819.000000	12.977249
820.000000	12.992707
821.000000	13.008435
822.000000	13.025253
823.000000	13.041724
824.000000	13.057383
825.000000	13.072467
826.000000	13.087408
827.000000	13.103727
828.000000	13.119195
829.000000	13.134575
830.000000	13.151827
831.000000	13.166690
832.000000	13.180268
833.000000	13.196105
834.000000	13.211529
835.000000	13.224878
836.000000	13.236786
837.000000	13.254183
838.000000	13.269735
839.000000	13.280513
840.000000	13.291935
841.000000	13.306269
842.000000	13.320222
843.000000	13.328501
844.000000	13.340757
845.000000	13.353025
846.000000	13.361982
847.000000	13.371555
848.000000	13.384579
849.000000	13.392449
850.000000	13.398452
851.000000	13.404185
852.000000	13.408428
853.000000	13.410360
854.000000	13.411968
855.000000	13.410354
856.000000	13.411283
857.000000	13.409013
858.000000	13.439988
859.000000	13.445608
860.000000	13.453632
861.000000	13.464036
862.000000	13.474063
863.000000	13.485045
864.000000	13.496198
865.000000	13.508120
866.000000	13.522228
867.000000	13.538445
868.000000	13.553274
869.000000	13.569031
870.000000	13.586413
871.000000	13.606743
872.000000	13.622242
873.000000	13.639373
874.000000	13.660552
875.000000	13.683213
876.000000	13.704098
877.000000	13.727208
878.000000	13.753288
879.000000	13.777218
880.000000	13.801978
881.000000	13.830108
882.000000	13.858414
883.000000	13.883870
884.000000	13.916966
885.000000	13.952712
886.000000	13.990795
887.000000	14.028985
888.000000	14.068653
889.000000	14.108770
890.000000	14.153381
891.000000	14.196270
892.000000	14.241975
893.000000	14.254963
894.000000	14.294697
895.000000	14.333543
896.000000	14.371137
897.000000	14.408300
898.000000	14.444800
899.000000	14.482569
900.000000	14.519474
901.000000	14.554911
902.000000	14.591406
903.000000	14.628200
904.000000	14.665037
905.000000	14.702374
906.000000	14.739371
907.000000	14.776080
908.000000	14.812943
909.000000	14.850731
910.000000	14.887511
911.000000	14.924383
912.000000	14.959926
913.000000	14.996003
914.000000	15.031777
915.000000	15.067837
916.000000	15.102980
917.000000	15.138740
918.000000	15.175031
919.000000	15.210046
920.000000	15.244980
921.000000	15.279083
922.000000	15.311971
923.000000	15.345229
924.000000	15.379300
925.000000	15.412626
926.000000	15.446311
927.000000	15.479243
928.000000	15.511189
929.000000	15.543140
930.000000	15.574994
931.000000	15.606343
932.000000	15.637357
933.000000	15.668420
934.000000	15.697991
935.000000	15.728017
936.000000	15.759737
937.000000	15.790914
938.000000	15.821786
939.000000	15.851491
940.000000	15.879357
941.000000	15.907066
942.000000	15.935574
943.000000	15.962577
944.000000	15.988320
945.000000	16.014503
946.000000	16.041031
947.000000	16.067937
948.000000	16.094003
949.000000	16.119726
950.000000	16.145186
951.000000	16.171480
952.000000	16.195909
953.000000	16.220251
954.000000	16.244511
955.000000	16.268697
956.000000	16.293334
957.000000	16.319157
958.000000	16.344977
959.000000	16.369946
960.000000	16.394903
961.000000	16.418566
962.000000	16.442849
963.000000	16.468426
964.000000	16.493709
965.000000	16.518354
966.000000	16.543220
967.000000	16.568349
968.000000	16.593660
969.000000	16.618077
970.000000	16.641926
971.000000	16.665306
972.000000	16.688457
973.000000	16.710969
974.000000	16.733037
975.000000	16.756851
976.000000	16.781054
977.000000	16.804709
978.000000	16.828911
979.000000	16.852643
980.000000	16.876229
981.000000	16.899334
982.000000	16.921791
983.000000	16.944257
984.000000	16.967383
985.000000	16.990154
986.000000	17.012900
987.000000	17.035969
988.000000	17.058280
989.000000	17.080494
990.000000	17.102866
991.000000	17.124869
992.000000	17.146243
993.000000	17.167054
994.000000	17.188117
995.000000	17.209874
996.000000	17.232206
997.000000	17.253649
998.000000	17.273897
999.000000	17.294094
1000.000000	17.315343
1001.000000	17.336831
1002.000000	17.358120
1003.000000	17.378740
1004.000000	17.399820
1005.000000	17.420954
1006.000000	17.442157
1007.000000	17.462874
1008.000000	17.483714
1009.000000	17.504506
1010.000000	17.524240
1011.000000	17.543506
1012.000000	17.563326
1013.000000	17.583220
1014.000000	17.603523
1015.000000	17.623169
1016.000000	17.643554
1017.000000	17.664157
1018.000000	17.685114
1019.000000	17.705429
1020.000000	17.725097
1021.000000	17.744146
1022.000000	17.763957
1023.000000	17.784609
1024.000000	17.805080
1025.000000	17.825614
1026.000000	17.845891
1027.000000	17.865951
1028.000000	17.885486
1029.000000	17.905297
1030.000000	17.925589
1031.000000	17.945860
1032.000000	17.966320
1033.000000	17.987011
1034.000000	18.008157
1035.000000	18.028863
1036.000000	18.048880
1037.000000	18.068683
1038.000000	18.088929
1039.000000	18.109506
1040.000000	18.129734
1041.000000	18.149491
1042.000000	18.169320
1043.000000	18.189603
1044.000000	18.210451
1045.000000	18.231566
1046.000000	18.252323
1047.000000	18.273043
1048.000000	18.293466
1049.000000	18.313377
1050.000000	18.333766
1051.000000	18.354280
1052.000000	18.374257
1053.000000	18.393457
1054.000000	18.412691
1055.000000	18.432831
1056.000000	18.453563
1057.000000	18.474160
1058.000000	18.494454
1059.000000	18.514851
1060.000000	18.534763
1061.000000	18.554611
1062.000000	18.574531
1063.000000	18.595066
1064.000000	18.615617
1065.000000	18.635217
1066.000000	18.654823
1067.000000	18.675169
1068.000000	18.695720
1069.000000	18.715871
1070.000000	18.735163
1071.000000	18.754131
1072.000000	18.772966
1073.000000	18.791757
1074.000000	18.810886
1075.000000	18.830114
1076.000000	18.849566
1077.000000	18.869440
1078.000000	18.888771
1079.000000	18.907683
1080.000000	18.926577
1081.000000	18.945929
1082.000000	18.964794
1083.000000	18.984020
1084.000000	19.003737
1085.000000	19.022109
1086.000000	19.039820
1087.000000	19.057640
1088.000000	19.075994
1089.000000	19.094617
1090.000000	19.112637
1091.000000	19.130034
1092.000000	19.147009
1093.000000	19.164100
1094.000000	19.181374
1095.000000	19.197843
1096.000000	19.214411
1097.000000	19.230974
1098.000000	19.246911
1099.000000	19.261763
1100.000000	19.276800
1101.000000	19.292100
1102.000000	19.306431
1103.000000	19.320669
1104.000000	19.334137
1105.000000	19.348111
1106.000000	19.362160
1107.000000	19.375929
1108.000000	19.389620
1109.000000	19.402797
1110.000000	19.414994
1111.000000	19.426546
1112.000000	19.437363
1113.000000	19.448886
1114.000000	19.459600
1115.000000	19.469617
1116.000000	19.478957
1117.000000	19.488900
1118.000000	19.498169
1119.000000	19.506683
1120.000000	19.515400
1121.000000	19.523794
1122.000000	19.532506
1123.000000	19.541317
1124.000000	19.548846
1125.000000	19.556009
1126.000000	19.562903
1127.000000	19.569249
1128.000000	19.574337
1129.000000	19.578457
1130.000000	19.582874
1131.000000	19.586260
1132.000000	19.588089
1133.000000	19.588057
1134.000000	19.588709
1135.000000	19.589757
1136.000000	19.588863
1137.000000	19.587209
1138.000000	19.584894
1139.000000	19.581889
1140.000000	19.577731
1141.000000	19.573306
1142.000000	19.567914
1143.000000	19.561846
1144.000000	19.554086
1145.000000	19.547371
1146.000000	19.540749
1147.000000	19.532997
1148.000000	19.523940
1149.000000	19.516303
1150.000000	19.507737
1151.000000	19.498511
1152.000000	19.488271
1153.000000	19.477320
1154.000000	19.466877
1155.000000	19.454949
1156.000000	19.442483
1157.000000	19.429100
1158.000000	19.413557
1159.000000	19.397620
1160.000000	19.380437
1161.000000	19.362731
1162.000000	19.343317
1163.000000	19.323371
1164.000000	19.302226
1165.000000	19.280426
1166.000000	19.257683
1167.000000	19.235709
1168.000000	19.213814
1169.000000	19.191323
1170.000000	19.166700
1171.000000	19.142074
1172.000000	19.117197
1173.000000	19.092489
1174.000000	19.067343
1175.000000	19.042840
1176.000000	19.018871
1177.000000	18.994983
1178.000000	18.970851
1179.000000	18.947680
1180.000000	18.923220
1181.000000	18.898909
1182.000000	18.874654
1183.000000	18.851071
1184.000000	18.826954
1185.000000	18.803920
