PE UV       SUBTECH     SPECTRUM    ASCII       PEDS        4.00        
   -1
ANGSOL0003-1.Sample.ASC
24/03/07
10:15:07.00
24/03/07
10:15:07.00
Vinicio Soto Monge

250,000000
1
Lambda 1050
1050L1511233
PerkinElmer UV WinLab 6.3.2.0749 / 2.02.05 Lambda 900 UV/VIS/NIR, Aug  7 2015 09:38:08

0
0
3350/servo 860,8/2
0
0
UV/VIS
1
1
1
DoubleDePol,CommonBeamDepol,RBeamAtt,SBeamAtt,60mm sphere, WB InGaAs Detector
0
0
0
0
Program
Program
3350/servo 860,8/2
3350/0,2 860,8/0,2
3350/0,2 860,8/0,2
0
15.00
 
 
 
0
 
860,8
319,2
860,8
Front
100
on
S:100 R:100
0
0
0
0
 
0
 
 
 
0
 
 
0
0
0
0
0
 
 
 
 
0
0


0
0
#HDR
-1
-1
#GR
nm
%R
1.0
0.0
2500,000000
-1,000000
2251
8
20,293700
1,991500
#DATA
250.000000	nan
251.000000	nan
252.000000	nan
253.000000	nan
254.000000	nan
255.000000	nan
256.000000	nan
257.000000	nan
258.000000	nan
259.000000	nan
260.000000	nan
261.000000	nan
262.000000	nan
263.000000	nan
264.000000	nan
265.000000	nan
266.000000	nan
267.000000	nan
268.000000	nan
269.000000	nan
270.000000	nan
271.000000	nan
272.000000	nan
273.000000	nan
274.000000	nan
275.000000	nan
276.000000	nan
277.000000	nan
278.000000	nan
279.000000	nan
280.000000	nan
281.000000	nan
282.000000	nan
283.000000	nan
284.000000	2.786732
285.000000	2.779725
286.000000	2.773967
287.000000	2.768078
288.000000	2.762309
289.000000	2.757691
290.000000	2.754303
291.000000	2.750268
292.000000	2.745391
293.000000	2.739910
294.000000	2.735155
295.000000	2.726870
296.000000	2.724241
297.000000	2.719698
298.000000	2.713779
299.000000	2.710489
300.000000	2.708509
301.000000	2.705279
302.000000	2.701355
303.000000	2.700703
304.000000	2.699801
305.000000	2.698372
306.000000	2.692923
307.000000	2.690019
308.000000	2.687960
309.000000	2.687262
310.000000	2.684698
311.000000	2.684555
312.000000	2.682475
313.000000	2.680645
314.000000	2.680126
315.000000	2.675708
316.000000	2.677176
317.000000	2.697706
318.000000	2.707585
319.000000	2.731341
320.000000	2.761880
321.000000	2.770201
322.000000	2.781619
323.000000	2.785751
324.000000	2.787903
325.000000	2.794788
326.000000	2.801075
327.000000	2.803657
328.000000	2.812497
329.000000	2.824083
330.000000	2.833067
331.000000	2.834238
332.000000	2.842573
333.000000	2.851560
334.000000	2.857801
335.000000	2.864883
336.000000	2.865800
337.000000	2.869792
338.000000	2.869885
339.000000	2.874425
340.000000	2.881386
341.000000	2.887465
342.000000	2.894598
343.000000	2.900019
344.000000	2.898257
345.000000	2.902579
346.000000	2.906245
347.000000	2.913707
348.000000	2.915741
349.000000	2.922658
350.000000	2.927943
351.000000	2.930718
352.000000	2.916711
353.000000	2.910678
354.000000	2.892478
355.000000	2.863759
356.000000	2.855928
357.000000	2.848986
358.000000	2.848796
359.000000	2.849906
360.000000	2.844904
361.000000	2.839995
362.000000	2.836895
363.000000	2.829934
364.000000	2.823811
365.000000	2.819096
366.000000	2.817341
367.000000	2.808745
368.000000	2.803141
369.000000	2.799067
370.000000	2.793080
371.000000	2.790584
372.000000	2.785937
373.000000	2.783323
374.000000	2.780269
375.000000	2.777630
376.000000	2.775553
377.000000	2.764952
378.000000	2.755768
379.000000	2.752370
380.000000	2.744554
381.000000	2.735609
382.000000	2.723640
383.000000	2.716525
384.000000	2.705934
385.000000	2.699146
386.000000	2.690846
387.000000	2.680155
388.000000	2.673409
389.000000	2.666219
390.000000	2.662564
391.000000	2.658919
392.000000	2.651607
393.000000	2.645130
394.000000	2.638295
395.000000	2.633347
396.000000	2.630898
397.000000	2.630644
398.000000	2.628631
399.000000	2.623733
400.000000	2.622050
401.000000	2.622709
402.000000	2.623254
403.000000	2.622208
404.000000	2.622065
405.000000	2.620955
406.000000	2.623726
407.000000	2.628517
408.000000	2.631886
409.000000	2.632513
410.000000	2.631922
411.000000	2.634346
412.000000	2.642957
413.000000	2.652327
414.000000	2.661944
415.000000	2.671658
416.000000	2.681272
417.000000	2.691301
418.000000	2.701484
419.000000	2.711878
420.000000	2.722347
421.000000	2.733110
422.000000	2.744081
423.000000	2.755166
424.000000	2.766298
425.000000	2.777551
426.000000	2.789582
427.000000	2.802035
428.000000	2.814366
429.000000	2.826271
430.000000	2.837918
431.000000	2.850067
432.000000	2.863007
433.000000	2.875997
434.000000	2.888865
435.000000	2.901873
436.000000	2.915630
437.000000	2.929952
438.000000	2.944270
439.000000	2.958771
440.000000	2.973555
441.000000	2.988904
442.000000	3.004143
443.000000	3.019074
444.000000	3.034405
445.000000	3.050170
446.000000	3.066576
447.000000	3.083949
448.000000	3.101676
449.000000	3.119571
450.000000	3.137910
451.000000	3.156919
452.000000	3.176698
453.000000	3.197060
454.000000	3.217938
455.000000	3.239983
456.000000	3.262973
457.000000	3.286605
458.000000	3.311507
459.000000	3.337358
460.000000	3.364026
461.000000	3.392054
462.000000	3.421475
463.000000	3.452067
464.000000	3.484438
465.000000	3.518496
466.000000	3.553706
467.000000	3.589880
468.000000	3.627812
469.000000	3.667795
470.000000	3.709332
471.000000	3.752109
472.000000	3.796417
473.000000	3.842824
474.000000	3.891361
475.000000	3.941545
476.000000	3.993309
477.000000	4.046962
478.000000	4.102732
479.000000	4.160228
480.000000	4.219388
481.000000	4.279680
482.000000	4.340928
483.000000	4.403845
484.000000	4.468917
485.000000	4.536441
486.000000	4.606110
487.000000	4.677964
488.000000	4.752177
489.000000	4.828445
490.000000	4.907044
491.000000	4.988389
492.000000	5.072037
493.000000	5.157740
494.000000	5.245984
495.000000	5.336267
496.000000	5.428171
497.000000	5.521908
498.000000	5.617944
499.000000	5.715581
500.000000	5.814531
501.000000	5.915186
502.000000	6.017341
503.000000	6.120825
504.000000	6.225980
505.000000	6.332808
506.000000	6.441118
507.000000	6.550602
508.000000	6.661333
509.000000	6.773506
510.000000	6.886632
511.000000	7.001383
512.000000	7.117774
513.000000	7.235497
514.000000	7.354370
515.000000	7.474252
516.000000	7.596010
517.000000	7.719505
518.000000	7.843494
519.000000	7.967616
520.000000	8.091110
521.000000	8.214079
522.000000	8.336138
523.000000	8.456579
524.000000	8.575716
525.000000	8.692662
526.000000	8.807242
527.000000	8.919712
528.000000	9.030034
529.000000	9.137951
530.000000	9.244295
531.000000	9.348638
532.000000	9.450624
533.000000	9.550488
534.000000	9.648586
535.000000	9.744522
536.000000	9.838081
537.000000	9.928703
538.000000	10.016225
539.000000	10.100334
540.000000	10.181328
541.000000	10.259387
542.000000	10.334097
543.000000	10.404945
544.000000	10.470514
545.000000	10.532185
546.000000	10.589795
547.000000	10.642543
548.000000	10.689286
549.000000	10.730863
550.000000	10.767484
551.000000	10.798703
552.000000	10.824135
553.000000	10.844869
554.000000	10.860470
555.000000	10.871129
556.000000	10.876410
557.000000	10.876646
558.000000	10.872189
559.000000	10.863030
560.000000	10.842317
561.000000	10.816279
562.000000	10.785415
563.000000	10.749861
564.000000	10.709734
565.000000	10.664524
566.000000	10.614876
567.000000	10.561062
568.000000	10.502341
569.000000	10.438913
570.000000	10.370676
571.000000	10.298260
572.000000	10.222225
573.000000	10.143533
574.000000	10.062048
575.000000	9.977827
576.000000	9.891523
577.000000	9.803396
578.000000	9.714206
579.000000	9.625102
580.000000	9.534591
581.000000	9.442346
582.000000	9.348960
583.000000	9.255230
584.000000	9.160379
585.000000	9.064977
586.000000	8.968722
587.000000	8.873313
588.000000	8.778387
589.000000	8.683417
590.000000	8.589265
591.000000	8.495846
592.000000	8.403688
593.000000	8.312550
594.000000	8.222923
595.000000	8.140818
596.000000	8.060984
597.000000	7.982482
598.000000	7.905845
599.000000	7.830669
600.000000	7.757258
601.000000	7.685598
602.000000	7.615685
603.000000	7.547842
604.000000	7.482372
605.000000	7.418994
606.000000	7.356901
607.000000	7.297193
608.000000	7.238917
609.000000	7.181400
610.000000	7.125232
611.000000	7.070000
612.000000	7.015411
613.000000	6.960952
614.000000	6.906973
615.000000	6.854414
616.000000	6.803324
617.000000	6.753448
618.000000	6.704993
619.000000	6.658866
620.000000	6.613762
621.000000	6.570721
622.000000	6.528217
623.000000	6.486561
624.000000	6.446424
625.000000	6.406953
626.000000	6.369193
627.000000	6.332482
628.000000	6.297046
629.000000	6.262569
630.000000	6.229951
631.000000	6.197655
632.000000	6.167221
633.000000	6.137463
634.000000	6.109238
635.000000	6.081679
636.000000	6.055362
637.000000	6.029755
638.000000	6.005193
639.000000	5.980394
640.000000	5.956394
641.000000	5.933361
642.000000	5.910689
643.000000	5.888103
644.000000	5.866971
645.000000	5.846025
646.000000	5.825273
647.000000	5.805132
648.000000	5.785748
649.000000	5.766295
650.000000	5.747239
651.000000	5.728051
652.000000	5.709132
653.000000	5.690779
654.000000	5.671877
655.000000	5.653613
656.000000	5.635145
657.000000	5.616788
658.000000	5.598423
659.000000	5.580263
660.000000	5.562375
661.000000	5.544207
662.000000	5.525406
663.000000	5.506798
664.000000	5.488377
665.000000	5.470055
666.000000	5.452146
667.000000	5.434082
668.000000	5.416248
669.000000	5.397572
670.000000	5.379347
671.000000	5.360349
672.000000	5.341132
673.000000	5.321501
674.000000	5.302241
675.000000	5.283540
676.000000	5.264667
677.000000	5.245343
678.000000	5.226449
679.000000	5.207426
680.000000	5.188424
681.000000	5.169387
682.000000	5.150081
683.000000	5.130732
684.000000	5.111701
685.000000	5.092331
686.000000	5.073619
687.000000	5.054693
688.000000	5.035355
689.000000	5.016403
690.000000	4.997097
691.000000	4.978357
692.000000	4.959849
693.000000	4.941266
694.000000	4.922873
695.000000	4.904448
696.000000	4.886116
697.000000	4.868120
698.000000	4.850365
699.000000	4.832609
700.000000	4.815441
701.000000	4.798251
702.000000	4.780814
703.000000	4.763871
704.000000	4.747590
705.000000	4.731392
706.000000	4.715677
707.000000	4.700396
708.000000	4.685243
709.000000	4.670506
710.000000	4.655743
711.000000	4.641579
712.000000	4.627740
713.000000	4.614099
714.000000	4.600718
715.000000	4.587585
716.000000	4.574663
717.000000	4.562321
718.000000	4.550341
719.000000	4.539001
720.000000	4.528109
721.000000	4.516816
722.000000	4.506125
723.000000	4.496508
724.000000	4.487524
725.000000	4.478949
726.000000	4.470435
727.000000	4.462615
728.000000	4.455296
729.000000	4.448450
730.000000	4.442023
731.000000	4.435951
732.000000	4.430358
733.000000	4.425167
734.000000	4.420014
735.000000	4.414880
736.000000	4.410383
737.000000	4.406534
738.000000	4.402982
739.000000	4.399874
740.000000	4.397629
741.000000	4.395928
742.000000	4.394396
743.000000	4.393268
744.000000	4.392659
745.000000	4.392391
746.000000	4.392054
747.000000	4.391882
748.000000	4.392333
749.000000	4.393569
750.000000	4.395237
751.000000	4.397213
752.000000	4.399845
753.000000	4.402713
754.000000	4.406043
755.000000	4.410132
756.000000	4.414343
757.000000	4.419097
758.000000	4.424644
759.000000	4.430108
760.000000	4.435865
761.000000	4.442192
762.000000	4.448468
763.000000	4.455221
764.000000	4.462357
765.000000	4.469894
766.000000	4.477556
767.000000	4.485616
768.000000	4.494646
769.000000	4.504829
770.000000	4.515678
771.000000	4.526731
772.000000	4.537991
773.000000	4.549041
774.000000	4.560996
775.000000	4.573514
776.000000	4.585941
777.000000	4.599472
778.000000	4.613103
779.000000	4.627640
780.000000	4.642682
781.000000	4.658600
782.000000	4.675926
783.000000	4.693256
784.000000	4.711044
785.000000	4.729455
786.000000	4.747554
787.000000	4.765482
788.000000	4.784211
789.000000	4.803528
790.000000	4.822598
791.000000	4.842241
792.000000	4.862989
793.000000	4.882607
794.000000	4.903506
795.000000	4.925501
796.000000	4.947267
797.000000	4.970071
798.000000	4.994179
799.000000	5.019489
800.000000	5.044241
801.000000	5.069269
802.000000	5.096520
803.000000	5.123682
804.000000	5.150210
805.000000	5.177758
806.000000	5.206334
807.000000	5.235221
808.000000	5.264231
809.000000	5.293626
810.000000	5.323473
811.000000	5.354219
812.000000	5.385230
813.000000	5.417708
814.000000	5.449836
815.000000	5.481721
816.000000	5.513222
817.000000	5.543756
818.000000	5.576990
819.000000	5.609791
820.000000	5.642417
821.000000	5.674924
822.000000	5.710661
823.000000	5.745854
824.000000	5.780570
825.000000	5.815408
826.000000	5.850637
827.000000	5.887158
828.000000	5.923661
829.000000	5.960662
830.000000	5.997434
831.000000	6.034832
832.000000	6.070526
833.000000	6.110030
834.000000	6.145244
835.000000	6.178037
836.000000	6.216990
837.000000	6.253589
838.000000	6.287389
839.000000	6.322768
840.000000	6.358015
841.000000	6.395642
842.000000	6.433230
843.000000	6.469214
844.000000	6.505141
845.000000	6.536710
846.000000	6.570997
847.000000	6.602724
848.000000	6.630981
849.000000	6.666091
850.000000	6.697034
851.000000	6.731285
852.000000	6.762944
853.000000	6.785669
854.000000	6.816554
855.000000	6.848840
856.000000	6.887230
857.000000	6.926780
858.000000	7.018824
859.000000	7.062380
860.000000	7.106862
861.000000	7.152078
862.000000	7.195619
863.000000	7.240112
864.000000	7.284275
865.000000	7.328486
866.000000	7.372804
867.000000	7.418145
868.000000	7.458000
869.000000	7.501159
870.000000	7.547105
871.000000	7.586908
872.000000	7.627564
873.000000	7.671330
874.000000	7.712237
875.000000	7.752288
876.000000	7.789342
877.000000	7.826296
878.000000	7.865925
879.000000	7.904475
880.000000	7.945953
881.000000	7.984955
882.000000	8.025826
883.000000	8.069339
884.000000	8.105589
885.000000	8.146577
886.000000	8.185050
887.000000	8.225980
888.000000	8.273425
889.000000	8.313195
890.000000	8.351200
891.000000	8.384772
892.000000	8.414458
893.000000	8.392526
894.000000	8.419049
895.000000	8.444851
896.000000	8.470997
897.000000	8.496357
898.000000	8.522000
899.000000	8.547146
900.000000	8.572763
901.000000	8.598326
902.000000	8.625080
903.000000	8.652751
904.000000	8.680769
905.000000	8.710391
906.000000	8.740777
907.000000	8.771089
908.000000	8.801300
909.000000	8.833606
910.000000	8.866700
911.000000	8.900406
912.000000	8.934794
913.000000	8.968691
914.000000	9.004106
915.000000	9.041334
916.000000	9.079220
917.000000	9.116763
918.000000	9.155569
919.000000	9.194691
920.000000	9.233589
921.000000	9.273074
922.000000	9.313880
923.000000	9.355486
924.000000	9.397029
925.000000	9.439120
926.000000	9.481611
927.000000	9.524451
928.000000	9.567063
929.000000	9.610323
930.000000	9.654723
931.000000	9.698249
932.000000	9.742403
933.000000	9.786923
934.000000	9.832029
935.000000	9.877249
936.000000	9.923646
937.000000	9.969051
938.000000	10.015166
939.000000	10.061540
940.000000	10.107097
941.000000	10.152543
942.000000	10.198080
943.000000	10.243760
944.000000	10.290066
945.000000	10.336049
946.000000	10.382754
947.000000	10.429817
948.000000	10.477489
949.000000	10.524751
950.000000	10.571797
951.000000	10.618097
952.000000	10.664946
953.000000	10.711909
954.000000	10.759217
955.000000	10.807023
956.000000	10.854840
957.000000	10.902420
958.000000	10.949946
959.000000	10.997771
960.000000	11.046197
961.000000	11.094866
962.000000	11.143489
963.000000	11.192220
964.000000	11.240874
965.000000	11.289403
966.000000	11.338251
967.000000	11.387540
968.000000	11.437026
969.000000	11.486420
970.000000	11.535651
971.000000	11.583866
972.000000	11.632323
973.000000	11.680571
974.000000	11.729326
975.000000	11.778474
976.000000	11.828214
977.000000	11.878577
978.000000	11.929240
979.000000	11.979423
980.000000	12.029360
981.000000	12.078797
982.000000	12.127866
983.000000	12.177006
984.000000	12.225917
985.000000	12.274714
986.000000	12.324123
987.000000	12.373926
988.000000	12.423320
989.000000	12.472600
990.000000	12.521900
991.000000	12.570823
992.000000	12.619674
993.000000	12.668386
994.000000	12.717263
995.000000	12.766451
996.000000	12.814903
997.000000	12.863694
998.000000	12.912646
999.000000	12.961286
1000.000000	13.009620
1001.000000	13.057831
1002.000000	13.105826
1003.000000	13.153989
1004.000000	13.202089
1005.000000	13.250023
1006.000000	13.298329
1007.000000	13.346740
1008.000000	13.394937
1009.000000	13.442149
1010.000000	13.489329
1011.000000	13.536820
1012.000000	13.584043
1013.000000	13.630846
1014.000000	13.677537
1015.000000	13.724103
1016.000000	13.770806
1017.000000	13.818311
1018.000000	13.865717
1019.000000	13.912931
1020.000000	13.960157
1021.000000	14.007034
1022.000000	14.053594
1023.000000	14.100151
1024.000000	14.146889
1025.000000	14.193631
1026.000000	14.240943
1027.000000	14.288569
1028.000000	14.336129
1029.000000	14.383403
1030.000000	14.429860
1031.000000	14.476394
1032.000000	14.523343
1033.000000	14.569580
1034.000000	14.615991
1035.000000	14.662654
1036.000000	14.709740
1037.000000	14.756980
1038.000000	14.804031
1039.000000	14.850869
1040.000000	14.897286
1041.000000	14.943349
1042.000000	14.990071
1043.000000	15.036843
1044.000000	15.083511
1045.000000	15.130243
1046.000000	15.176391
1047.000000	15.222226
1048.000000	15.268089
1049.000000	15.314103
1050.000000	15.360594
1051.000000	15.406406
1052.000000	15.451469
1053.000000	15.496614
1054.000000	15.542434
1055.000000	15.587880
1056.000000	15.633031
1057.000000	15.677931
1058.000000	15.722391
1059.000000	15.766831
1060.000000	15.811263
1061.000000	15.855583
1062.000000	15.899529
1063.000000	15.943420
1064.000000	15.987277
1065.000000	16.031440
1066.000000	16.075657
1067.000000	16.119206
1068.000000	16.163149
1069.000000	16.206971
1070.000000	16.250426
1071.000000	16.293894
1072.000000	16.337551
1073.000000	16.380731
1074.000000	16.423446
1075.000000	16.466649
1076.000000	16.509580
1077.000000	16.551863
1078.000000	16.593817
1079.000000	16.636049
1080.000000	16.678454
1081.000000	16.720543
1082.000000	16.762394
1083.000000	16.804529
1084.000000	16.846723
1085.000000	16.888211
1086.000000	16.929920
1087.000000	16.971731
1088.000000	17.013460
1089.000000	17.054303
1090.000000	17.094946
1091.000000	17.135149
1092.000000	17.176054
1093.000000	17.216571
1094.000000	17.256766
1095.000000	17.296429
1096.000000	17.335431
1097.000000	17.374317
1098.000000	17.413114
1099.000000	17.451317
1100.000000	17.489291
1101.000000	17.526803
1102.000000	17.564197
1103.000000	17.601060
1104.000000	17.637506
1105.000000	17.673600
1106.000000	17.709520
1107.000000	17.744323
1108.000000	17.779220
1109.000000	17.813957
1110.000000	17.847643
1111.000000	17.880986
1112.000000	17.913763
1113.000000	17.946634
1114.000000	17.979417
1115.000000	18.011226
1116.000000	18.042403
1117.000000	18.074043
1118.000000	18.104629
1119.000000	18.134503
1120.000000	18.164151
1121.000000	18.193763
1122.000000	18.222617
1123.000000	18.250629
1124.000000	18.278394
1125.000000	18.306249
1126.000000	18.332726
1127.000000	18.358577
1128.000000	18.383740
1129.000000	18.409094
1130.000000	18.434226
1131.000000	18.457409
1132.000000	18.479054
1133.000000	18.498731
1134.000000	18.518194
1135.000000	18.537603
1136.000000	18.556434
1137.000000	18.574331
1138.000000	18.590849
1139.000000	18.606106
1140.000000	18.620951
1141.000000	18.634186
1142.000000	18.647663
1143.000000	18.659931
1144.000000	18.670743
1145.000000	18.682443
1146.000000	18.693374
1147.000000	18.703280
1148.000000	18.712269
1149.000000	18.720603
1150.000000	18.727731
1151.000000	18.734734
1152.000000	18.740337
1153.000000	18.744946
1154.000000	18.748957
1155.000000	18.752326
1156.000000	18.754506
1157.000000	18.755823
1158.000000	18.755426
1159.000000	18.753683
1160.000000	18.750357
1161.000000	18.746634
1162.000000	18.740923
1163.000000	18.734306
1164.000000	18.725820
1165.000000	18.716197
1166.000000	18.706197
1167.000000	18.696086
1168.000000	18.685643
1169.000000	18.674131
1170.000000	18.661014
1171.000000	18.648429
1172.000000	18.634014
1173.000000	18.620574
1174.000000	18.607383
1175.000000	18.594017
1176.000000	18.580151
1177.000000	18.566097
1178.000000	18.552129
1179.000000	18.538666
1180.000000	18.524660
1181.000000	18.510557
1182.000000	18.497551
1183.000000	18.483554
1184.000000	18.469229
1185.000000	18.456360
1186.000000	18.443357
1187.000000	18.430889
1188.000000	18.419183
1189.000000	18.408374
1190.000000	18.398280
1191.000000	18.388840
1192.000000	18.381606
1193.000000	18.376009
1194.000000	18.372220
1195.000000	18.369931
1196.000000	18.369526
1197.000000	18.371203
1198.000000	18.374594
