PE UV       SUBTECH     SPECTRUM    ASCII       PEDS        4.00        
   -1
ANGSOL0008-1.Sample.ASC
24/03/07
16:25:04.00
24/03/07
16:25:04.00
Vinicio Soto Monge
Chrysina auripes. Mexico, Oaxaca, La Esperanza. 1-VII-1992. J. Blackaller col.
250,000000
1
Lambda 1050
1050L1511233
PerkinElmer UV WinLab 6.3.2.0749 / 2.02.05 Lambda 900 UV/VIS/NIR, Aug  7 2015 09:38:08

0
0
3350/servo 860,8/2
0
0
UV/VIS
1
1
1
DoubleDePol,CommonBeamDepol,RBeamAtt,SBeamAtt,60mm sphere, WB InGaAs Detector
0
0
0
0
Program
Program
3350/servo 860,8/2
3350/0,2 860,8/0,2
3350/0,2 860,8/0,2
0
15.00
 
 
 
0
 
860,8
319,2
860,8
Front
100
on
S:100 R:100
0
0
0
0
 
0
 
 
 
0
 
 
0
0
0
0
0
 
 
 
 
0
0


0
0
#HDR
-1
-1
#GR
nm
%R
1.0
0.0
2500,000000
-1,000000
2251
8
21,534400
1,723600
#DATA
250.000000	nan
251.000000	nan
252.000000	nan
253.000000	nan
254.000000	nan
255.000000	nan
256.000000	nan
257.000000	nan
258.000000	nan
259.000000	nan
260.000000	nan
261.000000	nan
262.000000	nan
263.000000	nan
264.000000	nan
265.000000	nan
266.000000	nan
267.000000	nan
268.000000	nan
269.000000	nan
270.000000	nan
271.000000	nan
272.000000	nan
273.000000	nan
274.000000	nan
275.000000	nan
276.000000	nan
277.000000	nan
278.000000	nan
279.000000	nan
280.000000	nan
281.000000	nan
282.000000	nan
283.000000	nan
284.000000	2.046563
285.000000	2.042643
286.000000	2.039680
287.000000	2.035833
288.000000	2.031209
289.000000	2.026308
290.000000	2.022887
291.000000	2.018956
292.000000	2.016234
293.000000	2.011199
294.000000	2.006508
295.000000	2.002733
296.000000	1.999410
297.000000	1.996660
298.000000	1.994378
299.000000	1.990067
300.000000	1.987448
301.000000	1.984849
302.000000	1.982570
303.000000	1.980137
304.000000	1.976867
305.000000	1.974487
306.000000	1.972439
307.000000	1.969975
308.000000	1.968690
309.000000	1.969621
310.000000	1.969125
311.000000	1.968172
312.000000	1.968486
313.000000	1.968705
314.000000	1.970220
315.000000	1.968768
316.000000	1.967978
317.000000	1.980949
318.000000	1.991107
319.000000	1.998466
320.000000	2.001015
321.000000	2.011754
322.000000	2.025305
323.000000	2.030049
324.000000	2.034322
325.000000	2.037790
326.000000	2.049372
327.000000	2.055922
328.000000	2.062954
329.000000	2.067021
330.000000	2.070068
331.000000	2.071344
332.000000	2.074354
333.000000	2.076897
334.000000	2.081061
335.000000	2.081616
336.000000	2.080324
337.000000	2.080017
338.000000	2.080823
339.000000	2.086206
340.000000	2.092615
341.000000	2.092618
342.000000	2.092684
343.000000	2.092991
344.000000	2.090931
345.000000	2.093013
346.000000	2.096054
347.000000	2.098942
348.000000	2.099748
349.000000	2.098227
350.000000	2.099472
351.000000	2.103215
352.000000	2.091358
353.000000	2.078452
354.000000	2.070313
355.000000	2.066297
356.000000	2.055815
357.000000	2.044694
358.000000	2.040781
359.000000	2.037677
360.000000	2.033836
361.000000	2.024411
362.000000	2.019561
363.000000	2.015359
364.000000	2.014892
365.000000	2.012973
366.000000	2.014250
367.000000	2.012851
368.000000	2.013500
369.000000	2.013331
370.000000	2.012892
371.000000	2.016137
372.000000	2.017887
373.000000	2.017071
374.000000	2.011321
375.000000	2.006405
376.000000	2.007377
377.000000	2.004834
378.000000	2.003470
379.000000	2.002893
380.000000	2.000492
381.000000	1.997642
382.000000	1.994559
383.000000	1.994616
384.000000	1.995873
385.000000	1.997557
386.000000	1.997623
387.000000	2.000037
388.000000	2.005982
389.000000	2.011462
390.000000	2.017084
391.000000	2.021364
392.000000	2.025656
393.000000	2.032654
394.000000	2.039662
395.000000	2.047719
396.000000	2.054865
397.000000	2.062870
398.000000	2.072019
399.000000	2.081933
400.000000	2.093690
401.000000	2.105561
402.000000	2.118848
403.000000	2.130474
404.000000	2.143981
405.000000	2.160959
406.000000	2.176733
407.000000	2.193081
408.000000	2.212269
409.000000	2.232571
410.000000	2.253183
411.000000	2.273616
412.000000	2.297498
413.000000	2.321201
414.000000	2.345080
415.000000	2.369404
416.000000	2.393691
417.000000	2.418112
418.000000	2.442493
419.000000	2.467008
420.000000	2.491959
421.000000	2.516782
422.000000	2.540884
423.000000	2.565107
424.000000	2.589657
425.000000	2.613887
426.000000	2.637970
427.000000	2.661375
428.000000	2.684380
429.000000	2.706681
430.000000	2.728607
431.000000	2.750558
432.000000	2.772229
433.000000	2.793358
434.000000	2.813701
435.000000	2.833544
436.000000	2.853209
437.000000	2.872200
438.000000	2.890363
439.000000	2.907843
440.000000	2.924742
441.000000	2.941137
442.000000	2.956802
443.000000	2.971522
444.000000	2.985612
445.000000	2.998834
446.000000	3.011592
447.000000	3.023876
448.000000	3.035449
449.000000	3.046125
450.000000	3.055772
451.000000	3.064507
452.000000	3.072710
453.000000	3.080206
454.000000	3.086950
455.000000	3.092597
456.000000	3.097429
457.000000	3.102119
458.000000	3.106352
459.000000	3.109933
460.000000	3.112811
461.000000	3.114996
462.000000	3.116880
463.000000	3.118530
464.000000	3.119912
465.000000	3.120693
466.000000	3.120941
467.000000	3.121232
468.000000	3.121602
469.000000	3.121963
470.000000	3.122298
471.000000	3.122509
472.000000	3.123132
473.000000	3.124302
474.000000	3.125841
475.000000	3.128080
476.000000	3.131156
477.000000	3.135031
478.000000	3.139784
479.000000	3.145732
480.000000	3.153025
481.000000	3.161004
482.000000	3.169887
483.000000	3.180469
484.000000	3.193089
485.000000	3.208138
486.000000	3.225540
487.000000	3.245148
488.000000	3.267246
489.000000	3.292153
490.000000	3.319892
491.000000	3.350477
492.000000	3.384229
493.000000	3.421089
494.000000	3.461030
495.000000	3.504304
496.000000	3.551024
497.000000	3.601099
498.000000	3.654604
499.000000	3.711596
500.000000	3.772136
501.000000	3.836239
502.000000	3.904132
503.000000	3.975693
504.000000	4.050509
505.000000	4.128865
506.000000	4.210927
507.000000	4.296196
508.000000	4.384739
509.000000	4.476614
510.000000	4.571597
511.000000	4.669646
512.000000	4.770128
513.000000	4.873152
514.000000	4.978889
515.000000	5.086956
516.000000	5.197521
517.000000	5.310121
518.000000	5.424750
519.000000	5.540677
520.000000	5.657842
521.000000	5.776315
522.000000	5.895825
523.000000	6.016311
524.000000	6.137455
525.000000	6.258878
526.000000	6.380668
527.000000	6.502489
528.000000	6.624687
529.000000	6.746991
530.000000	6.869082
531.000000	6.990646
532.000000	7.112076
533.000000	7.233126
534.000000	7.353533
535.000000	7.473112
536.000000	7.591836
537.000000	7.708989
538.000000	7.824235
539.000000	7.938171
540.000000	8.050680
541.000000	8.160913
542.000000	8.269212
543.000000	8.375312
544.000000	8.479036
545.000000	8.580845
546.000000	8.679640
547.000000	8.776206
548.000000	8.870840
549.000000	8.962568
550.000000	9.051274
551.000000	9.137343
552.000000	9.220759
553.000000	9.301068
554.000000	9.378339
555.000000	9.452189
556.000000	9.522600
557.000000	9.589198
558.000000	9.651746
559.000000	9.709935
560.000000	9.757655
561.000000	9.800456
562.000000	9.839153
563.000000	9.872917
564.000000	9.902057
565.000000	9.926316
566.000000	9.945808
567.000000	9.959977
568.000000	9.969160
569.000000	9.973202
570.000000	9.972731
571.000000	9.967210
572.000000	9.956578
573.000000	9.941945
574.000000	9.923190
575.000000	9.899511
576.000000	9.871566
577.000000	9.838754
578.000000	9.801945
579.000000	9.761123
580.000000	9.716366
581.000000	9.667965
582.000000	9.616178
583.000000	9.560613
584.000000	9.502001
585.000000	9.441200
586.000000	9.378085
587.000000	9.313114
588.000000	9.246215
589.000000	9.177579
590.000000	9.107579
591.000000	9.036500
592.000000	8.964444
593.000000	8.891782
594.000000	8.818179
595.000000	8.749687
596.000000	8.681559
597.000000	8.612117
598.000000	8.541866
599.000000	8.471223
600.000000	8.400323
601.000000	8.329712
602.000000	8.259589
603.000000	8.189197
604.000000	8.119185
605.000000	8.049501
606.000000	7.980282
607.000000	7.912245
608.000000	7.844681
609.000000	7.777760
610.000000	7.712215
611.000000	7.648232
612.000000	7.586136
613.000000	7.525921
614.000000	7.468193
615.000000	7.411920
616.000000	7.358167
617.000000	7.306289
618.000000	7.256911
619.000000	7.209454
620.000000	7.163888
621.000000	7.120504
622.000000	7.079380
623.000000	7.040009
624.000000	7.002423
625.000000	6.967062
626.000000	6.933407
627.000000	6.901502
628.000000	6.871452
629.000000	6.843601
630.000000	6.818324
631.000000	6.795166
632.000000	6.775291
633.000000	6.758021
634.000000	6.742868
635.000000	6.730458
636.000000	6.720112
637.000000	6.711957
638.000000	6.706799
639.000000	6.704338
640.000000	6.703999
641.000000	6.706115
642.000000	6.711060
643.000000	6.718205
644.000000	6.727423
645.000000	6.738664
646.000000	6.751936
647.000000	6.767622
648.000000	6.785484
649.000000	6.804798
650.000000	6.825742
651.000000	6.848291
652.000000	6.872917
653.000000	6.898388
654.000000	6.925255
655.000000	6.953154
656.000000	6.981974
657.000000	7.011647
658.000000	7.042725
659.000000	7.074677
660.000000	7.107786
661.000000	7.142191
662.000000	7.177432
663.000000	7.213348
664.000000	7.251110
665.000000	7.290148
666.000000	7.330052
667.000000	7.370207
668.000000	7.412170
669.000000	7.455743
670.000000	7.500381
671.000000	7.546361
672.000000	7.593554
673.000000	7.641914
674.000000	7.690854
675.000000	7.740882
676.000000	7.792135
677.000000	7.843916
678.000000	7.896791
679.000000	7.950493
680.000000	8.005337
681.000000	8.061124
682.000000	8.117235
683.000000	8.173659
684.000000	8.230750
685.000000	8.288519
686.000000	8.346734
687.000000	8.405371
688.000000	8.464645
689.000000	8.524139
690.000000	8.584554
691.000000	8.645251
692.000000	8.706102
693.000000	8.767345
694.000000	8.829557
695.000000	8.891540
696.000000	8.953617
697.000000	9.016892
698.000000	9.080634
699.000000	9.144244
700.000000	9.208465
701.000000	9.272621
702.000000	9.337417
703.000000	9.402096
704.000000	9.466825
705.000000	9.531837
706.000000	9.596849
707.000000	9.661760
708.000000	9.726788
709.000000	9.792254
710.000000	9.857535
711.000000	9.922343
712.000000	9.987035
713.000000	10.051432
714.000000	10.115914
715.000000	10.179985
716.000000	10.243131
717.000000	10.306284
718.000000	10.368602
719.000000	10.430149
720.000000	10.491884
721.000000	10.553297
722.000000	10.613486
723.000000	10.673582
724.000000	10.733539
725.000000	10.792453
726.000000	10.850987
727.000000	10.908505
728.000000	10.965835
729.000000	11.022519
730.000000	11.078294
731.000000	11.132526
732.000000	11.185664
733.000000	11.238827
734.000000	11.291072
735.000000	11.342235
736.000000	11.393175
737.000000	11.442776
738.000000	11.490967
739.000000	11.538326
740.000000	11.584683
741.000000	11.630572
742.000000	11.675897
743.000000	11.720337
744.000000	11.763822
745.000000	11.806867
746.000000	11.849765
747.000000	11.891365
748.000000	11.932112
749.000000	11.971737
750.000000	12.010280
751.000000	12.049409
752.000000	12.087993
753.000000	12.125837
754.000000	12.163473
755.000000	12.200311
756.000000	12.235486
757.000000	12.270706
758.000000	12.305687
759.000000	12.339367
760.000000	12.372636
761.000000	12.405235
762.000000	12.437275
763.000000	12.468155
764.000000	12.498803
765.000000	12.529978
766.000000	12.560993
767.000000	12.591362
768.000000	12.620305
769.000000	12.648924
770.000000	12.677412
771.000000	12.704439
772.000000	12.730971
773.000000	12.759045
774.000000	12.787071
775.000000	12.814067
776.000000	12.839968
777.000000	12.865170
778.000000	12.890592
779.000000	12.916349
780.000000	12.941968
781.000000	12.966010
782.000000	12.991284
783.000000	13.016000
784.000000	13.039854
785.000000	13.063986
786.000000	13.087260
787.000000	13.109455
788.000000	13.131977
789.000000	13.154548
790.000000	13.177117
791.000000	13.200055
792.000000	13.223457
793.000000	13.246988
794.000000	13.269967
795.000000	13.292501
796.000000	13.314950
797.000000	13.338139
798.000000	13.361328
799.000000	13.384000
800.000000	13.404910
801.000000	13.426591
802.000000	13.449639
803.000000	13.472223
804.000000	13.494716
805.000000	13.517002
806.000000	13.539959
807.000000	13.564120
808.000000	13.587046
809.000000	13.611003
810.000000	13.636046
811.000000	13.661533
812.000000	13.687008
813.000000	13.710241
814.000000	13.732715
815.000000	13.755318
816.000000	13.778705
817.000000	13.801890
818.000000	13.825691
819.000000	13.848259
820.000000	13.869928
821.000000	13.891446
822.000000	13.914666
823.000000	13.937260
824.000000	13.958533
825.000000	13.978809
826.000000	13.998960
827.000000	14.019858
828.000000	14.040241
829.000000	14.059495
830.000000	14.078182
831.000000	14.099464
832.000000	14.118176
833.000000	14.137267
834.000000	14.151433
835.000000	14.167317
836.000000	14.181680
837.000000	14.194378
838.000000	14.210484
839.000000	14.226318
840.000000	14.241788
841.000000	14.257671
842.000000	14.270003
843.000000	14.278854
844.000000	14.284193
845.000000	14.290505
846.000000	14.300798
847.000000	14.307514
848.000000	14.314929
849.000000	14.323966
850.000000	14.333174
851.000000	14.335196
852.000000	14.340893
853.000000	14.345292
854.000000	14.345665
855.000000	14.347741
856.000000	14.348308
857.000000	14.351986
858.000000	14.397872
859.000000	14.411000
860.000000	14.424998
861.000000	14.439893
862.000000	14.453456
863.000000	14.466719
864.000000	14.481588
865.000000	14.497282
866.000000	14.510213
867.000000	14.525140
868.000000	14.539466
869.000000	14.558096
870.000000	14.575944
871.000000	14.595195
872.000000	14.614277
873.000000	14.630475
874.000000	14.647029
875.000000	14.664045
876.000000	14.680804
877.000000	14.700860
878.000000	14.724699
879.000000	14.749793
880.000000	14.774011
881.000000	14.793754
882.000000	14.818417
883.000000	14.844014
884.000000	14.868394
885.000000	14.892222
886.000000	14.924142
887.000000	14.951274
888.000000	14.980112
889.000000	15.015501
890.000000	15.049441
891.000000	15.085506
892.000000	15.117807
893.000000	15.109171
894.000000	15.134900
895.000000	15.159797
896.000000	15.185303
897.000000	15.210714
898.000000	15.236623
899.000000	15.264286
900.000000	15.293011
901.000000	15.322486
902.000000	15.352034
903.000000	15.382251
904.000000	15.413517
905.000000	15.445526
906.000000	15.479660
907.000000	15.514754
908.000000	15.550174
909.000000	15.585894
910.000000	15.622049
911.000000	15.658794
912.000000	15.695877
913.000000	15.732309
914.000000	15.771246
915.000000	15.808840
916.000000	15.848797
917.000000	15.887974
918.000000	15.927943
919.000000	15.967831
920.000000	16.008566
921.000000	16.048649
922.000000	16.088934
923.000000	16.129769
924.000000	16.170500
925.000000	16.211591
926.000000	16.252889
927.000000	16.293726
928.000000	16.334777
929.000000	16.374857
930.000000	16.416171
931.000000	16.455811
932.000000	16.495694
933.000000	16.536666
934.000000	16.576346
935.000000	16.615786
936.000000	16.655154
937.000000	16.695363
938.000000	16.735366
939.000000	16.775260
940.000000	16.813963
941.000000	16.850906
942.000000	16.886746
943.000000	16.922989
944.000000	16.959811
945.000000	16.996320
946.000000	17.032391
947.000000	17.068711
948.000000	17.105726
949.000000	17.140703
950.000000	17.176943
951.000000	17.211657
952.000000	17.247037
953.000000	17.281966
954.000000	17.316526
955.000000	17.350146
956.000000	17.383909
957.000000	17.418740
958.000000	17.452486
959.000000	17.486477
960.000000	17.520254
961.000000	17.553660
962.000000	17.587420
963.000000	17.620757
964.000000	17.654360
965.000000	17.687231
966.000000	17.721257
967.000000	17.755443
968.000000	17.787971
969.000000	17.821046
970.000000	17.852780
971.000000	17.883926
972.000000	17.915586
973.000000	17.946609
974.000000	17.977254
975.000000	18.008960
976.000000	18.041106
977.000000	18.073709
978.000000	18.105637
979.000000	18.136726
980.000000	18.167389
981.000000	18.198077
982.000000	18.228340
983.000000	18.257503
984.000000	18.287674
985.000000	18.317740
986.000000	18.346729
987.000000	18.375326
988.000000	18.404326
989.000000	18.433331
990.000000	18.462031
991.000000	18.490931
992.000000	18.518837
993.000000	18.546789
994.000000	18.574737
995.000000	18.602783
996.000000	18.630546
997.000000	18.658100
998.000000	18.684777
999.000000	18.711597
1000.000000	18.738426
1001.000000	18.764817
1002.000000	18.790951
1003.000000	18.817280
1004.000000	18.843386
1005.000000	18.870397
1006.000000	18.897317
1007.000000	18.922903
1008.000000	18.948834
1009.000000	18.974717
1010.000000	19.000149
1011.000000	19.024797
1012.000000	19.049277
1013.000000	19.073803
1014.000000	19.098589
1015.000000	19.123754
1016.000000	19.149091
1017.000000	19.173946
1018.000000	19.199506
1019.000000	19.224737
1020.000000	19.249303
1021.000000	19.274574
1022.000000	19.299789
1023.000000	19.323931
1024.000000	19.348197
1025.000000	19.373251
1026.000000	19.398383
1027.000000	19.423489
1028.000000	19.448214
1029.000000	19.472803
1030.000000	19.497900
1031.000000	19.522837
1032.000000	19.548003
1033.000000	19.573266
1034.000000	19.598200
1035.000000	19.623177
1036.000000	19.648294
1037.000000	19.673243
1038.000000	19.698286
1039.000000	19.723343
1040.000000	19.747911
1041.000000	19.772589
1042.000000	19.797746
1043.000000	19.823126
1044.000000	19.848209
1045.000000	19.873129
1046.000000	19.897871
1047.000000	19.923091
1048.000000	19.948403
1049.000000	19.972954
1050.000000	19.997494
1051.000000	20.021917
1052.000000	20.046120
1053.000000	20.070394
1054.000000	20.094591
1055.000000	20.118971
1056.000000	20.143494
1057.000000	20.167914
1058.000000	20.193069
1059.000000	20.218049
1060.000000	20.242366
1061.000000	20.266029
1062.000000	20.289517
1063.000000	20.313280
1064.000000	20.336094
1065.000000	20.358406
1066.000000	20.380614
1067.000000	20.402397
1068.000000	20.424720
1069.000000	20.447309
1070.000000	20.470043
1071.000000	20.492051
1072.000000	20.514603
1073.000000	20.537683
1074.000000	20.560274
1075.000000	20.582871
1076.000000	20.605426
1077.000000	20.627817
1078.000000	20.650394
1079.000000	20.673051
1080.000000	20.695734
1081.000000	20.718400
1082.000000	20.740480
1083.000000	20.762926
1084.000000	20.785857
1085.000000	20.807969
1086.000000	20.829329
1087.000000	20.850931
1088.000000	20.872103
1089.000000	20.893180
1090.000000	20.914737
1091.000000	20.936117
1092.000000	20.956794
1093.000000	20.976254
1094.000000	20.995757
1095.000000	21.014443
1096.000000	21.033817
1097.000000	21.053411
1098.000000	21.072477
1099.000000	21.091763
1100.000000	21.111060
1101.000000	21.130346
1102.000000	21.149129
1103.000000	21.167517
1104.000000	21.185351
1105.000000	21.202491
1106.000000	21.219914
1107.000000	21.236509
1108.000000	21.251491
1109.000000	21.265937
1110.000000	21.280286
1111.000000	21.294597
1112.000000	21.308411
1113.000000	21.321300
1114.000000	21.333697
1115.000000	21.345646
1116.000000	21.356960
1117.000000	21.368080
1118.000000	21.378437
1119.000000	21.388137
1120.000000	21.397974
1121.000000	21.407486
1122.000000	21.416720
1123.000000	21.425940
1124.000000	21.434466
1125.000000	21.441826
1126.000000	21.448351
1127.000000	21.454657
1128.000000	21.460143
1129.000000	21.465286
1130.000000	21.470431
1131.000000	21.473009
1132.000000	21.473709
1133.000000	21.473240
1134.000000	21.473114
1135.000000	21.471920
1136.000000	21.469629
1137.000000	21.466020
1138.000000	21.461369
1139.000000	21.455329
1140.000000	21.448214
1141.000000	21.440254
1142.000000	21.430754
1143.000000	21.420434
1144.000000	21.410511
1145.000000	21.399877
1146.000000	21.388786
1147.000000	21.377363
1148.000000	21.365231
1149.000000	21.352209
1150.000000	21.339334
1151.000000	21.325446
1152.000000	21.311537
1153.000000	21.296569
1154.000000	21.281126
1155.000000	21.264697
1156.000000	21.247209
1157.000000	21.228117
1158.000000	21.207677
1159.000000	21.185346
1160.000000	21.162000
1161.000000	21.137291
1162.000000	21.110903
1163.000000	21.083871
1164.000000	21.054517
1165.000000	21.024851
1166.000000	20.994877
1167.000000	20.963917
1168.000000	20.933060
1169.000000	20.900529
1170.000000	20.867651
1171.000000	20.834303
1172.000000	20.802131
1173.000000	20.769571
1174.000000	20.737314
1175.000000	20.705740
1176.000000	20.674251
1177.000000	20.643157
1178.000000	20.612266
1179.000000	20.580811
1180.000000	20.550106
1181.000000	20.518374
1182.000000	20.486071
1183.000000	20.454254
1184.000000	20.423226
1185.000000	20.391803
1186.000000	20.361540
