PE UV       SUBTECH     SPECTRUM    ASCII       PEDS        4.00        
   -1
ANGSOL0010-1.Sample.ASC
24/03/07
16:51:04.00
24/03/07
16:51:04.00
Vinicio Soto Monge
Chrysina marginata. ASolis003116. Costa Rica, Los Gigantes del Bosque, Altamira, 1400 m, 4-May-2022. A. Solis. 9.03075 -83.00953. 
250,000000
1
Lambda 1050
1050L1511233
PerkinElmer UV WinLab 6.3.2.0749 / 2.02.05 Lambda 900 UV/VIS/NIR, Aug  7 2015 09:38:08

0
0
3350/servo 860,8/2
0
0
UV/VIS
1
1
1
DoubleDePol,CommonBeamDepol,RBeamAtt,SBeamAtt,60mm sphere, WB InGaAs Detector
0
0
0
0
Program
Program
3350/servo 860,8/2
3350/0,2 860,8/0,2
3350/0,2 860,8/0,2
0
15.00
 
 
 
0
 
860,8
319,2
860,8
Front
100
on
S:100 R:100
0
0
0
0
 
0
 
 
 
0
 
 
0
0
0
0
0
 
 
 
 
0
0


0
0
#HDR
-1
-1
#GR
nm
%R
1.0
0.0
2500,000000
-1,000000
2251
8
20,732500
1,598300
#DATA
250.000000	nan
251.000000	nan
252.000000	nan
253.000000	nan
254.000000	nan
255.000000	nan
256.000000	nan
257.000000	nan
258.000000	nan
259.000000	nan
260.000000	nan
261.000000	nan
262.000000	nan
263.000000	nan
264.000000	nan
265.000000	nan
266.000000	nan
267.000000	nan
268.000000	nan
269.000000	nan
270.000000	nan
271.000000	nan
272.000000	nan
273.000000	nan
274.000000	nan
275.000000	nan
276.000000	nan
277.000000	nan
278.000000	nan
279.000000	nan
280.000000	nan
281.000000	nan
282.000000	nan
283.000000	nan
284.000000	1.870953
285.000000	1.866391
286.000000	1.863531
287.000000	1.860856
288.000000	1.857033
289.000000	1.852997
290.000000	1.849899
291.000000	1.847060
292.000000	1.842639
293.000000	1.838989
294.000000	1.835112
295.000000	1.832942
296.000000	1.831663
297.000000	1.828009
298.000000	1.823296
299.000000	1.819756
300.000000	1.817686
301.000000	1.815663
302.000000	1.813261
303.000000	1.810225
304.000000	1.809921
305.000000	1.808726
306.000000	1.809680
307.000000	1.809504
308.000000	1.809561
309.000000	1.808949
310.000000	1.807641
311.000000	1.805951
312.000000	1.806600
313.000000	1.804342
314.000000	1.803351
315.000000	1.803555
316.000000	1.804922
317.000000	1.813521
318.000000	1.823356
319.000000	1.832701
320.000000	1.840271
321.000000	1.851843
322.000000	1.856804
323.000000	1.861903
324.000000	1.867128
325.000000	1.870282
326.000000	1.876206
327.000000	1.879461
328.000000	1.885235
329.000000	1.891033
330.000000	1.891736
331.000000	1.889848
332.000000	1.895088
333.000000	1.901410
334.000000	1.906842
335.000000	1.910272
336.000000	1.912511
337.000000	1.917353
338.000000	1.921280
339.000000	1.921596
340.000000	1.925325
341.000000	1.925228
342.000000	1.928016
343.000000	1.929875
344.000000	1.934015
345.000000	1.938703
346.000000	1.943771
347.000000	1.946452
348.000000	1.949836
349.000000	1.950896
350.000000	1.951514
351.000000	1.953091
352.000000	1.946496
353.000000	1.940619
354.000000	1.936574
355.000000	1.934416
356.000000	1.927633
357.000000	1.924955
358.000000	1.924397
359.000000	1.924146
360.000000	1.923500
361.000000	1.920558
362.000000	1.921678
363.000000	1.916833
364.000000	1.916651
365.000000	1.919166
366.000000	1.922819
367.000000	1.924312
368.000000	1.925639
369.000000	1.925811
370.000000	1.925977
371.000000	1.928104
372.000000	1.928649
373.000000	1.931773
374.000000	1.935658
375.000000	1.936859
376.000000	1.942357
377.000000	1.944009
378.000000	1.946518
379.000000	1.947264
380.000000	1.949328
381.000000	1.950959
382.000000	1.954524
383.000000	1.960774
384.000000	1.970756
385.000000	1.981014
386.000000	1.989428
387.000000	1.999895
388.000000	2.008874
389.000000	2.018545
390.000000	2.029631
391.000000	2.042071
392.000000	2.058002
393.000000	2.072954
394.000000	2.089336
395.000000	2.107898
396.000000	2.127351
397.000000	2.148061
398.000000	2.171957
399.000000	2.194683
400.000000	2.218984
401.000000	2.245273
402.000000	2.269802
403.000000	2.295373
404.000000	2.323616
405.000000	2.354643
406.000000	2.387028
407.000000	2.420163
408.000000	2.452931
409.000000	2.487477
410.000000	2.523352
411.000000	2.559027
412.000000	2.598396
413.000000	2.638562
414.000000	2.678887
415.000000	2.719222
416.000000	2.759911
417.000000	2.800911
418.000000	2.841732
419.000000	2.882656
420.000000	2.923800
421.000000	2.964787
422.000000	3.005715
423.000000	3.046712
424.000000	3.087461
425.000000	3.127971
426.000000	3.168209
427.000000	3.207725
428.000000	3.246909
429.000000	3.285221
430.000000	3.323314
431.000000	3.360814
432.000000	3.397533
433.000000	3.433543
434.000000	3.468927
435.000000	3.503905
436.000000	3.537996
437.000000	3.570783
438.000000	3.602811
439.000000	3.633964
440.000000	3.664182
441.000000	3.693299
442.000000	3.721153
443.000000	3.747868
444.000000	3.773728
445.000000	3.798687
446.000000	3.822003
447.000000	3.844021
448.000000	3.865003
449.000000	3.884936
450.000000	3.903886
451.000000	3.921859
452.000000	3.938423
453.000000	3.953576
454.000000	3.967707
455.000000	3.980906
456.000000	3.992948
457.000000	4.004062
458.000000	4.013959
459.000000	4.022533
460.000000	4.030373
461.000000	4.037369
462.000000	4.043396
463.000000	4.048389
464.000000	4.052500
465.000000	4.056138
466.000000	4.059205
467.000000	4.061482
468.000000	4.063034
469.000000	4.063830
470.000000	4.064091
471.000000	4.063909
472.000000	4.063451
473.000000	4.062720
474.000000	4.061717
475.000000	4.060544
476.000000	4.059424
477.000000	4.058424
478.000000	4.057543
479.000000	4.056458
480.000000	4.055410
481.000000	4.054959
482.000000	4.054840
483.000000	4.054981
484.000000	4.055749
485.000000	4.057744
486.000000	4.060867
487.000000	4.065471
488.000000	4.071780
489.000000	4.079523
490.000000	4.088736
491.000000	4.099850
492.000000	4.112764
493.000000	4.127876
494.000000	4.145388
495.000000	4.165003
496.000000	4.186911
497.000000	4.211043
498.000000	4.237626
499.000000	4.267430
500.000000	4.300584
501.000000	4.336453
502.000000	4.375496
503.000000	4.417778
504.000000	4.463510
505.000000	4.512733
506.000000	4.565542
507.000000	4.621485
508.000000	4.681351
509.000000	4.745152
510.000000	4.812356
511.000000	4.883110
512.000000	4.957665
513.000000	5.035769
514.000000	5.117813
515.000000	5.203475
516.000000	5.292834
517.000000	5.385612
518.000000	5.481752
519.000000	5.581124
520.000000	5.683423
521.000000	5.788202
522.000000	5.895528
523.000000	6.005475
524.000000	6.117718
525.000000	6.232463
526.000000	6.349426
527.000000	6.468188
528.000000	6.588195
529.000000	6.709460
530.000000	6.832177
531.000000	6.955807
532.000000	7.080355
533.000000	7.205446
534.000000	7.330452
535.000000	7.454813
536.000000	7.578781
537.000000	7.702194
538.000000	7.824613
539.000000	7.946053
540.000000	8.066205
541.000000	8.184522
542.000000	8.301786
543.000000	8.417265
544.000000	8.530677
545.000000	8.642453
546.000000	8.752372
547.000000	8.860805
548.000000	8.967371
549.000000	9.071755
550.000000	9.174261
551.000000	9.275324
552.000000	9.374995
553.000000	9.472966
554.000000	9.569325
555.000000	9.663993
556.000000	9.757217
557.000000	9.848737
558.000000	9.938727
559.000000	10.027221
560.000000	10.106310
561.000000	10.182367
562.000000	10.256470
563.000000	10.329394
564.000000	10.400665
565.000000	10.469575
566.000000	10.536726
567.000000	10.601600
568.000000	10.664629
569.000000	10.725897
570.000000	10.785292
571.000000	10.842972
572.000000	10.898316
573.000000	10.951697
574.000000	11.002186
575.000000	11.050292
576.000000	11.096372
577.000000	11.140081
578.000000	11.181052
579.000000	11.219154
580.000000	11.254268
581.000000	11.286524
582.000000	11.315056
583.000000	11.339977
584.000000	11.361640
585.000000	11.379437
586.000000	11.393113
587.000000	11.402502
588.000000	11.408269
589.000000	11.409342
590.000000	11.406990
591.000000	11.400658
592.000000	11.390156
593.000000	11.374203
594.000000	11.354236
595.000000	11.337609
596.000000	11.318242
597.000000	11.295054
598.000000	11.267103
599.000000	11.235041
600.000000	11.199937
601.000000	11.160822
602.000000	11.118446
603.000000	11.073009
604.000000	11.023862
605.000000	10.971246
606.000000	10.915144
607.000000	10.856927
608.000000	10.796519
609.000000	10.734452
610.000000	10.669788
611.000000	10.603230
612.000000	10.534211
613.000000	10.463679
614.000000	10.391922
615.000000	10.319760
616.000000	10.246328
617.000000	10.171861
618.000000	10.097680
619.000000	10.022931
620.000000	9.948342
621.000000	9.873655
622.000000	9.799358
623.000000	9.724399
624.000000	9.650709
625.000000	9.577447
626.000000	9.504297
627.000000	9.432107
628.000000	9.362200
629.000000	9.292926
630.000000	9.224828
631.000000	9.158038
632.000000	9.092349
633.000000	9.028996
634.000000	8.967334
635.000000	8.907364
636.000000	8.849092
637.000000	8.793507
638.000000	8.739700
639.000000	8.688147
640.000000	8.639286
641.000000	8.592676
642.000000	8.547985
643.000000	8.505408
644.000000	8.464831
645.000000	8.426723
646.000000	8.390606
647.000000	8.357860
648.000000	8.327350
649.000000	8.298948
650.000000	8.272276
651.000000	8.248615
652.000000	8.227332
653.000000	8.208039
654.000000	8.191058
655.000000	8.176695
656.000000	8.164578
657.000000	8.154549
658.000000	8.147123
659.000000	8.141986
660.000000	8.138621
661.000000	8.137721
662.000000	8.138386
663.000000	8.141008
664.000000	8.145966
665.000000	8.152579
666.000000	8.161429
667.000000	8.172872
668.000000	8.185573
669.000000	8.199879
670.000000	8.215788
671.000000	8.233952
672.000000	8.253702
673.000000	8.275193
674.000000	8.298060
675.000000	8.322568
676.000000	8.349249
677.000000	8.377560
678.000000	8.407211
679.000000	8.438561
680.000000	8.472185
681.000000	8.507688
682.000000	8.544752
683.000000	8.583826
684.000000	8.624788
685.000000	8.667560
686.000000	8.711181
687.000000	8.757374
688.000000	8.805188
689.000000	8.854498
690.000000	8.904818
691.000000	8.957355
692.000000	9.011890
693.000000	9.068306
694.000000	9.125992
695.000000	9.184980
696.000000	9.246235
697.000000	9.308826
698.000000	9.373031
699.000000	9.438774
700.000000	9.505715
701.000000	9.573985
702.000000	9.643440
703.000000	9.714291
704.000000	9.787193
705.000000	9.860801
706.000000	9.936321
707.000000	10.012714
708.000000	10.090627
709.000000	10.170541
710.000000	10.250988
711.000000	10.332530
712.000000	10.415257
713.000000	10.498975
714.000000	10.583542
715.000000	10.668584
716.000000	10.754613
717.000000	10.840714
718.000000	10.927242
719.000000	11.014664
720.000000	11.102621
721.000000	11.190764
722.000000	11.278546
723.000000	11.366645
724.000000	11.454816
725.000000	11.543053
726.000000	11.631014
727.000000	11.719000
728.000000	11.806365
729.000000	11.892507
730.000000	11.978098
731.000000	12.063126
732.000000	12.148033
733.000000	12.231312
734.000000	12.314130
735.000000	12.397142
736.000000	12.478856
737.000000	12.559758
738.000000	12.639976
739.000000	12.718401
740.000000	12.796142
741.000000	12.872032
742.000000	12.946969
743.000000	13.020844
744.000000	13.093256
745.000000	13.164995
746.000000	13.235749
747.000000	13.304608
748.000000	13.372107
749.000000	13.439123
750.000000	13.504458
751.000000	13.567485
752.000000	13.630119
753.000000	13.692500
754.000000	13.753037
755.000000	13.811880
756.000000	13.870799
757.000000	13.929668
758.000000	13.987134
759.000000	14.042560
760.000000	14.096542
761.000000	14.149565
762.000000	14.201632
763.000000	14.252877
764.000000	14.304191
765.000000	14.355157
766.000000	14.404313
767.000000	14.453055
768.000000	14.502234
769.000000	14.550239
770.000000	14.596768
771.000000	14.642133
772.000000	14.687460
773.000000	14.733054
774.000000	14.776842
775.000000	14.820908
776.000000	14.864856
777.000000	14.908132
778.000000	14.951255
779.000000	14.993817
780.000000	15.036431
781.000000	15.077466
782.000000	15.118509
783.000000	15.160330
784.000000	15.201384
785.000000	15.242888
786.000000	15.283540
787.000000	15.322605
788.000000	15.360970
789.000000	15.399803
790.000000	15.438510
791.000000	15.476208
792.000000	15.512663
793.000000	15.549248
794.000000	15.587525
795.000000	15.625753
796.000000	15.664096
797.000000	15.702054
798.000000	15.740250
799.000000	15.777898
800.000000	15.813406
801.000000	15.849451
802.000000	15.886224
803.000000	15.922018
804.000000	15.958044
805.000000	15.994540
806.000000	16.031473
807.000000	16.066009
808.000000	16.099809
809.000000	16.135932
810.000000	16.171428
811.000000	16.206905
812.000000	16.242935
813.000000	16.277844
814.000000	16.312848
815.000000	16.347046
816.000000	16.383464
817.000000	16.417379
818.000000	16.451590
819.000000	16.486214
820.000000	16.519973
821.000000	16.552687
822.000000	16.585653
823.000000	16.618427
824.000000	16.649705
825.000000	16.682288
826.000000	16.714802
827.000000	16.747224
828.000000	16.778779
829.000000	16.810728
830.000000	16.841282
831.000000	16.870973
832.000000	16.899739
833.000000	16.927631
834.000000	16.955651
835.000000	16.984025
836.000000	17.012362
837.000000	17.038447
838.000000	17.065259
839.000000	17.088829
840.000000	17.114155
841.000000	17.140933
842.000000	17.167815
843.000000	17.193605
844.000000	17.221710
845.000000	17.249658
846.000000	17.270998
847.000000	17.287860
848.000000	17.310489
849.000000	17.328264
850.000000	17.346656
851.000000	17.362650
852.000000	17.381663
853.000000	17.402436
854.000000	17.424303
855.000000	17.442899
856.000000	17.461982
857.000000	17.489309
858.000000	17.567921
859.000000	17.605260
860.000000	17.642232
861.000000	17.679720
862.000000	17.717312
863.000000	17.755819
864.000000	17.792611
865.000000	17.831187
866.000000	17.869875
867.000000	17.908269
868.000000	17.947363
869.000000	17.986135
870.000000	18.025754
871.000000	18.064523
872.000000	18.104154
873.000000	18.143005
874.000000	18.184492
875.000000	18.223569
876.000000	18.261121
877.000000	18.299637
878.000000	18.338105
879.000000	18.373785
880.000000	18.408529
881.000000	18.449254
882.000000	18.494665
883.000000	18.533719
884.000000	18.578201
885.000000	18.620935
886.000000	18.663645
887.000000	18.706763
888.000000	18.746856
889.000000	18.783806
890.000000	18.824806
891.000000	18.867518
892.000000	18.902611
893.000000	18.885631
894.000000	18.910097
895.000000	18.933946
896.000000	18.957703
897.000000	18.981837
898.000000	19.004583
899.000000	19.028243
900.000000	19.051689
901.000000	19.075540
902.000000	19.100329
903.000000	19.124829
904.000000	19.150051
905.000000	19.175577
906.000000	19.202446
907.000000	19.228746
908.000000	19.254620
909.000000	19.281146
910.000000	19.308206
911.000000	19.334969
912.000000	19.362449
913.000000	19.390794
914.000000	19.418203
915.000000	19.446406
916.000000	19.474794
917.000000	19.501617
918.000000	19.528414
919.000000	19.554151
920.000000	19.581269
921.000000	19.608731
922.000000	19.634983
923.000000	19.661469
924.000000	19.689020
925.000000	19.714726
926.000000	19.739897
927.000000	19.764089
928.000000	19.788049
929.000000	19.811969
930.000000	19.835157
931.000000	19.857543
932.000000	19.878451
933.000000	19.899571
934.000000	19.920657
935.000000	19.941457
936.000000	19.961646
937.000000	19.980317
938.000000	19.997666
939.000000	20.014737
940.000000	20.031297
941.000000	20.045869
942.000000	20.060291
943.000000	20.074686
944.000000	20.087017
945.000000	20.098903
946.000000	20.111414
947.000000	20.122623
948.000000	20.133437
949.000000	20.144637
950.000000	20.154777
951.000000	20.164240
952.000000	20.173469
953.000000	20.182437
954.000000	20.191274
955.000000	20.199449
956.000000	20.207140
957.000000	20.213943
958.000000	20.219920
959.000000	20.225497
960.000000	20.232331
961.000000	20.239223
962.000000	20.245349
963.000000	20.251689
964.000000	20.257457
965.000000	20.262637
966.000000	20.268286
967.000000	20.273514
968.000000	20.278386
969.000000	20.282086
970.000000	20.285477
971.000000	20.288277
972.000000	20.291603
973.000000	20.295291
974.000000	20.298060
975.000000	20.300206
976.000000	20.302343
977.000000	20.304334
978.000000	20.306120
979.000000	20.308803
980.000000	20.310477
981.000000	20.310497
982.000000	20.311054
983.000000	20.311274
984.000000	20.310666
985.000000	20.310729
986.000000	20.310186
987.000000	20.309597
988.000000	20.309277
989.000000	20.308500
990.000000	20.306226
991.000000	20.304554
992.000000	20.303631
993.000000	20.301651
994.000000	20.299297
995.000000	20.296349
996.000000	20.293049
997.000000	20.289826
998.000000	20.286129
999.000000	20.283254
1000.000000	20.280374
1001.000000	20.276431
1002.000000	20.272797
1003.000000	20.269486
1004.000000	20.265994
1005.000000	20.261500
1006.000000	20.256720
1007.000000	20.252209
1008.000000	20.248377
1009.000000	20.244523
1010.000000	20.240674
1011.000000	20.237057
1012.000000	20.233051
1013.000000	20.229517
1014.000000	20.226103
1015.000000	20.222700
1016.000000	20.219989
1017.000000	20.216717
1018.000000	20.212783
1019.000000	20.208829
1020.000000	20.204674
1021.000000	20.201586
1022.000000	20.199017
1023.000000	20.196289
1024.000000	20.193283
1025.000000	20.191609
1026.000000	20.190086
1027.000000	20.188734
1028.000000	20.188049
1029.000000	20.187291
1030.000000	20.186769
1031.000000	20.186389
1032.000000	20.186340
1033.000000	20.186926
1034.000000	20.187766
1035.000000	20.188240
1036.000000	20.188974
1037.000000	20.190231
1038.000000	20.191631
1039.000000	20.193131
1040.000000	20.195297
1041.000000	20.197877
1042.000000	20.200997
1043.000000	20.203831
1044.000000	20.206954
1045.000000	20.210469
1046.000000	20.213943
1047.000000	20.218380
1048.000000	20.222466
1049.000000	20.226469
1050.000000	20.230754
1051.000000	20.234709
1052.000000	20.238946
1053.000000	20.244280
1054.000000	20.250240
1055.000000	20.256063
1056.000000	20.261520
1057.000000	20.266840
1058.000000	20.272794
1059.000000	20.279009
1060.000000	20.285229
1061.000000	20.291169
1062.000000	20.296509
1063.000000	20.302551
1064.000000	20.309003
1065.000000	20.315131
1066.000000	20.321537
1067.000000	20.328311
1068.000000	20.334280
1069.000000	20.340431
1070.000000	20.348297
1071.000000	20.356477
1072.000000	20.364694
1073.000000	20.372803
1074.000000	20.381211
1075.000000	20.389920
1076.000000	20.398829
1077.000000	20.407511
1078.000000	20.416209
1079.000000	20.424606
1080.000000	20.433060
1081.000000	20.441883
1082.000000	20.450529
1083.000000	20.459017
1084.000000	20.467469
1085.000000	20.476334
1086.000000	20.485417
1087.000000	20.494614
1088.000000	20.503720
1089.000000	20.512180
1090.000000	20.520651
1091.000000	20.529217
1092.000000	20.537729
1093.000000	20.545843
1094.000000	20.553966
1095.000000	20.562334
1096.000000	20.570400
1097.000000	20.578563
1098.000000	20.586043
1099.000000	20.593814
1100.000000	20.602186
1101.000000	20.610277
1102.000000	20.618120
1103.000000	20.626120
1104.000000	20.632843
1105.000000	20.638309
1106.000000	20.643949
1107.000000	20.649569
1108.000000	20.655054
1109.000000	20.659920
1110.000000	20.664843
1111.000000	20.669383
1112.000000	20.673337
1113.000000	20.676623
1114.000000	20.680146
1115.000000	20.683109
1116.000000	20.685611
1117.000000	20.688389
1118.000000	20.691274
1119.000000	20.694046
1120.000000	20.696000
1121.000000	20.697603
1122.000000	20.699863
1123.000000	20.700980
1124.000000	20.701714
1125.000000	20.702011
1126.000000	20.701814
1127.000000	20.700254
1128.000000	20.697423
1129.000000	20.694500
1130.000000	20.690583
1131.000000	20.685443
1132.000000	20.677531
1133.000000	20.668306
1134.000000	20.659149
1135.000000	20.649857
1136.000000	20.640163
1137.000000	20.629049
1138.000000	20.616329
1139.000000	20.602709
1140.000000	20.588091
1141.000000	20.572577
1142.000000	20.556737
1143.000000	20.539580
1144.000000	20.521743
1145.000000	20.503246
1146.000000	20.484883
1147.000000	20.465897
1148.000000	20.446900
1149.000000	20.426414
1150.000000	20.405694
1151.000000	20.384343
1152.000000	20.361497
1153.000000	20.338077
1154.000000	20.314220
1155.000000	20.289446
1156.000000	20.264403
1157.000000	20.236954
1158.000000	20.208389
1159.000000	20.179071
1160.000000	20.148657
1161.000000	20.117320
1162.000000	20.084820
1163.000000	20.052703
1164.000000	20.019103
1165.000000	19.984691
1166.000000	19.949991
1167.000000	19.916220
1168.000000	19.882814
1169.000000	19.847551
1170.000000	19.810746
1171.000000	19.773366
1172.000000	19.735334
1173.000000	19.698780
1174.000000	19.663240
1175.000000	19.628294
1176.000000	19.592923
1177.000000	19.556440
1178.000000	19.520351
1179.000000	19.485031
1180.000000	19.449063
