PE UV       SUBTECH     SPECTRUM    ASCII       PEDS        4.00        
   -1
ANGSOL0017-3.Sample.ASC
24/03/07
15:53:40.00
24/03/07
15:53:40.00
Vinicio Soto Monge
Chrysina kalinini. Costa Rica, Los Gigantes del Bosque, Altamira. 1400 m, 4-May-2022. A. Solis. 9.03075 -83.00953 . ASolis003117.
250,000000
1
Lambda 1050
1050L1511233
PerkinElmer UV WinLab 6.3.2.0749 / 2.02.05 Lambda 900 UV/VIS/NIR, Aug  7 2015 09:38:08

0
0
3350/servo 860,8/2
0
0
UV/VIS
1
1
1
DoubleDePol,CommonBeamDepol,RBeamAtt,SBeamAtt,60mm sphere, WB InGaAs Detector
0
0
0
0
Program
Program
3350/servo 860,8/2
3350/0,2 860,8/0,2
3350/0,2 860,8/0,2
0
15.00
 
 
 
0
 
860,8
319,2
860,8
Front
100
on
S:100 R:100
0
0
0
0
 
0
 
 
 
0
 
 
0
0
0
0
0
 
 
 
 
0
0


0
0
#HDR
-1
-1
#GR
nm
%R
1.0
0.0
2500,000000
-1,000000
2251
8
21,665100
1,799700
#DATA
250.000000	nan
251.000000	nan
252.000000	nan
253.000000	nan
254.000000	nan
255.000000	nan
256.000000	nan
257.000000	nan
258.000000	nan
259.000000	nan
260.000000	nan
261.000000	nan
262.000000	nan
263.000000	nan
264.000000	nan
265.000000	nan
266.000000	nan
267.000000	nan
268.000000	nan
269.000000	nan
270.000000	nan
271.000000	nan
272.000000	nan
273.000000	nan
274.000000	nan
275.000000	nan
276.000000	nan
277.000000	nan
278.000000	nan
279.000000	nan
280.000000	nan
281.000000	nan
282.000000	nan
283.000000	nan
284.000000	2.017678
285.000000	2.013371
286.000000	2.008876
287.000000	2.004158
288.000000	1.999510
289.000000	1.996207
290.000000	1.992243
291.000000	1.988501
292.000000	1.985094
293.000000	1.980736
294.000000	1.976878
295.000000	1.973063
296.000000	1.970116
297.000000	1.966639
298.000000	1.963100
299.000000	1.959739
300.000000	1.957250
301.000000	1.954409
302.000000	1.950966
303.000000	1.949310
304.000000	1.947099
305.000000	1.944444
306.000000	1.942677
307.000000	1.941624
308.000000	1.940117
309.000000	1.938454
310.000000	1.936347
311.000000	1.934165
312.000000	1.933313
313.000000	1.931811
314.000000	1.929242
315.000000	1.928454
316.000000	1.928535
317.000000	1.939252
318.000000	1.947023
319.000000	1.956503
320.000000	1.965715
321.000000	1.978784
322.000000	1.988409
323.000000	1.994626
324.000000	2.002844
325.000000	2.008386
326.000000	2.015035
327.000000	2.020997
328.000000	2.025538
329.000000	2.029679
330.000000	2.036839
331.000000	2.038994
332.000000	2.041170
333.000000	2.042973
334.000000	2.046099
335.000000	2.046405
336.000000	2.051948
337.000000	2.056420
338.000000	2.057753
339.000000	2.058855
340.000000	2.061847
341.000000	2.064486
342.000000	2.066000
343.000000	2.068055
344.000000	2.069939
345.000000	2.073019
346.000000	2.076447
347.000000	2.079174
348.000000	2.080046
349.000000	2.081581
350.000000	2.083029
351.000000	2.083966
352.000000	2.075420
353.000000	2.069674
354.000000	2.061379
355.000000	2.053897
356.000000	2.042677
357.000000	2.035452
358.000000	2.031235
359.000000	2.024307
360.000000	2.021465
361.000000	2.017173
362.000000	2.012792
363.000000	2.010004
364.000000	2.008715
365.000000	2.003772
366.000000	2.003402
367.000000	2.002584
368.000000	2.002443
369.000000	2.000967
370.000000	2.001545
371.000000	1.997972
372.000000	1.996473
373.000000	1.995991
374.000000	1.994731
375.000000	1.995801
376.000000	1.999921
377.000000	1.998965
378.000000	1.998675
379.000000	1.999070
380.000000	1.999015
381.000000	1.999871
382.000000	2.001829
383.000000	2.006467
384.000000	2.011822
385.000000	2.018269
386.000000	2.025235
387.000000	2.032845
388.000000	2.041335
389.000000	2.052194
390.000000	2.064172
391.000000	2.078046
392.000000	2.092673
393.000000	2.109189
394.000000	2.128071
395.000000	2.148152
396.000000	2.170205
397.000000	2.194781
398.000000	2.221680
399.000000	2.249083
400.000000	2.279253
401.000000	2.311899
402.000000	2.347306
403.000000	2.384589
404.000000	2.424604
405.000000	2.466577
406.000000	2.510300
407.000000	2.556668
408.000000	2.605868
409.000000	2.658832
410.000000	2.710434
411.000000	2.761308
412.000000	2.820048
413.000000	2.880394
414.000000	2.942175
415.000000	3.005400
416.000000	3.069908
417.000000	3.135251
418.000000	3.201445
419.000000	3.268477
420.000000	3.336283
421.000000	3.404386
422.000000	3.473018
423.000000	3.542262
424.000000	3.611667
425.000000	3.681167
426.000000	3.750537
427.000000	3.819570
428.000000	3.888230
429.000000	3.956349
430.000000	4.023567
431.000000	4.089974
432.000000	4.155691
433.000000	4.219992
434.000000	4.283178
435.000000	4.345338
436.000000	4.405996
437.000000	4.465400
438.000000	4.523231
439.000000	4.579427
440.000000	4.634170
441.000000	4.687337
442.000000	4.738814
443.000000	4.788352
444.000000	4.836197
445.000000	4.882836
446.000000	4.927881
447.000000	4.971181
448.000000	5.012767
449.000000	5.052598
450.000000	5.091109
451.000000	5.128079
452.000000	5.163541
453.000000	5.197909
454.000000	5.231052
455.000000	5.263134
456.000000	5.294096
457.000000	5.323872
458.000000	5.352956
459.000000	5.381389
460.000000	5.409120
461.000000	5.436540
462.000000	5.464017
463.000000	5.491645
464.000000	5.519540
465.000000	5.547995
466.000000	5.576838
467.000000	5.606159
468.000000	5.636346
469.000000	5.667277
470.000000	5.698938
471.000000	5.731595
472.000000	5.765169
473.000000	5.799462
474.000000	5.834856
475.000000	5.871351
476.000000	5.908470
477.000000	5.946313
478.000000	5.985493
479.000000	6.025942
480.000000	6.066838
481.000000	6.107830
482.000000	6.149286
483.000000	6.191884
484.000000	6.236177
485.000000	6.281843
486.000000	6.328989
487.000000	6.378103
488.000000	6.429131
489.000000	6.482274
490.000000	6.537384
491.000000	6.594861
492.000000	6.654961
493.000000	6.717609
494.000000	6.782873
495.000000	6.850860
496.000000	6.921618
497.000000	6.995217
498.000000	7.071775
499.000000	7.151250
500.000000	7.233823
501.000000	7.319887
502.000000	7.409291
503.000000	7.502035
504.000000	7.598466
505.000000	7.698453
506.000000	7.801726
507.000000	7.908469
508.000000	8.019007
509.000000	8.133388
510.000000	8.251614
511.000000	8.373806
512.000000	8.500092
513.000000	8.630152
514.000000	8.764071
515.000000	8.902397
516.000000	9.045381
517.000000	9.192822
518.000000	9.344151
519.000000	9.498842
520.000000	9.656964
521.000000	9.818552
522.000000	9.983355
523.000000	10.151041
524.000000	10.321418
525.000000	10.494452
526.000000	10.669535
527.000000	10.846427
528.000000	11.024668
529.000000	11.204283
530.000000	11.385201
531.000000	11.567047
532.000000	11.749500
533.000000	11.932313
534.000000	12.115308
535.000000	12.298155
536.000000	12.480400
537.000000	12.661728
538.000000	12.841849
539.000000	13.020111
540.000000	13.196668
541.000000	13.371682
542.000000	13.544617
543.000000	13.715600
544.000000	13.883896
545.000000	14.048970
546.000000	14.210880
547.000000	14.369625
548.000000	14.525392
549.000000	14.678138
550.000000	14.827133
551.000000	14.972325
552.000000	15.113939
553.000000	15.251780
554.000000	15.385757
555.000000	15.515163
556.000000	15.640329
557.000000	15.761086
558.000000	15.877728
559.000000	15.989801
560.000000	16.084152
561.000000	16.172946
562.000000	16.256934
563.000000	16.336175
564.000000	16.410324
565.000000	16.479291
566.000000	16.543218
567.000000	16.601996
568.000000	16.654973
569.000000	16.702767
570.000000	16.745425
571.000000	16.782809
572.000000	16.814866
573.000000	16.841716
574.000000	16.863564
575.000000	16.880126
576.000000	16.891277
577.000000	16.897389
578.000000	16.897974
579.000000	16.893900
580.000000	16.885281
581.000000	16.872519
582.000000	16.854975
583.000000	16.832743
584.000000	16.805853
585.000000	16.774020
586.000000	16.737579
587.000000	16.696474
588.000000	16.650472
589.000000	16.599778
590.000000	16.545015
591.000000	16.485507
592.000000	16.421370
593.000000	16.352502
594.000000	16.279461
595.000000	16.214788
596.000000	16.147604
597.000000	16.075996
598.000000	16.000612
599.000000	15.921963
600.000000	15.839931
601.000000	15.754803
602.000000	15.666765
603.000000	15.576872
604.000000	15.484872
605.000000	15.391078
606.000000	15.295746
607.000000	15.200443
608.000000	15.105338
609.000000	15.010485
610.000000	14.917050
611.000000	14.825776
612.000000	14.736830
613.000000	14.651178
614.000000	14.568620
615.000000	14.489694
616.000000	14.414287
617.000000	14.343398
618.000000	14.276980
619.000000	14.214870
620.000000	14.158045
621.000000	14.106299
622.000000	14.059140
623.000000	14.017338
624.000000	13.980756
625.000000	13.949161
626.000000	13.922560
627.000000	13.900716
628.000000	13.883165
629.000000	13.869572
630.000000	13.860986
631.000000	13.855955
632.000000	13.855908
633.000000	13.859792
634.000000	13.867380
635.000000	13.878536
636.000000	13.893186
637.000000	13.911074
638.000000	13.932017
639.000000	13.955631
640.000000	13.981802
641.000000	14.010444
642.000000	14.040652
643.000000	14.072321
644.000000	14.105918
645.000000	14.140180
646.000000	14.175066
647.000000	14.210272
648.000000	14.245236
649.000000	14.279640
650.000000	14.313709
651.000000	14.347372
652.000000	14.380030
653.000000	14.411927
654.000000	14.442101
655.000000	14.470920
656.000000	14.498457
657.000000	14.525378
658.000000	14.551118
659.000000	14.575256
660.000000	14.598507
661.000000	14.621052
662.000000	14.642749
663.000000	14.664370
664.000000	14.686090
665.000000	14.707560
666.000000	14.729198
667.000000	14.750668
668.000000	14.772784
669.000000	14.795002
670.000000	14.817801
671.000000	14.841243
672.000000	14.865609
673.000000	14.891275
674.000000	14.918295
675.000000	14.946344
676.000000	14.975488
677.000000	15.005737
678.000000	15.037452
679.000000	15.070542
680.000000	15.104934
681.000000	15.140414
682.000000	15.177892
683.000000	15.217101
684.000000	15.258215
685.000000	15.301445
686.000000	15.346634
687.000000	15.393675
688.000000	15.442900
689.000000	15.494877
690.000000	15.549434
691.000000	15.606439
692.000000	15.666112
693.000000	15.728409
694.000000	15.793726
695.000000	15.861755
696.000000	15.932161
697.000000	16.005195
698.000000	16.080534
699.000000	16.157860
700.000000	16.237114
701.000000	16.318294
702.000000	16.401597
703.000000	16.486557
704.000000	16.573634
705.000000	16.661948
706.000000	16.751343
707.000000	16.841773
708.000000	16.932325
709.000000	17.023595
710.000000	17.115085
711.000000	17.206727
712.000000	17.298371
713.000000	17.389557
714.000000	17.479824
715.000000	17.569850
716.000000	17.659063
717.000000	17.746293
718.000000	17.831492
719.000000	17.915001
720.000000	17.996385
721.000000	18.075722
722.000000	18.153257
723.000000	18.228592
724.000000	18.301548
725.000000	18.372292
726.000000	18.441500
727.000000	18.508267
728.000000	18.573005
729.000000	18.635786
730.000000	18.696553
731.000000	18.755868
732.000000	18.813487
733.000000	18.869886
734.000000	18.925778
735.000000	18.981105
736.000000	19.036272
737.000000	19.090707
738.000000	19.144542
739.000000	19.197813
740.000000	19.251436
741.000000	19.305943
742.000000	19.361134
743.000000	19.417048
744.000000	19.473415
745.000000	19.530756
746.000000	19.589156
747.000000	19.648459
748.000000	19.707728
749.000000	19.767189
750.000000	19.827506
751.000000	19.888636
752.000000	19.950452
753.000000	20.013127
754.000000	20.076723
755.000000	20.140894
756.000000	20.205038
757.000000	20.269041
758.000000	20.332248
759.000000	20.396030
760.000000	20.459746
761.000000	20.522910
762.000000	20.585456
763.000000	20.647010
764.000000	20.707579
765.000000	20.766447
766.000000	20.824692
767.000000	20.882006
768.000000	20.937587
769.000000	20.991534
770.000000	21.043784
771.000000	21.093544
772.000000	21.142398
773.000000	21.190380
774.000000	21.236644
775.000000	21.281165
776.000000	21.322828
777.000000	21.362306
778.000000	21.400044
779.000000	21.435852
780.000000	21.469439
781.000000	21.501393
782.000000	21.531567
783.000000	21.560849
784.000000	21.589515
785.000000	21.616161
786.000000	21.640808
787.000000	21.664089
788.000000	21.686318
789.000000	21.708463
790.000000	21.729494
791.000000	21.748525
792.000000	21.766475
793.000000	21.784818
794.000000	21.800920
795.000000	21.815991
796.000000	21.830840
797.000000	21.844516
798.000000	21.857292
799.000000	21.869501
800.000000	21.881718
801.000000	21.893442
802.000000	21.903972
803.000000	21.912911
804.000000	21.920622
805.000000	21.928857
806.000000	21.937304
807.000000	21.944192
808.000000	21.950210
809.000000	21.955399
810.000000	21.960613
811.000000	21.965204
812.000000	21.968807
813.000000	21.970782
814.000000	21.971402
815.000000	21.972186
816.000000	21.971416
817.000000	21.969305
818.000000	21.965743
819.000000	21.961379
820.000000	21.956526
821.000000	21.949935
822.000000	21.942013
823.000000	21.934825
824.000000	21.925687
825.000000	21.913613
826.000000	21.902361
827.000000	21.890752
828.000000	21.875295
829.000000	21.859755
830.000000	21.841456
831.000000	21.821527
832.000000	21.801101
833.000000	21.779624
834.000000	21.755059
835.000000	21.728811
836.000000	21.703361
837.000000	21.676258
838.000000	21.647571
839.000000	21.617416
840.000000	21.586969
841.000000	21.553680
842.000000	21.517883
843.000000	21.482145
844.000000	21.444084
845.000000	21.401934
846.000000	21.362532
847.000000	21.319318
848.000000	21.277823
849.000000	21.238225
850.000000	21.192107
851.000000	21.142004
852.000000	21.092867
853.000000	21.041296
854.000000	20.988955
855.000000	20.930387
856.000000	20.870306
857.000000	20.817961
858.000000	20.796299
859.000000	20.755556
860.000000	20.717155
861.000000	20.677922
862.000000	20.638285
863.000000	20.600502
864.000000	20.562364
865.000000	20.525767
866.000000	20.488360
867.000000	20.450675
868.000000	20.413103
869.000000	20.377206
870.000000	20.342012
871.000000	20.304377
872.000000	20.267680
873.000000	20.233311
874.000000	20.200098
875.000000	20.165294
876.000000	20.132048
877.000000	20.100805
878.000000	20.069129
879.000000	20.039586
880.000000	20.013395
881.000000	19.984374
882.000000	19.959470
883.000000	19.933437
884.000000	19.905703
885.000000	19.884421
886.000000	19.867330
887.000000	19.849842
888.000000	19.835341
889.000000	19.821240
890.000000	19.813273
891.000000	19.808232
892.000000	19.797676
893.000000	19.755313
894.000000	19.732519
895.000000	19.710039
896.000000	19.688446
897.000000	19.667787
898.000000	19.647940
899.000000	19.629610
900.000000	19.612728
901.000000	19.597566
902.000000	19.583666
903.000000	19.571661
904.000000	19.562066
905.000000	19.553907
906.000000	19.547583
907.000000	19.542312
908.000000	19.538516
909.000000	19.536120
910.000000	19.534484
911.000000	19.534526
912.000000	19.535788
913.000000	19.537460
914.000000	19.540306
915.000000	19.543528
916.000000	19.547798
917.000000	19.552669
918.000000	19.558198
919.000000	19.564464
920.000000	19.569402
921.000000	19.574863
922.000000	19.580718
923.000000	19.587041
924.000000	19.593872
925.000000	19.600718
926.000000	19.606956
927.000000	19.611695
928.000000	19.616051
929.000000	19.619930
930.000000	19.622123
931.000000	19.623994
932.000000	19.625955
933.000000	19.627125
934.000000	19.627565
935.000000	19.627692
936.000000	19.627110
937.000000	19.625797
938.000000	19.623553
939.000000	19.619886
940.000000	19.615167
941.000000	19.608393
942.000000	19.601226
943.000000	19.593483
944.000000	19.584357
945.000000	19.575403
946.000000	19.565719
947.000000	19.555522
948.000000	19.544842
949.000000	19.533596
950.000000	19.522163
951.000000	19.510778
952.000000	19.498743
953.000000	19.486236
954.000000	19.473209
955.000000	19.461275
956.000000	19.449196
957.000000	19.436272
958.000000	19.423459
959.000000	19.410624
960.000000	19.398000
961.000000	19.385627
962.000000	19.373347
963.000000	19.361209
964.000000	19.348575
965.000000	19.337355
966.000000	19.326001
967.000000	19.313733
968.000000	19.302117
969.000000	19.290321
970.000000	19.278024
971.000000	19.265566
972.000000	19.252911
973.000000	19.240196
974.000000	19.227643
975.000000	19.214986
976.000000	19.203052
977.000000	19.191790
978.000000	19.179857
979.000000	19.168570
980.000000	19.156738
981.000000	19.144712
982.000000	19.132588
983.000000	19.120568
984.000000	19.108197
985.000000	19.095691
986.000000	19.082532
987.000000	19.069233
988.000000	19.055981
989.000000	19.042974
990.000000	19.029530
991.000000	19.016073
992.000000	19.003150
993.000000	18.989840
994.000000	18.976000
995.000000	18.961692
996.000000	18.947907
997.000000	18.934758
998.000000	18.921618
999.000000	18.908770
1000.000000	18.895545
1001.000000	18.882503
1002.000000	18.869914
1003.000000	18.857428
1004.000000	18.845170
1005.000000	18.832829
1006.000000	18.820921
1007.000000	18.809911
1008.000000	18.799033
1009.000000	18.788043
1010.000000	18.777649
1011.000000	18.767444
1012.000000	18.756810
1013.000000	18.746797
1014.000000	18.736970
1015.000000	18.727907
1016.000000	18.719213
1017.000000	18.710632
1018.000000	18.702034
1019.000000	18.693966
1020.000000	18.686321
1021.000000	18.679299
1022.000000	18.672743
1023.000000	18.666641
1024.000000	18.660850
1025.000000	18.655553
1026.000000	18.650921
1027.000000	18.646629
1028.000000	18.642663
1029.000000	18.639321
1030.000000	18.637001
1031.000000	18.635137
1032.000000	18.633230
1033.000000	18.631690
1034.000000	18.630481
1035.000000	18.629692
1036.000000	18.629581
1037.000000	18.630113
1038.000000	18.630838
1039.000000	18.632001
1040.000000	18.633793
1041.000000	18.636303
1042.000000	18.639105
1043.000000	18.642377
1044.000000	18.646137
1045.000000	18.650147
1046.000000	18.654951
1047.000000	18.660589
1048.000000	18.666531
1049.000000	18.672839
1050.000000	18.679064
1051.000000	18.686025
1052.000000	18.693709
1053.000000	18.701826
1054.000000	18.710443
1055.000000	18.719426
1056.000000	18.728650
1057.000000	18.738419
1058.000000	18.748422
1059.000000	18.758881
1060.000000	18.770083
1061.000000	18.781286
1062.000000	18.793042
1063.000000	18.805162
1064.000000	18.817684
1065.000000	18.830481
1066.000000	18.843615
1067.000000	18.857178
1068.000000	18.871090
1069.000000	18.885540
1070.000000	18.900757
1071.000000	18.916300
1072.000000	18.931856
1073.000000	18.948055
1074.000000	18.964629
1075.000000	18.981554
1076.000000	18.998617
1077.000000	19.015632
1078.000000	19.032884
1079.000000	19.050756
1080.000000	19.069235
1081.000000	19.087638
1082.000000	19.106077
1083.000000	19.124437
1084.000000	19.143097
1085.000000	19.162559
1086.000000	19.181870
1087.000000	19.200745
1088.000000	19.219677
1089.000000	19.238573
1090.000000	19.257523
1091.000000	19.276436
1092.000000	19.295435
1093.000000	19.314208
1094.000000	19.332999
1095.000000	19.351435
1096.000000	19.369710
1097.000000	19.387582
1098.000000	19.405473
1099.000000	19.423079
1100.000000	19.440395
1101.000000	19.457486
1102.000000	19.474310
1103.000000	19.491116
1104.000000	19.507367
1105.000000	19.523081
1106.000000	19.538369
1107.000000	19.553223
1108.000000	19.567781
1109.000000	19.582223
1110.000000	19.596261
1111.000000	19.610025
1112.000000	19.623470
1113.000000	19.636544
1114.000000	19.649021
1115.000000	19.660815
1116.000000	19.672588
1117.000000	19.684028
1118.000000	19.695323
1119.000000	19.706481
1120.000000	19.716362
1121.000000	19.725840
1122.000000	19.735684
1123.000000	19.745340
1124.000000	19.754490
1125.000000	19.762776
1126.000000	19.770076
1127.000000	19.776347
1128.000000	19.782291
1129.000000	19.787556
1130.000000	19.791985
1131.000000	19.795101
1132.000000	19.797041
1133.000000	19.797676
1134.000000	19.797771
1135.000000	19.797691
1136.000000	19.797597
1137.000000	19.795372
1138.000000	19.791653
1139.000000	19.786767
1140.000000	19.781303
1141.000000	19.775205
1142.000000	19.768140
1143.000000	19.760320
1144.000000	19.751882
1145.000000	19.742883
1146.000000	19.733558
1147.000000	19.724266
1148.000000	19.713994
1149.000000	19.703122
1150.000000	19.691678
1151.000000	19.679544
1152.000000	19.666851
1153.000000	19.653459
1154.000000	19.638810
1155.000000	19.623591
1156.000000	19.607485
1157.000000	19.589881
1158.000000	19.571350
1159.000000	19.551278
1160.000000	19.530469
1161.000000	19.508883
1162.000000	19.486023
1163.000000	19.462293
1164.000000	19.436716
1165.000000	19.410441
1166.000000	19.383826
1167.000000	19.356554
1168.000000	19.329642
1169.000000	19.301948
1170.000000	19.273002
1171.000000	19.242982
1172.000000	19.214325
1173.000000	19.185743
1174.000000	19.157984
1175.000000	19.129868
