PE UV       SUBTECH     SPECTRUM    ASCII       PEDS        4.00        
   -1
3-STRIGIDIA 2.ASC
23/11/20
15:01:57.00
23/11/20
15:01:57.00
Vinicio Soto Monge

250,000000
1
Lambda 1050
1050L1511233
PerkinElmer UV WinLab 6.3.2.0749 / 2.02.05 Lambda 900 UV/VIS/NIR, Aug  7 2015 09:38:08

0
0
3350/servo 860,8/2
0
0
UV/VIS
1
1
1
DoubleDePol,CommonBeamDepol,RBeamAtt,SBeamAtt,60mm sphere, WB InGaAs Detector
0
0
0
0
Program
Program
3350/servo 860,8/2
3350/0,4 860,8/0,4
3350/0,4 860,8/0,4
0
20.00
 
 
 
0
 
860,8
319,2
860,8
Front
100
on
S:100 R:100
0
0
0
0
 
0
 
 
 
0
 
 
0
0
0
0
0
 
 
 
 
0
0


0
0
#HDR
-1
-1
#GR
nm
%R
1.0
0.0
2200,000000
-1,000000
1951
8
101,602264
5,197127
#DATA
284.000000	7.577279
285.000000	7.569198
286.000000	7.560730
287.000000	7.554637
288.000000	7.550025
289.000000	7.545395
290.000000	7.541740
291.000000	7.538190
292.000000	7.535137
293.000000	7.532149
294.000000	7.531251
295.000000	7.530298
296.000000	7.531192
297.000000	7.531992
298.000000	7.535978
299.000000	7.540321
300.000000	7.544517
301.000000	7.550079
302.000000	7.556920
303.000000	7.565326
304.000000	7.572923
305.000000	7.579667
306.000000	7.588165
307.000000	7.595718
308.000000	7.603472
309.000000	7.610052
310.000000	7.620244
311.000000	7.629467
312.000000	7.636537
313.000000	7.643886
314.000000	7.652284
315.000000	7.659883
316.000000	7.668152
317.000000	7.678578
318.000000	7.689483
319.000000	7.697277
320.000000	7.708841
321.000000	7.719942
322.000000	7.729963
323.000000	7.737494
324.000000	7.746975
325.000000	7.752961
326.000000	7.760272
327.000000	7.766557
328.000000	7.772612
329.000000	7.775155
330.000000	7.780471
331.000000	7.782020
332.000000	7.782181
333.000000	7.783735
334.000000	7.783165
335.000000	7.782021
336.000000	7.780524
337.000000	7.781107
338.000000	7.782470
339.000000	7.780700
340.000000	7.779809
341.000000	7.777516
342.000000	7.778320
343.000000	7.777877
344.000000	7.779968
345.000000	7.778127
346.000000	7.777916
347.000000	7.779477
348.000000	7.779245
349.000000	7.778541
350.000000	7.778823
351.000000	7.779305
352.000000	7.775299
353.000000	7.770547
354.000000	7.769421
355.000000	7.764288
356.000000	7.760476
357.000000	7.755819
358.000000	7.755038
359.000000	7.754648
360.000000	7.755443
361.000000	7.753675
362.000000	7.752227
363.000000	7.752351
364.000000	7.754086
365.000000	7.753059
366.000000	7.754859
367.000000	7.756963
368.000000	7.756289
369.000000	7.755651
370.000000	7.754867
371.000000	7.754235
372.000000	7.752076
373.000000	7.748680
374.000000	7.748726
375.000000	7.746689
376.000000	7.744039
377.000000	7.740146
378.000000	7.736975
379.000000	7.733135
380.000000	7.730665
381.000000	7.727367
382.000000	7.724022
383.000000	7.720649
384.000000	7.716537
385.000000	7.712012
386.000000	7.707457
387.000000	7.704683
388.000000	7.702211
389.000000	7.698202
390.000000	7.693824
391.000000	7.689812
392.000000	7.686975
393.000000	7.682933
394.000000	7.676867
395.000000	7.672273
396.000000	7.668974
397.000000	7.666538
398.000000	7.662885
399.000000	7.658696
400.000000	7.654982
401.000000	7.652078
402.000000	7.649519
403.000000	7.646795
404.000000	7.645745
405.000000	7.645751
406.000000	7.644655
407.000000	7.643660
408.000000	7.642011
409.000000	7.640166
410.000000	7.640470
411.000000	7.641535
412.000000	7.640773
413.000000	7.640130
414.000000	7.639843
415.000000	7.639459
416.000000	7.638850
417.000000	7.638314
418.000000	7.638056
419.000000	7.638395
420.000000	7.639101
421.000000	7.640001
422.000000	7.640665
423.000000	7.641441
424.000000	7.642539
425.000000	7.643763
426.000000	7.644922
427.000000	7.645830
428.000000	7.647172
429.000000	7.649086
430.000000	7.650635
431.000000	7.652100
432.000000	7.653790
433.000000	7.655896
434.000000	7.658043
435.000000	7.660388
436.000000	7.662456
437.000000	7.664462
438.000000	7.666912
439.000000	7.669659
440.000000	7.672489
441.000000	7.675414
442.000000	7.678108
443.000000	7.680792
444.000000	7.683734
445.000000	7.686747
446.000000	7.690085
447.000000	7.693825
448.000000	7.697855
449.000000	7.701818
450.000000	7.705688
451.000000	7.709899
452.000000	7.714596
453.000000	7.719311
454.000000	7.724010
455.000000	7.728241
456.000000	7.732549
457.000000	7.737157
458.000000	7.742101
459.000000	7.747217
460.000000	7.752430
461.000000	7.757849
462.000000	7.763715
463.000000	7.769608
464.000000	7.775357
465.000000	7.781564
466.000000	7.788059
467.000000	7.794826
468.000000	7.801645
469.000000	7.809000
470.000000	7.816822
471.000000	7.824856
472.000000	7.833342
473.000000	7.842057
474.000000	7.851199
475.000000	7.860781
476.000000	7.871180
477.000000	7.882604
478.000000	7.894781
479.000000	7.907580
480.000000	7.920373
481.000000	7.932703
482.000000	7.944843
483.000000	7.957531
484.000000	7.971101
485.000000	7.985672
486.000000	8.001559
487.000000	8.018736
488.000000	8.037414
489.000000	8.057617
490.000000	8.080010
491.000000	8.104088
492.000000	8.130358
493.000000	8.158909
494.000000	8.189883
495.000000	8.223307
496.000000	8.259410
497.000000	8.297854
498.000000	8.338777
499.000000	8.382208
500.000000	8.427964
501.000000	8.476113
502.000000	8.526731
503.000000	8.580127
504.000000	8.636183
505.000000	8.694890
506.000000	8.756703
507.000000	8.821392
508.000000	8.889384
509.000000	8.960830
510.000000	9.036023
511.000000	9.115135
512.000000	9.198120
513.000000	9.285663
514.000000	9.378465
515.000000	9.477220
516.000000	9.583093
517.000000	9.696419
518.000000	9.817192
519.000000	9.945693
520.000000	10.082401
521.000000	10.228265
522.000000	10.383703
523.000000	10.548565
524.000000	10.722747
525.000000	10.906072
526.000000	11.098513
527.000000	11.299373
528.000000	11.508222
529.000000	11.724459
530.000000	11.947056
531.000000	12.175812
532.000000	12.409887
533.000000	12.647901
534.000000	12.889603
535.000000	13.133844
536.000000	13.380526
537.000000	13.628671
538.000000	13.877116
539.000000	14.125924
540.000000	14.374555
541.000000	14.622745
542.000000	14.870737
543.000000	15.117398
544.000000	15.361823
545.000000	15.604462
546.000000	15.845069
547.000000	16.083642
548.000000	16.319576
549.000000	16.551459
550.000000	16.779490
551.000000	17.003033
552.000000	17.221931
553.000000	17.435353
554.000000	17.643016
555.000000	17.844329
556.000000	18.038443
557.000000	18.224807
558.000000	18.403320
559.000000	18.574982
560.000000	18.740277
561.000000	18.898809
562.000000	19.050742
563.000000	19.196717
564.000000	19.336877
565.000000	19.472869
566.000000	19.605058
567.000000	19.734221
568.000000	19.861831
569.000000	19.987595
570.000000	20.113851
571.000000	20.240257
572.000000	20.367693
573.000000	20.497392
574.000000	20.629738
575.000000	20.765040
576.000000	20.903082
577.000000	21.043826
578.000000	21.188425
579.000000	21.337527
580.000000	21.490169
581.000000	21.646486
582.000000	21.806160
583.000000	21.969586
584.000000	22.137207
585.000000	22.308880
586.000000	22.484311
587.000000	22.663217
588.000000	22.845773
589.000000	23.032076
590.000000	23.221814
591.000000	23.414832
592.000000	23.611009
593.000000	23.810897
594.000000	24.013262
595.000000	24.216778
596.000000	24.422368
597.000000	24.630610
598.000000	24.840632
599.000000	25.052334
600.000000	25.266276
601.000000	25.482161
602.000000	25.700258
603.000000	25.919128
604.000000	26.140752
605.000000	26.363265
606.000000	26.588024
607.000000	26.814157
608.000000	27.041748
609.000000	27.269897
610.000000	27.498757
611.000000	27.729352
612.000000	27.961539
613.000000	28.194624
614.000000	28.428498
615.000000	28.663930
616.000000	28.899409
617.000000	29.135789
618.000000	29.372761
619.000000	29.610146
620.000000	29.848340
621.000000	30.087197
622.000000	30.327982
623.000000	30.569875
624.000000	30.812083
625.000000	31.054682
626.000000	31.298509
627.000000	31.543626
628.000000	31.788441
629.000000	32.034308
630.000000	32.282766
631.000000	32.533301
632.000000	32.784598
633.000000	33.037698
634.000000	33.293259
635.000000	33.549398
636.000000	33.807606
637.000000	34.066757
638.000000	34.328128
639.000000	34.589691
640.000000	34.853750
641.000000	35.119088
642.000000	35.385862
643.000000	35.654566
644.000000	35.925368
645.000000	36.197569
646.000000	36.470419
647.000000	36.745264
648.000000	37.021832
649.000000	37.300374
650.000000	37.579539
651.000000	37.861530
652.000000	38.146720
653.000000	38.434008
654.000000	38.724369
655.000000	39.016506
656.000000	39.309929
657.000000	39.603128
658.000000	39.897653
659.000000	40.194618
660.000000	40.493907
661.000000	40.793591
662.000000	41.093661
663.000000	41.395859
664.000000	41.698762
665.000000	42.001813
666.000000	42.304982
667.000000	42.608358
668.000000	42.913091
669.000000	43.217916
670.000000	43.523739
671.000000	43.828356
672.000000	44.133946
673.000000	44.439502
674.000000	44.745864
675.000000	45.050754
676.000000	45.354511
677.000000	45.658049
678.000000	45.960426
679.000000	46.262138
680.000000	46.564918
681.000000	46.867432
682.000000	47.168178
683.000000	47.466906
684.000000	47.765270
685.000000	48.063292
686.000000	48.358731
687.000000	48.652016
688.000000	48.943486
689.000000	49.233916
690.000000	49.523343
691.000000	49.811562
692.000000	50.100437
693.000000	50.386933
694.000000	50.670405
695.000000	50.952326
696.000000	51.234456
697.000000	51.515617
698.000000	51.794479
699.000000	52.072747
700.000000	52.348890
701.000000	52.623579
702.000000	52.898270
703.000000	53.170129
704.000000	53.441247
705.000000	53.710865
706.000000	53.979254
707.000000	54.246177
708.000000	54.513271
709.000000	54.778530
710.000000	55.042580
711.000000	55.306347
712.000000	55.569960
713.000000	55.831851
714.000000	56.093443
715.000000	56.353412
716.000000	56.612560
717.000000	56.870466
718.000000	57.127499
719.000000	57.381895
720.000000	57.635898
721.000000	57.889333
722.000000	58.140576
723.000000	58.392084
724.000000	58.641484
725.000000	58.888579
726.000000	59.136235
727.000000	59.382003
728.000000	59.627767
729.000000	59.872089
730.000000	60.116376
731.000000	60.360033
732.000000	60.600649
733.000000	60.840684
734.000000	61.079267
735.000000	61.318153
736.000000	61.558360
737.000000	61.796167
738.000000	62.033213
739.000000	62.267732
740.000000	62.501366
741.000000	62.734913
742.000000	62.967842
743.000000	63.199252
744.000000	63.429069
745.000000	63.658295
746.000000	63.885764
747.000000	64.110360
748.000000	64.336699
749.000000	64.561028
750.000000	64.783429
751.000000	65.005586
752.000000	65.224787
753.000000	65.443606
754.000000	65.662614
755.000000	65.882308
756.000000	66.102735
757.000000	66.321843
758.000000	66.538757
759.000000	66.753374
760.000000	66.966934
761.000000	67.179976
762.000000	67.392850
763.000000	67.605489
764.000000	67.819910
765.000000	68.031999
766.000000	68.239775
767.000000	68.446601
768.000000	68.652427
769.000000	68.859045
770.000000	69.063161
771.000000	69.265752
772.000000	69.469486
773.000000	69.671765
774.000000	69.873443
775.000000	70.073949
776.000000	70.274311
777.000000	70.473675
778.000000	70.669148
779.000000	70.862450
780.000000	71.057736
781.000000	71.250416
782.000000	71.444703
783.000000	71.634784
784.000000	71.825327
785.000000	72.020143
786.000000	72.211982
787.000000	72.402891
788.000000	72.590960
789.000000	72.780753
790.000000	72.968137
791.000000	73.154743
792.000000	73.339223
793.000000	73.522215
794.000000	73.707442
795.000000	73.888942
796.000000	74.072784
797.000000	74.256082
798.000000	74.434196
799.000000	74.610648
800.000000	74.785264
801.000000	74.961461
802.000000	75.141235
803.000000	75.320185
804.000000	75.497891
805.000000	75.676654
806.000000	75.848994
807.000000	76.020190
808.000000	76.192250
809.000000	76.365119
810.000000	76.535331
811.000000	76.704332
812.000000	76.872736
813.000000	77.043082
814.000000	77.216537
815.000000	77.382956
816.000000	77.548649
817.000000	77.709906
818.000000	77.877763
819.000000	78.038496
820.000000	78.198098
821.000000	78.359513
822.000000	78.519386
823.000000	78.680217
824.000000	78.834232
825.000000	78.988726
826.000000	79.139380
827.000000	79.294502
828.000000	79.447788
829.000000	79.601892
830.000000	79.754828
831.000000	79.903839
832.000000	80.052863
833.000000	80.207151
834.000000	80.354439
835.000000	80.507412
836.000000	80.652476
837.000000	80.795698
838.000000	80.944659
839.000000	81.090513
840.000000	81.229346
841.000000	81.376436
842.000000	81.517800
843.000000	81.653810
844.000000	81.792151
845.000000	81.938722
846.000000	82.077649
847.000000	82.216845
848.000000	82.348411
849.000000	82.476912
850.000000	82.601015
851.000000	82.735617
852.000000	82.872567
853.000000	83.003402
854.000000	83.126990
855.000000	83.250850
856.000000	83.375488
857.000000	83.496307
858.000000	83.625822
859.000000	83.787217
860.000000	83.946555
861.000000	84.110914
862.000000	84.250243
863.000000	84.375066
864.000000	84.513631
865.000000	84.669638
866.000000	84.794174
867.000000	84.923957
868.000000	85.077326
869.000000	85.192933
870.000000	85.334557
871.000000	85.474682
872.000000	85.629633
873.000000	85.761246
874.000000	85.875319
875.000000	85.999936
876.000000	86.118179
877.000000	86.264807
878.000000	86.416749
879.000000	86.534365
880.000000	86.662152
881.000000	86.812060
882.000000	86.921560
883.000000	87.040592
884.000000	87.190972
885.000000	87.335766
886.000000	87.478240
887.000000	87.601672
888.000000	87.716602
889.000000	87.848332
890.000000	87.954924
891.000000	88.068402
892.000000	88.184845
893.000000	88.298836
894.000000	88.398935
895.000000	88.486470
896.000000	88.580519
897.000000	88.662762
898.000000	88.790146
899.000000	88.885672
900.000000	89.008456
901.000000	89.121139
902.000000	89.222812
903.000000	89.321329
904.000000	89.457493
905.000000	89.527350
906.000000	89.600238
907.000000	89.681441
908.000000	89.775302
909.000000	89.893166
910.000000	89.986415
911.000000	90.080700
912.000000	90.137849
913.000000	90.223747
914.000000	90.334033
915.000000	90.421481
916.000000	90.485487
917.000000	90.562788
918.000000	90.651776
919.000000	90.740948
920.000000	90.803894
921.000000	90.887493
922.000000	90.954347
923.000000	91.037981
924.000000	91.088750
925.000000	91.193820
926.000000	91.272945
927.000000	91.344242
928.000000	91.438255
929.000000	91.486791
930.000000	91.559463
931.000000	91.617707
932.000000	91.688705
933.000000	91.747321
934.000000	91.848386
935.000000	91.886783
936.000000	91.935390
937.000000	92.000725
938.000000	92.024732
939.000000	92.059670
940.000000	92.132522
941.000000	92.233046
942.000000	92.303668
943.000000	92.378977
944.000000	92.435541
945.000000	92.511226
946.000000	92.586038
947.000000	92.659219
948.000000	92.698876
949.000000	92.751474
950.000000	92.794140
951.000000	92.831132
952.000000	92.889386
953.000000	92.961556
954.000000	92.982852
955.000000	93.027251
956.000000	93.054389
957.000000	93.112351
958.000000	93.170975
959.000000	93.262477
960.000000	93.314202
961.000000	93.360489
962.000000	93.425653
963.000000	93.484197
964.000000	93.554074
965.000000	93.631911
966.000000	93.710896
967.000000	93.771517
968.000000	93.792961
969.000000	93.798736
970.000000	93.828266
971.000000	93.897308
972.000000	93.939656
973.000000	93.983619
974.000000	94.034862
975.000000	94.098836
976.000000	94.131301
977.000000	94.186155
978.000000	94.222323
979.000000	94.255927
980.000000	94.296175
981.000000	94.325298
982.000000	94.402974
983.000000	94.468209
984.000000	94.514942
985.000000	94.590579
986.000000	94.663964
987.000000	94.734359
988.000000	94.770835
989.000000	94.821125
990.000000	94.875493
991.000000	94.913322
992.000000	94.967798
993.000000	95.020491
994.000000	95.066121
995.000000	95.110817
996.000000	95.179429
997.000000	95.249924
998.000000	95.274831
999.000000	95.320850
1000.000000	95.344778
1001.000000	95.362719
1002.000000	95.418062
1003.000000	95.478517
1004.000000	95.524950
1005.000000	95.575471
1006.000000	95.606557
1007.000000	95.644554
1008.000000	95.713362
1009.000000	95.780877
1010.000000	95.830257
1011.000000	95.882244
1012.000000	95.909277
1013.000000	95.943446
1014.000000	95.995394
1015.000000	96.049322
1016.000000	96.096445
1017.000000	96.103591
1018.000000	96.130127
1019.000000	96.158606
1020.000000	96.183355
1021.000000	96.211309
1022.000000	96.239920
1023.000000	96.283111
1024.000000	96.327771
1025.000000	96.354668
1026.000000	96.383511
1027.000000	96.440588
1028.000000	96.464859
1029.000000	96.467883
1030.000000	96.492762
1031.000000	96.506535
1032.000000	96.503589
1033.000000	96.509766
1034.000000	96.512466
1035.000000	96.510935
1036.000000	96.524853
1037.000000	96.547934
1038.000000	96.589430
1039.000000	96.631212
1040.000000	96.646911
1041.000000	96.661122
1042.000000	96.685427
1043.000000	96.708431
1044.000000	96.730366
1045.000000	96.736703
1046.000000	96.731892
1047.000000	96.768208
1048.000000	96.803068
1049.000000	96.799020
1050.000000	96.785409
1051.000000	96.789351
1052.000000	96.823670
1053.000000	96.842828
1054.000000	96.857743
1055.000000	96.874385
1056.000000	96.895079
1057.000000	96.900367
1058.000000	96.902730
1059.000000	96.910543
1060.000000	96.952663
1061.000000	96.975795
1062.000000	96.947403
1063.000000	96.947753
1064.000000	96.961774
1065.000000	96.980975
1066.000000	97.004401
1067.000000	97.042388
1068.000000	97.058852
1069.000000	97.098940
1070.000000	97.164892
1071.000000	97.215271
1072.000000	97.206380
1073.000000	97.219053
1074.000000	97.229760
1075.000000	97.245160
1076.000000	97.275259
1077.000000	97.323789
1078.000000	97.335896
1079.000000	97.326373
1080.000000	97.341503
1081.000000	97.394861
1082.000000	97.375012
1083.000000	97.381501
1084.000000	97.423214
1085.000000	97.465862
1086.000000	97.504627
1087.000000	97.494073
1088.000000	97.492313
1089.000000	97.505533
1090.000000	97.522476
1091.000000	97.532166
1092.000000	97.584643
1093.000000	97.619348
1094.000000	97.656340
1095.000000	97.660849
1096.000000	97.691356
1097.000000	97.717395
1098.000000	97.742738
1099.000000	97.792543
1100.000000	97.765833
1101.000000	97.772817
1102.000000	97.787289
1103.000000	97.821216
1104.000000	97.852855
1105.000000	97.831874
1106.000000	97.826842
1107.000000	97.855853
1108.000000	97.863725
1109.000000	97.892062
1110.000000	97.908440
1111.000000	97.916317
1112.000000	97.897016
1113.000000	97.895907
1114.000000	97.923721
1115.000000	97.928283
1116.000000	97.892694
1117.000000	97.909282
1118.000000	97.922104
1119.000000	97.919520
1120.000000	97.901293
1121.000000	97.931233
1122.000000	97.988717
1123.000000	98.052044
1124.000000	98.085077
1125.000000	98.093749
1126.000000	98.088288
1127.000000	98.083370
1128.000000	98.106091
1129.000000	98.109207
1130.000000	98.109914
1131.000000	98.136448
1132.000000	98.153297
1133.000000	98.170152
1134.000000	98.203867
1135.000000	98.244226
1136.000000	98.269702
1137.000000	98.270497
1138.000000	98.293804
1139.000000	98.279605
1140.000000	98.290160
1141.000000	98.279871
1142.000000	98.300245
1143.000000	98.294137
1144.000000	98.291975
1145.000000	98.297180
1146.000000	98.307593
1147.000000	98.311470
1148.000000	98.332066
1149.000000	98.308064
1150.000000	98.309207
1151.000000	98.332780
1152.000000	98.355999
1153.000000	98.341443
1154.000000	98.331039
1155.000000	98.371162
1156.000000	98.360768
1157.000000	98.343035
1158.000000	98.302046
1159.000000	98.259486
1160.000000	98.262378
1161.000000	98.278859
1162.000000	98.254661
1163.000000	98.216205
1164.000000	98.203087
1165.000000	98.208174
1166.000000	98.181211
1167.000000	98.190250
1168.000000	98.166886
1169.000000	98.073440
1170.000000	98.049500
1171.000000	98.016704
1172.000000	97.981813
1173.000000	97.968648
1174.000000	97.949854
1175.000000	97.911227
1176.000000	97.886140
1177.000000	97.862299
1178.000000	97.871581
1179.000000	97.881528
1180.000000	97.906472
1181.000000	97.914869
1182.000000	97.920051
1183.000000	97.912598
1184.000000	97.922419
1185.000000	97.943970
1186.000000	97.908474
1187.000000	97.887393
1188.000000	97.899689
1189.000000	97.880059
1190.000000	97.866096
1191.000000	97.844574
1192.000000	97.849541
1193.000000	97.846270
1194.000000	97.862043
1195.000000	97.824670
1196.000000	97.796982
1197.000000	97.808514
1198.000000	97.827095
1199.000000	97.813154
1200.000000	97.827800
1201.000000	97.810250
1202.000000	97.789366
1203.000000	97.797593
1204.000000	97.810152
