PE UV       SUBTECH     SPECTRUM    ASCII       PEDS        4.00        
   -1
4-C. RESPLENDENS MV 23-19.ASC
23/11/21
14:57:09.00
23/11/21
14:57:09.00
Vinicio Soto Monge

250,000000
1
Lambda 1050
1050L1511233
PerkinElmer UV WinLab 6.3.2.0749 / 2.02.05 Lambda 900 UV/VIS/NIR, Aug  7 2015 09:38:08

0
0
3350/servo 860,8/2
0
0
UV/VIS
1
1
1
DoubleDePol,CommonBeamDepol,RBeamAtt,SBeamAtt,60mm sphere, WB InGaAs Detector
0
0
0
0
Program
Program
3350/servo 860,8/2
3350/0,4 860,8/0,4
3350/0,4 860,8/0,4
0
20.00
 
 
 
0
 
860,8
319,2
860,8
Front
100
on
S:100 R:100
0
0
0
0
 
0
 
 
 
0
 
 
0
0
0
0
0
 
 
 
 
0
0


0
0
#HDR
-1
-1
#GR
nm
%R
1.0
0.0
2200,000000
-1,000000
1951
8
105,166666
6,608656
#DATA
284.000000	6.996837
285.000000	6.984213
286.000000	6.972247
287.000000	6.962268
288.000000	6.952131
289.000000	6.941870
290.000000	6.934968
291.000000	6.926223
292.000000	6.918756
293.000000	6.912432
294.000000	6.904551
295.000000	6.899774
296.000000	6.895139
297.000000	6.887099
298.000000	6.881482
299.000000	6.876088
300.000000	6.871111
301.000000	6.866701
302.000000	6.863461
303.000000	6.856557
304.000000	6.850904
305.000000	6.844612
306.000000	6.840963
307.000000	6.836712
308.000000	6.828637
309.000000	6.823120
310.000000	6.816617
311.000000	6.806745
312.000000	6.797409
313.000000	6.788814
314.000000	6.780014
315.000000	6.771591
316.000000	6.760292
317.000000	6.736342
318.000000	6.713787
319.000000	6.689804
320.000000	6.667739
321.000000	6.648948
322.000000	6.632436
323.000000	6.612818
324.000000	6.592212
325.000000	6.574914
326.000000	6.557646
327.000000	6.541324
328.000000	6.525485
329.000000	6.506141
330.000000	6.485906
331.000000	6.468451
332.000000	6.450830
333.000000	6.432296
334.000000	6.414431
335.000000	6.400151
336.000000	6.387071
337.000000	6.372603
338.000000	6.360975
339.000000	6.347415
340.000000	6.334960
341.000000	6.324173
342.000000	6.312922
343.000000	6.305016
344.000000	6.296060
345.000000	6.288801
346.000000	6.284017
347.000000	6.277921
348.000000	6.272855
349.000000	6.270793
350.000000	6.268752
351.000000	6.271288
352.000000	6.287872
353.000000	6.304833
354.000000	6.323442
355.000000	6.342982
356.000000	6.361119
357.000000	6.378544
358.000000	6.404264
359.000000	6.430331
360.000000	6.456312
361.000000	6.486226
362.000000	6.517738
363.000000	6.551381
364.000000	6.591651
365.000000	6.636316
366.000000	6.681865
367.000000	6.733474
368.000000	6.790465
369.000000	6.850135
370.000000	6.911106
371.000000	6.977083
372.000000	7.050667
373.000000	7.128881
374.000000	7.213309
375.000000	7.305494
376.000000	7.405433
377.000000	7.521475
378.000000	7.643561
379.000000	7.773477
380.000000	7.911681
381.000000	8.058962
382.000000	8.215147
383.000000	8.379858
384.000000	8.551169
385.000000	8.731168
386.000000	8.920177
387.000000	9.116913
388.000000	9.321541
389.000000	9.534017
390.000000	9.753919
391.000000	9.981561
392.000000	10.217261
393.000000	10.459331
394.000000	10.710566
395.000000	10.968239
396.000000	11.231645
397.000000	11.501323
398.000000	11.776729
399.000000	12.059014
400.000000	12.346148
401.000000	12.638341
402.000000	12.935258
403.000000	13.235842
404.000000	13.540078
405.000000	13.848870
406.000000	14.159468
407.000000	14.470169
408.000000	14.783526
409.000000	15.099321
410.000000	15.413649
411.000000	15.723884
412.000000	16.025120
413.000000	16.324746
414.000000	16.622300
415.000000	16.916907
416.000000	17.206995
417.000000	17.492137
418.000000	17.772582
419.000000	18.047353
420.000000	18.314853
421.000000	18.574968
422.000000	18.827411
423.000000	19.070726
424.000000	19.304289
425.000000	19.528155
426.000000	19.741475
427.000000	19.944052
428.000000	20.135430
429.000000	20.315547
430.000000	20.485333
431.000000	20.644864
432.000000	20.793985
433.000000	20.933001
434.000000	21.062965
435.000000	21.185340
436.000000	21.300863
437.000000	21.409401
438.000000	21.512326
439.000000	21.611404
440.000000	21.707397
441.000000	21.801328
442.000000	21.893574
443.000000	21.984872
444.000000	22.075955
445.000000	22.168543
446.000000	22.263207
447.000000	22.360341
448.000000	22.460157
449.000000	22.562430
450.000000	22.667623
451.000000	22.776396
452.000000	22.888022
453.000000	23.002331
454.000000	23.119748
455.000000	23.240274
456.000000	23.362685
457.000000	23.487598
458.000000	23.616187
459.000000	23.749054
460.000000	23.885449
461.000000	24.025672
462.000000	24.170353
463.000000	24.320772
464.000000	24.476618
465.000000	24.637786
466.000000	24.804275
467.000000	24.976690
468.000000	25.155969
469.000000	25.340991
470.000000	25.531610
471.000000	25.727956
472.000000	25.930131
473.000000	26.138809
474.000000	26.353083
475.000000	26.573517
476.000000	26.800763
477.000000	27.034566
478.000000	27.276063
479.000000	27.525892
480.000000	27.782176
481.000000	28.046653
482.000000	28.320522
483.000000	28.605500
484.000000	28.903186
485.000000	29.213778
486.000000	29.538571
487.000000	29.877654
488.000000	30.231577
489.000000	30.600500
490.000000	30.985573
491.000000	31.386926
492.000000	31.805128
493.000000	32.239685
494.000000	32.689110
495.000000	33.154354
496.000000	33.632875
497.000000	34.123756
498.000000	34.628245
499.000000	35.145734
500.000000	35.673505
501.000000	36.211547
502.000000	36.761124
503.000000	37.320409
504.000000	37.888657
505.000000	38.464941
506.000000	39.048627
507.000000	39.639753
508.000000	40.237618
509.000000	40.841256
510.000000	41.450262
511.000000	42.064840
512.000000	42.685822
513.000000	43.310938
514.000000	43.940085
515.000000	44.575465
516.000000	45.214509
517.000000	45.856993
518.000000	46.501464
519.000000	47.146806
520.000000	47.794860
521.000000	48.444744
522.000000	49.096761
523.000000	49.751518
524.000000	50.408808
525.000000	51.068503
526.000000	51.729398
527.000000	52.390260
528.000000	53.052380
529.000000	53.714886
530.000000	54.375757
531.000000	55.037706
532.000000	55.700460
533.000000	56.359671
534.000000	57.015388
535.000000	57.670251
536.000000	58.323370
537.000000	58.972247
538.000000	59.619144
539.000000	60.263476
540.000000	60.903492
541.000000	61.540152
542.000000	62.172923
543.000000	62.799528
544.000000	63.420440
545.000000	64.035238
546.000000	64.642520
547.000000	65.241143
548.000000	65.829566
549.000000	66.407904
550.000000	66.974444
551.000000	67.529427
552.000000	68.069501
553.000000	68.594979
554.000000	69.107973
555.000000	69.602960
556.000000	70.081077
557.000000	70.540351
558.000000	70.980620
559.000000	71.402765
560.000000	71.805481
561.000000	72.190387
562.000000	72.557412
563.000000	72.904746
564.000000	73.233677
565.000000	73.546458
566.000000	73.843142
567.000000	74.124389
568.000000	74.394591
569.000000	74.651825
570.000000	74.895817
571.000000	75.126285
572.000000	75.345599
573.000000	75.553578
574.000000	75.749431
575.000000	75.932832
576.000000	76.104021
577.000000	76.263044
578.000000	76.410851
579.000000	76.544856
580.000000	76.663687
581.000000	76.769975
582.000000	76.859483
583.000000	76.932296
584.000000	76.987103
585.000000	77.026121
586.000000	77.048275
587.000000	77.052716
588.000000	77.038515
589.000000	77.004030
590.000000	76.951244
591.000000	76.879884
592.000000	76.791815
593.000000	76.685789
594.000000	76.561656
595.000000	76.422194
596.000000	76.266704
597.000000	76.095817
598.000000	75.912488
599.000000	75.717735
600.000000	75.510022
601.000000	75.292683
602.000000	75.066458
603.000000	74.831724
604.000000	74.592113
605.000000	74.346658
606.000000	74.098800
607.000000	73.848969
608.000000	73.596775
609.000000	73.345683
610.000000	73.096744
611.000000	72.851956
612.000000	72.612041
613.000000	72.378671
614.000000	72.154487
615.000000	71.942131
616.000000	71.738884
617.000000	71.549916
618.000000	71.377097
619.000000	71.219129
620.000000	71.076041
621.000000	70.947719
622.000000	70.835310
623.000000	70.737803
624.000000	70.654080
625.000000	70.584329
626.000000	70.526291
627.000000	70.479537
628.000000	70.444143
629.000000	70.417513
630.000000	70.397329
631.000000	70.385570
632.000000	70.380845
633.000000	70.380635
634.000000	70.385047
635.000000	70.396161
636.000000	70.412836
637.000000	70.438244
638.000000	70.468279
639.000000	70.503191
640.000000	70.543765
641.000000	70.589246
642.000000	70.640559
643.000000	70.698388
644.000000	70.760637
645.000000	70.829782
646.000000	70.904168
647.000000	70.982506
648.000000	71.063796
649.000000	71.149742
650.000000	71.239500
651.000000	71.332334
652.000000	71.427034
653.000000	71.524965
654.000000	71.627722
655.000000	71.732686
656.000000	71.839473
657.000000	71.951340
658.000000	72.071016
659.000000	72.198871
660.000000	72.336216
661.000000	72.484621
662.000000	72.644392
663.000000	72.815460
664.000000	72.997869
665.000000	73.194521
666.000000	73.404239
667.000000	73.628411
668.000000	73.865174
669.000000	74.115945
670.000000	74.380861
671.000000	74.655260
672.000000	74.936432
673.000000	75.225321
674.000000	75.519879
675.000000	75.818673
676.000000	76.122371
677.000000	76.430553
678.000000	76.739141
679.000000	77.047876
680.000000	77.355639
681.000000	77.662095
682.000000	77.967684
683.000000	78.272052
684.000000	78.573727
685.000000	78.872647
686.000000	79.168481
687.000000	79.461279
688.000000	79.749978
689.000000	80.034008
690.000000	80.313344
691.000000	80.590759
692.000000	80.863658
693.000000	81.128934
694.000000	81.387144
695.000000	81.641050
696.000000	81.888896
697.000000	82.129688
698.000000	82.366840
699.000000	82.603245
700.000000	82.833686
701.000000	83.058271
702.000000	83.277628
703.000000	83.493776
704.000000	83.706061
705.000000	83.914980
706.000000	84.121804
707.000000	84.322572
708.000000	84.519672
709.000000	84.715725
710.000000	84.910928
711.000000	85.104817
712.000000	85.293324
713.000000	85.477418
714.000000	85.658913
715.000000	85.835792
716.000000	86.007273
717.000000	86.176068
718.000000	86.341272
719.000000	86.500520
720.000000	86.653106
721.000000	86.799524
722.000000	86.942068
723.000000	87.081352
724.000000	87.215556
725.000000	87.345807
726.000000	87.470454
727.000000	87.592675
728.000000	87.713979
729.000000	87.831638
730.000000	87.943565
731.000000	88.050487
732.000000	88.155571
733.000000	88.255841
734.000000	88.350152
735.000000	88.440369
736.000000	88.525473
737.000000	88.606739
738.000000	88.684885
739.000000	88.757807
740.000000	88.825257
741.000000	88.888028
742.000000	88.950700
743.000000	89.010713
744.000000	89.063554
745.000000	89.113310
746.000000	89.158831
747.000000	89.201189
748.000000	89.240723
749.000000	89.275694
750.000000	89.307885
751.000000	89.340129
752.000000	89.370701
753.000000	89.399125
754.000000	89.427090
755.000000	89.451259
756.000000	89.474570
757.000000	89.494123
758.000000	89.509747
759.000000	89.525236
760.000000	89.536941
761.000000	89.548291
762.000000	89.556765
763.000000	89.559697
764.000000	89.558543
765.000000	89.555750
766.000000	89.554438
767.000000	89.549547
768.000000	89.538976
769.000000	89.525762
770.000000	89.512374
771.000000	89.497579
772.000000	89.481456
773.000000	89.462186
774.000000	89.440448
775.000000	89.417938
776.000000	89.390343
777.000000	89.359539
778.000000	89.328230
779.000000	89.298367
780.000000	89.262669
781.000000	89.223523
782.000000	89.180859
783.000000	89.135931
784.000000	89.090091
785.000000	89.043848
786.000000	88.995785
787.000000	88.943474
788.000000	88.887461
789.000000	88.826987
790.000000	88.770751
791.000000	88.717064
792.000000	88.662448
793.000000	88.607611
794.000000	88.552349
795.000000	88.497126
796.000000	88.439224
797.000000	88.382104
798.000000	88.327158
799.000000	88.275580
800.000000	88.232008
801.000000	88.185411
802.000000	88.140269
803.000000	88.096919
804.000000	88.053085
805.000000	88.015073
806.000000	87.980607
807.000000	87.949427
808.000000	87.920863
809.000000	87.891693
810.000000	87.866779
811.000000	87.843646
812.000000	87.819025
813.000000	87.795915
814.000000	87.771633
815.000000	87.755536
816.000000	87.743138
817.000000	87.735797
818.000000	87.724042
819.000000	87.714590
820.000000	87.708566
821.000000	87.701360
822.000000	87.699052
823.000000	87.692835
824.000000	87.686677
825.000000	87.681882
826.000000	87.665073
827.000000	87.655793
828.000000	87.643594
829.000000	87.630557
830.000000	87.611643
831.000000	87.600175
832.000000	87.588952
833.000000	87.576378
834.000000	87.566753
835.000000	87.544046
836.000000	87.522558
837.000000	87.498952
838.000000	87.480988
839.000000	87.458831
840.000000	87.439414
841.000000	87.412362
842.000000	87.391857
843.000000	87.367091
844.000000	87.353292
845.000000	87.336822
846.000000	87.319854
847.000000	87.303864
848.000000	87.294875
849.000000	87.284222
850.000000	87.275540
851.000000	87.273621
852.000000	87.255761
853.000000	87.251079
854.000000	87.226736
855.000000	87.223648
856.000000	87.241253
857.000000	87.221398
858.000000	87.204602
859.000000	87.248905
860.000000	87.284993
861.000000	87.341143
862.000000	87.381487
863.000000	87.469877
864.000000	87.578346
865.000000	87.637351
866.000000	87.704399
867.000000	87.791183
868.000000	87.875660
869.000000	87.944712
870.000000	88.060284
871.000000	88.148488
872.000000	88.191902
873.000000	88.260204
874.000000	88.345704
875.000000	88.445297
876.000000	88.560397
877.000000	88.646752
878.000000	88.703768
879.000000	88.747568
880.000000	88.820906
881.000000	88.922039
882.000000	89.036167
883.000000	89.084892
884.000000	89.155582
885.000000	89.214049
886.000000	89.304334
887.000000	89.355833
888.000000	89.427244
889.000000	89.495019
890.000000	89.594954
891.000000	89.669089
892.000000	89.745430
893.000000	89.864656
894.000000	89.922032
895.000000	89.935329
896.000000	89.957211
897.000000	89.974863
898.000000	89.967478
899.000000	89.932778
900.000000	89.941043
901.000000	89.933718
902.000000	89.904047
903.000000	89.908333
904.000000	89.953612
905.000000	89.954914
906.000000	89.950027
907.000000	89.993679
908.000000	90.020682
909.000000	90.034063
910.000000	90.014986
911.000000	89.979390
912.000000	89.966762
913.000000	90.005848
914.000000	90.072547
915.000000	90.080260
916.000000	90.052586
917.000000	90.059037
918.000000	90.127565
919.000000	90.188107
920.000000	90.231084
921.000000	90.238313
922.000000	90.245619
923.000000	90.273082
924.000000	90.327547
925.000000	90.327242
926.000000	90.358049
927.000000	90.386944
928.000000	90.360796
929.000000	90.373508
930.000000	90.411976
931.000000	90.430801
932.000000	90.465489
933.000000	90.512748
934.000000	90.609792
935.000000	90.677279
936.000000	90.735697
937.000000	90.780964
938.000000	90.818085
939.000000	90.819831
940.000000	90.829313
941.000000	90.906401
942.000000	90.971309
943.000000	90.989848
944.000000	91.015156
945.000000	91.038859
946.000000	91.109724
947.000000	91.206526
948.000000	91.246243
949.000000	91.273014
950.000000	91.329562
951.000000	91.382275
952.000000	91.405061
953.000000	91.393709
954.000000	91.382503
955.000000	91.408413
956.000000	91.463594
957.000000	91.565088
958.000000	91.624162
959.000000	91.655269
960.000000	91.663714
961.000000	91.664190
962.000000	91.703720
963.000000	91.761937
964.000000	91.784629
965.000000	91.816884
966.000000	91.841162
967.000000	91.857063
968.000000	91.877325
969.000000	91.853486
970.000000	91.859664
971.000000	91.888390
972.000000	91.953169
973.000000	91.997820
974.000000	92.061080
975.000000	92.097639
976.000000	92.103838
977.000000	92.121606
978.000000	92.154885
979.000000	92.172266
980.000000	92.188638
981.000000	92.183627
982.000000	92.172523
983.000000	92.204330
984.000000	92.231147
985.000000	92.254470
986.000000	92.286184
987.000000	92.311687
988.000000	92.359821
989.000000	92.394988
990.000000	92.419163
991.000000	92.409328
992.000000	92.422985
993.000000	92.440051
994.000000	92.458530
995.000000	92.506198
996.000000	92.552741
997.000000	92.582712
998.000000	92.648291
999.000000	92.717992
1000.000000	92.787395
1001.000000	92.887706
1002.000000	92.955475
1003.000000	92.980286
1004.000000	93.020913
1005.000000	93.079604
1006.000000	93.138961
1007.000000	93.174320
1008.000000	93.209499
1009.000000	93.232249
1010.000000	93.293722
1011.000000	93.343585
1012.000000	93.365525
1013.000000	93.412372
1014.000000	93.483114
1015.000000	93.591964
1016.000000	93.671492
1017.000000	93.702404
1018.000000	93.751251
1019.000000	93.828911
1020.000000	93.864602
1021.000000	93.918982
1022.000000	93.959584
1023.000000	94.011098
1024.000000	94.083771
1025.000000	94.116776
1026.000000	94.154090
1027.000000	94.206179
1028.000000	94.238574
1029.000000	94.284912
1030.000000	94.338387
1031.000000	94.385983
1032.000000	94.431635
1033.000000	94.441903
1034.000000	94.450367
1035.000000	94.487487
1036.000000	94.500068
1037.000000	94.526313
1038.000000	94.558569
1039.000000	94.589962
1040.000000	94.590035
1041.000000	94.610791
1042.000000	94.665167
1043.000000	94.690106
1044.000000	94.703636
1045.000000	94.692064
1046.000000	94.677685
1047.000000	94.719854
1048.000000	94.767863
1049.000000	94.788237
1050.000000	94.798775
1051.000000	94.819712
1052.000000	94.841208
1053.000000	94.851005
1054.000000	94.868491
1055.000000	94.928271
1056.000000	94.948043
1057.000000	94.985960
1058.000000	95.025580
1059.000000	95.008013
1060.000000	95.057512
1061.000000	95.120579
1062.000000	95.146799
1063.000000	95.178051
1064.000000	95.213812
1065.000000	95.237483
1066.000000	95.258421
1067.000000	95.308591
1068.000000	95.336180
1069.000000	95.398381
1070.000000	95.439429
1071.000000	95.475305
1072.000000	95.546895
1073.000000	95.566018
1074.000000	95.568351
1075.000000	95.609276
1076.000000	95.616832
1077.000000	95.633683
1078.000000	95.657618
1079.000000	95.707637
1080.000000	95.749364
1081.000000	95.808825
1082.000000	95.840519
1083.000000	95.910043
1084.000000	95.928428
1085.000000	95.937882
1086.000000	95.956246
1087.000000	96.008594
1088.000000	96.047003
1089.000000	96.015162
1090.000000	96.018722
1091.000000	96.008584
1092.000000	96.006372
1093.000000	96.006467
1094.000000	96.047134
1095.000000	96.077069
1096.000000	96.072028
1097.000000	96.071879
1098.000000	96.113972
1099.000000	96.162536
1100.000000	96.161844
1101.000000	96.207606
1102.000000	96.238409
1103.000000	96.249733
1104.000000	96.221765
1105.000000	96.222642
1106.000000	96.228036
1107.000000	96.236913
1108.000000	96.283003
1109.000000	96.325680
1110.000000	96.372665
1111.000000	96.430195
1112.000000	96.435738
1113.000000	96.485622
1114.000000	96.471193
1115.000000	96.462713
1116.000000	96.443048
1117.000000	96.466643
1118.000000	96.448686
1119.000000	96.476139
1120.000000	96.508306
1121.000000	96.530891
1122.000000	96.565130
1123.000000	96.586288
1124.000000	96.638605
1125.000000	96.666689
1126.000000	96.732391
1127.000000	96.821558
1128.000000	96.846886
1129.000000	96.875694
1130.000000	96.860522
1131.000000	96.881195
1132.000000	96.921674
1133.000000	96.942425
1134.000000	96.925454
1135.000000	96.936738
1136.000000	96.890844
1137.000000	96.894929
1138.000000	96.914090
1139.000000	96.947162
1140.000000	96.916030
1141.000000	96.901941
1142.000000	96.858427
1143.000000	96.814111
1144.000000	96.873053
1145.000000	96.861204
1146.000000	96.841436
1147.000000	96.837789
1148.000000	96.839113
1149.000000	96.882520
1150.000000	96.873288
1151.000000	96.939387
1152.000000	96.954486
1153.000000	96.937316
1154.000000	96.946364
1155.000000	96.972933
1156.000000	96.969743
1157.000000	96.973358
1158.000000	96.963743
1159.000000	96.953881
1160.000000	96.932479
1161.000000	96.897490
1162.000000	96.867136
1163.000000	96.845928
1164.000000	96.842719
1165.000000	96.857877
1166.000000	96.849048
1167.000000	96.859620
1168.000000	96.828757
1169.000000	96.841913
1170.000000	96.855309
1171.000000	96.839178
1172.000000	96.834682
1173.000000	96.830113
1174.000000	96.818561
1175.000000	96.824447
1176.000000	96.816052
1177.000000	96.825746
1178.000000	96.845765
1179.000000	96.816119
1180.000000	96.816104
1181.000000	96.819029
1182.000000	96.810447
1183.000000	96.780170
1184.000000	96.717120
1185.000000	96.713529
1186.000000	96.665443
1187.000000	96.623268
1188.000000	96.641099
1189.000000	96.637275
1190.000000	96.610764
1191.000000	96.593788
1192.000000	96.578888
1193.000000	96.601887
1194.000000	96.602262
1195.000000	96.594456
1196.000000	96.613411
1197.000000	96.620003
1198.000000	96.642431
