PE UV       SUBTECH     SPECTRUM    ASCII       PEDS        4.00        
   -1
4-CHRYSINA KALININI LA AMISTAD 2022.ASC
23/11/21
14:34:59.00
23/11/21
14:34:59.00
Vinicio Soto Monge

250,000000
1
Lambda 1050
1050L1511233
PerkinElmer UV WinLab 6.3.2.0749 / 2.02.05 Lambda 900 UV/VIS/NIR, Aug  7 2015 09:38:08

0
0
3350/servo 860,8/2
0
0
UV/VIS
1
1
1
DoubleDePol,CommonBeamDepol,RBeamAtt,SBeamAtt,60mm sphere, WB InGaAs Detector
0
0
0
0
Program
Program
3350/servo 860,8/2
3350/0,4 860,8/0,4
3350/0,4 860,8/0,4
0
20.00
 
 
 
0
 
860,8
319,2
860,8
Front
100
on
S:100 R:100
0
0
0
0
 
0
 
 
 
0
 
 
0
0
0
0
0
 
 
 
 
0
0


0
0
#HDR
-1
-1
#GR
nm
%R
1.0
0.0
2200,000000
-1,000000
1951
8
105,336261
5,851908
#DATA
284.000000	5.571260
285.000000	5.561051
286.000000	5.553171
287.000000	5.547325
288.000000	5.540438
289.000000	5.535965
290.000000	5.533539
291.000000	5.531433
292.000000	5.529385
293.000000	5.528118
294.000000	5.524023
295.000000	5.523570
296.000000	5.524692
297.000000	5.526007
298.000000	5.524941
299.000000	5.524876
300.000000	5.527720
301.000000	5.531204
302.000000	5.532336
303.000000	5.532129
304.000000	5.535188
305.000000	5.536926
306.000000	5.540687
307.000000	5.544026
308.000000	5.546195
309.000000	5.549698
310.000000	5.550485
311.000000	5.551793
312.000000	5.554290
313.000000	5.556299
314.000000	5.556434
315.000000	5.557456
316.000000	5.556522
317.000000	5.550629
318.000000	5.552880
319.000000	5.551633
320.000000	5.549151
321.000000	5.546330
322.000000	5.544111
323.000000	5.542273
324.000000	5.538045
325.000000	5.537189
326.000000	5.535676
327.000000	5.534440
328.000000	5.533225
329.000000	5.531495
330.000000	5.525354
331.000000	5.521579
332.000000	5.516524
333.000000	5.512724
334.000000	5.507457
335.000000	5.505176
336.000000	5.503996
337.000000	5.502114
338.000000	5.502239
339.000000	5.502244
340.000000	5.499953
341.000000	5.498968
342.000000	5.500014
343.000000	5.501642
344.000000	5.502380
345.000000	5.503760
346.000000	5.506245
347.000000	5.507550
348.000000	5.509374
349.000000	5.513671
350.000000	5.518849
351.000000	5.527016
352.000000	5.540215
353.000000	5.544185
354.000000	5.553617
355.000000	5.564671
356.000000	5.577224
357.000000	5.587968
358.000000	5.599664
359.000000	5.613019
360.000000	5.623988
361.000000	5.635794
362.000000	5.647296
363.000000	5.659310
364.000000	5.675560
365.000000	5.694351
366.000000	5.710029
367.000000	5.730117
368.000000	5.750145
369.000000	5.772342
370.000000	5.789044
371.000000	5.806296
372.000000	5.826350
373.000000	5.845237
374.000000	5.860529
375.000000	5.879351
376.000000	5.896648
377.000000	5.914707
378.000000	5.933668
379.000000	5.954169
380.000000	5.975702
381.000000	5.996469
382.000000	6.019790
383.000000	6.043531
384.000000	6.067112
385.000000	6.089846
386.000000	6.112405
387.000000	6.135925
388.000000	6.160633
389.000000	6.185852
390.000000	6.210972
391.000000	6.235135
392.000000	6.261148
393.000000	6.286586
394.000000	6.312143
395.000000	6.338238
396.000000	6.364193
397.000000	6.391164
398.000000	6.418331
399.000000	6.444407
400.000000	6.471058
401.000000	6.499191
402.000000	6.526734
403.000000	6.554605
404.000000	6.583048
405.000000	6.613247
406.000000	6.643987
407.000000	6.674447
408.000000	6.707489
409.000000	6.744181
410.000000	6.782452
411.000000	6.822856
412.000000	6.863330
413.000000	6.906109
414.000000	6.951045
415.000000	6.998310
416.000000	7.048301
417.000000	7.100906
418.000000	7.157033
419.000000	7.217342
420.000000	7.281947
421.000000	7.351235
422.000000	7.425061
423.000000	7.503363
424.000000	7.587250
425.000000	7.677280
426.000000	7.773408
427.000000	7.876207
428.000000	7.986229
429.000000	8.104072
430.000000	8.230133
431.000000	8.364624
432.000000	8.508154
433.000000	8.660560
434.000000	8.822493
435.000000	8.994763
436.000000	9.177277
437.000000	9.370006
438.000000	9.573214
439.000000	9.787369
440.000000	10.012360
441.000000	10.248573
442.000000	10.495691
443.000000	10.753240
444.000000	11.021054
445.000000	11.299759
446.000000	11.588850
447.000000	11.887464
448.000000	12.195935
449.000000	12.513195
450.000000	12.838595
451.000000	13.172032
452.000000	13.513654
453.000000	13.862601
454.000000	14.217273
455.000000	14.577121
456.000000	14.942010
457.000000	15.311390
458.000000	15.684695
459.000000	16.060914
460.000000	16.438916
461.000000	16.817746
462.000000	17.196915
463.000000	17.576438
464.000000	17.955802
465.000000	18.333863
466.000000	18.709636
467.000000	19.082862
468.000000	19.452853
469.000000	19.818534
470.000000	20.179036
471.000000	20.534383
472.000000	20.884811
473.000000	21.229652
474.000000	21.568543
475.000000	21.901765
476.000000	22.228771
477.000000	22.549114
478.000000	22.862880
479.000000	23.169995
480.000000	23.468791
481.000000	23.759359
482.000000	24.042089
483.000000	24.318102
484.000000	24.588584
485.000000	24.853780
486.000000	25.113658
487.000000	25.368155
488.000000	25.617192
489.000000	25.862695
490.000000	26.104776
491.000000	26.343490
492.000000	26.579442
493.000000	26.812536
494.000000	27.044089
495.000000	27.274585
496.000000	27.504073
497.000000	27.733579
498.000000	27.963120
499.000000	28.192729
500.000000	28.423314
501.000000	28.656895
502.000000	28.892586
503.000000	29.131152
504.000000	29.374173
505.000000	29.621235
506.000000	29.873458
507.000000	30.130260
508.000000	30.393070
509.000000	30.661979
510.000000	30.937930
511.000000	31.220730
512.000000	31.512310
513.000000	31.812508
514.000000	32.122220
515.000000	32.442490
516.000000	32.773633
517.000000	33.116175
518.000000	33.469011
519.000000	33.833592
520.000000	34.210644
521.000000	34.601068
522.000000	35.005202
523.000000	35.424235
524.000000	35.858380
525.000000	36.308579
526.000000	36.774956
527.000000	37.258340
528.000000	37.760559
529.000000	38.281521
530.000000	38.822258
531.000000	39.383821
532.000000	39.964274
533.000000	40.561386
534.000000	41.174759
535.000000	41.803720
536.000000	42.445234
537.000000	43.098795
538.000000	43.763370
539.000000	44.437085
540.000000	45.117728
541.000000	45.803056
542.000000	46.491981
543.000000	47.182516
544.000000	47.874115
545.000000	48.565201
546.000000	49.255899
547.000000	49.944387
548.000000	50.629552
549.000000	51.308547
550.000000	51.980243
551.000000	52.645212
552.000000	53.300787
553.000000	53.949358
554.000000	54.589515
555.000000	55.218045
556.000000	55.835187
557.000000	56.439318
558.000000	57.028097
559.000000	57.600798
560.000000	58.156855
561.000000	58.692330
562.000000	59.205707
563.000000	59.696304
564.000000	60.163544
565.000000	60.605975
566.000000	61.023096
567.000000	61.415372
568.000000	61.783995
569.000000	62.128157
570.000000	62.447328
571.000000	62.742109
572.000000	63.014991
573.000000	63.266045
574.000000	63.496074
575.000000	63.708980
576.000000	63.905227
577.000000	64.085119
578.000000	64.249536
579.000000	64.397734
580.000000	64.530517
581.000000	64.647269
582.000000	64.745902
583.000000	64.826339
584.000000	64.892893
585.000000	64.945059
586.000000	64.982340
587.000000	65.005495
588.000000	65.011524
589.000000	65.000013
590.000000	64.971936
591.000000	64.927505
592.000000	64.867996
593.000000	64.792924
594.000000	64.702644
595.000000	64.596450
596.000000	64.476115
597.000000	64.342277
598.000000	64.195322
599.000000	64.034247
600.000000	63.857596
601.000000	63.666636
602.000000	63.460703
603.000000	63.241999
604.000000	63.011423
605.000000	62.768028
606.000000	62.513693
607.000000	62.247437
608.000000	61.969491
609.000000	61.679559
610.000000	61.377228
611.000000	61.064991
612.000000	60.746554
613.000000	60.422676
614.000000	60.095121
615.000000	59.766694
616.000000	59.438748
617.000000	59.115523
618.000000	58.798658
619.000000	58.487172
620.000000	58.184768
621.000000	57.890690
622.000000	57.605215
623.000000	57.329892
624.000000	57.065971
625.000000	56.815004
626.000000	56.574884
627.000000	56.345368
628.000000	56.128635
629.000000	55.923540
630.000000	55.732602
631.000000	55.559483
632.000000	55.402956
633.000000	55.262152
634.000000	55.140718
635.000000	55.041557
636.000000	54.964205
637.000000	54.912036
638.000000	54.884144
639.000000	54.879238
640.000000	54.899395
641.000000	54.944166
642.000000	55.012467
643.000000	55.103599
644.000000	55.217295
645.000000	55.350510
646.000000	55.502731
647.000000	55.670008
648.000000	55.847764
649.000000	56.036371
650.000000	56.232874
651.000000	56.434677
652.000000	56.639763
653.000000	56.848627
654.000000	57.058944
655.000000	57.269959
656.000000	57.481416
657.000000	57.694037
658.000000	57.908514
659.000000	58.123686
660.000000	58.341375
661.000000	58.562295
662.000000	58.786653
663.000000	59.015388
664.000000	59.248915
665.000000	59.486433
666.000000	59.725547
667.000000	59.968402
668.000000	60.215458
669.000000	60.465070
670.000000	60.717418
671.000000	60.969603
672.000000	61.220484
673.000000	61.469808
674.000000	61.718168
675.000000	61.964495
676.000000	62.209716
677.000000	62.456096
678.000000	62.701864
679.000000	62.949325
680.000000	63.200140
681.000000	63.451779
682.000000	63.707123
683.000000	63.970963
684.000000	64.242238
685.000000	64.520745
686.000000	64.807313
687.000000	65.103660
688.000000	65.407842
689.000000	65.721528
690.000000	66.043716
691.000000	66.375030
692.000000	66.715106
693.000000	67.060055
694.000000	67.411560
695.000000	67.768709
696.000000	68.129828
697.000000	68.494412
698.000000	68.861650
699.000000	69.231993
700.000000	69.603178
701.000000	69.975571
702.000000	70.347828
703.000000	70.718466
704.000000	71.088980
705.000000	71.458444
706.000000	71.828919
707.000000	72.196634
708.000000	72.561135
709.000000	72.926463
710.000000	73.292179
711.000000	73.658187
712.000000	74.022613
713.000000	74.387109
714.000000	74.749669
715.000000	75.108916
716.000000	75.466292
717.000000	75.821349
718.000000	76.172551
719.000000	76.520787
720.000000	76.864694
721.000000	77.201965
722.000000	77.534338
723.000000	77.864626
724.000000	78.189716
725.000000	78.509118
726.000000	78.822257
727.000000	79.129889
728.000000	79.433248
729.000000	79.729793
730.000000	80.019436
731.000000	80.304809
732.000000	80.586877
733.000000	80.861882
734.000000	81.130736
735.000000	81.395132
736.000000	81.654292
737.000000	81.907425
738.000000	82.154592
739.000000	82.395874
740.000000	82.630288
741.000000	82.858173
742.000000	83.082275
743.000000	83.302021
744.000000	83.512812
745.000000	83.715801
746.000000	83.909576
747.000000	84.096154
748.000000	84.277482
749.000000	84.452899
750.000000	84.624177
751.000000	84.792607
752.000000	84.955232
753.000000	85.116044
754.000000	85.270999
755.000000	85.417582
756.000000	85.562504
757.000000	85.702504
758.000000	85.835542
759.000000	85.963491
760.000000	86.086377
761.000000	86.206147
762.000000	86.320993
763.000000	86.430953
764.000000	86.538393
765.000000	86.641799
766.000000	86.740181
767.000000	86.833237
768.000000	86.920908
769.000000	87.004256
770.000000	87.083040
771.000000	87.158013
772.000000	87.229755
773.000000	87.298794
774.000000	87.365023
775.000000	87.428083
776.000000	87.482391
777.000000	87.532243
778.000000	87.580947
779.000000	87.626699
780.000000	87.666299
781.000000	87.705829
782.000000	87.740942
783.000000	87.770890
784.000000	87.795178
785.000000	87.816197
786.000000	87.832536
787.000000	87.846179
788.000000	87.849742
789.000000	87.846199
790.000000	87.847873
791.000000	87.845019
792.000000	87.835560
793.000000	87.822734
794.000000	87.809811
795.000000	87.791130
796.000000	87.769716
797.000000	87.746966
798.000000	87.723605
799.000000	87.695783
800.000000	87.667638
801.000000	87.632603
802.000000	87.596780
803.000000	87.556571
804.000000	87.512281
805.000000	87.469678
806.000000	87.423976
807.000000	87.378766
808.000000	87.333641
809.000000	87.279796
810.000000	87.222936
811.000000	87.167690
812.000000	87.101776
813.000000	87.030498
814.000000	86.961921
815.000000	86.892968
816.000000	86.815162
817.000000	86.740896
818.000000	86.663129
819.000000	86.579531
820.000000	86.500296
821.000000	86.416080
822.000000	86.336167
823.000000	86.249111
824.000000	86.159434
825.000000	86.064861
826.000000	85.966229
827.000000	85.876839
828.000000	85.783456
829.000000	85.685425
830.000000	85.585137
831.000000	85.483096
832.000000	85.383958
833.000000	85.283563
834.000000	85.180164
835.000000	85.072801
836.000000	84.969644
837.000000	84.867381
838.000000	84.771620
839.000000	84.676717
840.000000	84.580605
841.000000	84.481481
842.000000	84.379805
843.000000	84.281628
844.000000	84.196114
845.000000	84.107874
846.000000	84.023496
847.000000	83.950908
848.000000	83.883744
849.000000	83.819990
850.000000	83.748309
851.000000	83.702453
852.000000	83.638243
853.000000	83.594695
854.000000	83.535600
855.000000	83.491452
856.000000	83.458162
857.000000	83.390152
858.000000	83.451086
859.000000	83.457397
860.000000	83.451396
861.000000	83.474530
862.000000	83.476847
863.000000	83.511988
864.000000	83.560940
865.000000	83.581814
866.000000	83.604272
867.000000	83.599754
868.000000	83.643000
869.000000	83.710281
870.000000	83.784080
871.000000	83.829525
872.000000	83.895311
873.000000	83.947999
874.000000	84.012857
875.000000	84.079572
876.000000	84.158290
877.000000	84.232701
878.000000	84.313905
879.000000	84.391614
880.000000	84.457530
881.000000	84.526122
882.000000	84.595118
883.000000	84.655931
884.000000	84.699400
885.000000	84.761630
886.000000	84.819811
887.000000	84.894750
888.000000	84.979132
889.000000	85.070828
890.000000	85.135482
891.000000	85.196655
892.000000	85.258518
893.000000	85.269602
894.000000	85.355725
895.000000	85.414576
896.000000	85.456161
897.000000	85.506741
898.000000	85.542254
899.000000	85.557105
900.000000	85.601898
901.000000	85.665660
902.000000	85.730088
903.000000	85.748516
904.000000	85.796735
905.000000	85.835725
906.000000	85.867713
907.000000	85.889629
908.000000	85.956221
909.000000	85.992480
910.000000	86.036826
911.000000	86.055615
912.000000	86.068979
913.000000	86.089489
914.000000	86.115845
915.000000	86.141515
916.000000	86.165354
917.000000	86.218311
918.000000	86.268258
919.000000	86.333828
920.000000	86.382128
921.000000	86.423411
922.000000	86.441803
923.000000	86.446544
924.000000	86.480135
925.000000	86.531323
926.000000	86.575514
927.000000	86.651764
928.000000	86.650366
929.000000	86.652472
930.000000	86.688240
931.000000	86.712542
932.000000	86.752882
933.000000	86.811539
934.000000	86.863657
935.000000	86.912771
936.000000	86.988128
937.000000	87.047595
938.000000	87.081961
939.000000	87.076078
940.000000	87.110857
941.000000	87.204916
942.000000	87.286364
943.000000	87.306970
944.000000	87.338045
945.000000	87.372430
946.000000	87.440698
947.000000	87.524601
948.000000	87.576611
949.000000	87.644425
950.000000	87.722412
951.000000	87.786767
952.000000	87.834427
953.000000	87.891437
954.000000	87.943972
955.000000	88.024092
956.000000	88.106452
957.000000	88.197896
958.000000	88.277572
959.000000	88.340213
960.000000	88.356582
961.000000	88.381152
962.000000	88.421761
963.000000	88.495271
964.000000	88.571257
965.000000	88.651289
966.000000	88.699428
967.000000	88.704300
968.000000	88.723013
969.000000	88.793805
970.000000	88.882005
971.000000	88.882487
972.000000	88.942122
973.000000	89.029431
974.000000	89.087955
975.000000	89.114290
976.000000	89.118029
977.000000	89.133460
978.000000	89.195679
979.000000	89.237409
980.000000	89.224967
981.000000	89.227065
982.000000	89.249799
983.000000	89.288869
984.000000	89.318719
985.000000	89.351930
986.000000	89.399339
987.000000	89.437451
988.000000	89.476373
989.000000	89.529889
990.000000	89.550639
991.000000	89.541291
992.000000	89.568992
993.000000	89.606363
994.000000	89.633729
995.000000	89.711261
996.000000	89.779901
997.000000	89.819627
998.000000	89.873617
999.000000	89.925187
1000.000000	89.955800
1001.000000	89.995857
1002.000000	90.061119
1003.000000	90.108263
1004.000000	90.119878
1005.000000	90.096585
1006.000000	90.124910
1007.000000	90.151313
1008.000000	90.189758
1009.000000	90.242569
1010.000000	90.278706
1011.000000	90.329568
1012.000000	90.376103
1013.000000	90.414116
1014.000000	90.500082
1015.000000	90.642066
1016.000000	90.742843
1017.000000	90.800586
1018.000000	90.870369
1019.000000	90.927540
1020.000000	90.955774
1021.000000	90.988911
1022.000000	91.025039
1023.000000	91.077103
1024.000000	91.120820
1025.000000	91.150293
1026.000000	91.196571
1027.000000	91.239257
1028.000000	91.276860
1029.000000	91.318133
1030.000000	91.376381
1031.000000	91.449540
1032.000000	91.493015
1033.000000	91.491582
1034.000000	91.488258
1035.000000	91.548043
1036.000000	91.645884
1037.000000	91.685966
1038.000000	91.721416
1039.000000	91.777686
1040.000000	91.843216
1041.000000	91.927971
1042.000000	92.004534
1043.000000	92.051454
1044.000000	92.088938
1045.000000	92.144495
1046.000000	92.203189
1047.000000	92.254554
1048.000000	92.310072
1049.000000	92.303832
1050.000000	92.283951
1051.000000	92.303797
1052.000000	92.316951
1053.000000	92.314742
1054.000000	92.324251
1055.000000	92.390262
1056.000000	92.412699
1057.000000	92.417181
1058.000000	92.417208
1059.000000	92.426238
1060.000000	92.486588
1061.000000	92.561211
1062.000000	92.588957
1063.000000	92.643270
1064.000000	92.709023
1065.000000	92.753391
1066.000000	92.764152
1067.000000	92.814144
1068.000000	92.877352
1069.000000	92.905816
1070.000000	92.901779
1071.000000	92.887079
1072.000000	92.984789
1073.000000	93.017326
1074.000000	93.027331
1075.000000	93.025977
1076.000000	93.016600
1077.000000	93.021282
1078.000000	93.005447
1079.000000	93.025153
1080.000000	93.061560
1081.000000	93.061927
1082.000000	93.047592
1083.000000	93.099693
1084.000000	93.153535
1085.000000	93.172471
1086.000000	93.197394
1087.000000	93.256155
1088.000000	93.321646
1089.000000	93.372378
1090.000000	93.393797
1091.000000	93.480349
1092.000000	93.548126
1093.000000	93.593679
1094.000000	93.639020
1095.000000	93.672850
1096.000000	93.679399
1097.000000	93.708084
1098.000000	93.733232
1099.000000	93.760536
1100.000000	93.772845
1101.000000	93.807928
1102.000000	93.843563
1103.000000	93.867106
1104.000000	93.902971
1105.000000	93.931716
1106.000000	93.955451
1107.000000	93.955020
1108.000000	94.043349
1109.000000	94.117043
1110.000000	94.217511
1111.000000	94.256634
1112.000000	94.306289
1113.000000	94.420628
1114.000000	94.447610
1115.000000	94.467245
1116.000000	94.505872
1117.000000	94.593325
1118.000000	94.594571
1119.000000	94.613788
1120.000000	94.671899
1121.000000	94.677256
1122.000000	94.680078
1123.000000	94.708362
1124.000000	94.736500
1125.000000	94.775164
1126.000000	94.747323
1127.000000	94.804809
1128.000000	94.862553
1129.000000	94.867481
1130.000000	94.873205
1131.000000	94.906671
1132.000000	94.937289
1133.000000	94.951095
1134.000000	94.935002
1135.000000	94.928436
1136.000000	94.945466
1137.000000	94.961648
1138.000000	95.024168
1139.000000	95.039688
1140.000000	95.057274
1141.000000	95.063577
1142.000000	95.085442
1143.000000	95.057158
1144.000000	95.069998
1145.000000	95.035234
1146.000000	95.029176
1147.000000	95.062455
1148.000000	95.020306
1149.000000	95.040646
1150.000000	95.002776
1151.000000	95.030832
1152.000000	95.032892
1153.000000	95.030291
1154.000000	95.056789
1155.000000	95.088507
1156.000000	95.106550
1157.000000	95.155862
1158.000000	95.121738
1159.000000	95.095433
1160.000000	95.086881
1161.000000	95.079106
1162.000000	95.034351
1163.000000	95.004232
1164.000000	95.015341
1165.000000	95.027399
1166.000000	95.002494
1167.000000	95.039412
1168.000000	95.060999
1169.000000	95.066852
1170.000000	95.041194
1171.000000	94.998410
1172.000000	94.981562
1173.000000	94.933413
1174.000000	94.927999
1175.000000	94.911889
1176.000000	94.915174
1177.000000	94.882284
1178.000000	94.850185
1179.000000	94.859426
1180.000000	94.891774
1181.000000	94.941992
1182.000000	94.880095
1183.000000	94.871435
1184.000000	94.845613
1185.000000	94.856677
1186.000000	94.813302
1187.000000	94.772392
1188.000000	94.761652
1189.000000	94.770022
1190.000000	94.747785
1191.000000	94.772513
1192.000000	94.750055
1193.000000	94.789541
1194.000000	94.793871
1195.000000	94.775480
1196.000000	94.807235
1197.000000	94.796505
1198.000000	94.801340
1199.000000	94.822459
