PE UV       SUBTECH     SPECTRUM    ASCII       PEDS        4.00        
   -1
3-PELID 1.ASC
23/11/21
12:04:57.00
23/11/21
12:04:57.00
Vinicio Soto Monge

250,000000
1
Lambda 1050
1050L1511233
PerkinElmer UV WinLab 6.3.2.0749 / 2.02.05 Lambda 900 UV/VIS/NIR, Aug  7 2015 09:38:08

0
0
3350/servo 860,8/2
0
0
UV/VIS
1
1
1
DoubleDePol,CommonBeamDepol,RBeamAtt,SBeamAtt,60mm sphere, WB InGaAs Detector
0
0
0
0
Program
Program
3350/servo 860,8/2
3350/0,4 860,8/0,4
3350/0,4 860,8/0,4
0
20.00
 
 
 
0
 
860,8
319,2
860,8
Front
100
on
S:100 R:100
0
0
0
0
 
0
 
 
 
0
 
 
0
0
0
0
0
 
 
 
 
0
0


0
0
#HDR
-1
-1
#GR
nm
%R
1.0
0.0
2200,000000
-1,000000
1951
8
101,477506
5,395758
#DATA
284.000000	6.280900
285.000000	6.267429
286.000000	6.253714
287.000000	6.239169
288.000000	6.226548
289.000000	6.214035
290.000000	6.203113
291.000000	6.192277
292.000000	6.181480
293.000000	6.173909
294.000000	6.166490
295.000000	6.158825
296.000000	6.153218
297.000000	6.149420
298.000000	6.144855
299.000000	6.139076
300.000000	6.135555
301.000000	6.132872
302.000000	6.131434
303.000000	6.127824
304.000000	6.124755
305.000000	6.118942
306.000000	6.114120
307.000000	6.109960
308.000000	6.106692
309.000000	6.101886
310.000000	6.097002
311.000000	6.093909
312.000000	6.089255
313.000000	6.084805
314.000000	6.079205
315.000000	6.074938
316.000000	6.070885
317.000000	6.062863
318.000000	6.059265
319.000000	6.049236
320.000000	6.035279
321.000000	6.024954
322.000000	6.017683
323.000000	6.008100
324.000000	5.998293
325.000000	5.987402
326.000000	5.978117
327.000000	5.964517
328.000000	5.951536
329.000000	5.937105
330.000000	5.926719
331.000000	5.914217
332.000000	5.896503
333.000000	5.883126
334.000000	5.871608
335.000000	5.856079
336.000000	5.842279
337.000000	5.827243
338.000000	5.815245
339.000000	5.803020
340.000000	5.793053
341.000000	5.783631
342.000000	5.773527
343.000000	5.765328
344.000000	5.757415
345.000000	5.748676
346.000000	5.741552
347.000000	5.734226
348.000000	5.725868
349.000000	5.718635
350.000000	5.712160
351.000000	5.704135
352.000000	5.698778
353.000000	5.690781
354.000000	5.687128
355.000000	5.688081
356.000000	5.686559
357.000000	5.681913
358.000000	5.681505
359.000000	5.682692
360.000000	5.684123
361.000000	5.683773
362.000000	5.686804
363.000000	5.688191
364.000000	5.692342
365.000000	5.692746
366.000000	5.694769
367.000000	5.701513
368.000000	5.705762
369.000000	5.710704
370.000000	5.716341
371.000000	5.721421
372.000000	5.728345
373.000000	5.734964
374.000000	5.740485
375.000000	5.747613
376.000000	5.754523
377.000000	5.763140
378.000000	5.770820
379.000000	5.780915
380.000000	5.790708
381.000000	5.800983
382.000000	5.812200
383.000000	5.824586
384.000000	5.838182
385.000000	5.850974
386.000000	5.866062
387.000000	5.882466
388.000000	5.900111
389.000000	5.918851
390.000000	5.937174
391.000000	5.956771
392.000000	5.978710
393.000000	5.999207
394.000000	6.019849
395.000000	6.042786
396.000000	6.067286
397.000000	6.093387
398.000000	6.121177
399.000000	6.147800
400.000000	6.176361
401.000000	6.206066
402.000000	6.235657
403.000000	6.266546
404.000000	6.298457
405.000000	6.332553
406.000000	6.368267
407.000000	6.403985
408.000000	6.441341
409.000000	6.481864
410.000000	6.521733
411.000000	6.564199
412.000000	6.606509
413.000000	6.650632
414.000000	6.696565
415.000000	6.744123
416.000000	6.793320
417.000000	6.844319
418.000000	6.897037
419.000000	6.951510
420.000000	7.008254
421.000000	7.067119
422.000000	7.127711
423.000000	7.190066
424.000000	7.254254
425.000000	7.320589
426.000000	7.388742
427.000000	7.458412
428.000000	7.529719
429.000000	7.602490
430.000000	7.677012
431.000000	7.753554
432.000000	7.831353
433.000000	7.910646
434.000000	7.992075
435.000000	8.074950
436.000000	8.159935
437.000000	8.246373
438.000000	8.334091
439.000000	8.422749
440.000000	8.512881
441.000000	8.604767
442.000000	8.698335
443.000000	8.792691
444.000000	8.888199
445.000000	8.985383
446.000000	9.083581
447.000000	9.182673
448.000000	9.282005
449.000000	9.382153
450.000000	9.483140
451.000000	9.584859
452.000000	9.687521
453.000000	9.790940
454.000000	9.895096
455.000000	9.999652
456.000000	10.104420
457.000000	10.209592
458.000000	10.315684
459.000000	10.422616
460.000000	10.530090
461.000000	10.638161
462.000000	10.747303
463.000000	10.857552
464.000000	10.969084
465.000000	11.080986
466.000000	11.193652
467.000000	11.307669
468.000000	11.422891
469.000000	11.539068
470.000000	11.655843
471.000000	11.773582
472.000000	11.892534
473.000000	12.012910
474.000000	12.134779
475.000000	12.257668
476.000000	12.381405
477.000000	12.506430
478.000000	12.632949
479.000000	12.760183
480.000000	12.888160
481.000000	13.018138
482.000000	13.149699
483.000000	13.283037
484.000000	13.417711
485.000000	13.553747
486.000000	13.691053
487.000000	13.829845
488.000000	13.970301
489.000000	14.112586
490.000000	14.256773
491.000000	14.403160
492.000000	14.551230
493.000000	14.701103
494.000000	14.853096
495.000000	15.007154
496.000000	15.162640
497.000000	15.319917
498.000000	15.479735
499.000000	15.641397
500.000000	15.805435
501.000000	15.971749
502.000000	16.139697
503.000000	16.309469
504.000000	16.481811
505.000000	16.656056
506.000000	16.832441
507.000000	17.011432
508.000000	17.192576
509.000000	17.376174
510.000000	17.562633
511.000000	17.751668
512.000000	17.943235
513.000000	18.138092
514.000000	18.336128
515.000000	18.537496
516.000000	18.741270
517.000000	18.948274
518.000000	19.158213
519.000000	19.371691
520.000000	19.588338
521.000000	19.808424
522.000000	20.031656
523.000000	20.258163
524.000000	20.487349
525.000000	20.720418
526.000000	20.956813
527.000000	21.196414
528.000000	21.439529
529.000000	21.685649
530.000000	21.935599
531.000000	22.190367
532.000000	22.448604
533.000000	22.710227
534.000000	22.976213
535.000000	23.246637
536.000000	23.521589
537.000000	23.801296
538.000000	24.086184
539.000000	24.375499
540.000000	24.671101
541.000000	24.972576
542.000000	25.279344
543.000000	25.592380
544.000000	25.911860
545.000000	26.237578
546.000000	26.569169
547.000000	26.907206
548.000000	27.250496
549.000000	27.599917
550.000000	27.954037
551.000000	28.313064
552.000000	28.675862
553.000000	29.043165
554.000000	29.413211
555.000000	29.786375
556.000000	30.162365
557.000000	30.540382
558.000000	30.918510
559.000000	31.298233
560.000000	31.675978
561.000000	32.053367
562.000000	32.429250
563.000000	32.803500
564.000000	33.174719
565.000000	33.542300
566.000000	33.905593
567.000000	34.265443
568.000000	34.619842
569.000000	34.968021
570.000000	35.308403
571.000000	35.642388
572.000000	35.969533
573.000000	36.288687
574.000000	36.599998
575.000000	36.901946
576.000000	37.194379
577.000000	37.477317
578.000000	37.750885
579.000000	38.014984
580.000000	38.268869
581.000000	38.512305
582.000000	38.746550
583.000000	38.971196
584.000000	39.186419
585.000000	39.393406
586.000000	39.591892
587.000000	39.782820
588.000000	39.965486
589.000000	40.141583
590.000000	40.311846
591.000000	40.477092
592.000000	40.637939
593.000000	40.795025
594.000000	40.948852
595.000000	41.100981
596.000000	41.250671
597.000000	41.399396
598.000000	41.546734
599.000000	41.694771
600.000000	41.842800
601.000000	41.992707
602.000000	42.142700
603.000000	42.295788
604.000000	42.452571
605.000000	42.613686
606.000000	42.777832
607.000000	42.945633
608.000000	43.117006
609.000000	43.291560
610.000000	43.471513
611.000000	43.655456
612.000000	43.844717
613.000000	44.037354
614.000000	44.234148
615.000000	44.436196
616.000000	44.643510
617.000000	44.853945
618.000000	45.067868
619.000000	45.284887
620.000000	45.505924
621.000000	45.731454
622.000000	45.960544
623.000000	46.192628
624.000000	46.428445
625.000000	46.667284
626.000000	46.908092
627.000000	47.149936
628.000000	47.394988
629.000000	47.641607
630.000000	47.891292
631.000000	48.143462
632.000000	48.395187
633.000000	48.650039
634.000000	48.905984
635.000000	49.164374
636.000000	49.422641
637.000000	49.682602
638.000000	49.942995
639.000000	50.203772
640.000000	50.465878
641.000000	50.728894
642.000000	50.992569
643.000000	51.258187
644.000000	51.525065
645.000000	51.791193
646.000000	52.058370
647.000000	52.325613
648.000000	52.593630
649.000000	52.861054
650.000000	53.127817
651.000000	53.394985
652.000000	53.661667
653.000000	53.929740
654.000000	54.199288
655.000000	54.469262
656.000000	54.737032
657.000000	55.005457
658.000000	55.274801
659.000000	55.544082
660.000000	55.812599
661.000000	56.081684
662.000000	56.351365
663.000000	56.620178
664.000000	56.887494
665.000000	57.153639
666.000000	57.417977
667.000000	57.684867
668.000000	57.950165
669.000000	58.216192
670.000000	58.480940
671.000000	58.745062
672.000000	59.008879
673.000000	59.271955
674.000000	59.534407
675.000000	59.794698
676.000000	60.053510
677.000000	60.312557
678.000000	60.569882
679.000000	60.825625
680.000000	61.081811
681.000000	61.335785
682.000000	61.589946
683.000000	61.843374
684.000000	62.097214
685.000000	62.350575
686.000000	62.602403
687.000000	62.852705
688.000000	63.100881
689.000000	63.349045
690.000000	63.593762
691.000000	63.839562
692.000000	64.083856
693.000000	64.326613
694.000000	64.568438
695.000000	64.809385
696.000000	65.049908
697.000000	65.287793
698.000000	65.525002
699.000000	65.762207
700.000000	65.997147
701.000000	66.232057
702.000000	66.466433
703.000000	66.698920
704.000000	66.927868
705.000000	67.156585
706.000000	67.385170
707.000000	67.611821
708.000000	67.838523
709.000000	68.065047
710.000000	68.290889
711.000000	68.518131
712.000000	68.741437
713.000000	68.961392
714.000000	69.183371
715.000000	69.403043
716.000000	69.622308
717.000000	69.839626
718.000000	70.056428
719.000000	70.269666
720.000000	70.483264
721.000000	70.697944
722.000000	70.911429
723.000000	71.125288
724.000000	71.335676
725.000000	71.545002
726.000000	71.753397
727.000000	71.961558
728.000000	72.170006
729.000000	72.376089
730.000000	72.581004
731.000000	72.782486
732.000000	72.984276
733.000000	73.184673
734.000000	73.383654
735.000000	73.584036
736.000000	73.784114
737.000000	73.981763
738.000000	74.177748
739.000000	74.374823
740.000000	74.571718
741.000000	74.767619
742.000000	74.961839
743.000000	75.153544
744.000000	75.344934
745.000000	75.535975
746.000000	75.725548
747.000000	75.915037
748.000000	76.104235
749.000000	76.289973
750.000000	76.475374
751.000000	76.661533
752.000000	76.847031
753.000000	77.031085
754.000000	77.214941
755.000000	77.394231
756.000000	77.569754
757.000000	77.748228
758.000000	77.926125
759.000000	78.101997
760.000000	78.277592
761.000000	78.452763
762.000000	78.626413
763.000000	78.798709
764.000000	78.970732
765.000000	79.143108
766.000000	79.316087
767.000000	79.488060
768.000000	79.657654
769.000000	79.828836
770.000000	79.997236
771.000000	80.163708
772.000000	80.328765
773.000000	80.495447
774.000000	80.660212
775.000000	80.822761
776.000000	80.983488
777.000000	81.143948
778.000000	81.306236
779.000000	81.469009
780.000000	81.627334
781.000000	81.782288
782.000000	81.938525
783.000000	82.095259
784.000000	82.248077
785.000000	82.402623
786.000000	82.555541
787.000000	82.706211
788.000000	82.855941
789.000000	83.002833
790.000000	83.150433
791.000000	83.300300
792.000000	83.448032
793.000000	83.593082
794.000000	83.740133
795.000000	83.886818
796.000000	84.033420
797.000000	84.178605
798.000000	84.323412
799.000000	84.465308
800.000000	84.604706
801.000000	84.745075
802.000000	84.883733
803.000000	85.023608
804.000000	85.162293
805.000000	85.297238
806.000000	85.433183
807.000000	85.565973
808.000000	85.698607
809.000000	85.831666
810.000000	85.960815
811.000000	86.095083
812.000000	86.231260
813.000000	86.363062
814.000000	86.485795
815.000000	86.608983
816.000000	86.734454
817.000000	86.857951
818.000000	86.980905
819.000000	87.101784
820.000000	87.222892
821.000000	87.343725
822.000000	87.465911
823.000000	87.587649
824.000000	87.706326
825.000000	87.821094
826.000000	87.943419
827.000000	88.067865
828.000000	88.185604
829.000000	88.297020
830.000000	88.408951
831.000000	88.514132
832.000000	88.626624
833.000000	88.737407
834.000000	88.848343
835.000000	88.960007
836.000000	89.061197
837.000000	89.161731
838.000000	89.270341
839.000000	89.371799
840.000000	89.481267
841.000000	89.579509
842.000000	89.677536
843.000000	89.771934
844.000000	89.872077
845.000000	89.980814
846.000000	90.077368
847.000000	90.168441
848.000000	90.264396
849.000000	90.356961
850.000000	90.447452
851.000000	90.545844
852.000000	90.640459
853.000000	90.722253
854.000000	90.813424
855.000000	90.905846
856.000000	90.999482
857.000000	91.073652
858.000000	91.096316
859.000000	91.205959
860.000000	91.347277
861.000000	91.460555
862.000000	91.534940
863.000000	91.653916
864.000000	91.757186
865.000000	91.848295
866.000000	91.927947
867.000000	92.015272
868.000000	92.125185
869.000000	92.220329
870.000000	92.315177
871.000000	92.431522
872.000000	92.537781
873.000000	92.606609
874.000000	92.701021
875.000000	92.807415
876.000000	92.917997
877.000000	93.035470
878.000000	93.119025
879.000000	93.201868
880.000000	93.313182
881.000000	93.429586
882.000000	93.531168
883.000000	93.654374
884.000000	93.758786
885.000000	93.864148
886.000000	93.984079
887.000000	94.071557
888.000000	94.196331
889.000000	94.317715
890.000000	94.420098
891.000000	94.523776
892.000000	94.607163
893.000000	94.773949
894.000000	94.862933
895.000000	94.906085
896.000000	94.975759
897.000000	95.072236
898.000000	95.168521
899.000000	95.247107
900.000000	95.338638
901.000000	95.419941
902.000000	95.456062
903.000000	95.489809
904.000000	95.549732
905.000000	95.592177
906.000000	95.644088
907.000000	95.681510
908.000000	95.749255
909.000000	95.776015
910.000000	95.786542
911.000000	95.826572
912.000000	95.835153
913.000000	95.897168
914.000000	95.978744
915.000000	95.965295
916.000000	95.959749
917.000000	96.004394
918.000000	96.031708
919.000000	96.079995
920.000000	96.132745
921.000000	96.148453
922.000000	96.181963
923.000000	96.210786
924.000000	96.207564
925.000000	96.236454
926.000000	96.267015
927.000000	96.322359
928.000000	96.363064
929.000000	96.385208
930.000000	96.399199
931.000000	96.400052
932.000000	96.399009
933.000000	96.400431
934.000000	96.428866
935.000000	96.419312
936.000000	96.443619
937.000000	96.498419
938.000000	96.534955
939.000000	96.552366
940.000000	96.619303
941.000000	96.630655
942.000000	96.702639
943.000000	96.750548
944.000000	96.791156
945.000000	96.839565
946.000000	96.847797
947.000000	96.915264
948.000000	96.931651
949.000000	96.914073
950.000000	96.955026
951.000000	96.992674
952.000000	96.998025
953.000000	96.996310
954.000000	97.026496
955.000000	97.036410
956.000000	97.066510
957.000000	97.104928
958.000000	97.161441
959.000000	97.225516
960.000000	97.244008
961.000000	97.238193
962.000000	97.267762
963.000000	97.266195
964.000000	97.287821
965.000000	97.336475
966.000000	97.377141
967.000000	97.417801
968.000000	97.428613
969.000000	97.448374
970.000000	97.489690
971.000000	97.496656
972.000000	97.529462
973.000000	97.556477
974.000000	97.575968
975.000000	97.589598
976.000000	97.630430
977.000000	97.611919
978.000000	97.621884
979.000000	97.649690
980.000000	97.663462
981.000000	97.694435
982.000000	97.691333
983.000000	97.709254
984.000000	97.760575
985.000000	97.822801
986.000000	97.852850
987.000000	97.880637
988.000000	97.914448
989.000000	97.933114
990.000000	97.944581
991.000000	97.938917
992.000000	97.968059
993.000000	97.946615
994.000000	97.939371
995.000000	97.941600
996.000000	97.957587
997.000000	97.967795
998.000000	98.006159
999.000000	98.050071
1000.000000	98.051785
1001.000000	98.056019
1002.000000	98.066825
1003.000000	98.060352
1004.000000	98.052162
1005.000000	98.049103
1006.000000	98.086330
1007.000000	98.091918
1008.000000	98.105422
1009.000000	98.119632
1010.000000	98.115194
1011.000000	98.110821
1012.000000	98.121175
1013.000000	98.129751
1014.000000	98.143383
1015.000000	98.152302
1016.000000	98.163275
1017.000000	98.205687
1018.000000	98.262775
1019.000000	98.243414
1020.000000	98.221661
1021.000000	98.249395
1022.000000	98.269187
1023.000000	98.277040
1024.000000	98.275613
1025.000000	98.290331
1026.000000	98.321525
1027.000000	98.351081
1028.000000	98.373601
1029.000000	98.385445
1030.000000	98.428480
1031.000000	98.459135
1032.000000	98.463156
1033.000000	98.473705
1034.000000	98.445883
1035.000000	98.451026
1036.000000	98.466140
1037.000000	98.481622
1038.000000	98.498691
1039.000000	98.507514
1040.000000	98.525744
1041.000000	98.535684
1042.000000	98.553910
1043.000000	98.570107
1044.000000	98.598984
1045.000000	98.597134
1046.000000	98.590370
1047.000000	98.604906
1048.000000	98.614461
1049.000000	98.615756
1050.000000	98.627260
1051.000000	98.632276
1052.000000	98.581084
1053.000000	98.516528
1054.000000	98.543048
1055.000000	98.579575
1056.000000	98.573603
1057.000000	98.573622
1058.000000	98.569057
1059.000000	98.556861
1060.000000	98.553257
1061.000000	98.557980
1062.000000	98.501671
1063.000000	98.479275
1064.000000	98.448400
1065.000000	98.414541
1066.000000	98.418360
1067.000000	98.425463
1068.000000	98.412377
1069.000000	98.436317
1070.000000	98.464118
1071.000000	98.475648
1072.000000	98.473458
1073.000000	98.459427
1074.000000	98.464286
1075.000000	98.481504
1076.000000	98.482974
1077.000000	98.474258
1078.000000	98.460105
1079.000000	98.438070
1080.000000	98.432987
1081.000000	98.456170
1082.000000	98.447957
1083.000000	98.484833
1084.000000	98.537623
1085.000000	98.575992
1086.000000	98.582898
1087.000000	98.608908
1088.000000	98.674102
1089.000000	98.675828
1090.000000	98.643145
1091.000000	98.642357
1092.000000	98.629014
1093.000000	98.602024
1094.000000	98.610931
1095.000000	98.619440
1096.000000	98.610752
1097.000000	98.639566
1098.000000	98.673585
1099.000000	98.710078
1100.000000	98.743766
1101.000000	98.734703
1102.000000	98.738610
1103.000000	98.731590
1104.000000	98.719662
1105.000000	98.672880
1106.000000	98.696215
1107.000000	98.720006
1108.000000	98.748226
1109.000000	98.742227
1110.000000	98.759061
1111.000000	98.788833
1112.000000	98.832273
1113.000000	98.886283
1114.000000	98.920505
1115.000000	98.926155
1116.000000	98.888926
1117.000000	98.876393
1118.000000	98.847060
1119.000000	98.797542
1120.000000	98.793840
1121.000000	98.812633
1122.000000	98.819393
1123.000000	98.805720
1124.000000	98.802947
1125.000000	98.799384
1126.000000	98.794382
1127.000000	98.851208
1128.000000	98.915196
1129.000000	98.957733
1130.000000	98.943344
1131.000000	98.936004
1132.000000	98.922871
1133.000000	98.926061
1134.000000	98.976706
1135.000000	98.941901
1136.000000	98.919826
1137.000000	98.947566
1138.000000	98.975721
1139.000000	99.001125
1140.000000	99.020643
1141.000000	98.976782
1142.000000	98.947918
1143.000000	98.918231
1144.000000	98.896379
1145.000000	98.863814
1146.000000	98.847791
1147.000000	98.813873
1148.000000	98.752006
1149.000000	98.738332
1150.000000	98.729257
1151.000000	98.766698
1152.000000	98.805147
1153.000000	98.797122
1154.000000	98.753082
1155.000000	98.720936
1156.000000	98.685856
1157.000000	98.681283
1158.000000	98.625621
1159.000000	98.580204
1160.000000	98.561229
1161.000000	98.554036
1162.000000	98.461451
1163.000000	98.415395
1164.000000	98.332424
1165.000000	98.318896
1166.000000	98.307267
1167.000000	98.305206
1168.000000	98.206046
1169.000000	98.094263
1170.000000	97.992535
1171.000000	97.961537
1172.000000	97.860301
1173.000000	97.792668
1174.000000	97.726462
1175.000000	97.675541
1176.000000	97.603004
1177.000000	97.564529
1178.000000	97.530989
1179.000000	97.512272
1180.000000	97.485973
1181.000000	97.447847
1182.000000	97.423839
1183.000000	97.385260
1184.000000	97.318705
1185.000000	97.274083
1186.000000	97.220122
1187.000000	97.175221
1188.000000	97.148355
1189.000000	97.136357
1190.000000	97.083435
1191.000000	97.078513
1192.000000	97.056682
1193.000000	97.081259
1194.000000	97.089187
1195.000000	97.088944
1196.000000	97.042509
1197.000000	97.058750
1198.000000	97.046678
1199.000000	97.062374
1200.000000	97.049103
1201.000000	97.044362
