PE UV       SUBTECH     SPECTRUM    ASCII       PEDS        4.00        
   -1
4-PLATY 1.ASC
23/11/21
13:44:42.00
23/11/21
13:44:42.00
Vinicio Soto Monge

250,000000
1
Lambda 1050
1050L1511233
PerkinElmer UV WinLab 6.3.2.0749 / 2.02.05 Lambda 900 UV/VIS/NIR, Aug  7 2015 09:38:08

0
0
3350/servo 860,8/2
0
0
UV/VIS
1
1
1
DoubleDePol,CommonBeamDepol,RBeamAtt,SBeamAtt,60mm sphere, WB InGaAs Detector
0
0
0
0
Program
Program
3350/servo 860,8/2
3350/0,4 860,8/0,4
3350/0,4 860,8/0,4
0
20.00
 
 
 
0
 
860,8
319,2
860,8
Front
100
on
S:100 R:100
0
0
0
0
 
0
 
 
 
0
 
 
0
0
0
0
0
 
 
 
 
0
0


0
0
#HDR
-1
-1
#GR
nm
%R
1.0
0.0
2200,000000
-1,000000
1951
8
106,059630
5,652972
#DATA
284.000000	6.450564
285.000000	6.432828
286.000000	6.416935
287.000000	6.403983
288.000000	6.391499
289.000000	6.379851
290.000000	6.371976
291.000000	6.363031
292.000000	6.357209
293.000000	6.352281
294.000000	6.348946
295.000000	6.347343
296.000000	6.347891
297.000000	6.350814
298.000000	6.354143
299.000000	6.357926
300.000000	6.364675
301.000000	6.369522
302.000000	6.377120
303.000000	6.384580
304.000000	6.391789
305.000000	6.398589
306.000000	6.408350
307.000000	6.417911
308.000000	6.425751
309.000000	6.434998
310.000000	6.444787
311.000000	6.455629
312.000000	6.465677
313.000000	6.472516
314.000000	6.479640
315.000000	6.486907
316.000000	6.493577
317.000000	6.498509
318.000000	6.507865
319.000000	6.513628
320.000000	6.517866
321.000000	6.522600
322.000000	6.525749
323.000000	6.525545
324.000000	6.526401
325.000000	6.527255
326.000000	6.527402
327.000000	6.525967
328.000000	6.521434
329.000000	6.515664
330.000000	6.509736
331.000000	6.505094
332.000000	6.496696
333.000000	6.487629
334.000000	6.479927
335.000000	6.471717
336.000000	6.463962
337.000000	6.454961
338.000000	6.446025
339.000000	6.438567
340.000000	6.428978
341.000000	6.420240
342.000000	6.410479
343.000000	6.403117
344.000000	6.395335
345.000000	6.386528
346.000000	6.378970
347.000000	6.371412
348.000000	6.362592
349.000000	6.355316
350.000000	6.348908
351.000000	6.343146
352.000000	6.339246
353.000000	6.331937
354.000000	6.325076
355.000000	6.320904
356.000000	6.316344
357.000000	6.311413
358.000000	6.309752
359.000000	6.306515
360.000000	6.301458
361.000000	6.297161
362.000000	6.293005
363.000000	6.291488
364.000000	6.289657
365.000000	6.286915
366.000000	6.282739
367.000000	6.282342
368.000000	6.281556
369.000000	6.280514
370.000000	6.277428
371.000000	6.275479
372.000000	6.272897
373.000000	6.272475
374.000000	6.267567
375.000000	6.267102
376.000000	6.265679
377.000000	6.264423
378.000000	6.261764
379.000000	6.260164
380.000000	6.258157
381.000000	6.256068
382.000000	6.255156
383.000000	6.256157
384.000000	6.255971
385.000000	6.255260
386.000000	6.255747
387.000000	6.255031
388.000000	6.253725
389.000000	6.254994
390.000000	6.255101
391.000000	6.254615
392.000000	6.255499
393.000000	6.257109
394.000000	6.258919
395.000000	6.261016
396.000000	6.263425
397.000000	6.265201
398.000000	6.267523
399.000000	6.271062
400.000000	6.274976
401.000000	6.278666
402.000000	6.281135
403.000000	6.284309
404.000000	6.287806
405.000000	6.292483
406.000000	6.296954
407.000000	6.301786
408.000000	6.306016
409.000000	6.313537
410.000000	6.318961
411.000000	6.324676
412.000000	6.331665
413.000000	6.338464
414.000000	6.345774
415.000000	6.353806
416.000000	6.361870
417.000000	6.370379
418.000000	6.379463
419.000000	6.388898
420.000000	6.398941
421.000000	6.409428
422.000000	6.420658
423.000000	6.432397
424.000000	6.444799
425.000000	6.457875
426.000000	6.471250
427.000000	6.485104
428.000000	6.499283
429.000000	6.514007
430.000000	6.529273
431.000000	6.544761
432.000000	6.560969
433.000000	6.577804
434.000000	6.595016
435.000000	6.612742
436.000000	6.631035
437.000000	6.650135
438.000000	6.669779
439.000000	6.689673
440.000000	6.710442
441.000000	6.731835
442.000000	6.753629
443.000000	6.775922
444.000000	6.798511
445.000000	6.821755
446.000000	6.845387
447.000000	6.869315
448.000000	6.893736
449.000000	6.918374
450.000000	6.943283
451.000000	6.968802
452.000000	6.994744
453.000000	7.021156
454.000000	7.048123
455.000000	7.075519
456.000000	7.103072
457.000000	7.131028
458.000000	7.159381
459.000000	7.187917
460.000000	7.216953
461.000000	7.246575
462.000000	7.276777
463.000000	7.307458
464.000000	7.338922
465.000000	7.370628
466.000000	7.402871
467.000000	7.435857
468.000000	7.469448
469.000000	7.503691
470.000000	7.538418
471.000000	7.573998
472.000000	7.610371
473.000000	7.647574
474.000000	7.685753
475.000000	7.724794
476.000000	7.764690
477.000000	7.805758
478.000000	7.848195
479.000000	7.891521
480.000000	7.935688
481.000000	7.980996
482.000000	8.027260
483.000000	8.074816
484.000000	8.123871
485.000000	8.174357
486.000000	8.226340
487.000000	8.280058
488.000000	8.335231
489.000000	8.391823
490.000000	8.450384
491.000000	8.511173
492.000000	8.574075
493.000000	8.639030
494.000000	8.706517
495.000000	8.776708
496.000000	8.849324
497.000000	8.924540
498.000000	9.002928
499.000000	9.084192
500.000000	9.169003
501.000000	9.257543
502.000000	9.349706
503.000000	9.445524
504.000000	9.545457
505.000000	9.649683
506.000000	9.758111
507.000000	9.871061
508.000000	9.988886
509.000000	10.111645
510.000000	10.239281
511.000000	10.371757
512.000000	10.509316
513.000000	10.651937
514.000000	10.800063
515.000000	10.953480
516.000000	11.111712
517.000000	11.275389
518.000000	11.443820
519.000000	11.616572
520.000000	11.793872
521.000000	11.975936
522.000000	12.162006
523.000000	12.352681
524.000000	12.547505
525.000000	12.746401
526.000000	12.948905
527.000000	13.154826
528.000000	13.364094
529.000000	13.576009
530.000000	13.790584
531.000000	14.008150
532.000000	14.227989
533.000000	14.449502
534.000000	14.672638
535.000000	14.897309
536.000000	15.122862
537.000000	15.348844
538.000000	15.575329
539.000000	15.802278
540.000000	16.028835
541.000000	16.255431
542.000000	16.481299
543.000000	16.706028
544.000000	16.930149
545.000000	17.152844
546.000000	17.374848
547.000000	17.595320
548.000000	17.814036
549.000000	18.030765
550.000000	18.245868
551.000000	18.459603
552.000000	18.670701
553.000000	18.880291
554.000000	19.088767
555.000000	19.295136
556.000000	19.498949
557.000000	19.700692
558.000000	19.900407
559.000000	20.097963
560.000000	20.293280
561.000000	20.486239
562.000000	20.676980
563.000000	20.865637
564.000000	21.051753
565.000000	21.235186
566.000000	21.415834
567.000000	21.594048
568.000000	21.769429
569.000000	21.941158
570.000000	22.109502
571.000000	22.273934
572.000000	22.435176
573.000000	22.593040
574.000000	22.746270
575.000000	22.894879
576.000000	23.038094
577.000000	23.176780
578.000000	23.310696
579.000000	23.438571
580.000000	23.561231
581.000000	23.677613
582.000000	23.788002
583.000000	23.891581
584.000000	23.989468
585.000000	24.079993
586.000000	24.164227
587.000000	24.241823
588.000000	24.312099
589.000000	24.374860
590.000000	24.430318
591.000000	24.479085
592.000000	24.520797
593.000000	24.555075
594.000000	24.582695
595.000000	24.603076
596.000000	24.616186
597.000000	24.622496
598.000000	24.622411
599.000000	24.616070
600.000000	24.602937
601.000000	24.584205
602.000000	24.559461
603.000000	24.529406
604.000000	24.495353
605.000000	24.455925
606.000000	24.412573
607.000000	24.365268
608.000000	24.313940
609.000000	24.258863
610.000000	24.201433
611.000000	24.142098
612.000000	24.079950
613.000000	24.015713
614.000000	23.949717
615.000000	23.882673
616.000000	23.814511
617.000000	23.745235
618.000000	23.676249
619.000000	23.605882
620.000000	23.536459
621.000000	23.466009
622.000000	23.395928
623.000000	23.325910
624.000000	23.255579
625.000000	23.185438
626.000000	23.115446
627.000000	23.044964
628.000000	22.973901
629.000000	22.902370
630.000000	22.830179
631.000000	22.757974
632.000000	22.684744
633.000000	22.610736
634.000000	22.535948
635.000000	22.460581
636.000000	22.384288
637.000000	22.307361
638.000000	22.229367
639.000000	22.149603
640.000000	22.069067
641.000000	21.987152
642.000000	21.903572
643.000000	21.818577
644.000000	21.732925
645.000000	21.645596
646.000000	21.556896
647.000000	21.467970
648.000000	21.377952
649.000000	21.287504
650.000000	21.196771
651.000000	21.106365
652.000000	21.016876
653.000000	20.928069
654.000000	20.841551
655.000000	20.756183
656.000000	20.673348
657.000000	20.594273
658.000000	20.519278
659.000000	20.448964
660.000000	20.383819
661.000000	20.323975
662.000000	20.270791
663.000000	20.225356
664.000000	20.188073
665.000000	20.160143
666.000000	20.141579
667.000000	20.134036
668.000000	20.137241
669.000000	20.153541
670.000000	20.184119
671.000000	20.228259
672.000000	20.288246
673.000000	20.365363
674.000000	20.461234
675.000000	20.576362
676.000000	20.712623
677.000000	20.871071
678.000000	21.052926
679.000000	21.259236
680.000000	21.493270
681.000000	21.755879
682.000000	22.048005
683.000000	22.371715
684.000000	22.728212
685.000000	23.118082
686.000000	23.542742
687.000000	24.003684
688.000000	24.500841
689.000000	25.035503
690.000000	25.608304
691.000000	26.221205
692.000000	26.872223
693.000000	27.561496
694.000000	28.289765
695.000000	29.055347
696.000000	29.856853
697.000000	30.692796
698.000000	31.563187
699.000000	32.466748
700.000000	33.402040
701.000000	34.367568
702.000000	35.360704
703.000000	36.379632
704.000000	37.420428
705.000000	38.482076
706.000000	39.564690
707.000000	40.662097
708.000000	41.772757
709.000000	42.894686
710.000000	44.025679
711.000000	45.164205
712.000000	46.306274
713.000000	47.448783
714.000000	48.591868
715.000000	49.728904
716.000000	50.857658
717.000000	51.976207
718.000000	53.082677
719.000000	54.173083
720.000000	55.245824
721.000000	56.300041
722.000000	57.332338
723.000000	58.341612
724.000000	59.324027
725.000000	60.279078
726.000000	61.205494
727.000000	62.103500
728.000000	62.972206
729.000000	63.808090
730.000000	64.613509
731.000000	65.387940
732.000000	66.133225
733.000000	66.847572
734.000000	67.532323
735.000000	68.187513
736.000000	68.813909
737.000000	69.412376
738.000000	69.983121
739.000000	70.528511
740.000000	71.050899
741.000000	71.549867
742.000000	72.026327
743.000000	72.480998
744.000000	72.916827
745.000000	73.335081
746.000000	73.733867
747.000000	74.114779
748.000000	74.480848
749.000000	74.830290
750.000000	75.167047
751.000000	75.495065
752.000000	75.813080
753.000000	76.121657
754.000000	76.420098
755.000000	76.706601
756.000000	76.984499
757.000000	77.253306
758.000000	77.512587
759.000000	77.765731
760.000000	78.013420
761.000000	78.256352
762.000000	78.494494
763.000000	78.725944
764.000000	78.950611
765.000000	79.170195
766.000000	79.389302
767.000000	79.603984
768.000000	79.812237
769.000000	80.015595
770.000000	80.215788
771.000000	80.414031
772.000000	80.612352
773.000000	80.808250
774.000000	81.001109
775.000000	81.192238
776.000000	81.377245
777.000000	81.561598
778.000000	81.745703
779.000000	81.928156
780.000000	82.106025
781.000000	82.282124
782.000000	82.457067
783.000000	82.630505
784.000000	82.802683
785.000000	82.972576
786.000000	83.139563
787.000000	83.304451
788.000000	83.463833
789.000000	83.623306
790.000000	83.784082
791.000000	83.946052
792.000000	84.103835
793.000000	84.264545
794.000000	84.422160
795.000000	84.580458
796.000000	84.734643
797.000000	84.885819
798.000000	85.036315
799.000000	85.188696
800.000000	85.343056
801.000000	85.493157
802.000000	85.643288
803.000000	85.790748
804.000000	85.937872
805.000000	86.081988
806.000000	86.223357
807.000000	86.365212
808.000000	86.509160
809.000000	86.653866
810.000000	86.791717
811.000000	86.931719
812.000000	87.067202
813.000000	87.198456
814.000000	87.330850
815.000000	87.460056
816.000000	87.587101
817.000000	87.719093
818.000000	87.847368
819.000000	87.973202
820.000000	88.101907
821.000000	88.226591
822.000000	88.351501
823.000000	88.474547
824.000000	88.592235
825.000000	88.713963
826.000000	88.830923
827.000000	88.954879
828.000000	89.073251
829.000000	89.194073
830.000000	89.306511
831.000000	89.415873
832.000000	89.534337
833.000000	89.644801
834.000000	89.751145
835.000000	89.857907
836.000000	89.960593
837.000000	90.059064
838.000000	90.169786
839.000000	90.271410
840.000000	90.371926
841.000000	90.474953
842.000000	90.571309
843.000000	90.662040
844.000000	90.757382
845.000000	90.860225
846.000000	90.948453
847.000000	91.045683
848.000000	91.143395
849.000000	91.238893
850.000000	91.327210
851.000000	91.426697
852.000000	91.517102
853.000000	91.616064
854.000000	91.704258
855.000000	91.809077
856.000000	91.904644
857.000000	91.963802
858.000000	91.955799
859.000000	92.066158
860.000000	92.175219
861.000000	92.274271
862.000000	92.324493
863.000000	92.398694
864.000000	92.484294
865.000000	92.585257
866.000000	92.658288
867.000000	92.726477
868.000000	92.810571
869.000000	92.887801
870.000000	92.965655
871.000000	93.065173
872.000000	93.136229
873.000000	93.208725
874.000000	93.308090
875.000000	93.396153
876.000000	93.460817
877.000000	93.531157
878.000000	93.640336
879.000000	93.735711
880.000000	93.817476
881.000000	93.898587
882.000000	94.010282
883.000000	94.113521
884.000000	94.209411
885.000000	94.279370
886.000000	94.368996
887.000000	94.425217
888.000000	94.496330
889.000000	94.595540
890.000000	94.666616
891.000000	94.734779
892.000000	94.828191
893.000000	94.994431
894.000000	95.055419
895.000000	95.123064
896.000000	95.175722
897.000000	95.290544
898.000000	95.396780
899.000000	95.454413
900.000000	95.486205
901.000000	95.552849
902.000000	95.608394
903.000000	95.675512
904.000000	95.764088
905.000000	95.836426
906.000000	95.880666
907.000000	95.970930
908.000000	96.047935
909.000000	96.095417
910.000000	96.143117
911.000000	96.192984
912.000000	96.220129
913.000000	96.210285
914.000000	96.234511
915.000000	96.259073
916.000000	96.308933
917.000000	96.339783
918.000000	96.348640
919.000000	96.386153
920.000000	96.439363
921.000000	96.451704
922.000000	96.505448
923.000000	96.563936
924.000000	96.597883
925.000000	96.640384
926.000000	96.684698
927.000000	96.717535
928.000000	96.762252
929.000000	96.778319
930.000000	96.774535
931.000000	96.822078
932.000000	96.842110
933.000000	96.849747
934.000000	96.911927
935.000000	96.960668
936.000000	97.001837
937.000000	97.037605
938.000000	97.056636
939.000000	97.065611
940.000000	97.121598
941.000000	97.159848
942.000000	97.211551
943.000000	97.238800
944.000000	97.251594
945.000000	97.273909
946.000000	97.309825
947.000000	97.421542
948.000000	97.495299
949.000000	97.497984
950.000000	97.520869
951.000000	97.541482
952.000000	97.544044
953.000000	97.598084
954.000000	97.620490
955.000000	97.651090
956.000000	97.705840
957.000000	97.749915
958.000000	97.787280
959.000000	97.797680
960.000000	97.777810
961.000000	97.757794
962.000000	97.781250
963.000000	97.790472
964.000000	97.825226
965.000000	97.864318
966.000000	97.847300
967.000000	97.864422
968.000000	97.890943
969.000000	97.863666
970.000000	97.863749
971.000000	97.900013
972.000000	97.957881
973.000000	97.998499
974.000000	98.039462
975.000000	98.025060
976.000000	98.028139
977.000000	97.977758
978.000000	97.964351
979.000000	97.979201
980.000000	98.000737
981.000000	98.027487
982.000000	97.978820
983.000000	97.968988
984.000000	98.029747
985.000000	98.080019
986.000000	98.108638
987.000000	98.116466
988.000000	98.103660
989.000000	98.110700
990.000000	98.125845
991.000000	98.129176
992.000000	98.151308
993.000000	98.154097
994.000000	98.182119
995.000000	98.220532
996.000000	98.247366
997.000000	98.260931
998.000000	98.311483
999.000000	98.352243
1000.000000	98.375360
1001.000000	98.423195
1002.000000	98.425423
1003.000000	98.426956
1004.000000	98.449715
1005.000000	98.477142
1006.000000	98.482386
1007.000000	98.477319
1008.000000	98.503579
1009.000000	98.500792
1010.000000	98.512257
1011.000000	98.524837
1012.000000	98.559751
1013.000000	98.592177
1014.000000	98.602634
1015.000000	98.615359
1016.000000	98.626338
1017.000000	98.667341
1018.000000	98.718435
1019.000000	98.708736
1020.000000	98.706010
1021.000000	98.759530
1022.000000	98.799605
1023.000000	98.815761
1024.000000	98.827682
1025.000000	98.834998
1026.000000	98.823094
1027.000000	98.837170
1028.000000	98.844617
1029.000000	98.843238
1030.000000	98.868776
1031.000000	98.912965
1032.000000	98.922735
1033.000000	98.894341
1034.000000	98.877855
1035.000000	98.913636
1036.000000	98.941522
1037.000000	98.957671
1038.000000	98.972009
1039.000000	98.992645
1040.000000	99.021739
1041.000000	99.037826
1042.000000	99.062920
1043.000000	99.103652
1044.000000	99.139072
1045.000000	99.141404
1046.000000	99.145512
1047.000000	99.174516
1048.000000	99.203049
1049.000000	99.219042
1050.000000	99.230464
1051.000000	99.248118
1052.000000	99.239062
1053.000000	99.217183
1054.000000	99.216234
1055.000000	99.228088
1056.000000	99.189189
1057.000000	99.180164
1058.000000	99.196603
1059.000000	99.212676
1060.000000	99.227159
1061.000000	99.264720
1062.000000	99.244606
1063.000000	99.228321
1064.000000	99.226884
1065.000000	99.233454
1066.000000	99.243834
1067.000000	99.274461
1068.000000	99.283478
1069.000000	99.293937
1070.000000	99.308065
1071.000000	99.314742
1072.000000	99.352574
1073.000000	99.327343
1074.000000	99.326561
1075.000000	99.307325
1076.000000	99.302137
1077.000000	99.259537
1078.000000	99.171982
1079.000000	99.141927
1080.000000	99.171067
1081.000000	99.210889
1082.000000	99.211454
1083.000000	99.244953
1084.000000	99.273268
1085.000000	99.260256
1086.000000	99.286483
1087.000000	99.314125
1088.000000	99.342669
1089.000000	99.355604
1090.000000	99.385973
1091.000000	99.427451
1092.000000	99.427371
1093.000000	99.427871
1094.000000	99.439964
1095.000000	99.476923
1096.000000	99.453135
1097.000000	99.450160
1098.000000	99.463722
1099.000000	99.503549
1100.000000	99.504800
1101.000000	99.493959
1102.000000	99.512545
1103.000000	99.538982
1104.000000	99.543568
1105.000000	99.517352
1106.000000	99.524781
1107.000000	99.515097
1108.000000	99.556455
1109.000000	99.576869
1110.000000	99.618276
1111.000000	99.627767
1112.000000	99.660191
1113.000000	99.726580
1114.000000	99.741085
1115.000000	99.711019
1116.000000	99.654173
1117.000000	99.665609
1118.000000	99.596910
1119.000000	99.572446
1120.000000	99.612111
1121.000000	99.591229
1122.000000	99.611632
1123.000000	99.636192
1124.000000	99.663910
1125.000000	99.625804
1126.000000	99.590698
1127.000000	99.636208
1128.000000	99.679760
1129.000000	99.686902
1130.000000	99.628475
1131.000000	99.670375
1132.000000	99.654581
1133.000000	99.660344
1134.000000	99.655289
1135.000000	99.628927
1136.000000	99.606850
1137.000000	99.580266
1138.000000	99.576084
1139.000000	99.578406
1140.000000	99.564289
1141.000000	99.538710
1142.000000	99.528079
1143.000000	99.498359
1144.000000	99.486109
1145.000000	99.442953
1146.000000	99.434198
1147.000000	99.406177
1148.000000	99.370354
1149.000000	99.388895
1150.000000	99.355444
1151.000000	99.398955
1152.000000	99.384361
1153.000000	99.407721
1154.000000	99.375252
1155.000000	99.353434
1156.000000	99.316474
1157.000000	99.249311
1158.000000	99.168786
1159.000000	99.112288
1160.000000	99.052192
1161.000000	99.010748
1162.000000	98.943360
1163.000000	98.889767
1164.000000	98.835272
1165.000000	98.819956
1166.000000	98.766557
1167.000000	98.741136
1168.000000	98.689660
1169.000000	98.618292
1170.000000	98.575149
1171.000000	98.545703
1172.000000	98.495585
1173.000000	98.440256
1174.000000	98.367604
1175.000000	98.284149
1176.000000	98.230951
1177.000000	98.163719
1178.000000	98.143953
1179.000000	98.144616
1180.000000	98.121496
1181.000000	98.090948
1182.000000	98.063348
1183.000000	98.016850
1184.000000	97.939501
1185.000000	97.918511
1186.000000	97.862293
1187.000000	97.789277
1188.000000	97.731783
1189.000000	97.729202
1190.000000	97.680046
1191.000000	97.664850
1192.000000	97.650289
1193.000000	97.679556
1194.000000	97.660762
1195.000000	97.666515
1196.000000	97.668866
1197.000000	97.661765
1198.000000	97.624659
1199.000000	97.622056
1200.000000	97.599166
1201.000000	97.583039
1202.000000	97.603277
1203.000000	97.597642
1204.000000	97.594610
