PE UV       SUBTECH     SPECTRUM    ASCII       PEDS        4.00        
   -1
4-PELID 2.ASC
23/11/21
14:03:21.00
23/11/21
14:03:21.00
Vinicio Soto Monge

250,000000
1
Lambda 1050
1050L1511233
PerkinElmer UV WinLab 6.3.2.0749 / 2.02.05 Lambda 900 UV/VIS/NIR, Aug  7 2015 09:38:08

0
0
3350/servo 860,8/2
0
0
UV/VIS
1
1
1
DoubleDePol,CommonBeamDepol,RBeamAtt,SBeamAtt,60mm sphere, WB InGaAs Detector
0
0
0
0
Program
Program
3350/servo 860,8/2
3350/0,4 860,8/0,4
3350/0,4 860,8/0,4
0
20.00
 
 
 
0
 
860,8
319,2
860,8
Front
100
on
S:100 R:100
0
0
0
0
 
0
 
 
 
0
 
 
0
0
0
0
0
 
 
 
 
0
0


0
0
#HDR
-1
-1
#GR
nm
%R
1.0
0.0
2200,000000
-1,000000
1951
8
107,881660
5,646781
#DATA
284.000000	6.168902
285.000000	6.153999
286.000000	6.140379
287.000000	6.127152
288.000000	6.113281
289.000000	6.102260
290.000000	6.093082
291.000000	6.083097
292.000000	6.074564
293.000000	6.069288
294.000000	6.064008
295.000000	6.060830
296.000000	6.057321
297.000000	6.053275
298.000000	6.049963
299.000000	6.047619
300.000000	6.045377
301.000000	6.044756
302.000000	6.042462
303.000000	6.040546
304.000000	6.037802
305.000000	6.034516
306.000000	6.033545
307.000000	6.033492
308.000000	6.032328
309.000000	6.030326
310.000000	6.029037
311.000000	6.028432
312.000000	6.028992
313.000000	6.026718
314.000000	6.023042
315.000000	6.021669
316.000000	6.017249
317.000000	6.007738
318.000000	5.999885
319.000000	5.990960
320.000000	5.982741
321.000000	5.976195
322.000000	5.967260
323.000000	5.956873
324.000000	5.947567
325.000000	5.940657
326.000000	5.930756
327.000000	5.918788
328.000000	5.906615
329.000000	5.894030
330.000000	5.877014
331.000000	5.862353
332.000000	5.847242
333.000000	5.832179
334.000000	5.818321
335.000000	5.803717
336.000000	5.790827
337.000000	5.779378
338.000000	5.768657
339.000000	5.757132
340.000000	5.744355
341.000000	5.732355
342.000000	5.720910
343.000000	5.710927
344.000000	5.701228
345.000000	5.692326
346.000000	5.685752
347.000000	5.678542
348.000000	5.671320
349.000000	5.666537
350.000000	5.660375
351.000000	5.657772
352.000000	5.660619
353.000000	5.662432
354.000000	5.665511
355.000000	5.669055
356.000000	5.671499
357.000000	5.676127
358.000000	5.684039
359.000000	5.690785
360.000000	5.696649
361.000000	5.705067
362.000000	5.715281
363.000000	5.726249
364.000000	5.737382
365.000000	5.751849
366.000000	5.768834
367.000000	5.787867
368.000000	5.806786
369.000000	5.826446
370.000000	5.848791
371.000000	5.870522
372.000000	5.891772
373.000000	5.914962
374.000000	5.938968
375.000000	5.964805
376.000000	5.992362
377.000000	6.025554
378.000000	6.058529
379.000000	6.093512
380.000000	6.129403
381.000000	6.165135
382.000000	6.202453
383.000000	6.242068
384.000000	6.282174
385.000000	6.324261
386.000000	6.367593
387.000000	6.412987
388.000000	6.459160
389.000000	6.507371
390.000000	6.555884
391.000000	6.606544
392.000000	6.658992
393.000000	6.712781
394.000000	6.768222
395.000000	6.824192
396.000000	6.882268
397.000000	6.941970
398.000000	7.002116
399.000000	7.065173
400.000000	7.130576
401.000000	7.195144
402.000000	7.260654
403.000000	7.328193
404.000000	7.396745
405.000000	7.466110
406.000000	7.538455
407.000000	7.612852
408.000000	7.687469
409.000000	7.767336
410.000000	7.849728
411.000000	7.932781
412.000000	8.014335
413.000000	8.098995
414.000000	8.186516
415.000000	8.277300
416.000000	8.371377
417.000000	8.468360
418.000000	8.568711
419.000000	8.672623
420.000000	8.780235
421.000000	8.891652
422.000000	9.006956
423.000000	9.125449
424.000000	9.247348
425.000000	9.372645
426.000000	9.500721
427.000000	9.632412
428.000000	9.766796
429.000000	9.904224
430.000000	10.044894
431.000000	10.188925
432.000000	10.335697
433.000000	10.485298
434.000000	10.637704
435.000000	10.793140
436.000000	10.951740
437.000000	11.113299
438.000000	11.277634
439.000000	11.444378
440.000000	11.613544
441.000000	11.785452
442.000000	11.959881
443.000000	12.136493
444.000000	12.314670
445.000000	12.494088
446.000000	12.674539
447.000000	12.856022
448.000000	13.038318
449.000000	13.221428
450.000000	13.404907
451.000000	13.588789
452.000000	13.772865
453.000000	13.957654
454.000000	14.142874
455.000000	14.327600
456.000000	14.511995
457.000000	14.696407
458.000000	14.880736
459.000000	15.064956
460.000000	15.249373
461.000000	15.434305
462.000000	15.619268
463.000000	15.804883
464.000000	15.991020
465.000000	16.177679
466.000000	16.364846
467.000000	16.552656
468.000000	16.741160
469.000000	16.930221
470.000000	17.119844
471.000000	17.310071
472.000000	17.501303
473.000000	17.693963
474.000000	17.887916
475.000000	18.083213
476.000000	18.279761
477.000000	18.477330
478.000000	18.676230
479.000000	18.876734
480.000000	19.078179
481.000000	19.281498
482.000000	19.486773
483.000000	19.694259
484.000000	19.903371
485.000000	20.114473
486.000000	20.327333
487.000000	20.541953
488.000000	20.758187
489.000000	20.976073
490.000000	21.195948
491.000000	21.417888
492.000000	21.642256
493.000000	21.869312
494.000000	22.099399
495.000000	22.331309
496.000000	22.564488
497.000000	22.799606
498.000000	23.037553
499.000000	23.277884
500.000000	23.519938
501.000000	23.764004
502.000000	24.010307
503.000000	24.258937
504.000000	24.509688
505.000000	24.763159
506.000000	25.018451
507.000000	25.275953
508.000000	25.535091
509.000000	25.796290
510.000000	26.059743
511.000000	26.325064
512.000000	26.592531
513.000000	26.861936
514.000000	27.133248
515.000000	27.407677
516.000000	27.683425
517.000000	27.961034
518.000000	28.239528
519.000000	28.519954
520.000000	28.801980
521.000000	29.086223
522.000000	29.372159
523.000000	29.659852
524.000000	29.949294
525.000000	30.240674
526.000000	30.533287
527.000000	30.826706
528.000000	31.121267
529.000000	31.416599
530.000000	31.713098
531.000000	32.011450
532.000000	32.310851
533.000000	32.610441
534.000000	32.910691
535.000000	33.212371
536.000000	33.514977
537.000000	33.818004
538.000000	34.121662
539.000000	34.426282
540.000000	34.730461
541.000000	35.036120
542.000000	35.342317
543.000000	35.649453
544.000000	35.957078
545.000000	36.264967
546.000000	36.574544
547.000000	36.885469
548.000000	37.196616
549.000000	37.508234
550.000000	37.820748
551.000000	38.135419
552.000000	38.450571
553.000000	38.768770
554.000000	39.088710
555.000000	39.410882
556.000000	39.734774
557.000000	40.059996
558.000000	40.386711
559.000000	40.717090
560.000000	41.051213
561.000000	41.388374
562.000000	41.728402
563.000000	42.071526
564.000000	42.417412
565.000000	42.766247
566.000000	43.117076
567.000000	43.471272
568.000000	43.828054
569.000000	44.187428
570.000000	44.548092
571.000000	44.909389
572.000000	45.273089
573.000000	45.637884
574.000000	46.003818
575.000000	46.369980
576.000000	46.735547
577.000000	47.100964
578.000000	47.464704
579.000000	47.827274
580.000000	48.188914
581.000000	48.546323
582.000000	48.900886
583.000000	49.252424
584.000000	49.601859
585.000000	49.946342
586.000000	50.287263
587.000000	50.622752
588.000000	50.951635
589.000000	51.274902
590.000000	51.589668
591.000000	51.897531
592.000000	52.200164
593.000000	52.494857
594.000000	52.782057
595.000000	53.059388
596.000000	53.328563
597.000000	53.587574
598.000000	53.838640
599.000000	54.080879
600.000000	54.313846
601.000000	54.538945
602.000000	54.755018
603.000000	54.964137
604.000000	55.165621
605.000000	55.359754
606.000000	55.547447
607.000000	55.727730
608.000000	55.903704
609.000000	56.073148
610.000000	56.238262
611.000000	56.397899
612.000000	56.554251
613.000000	56.708065
614.000000	56.858321
615.000000	57.006704
616.000000	57.153900
617.000000	57.300232
618.000000	57.445241
619.000000	57.588022
620.000000	57.731781
621.000000	57.876679
622.000000	58.024242
623.000000	58.172946
624.000000	58.322838
625.000000	58.476065
626.000000	58.632358
627.000000	58.789461
628.000000	58.949713
629.000000	59.111715
630.000000	59.276803
631.000000	59.445431
632.000000	59.617044
633.000000	59.791863
634.000000	59.969735
635.000000	60.151150
636.000000	60.337937
637.000000	60.528345
638.000000	60.719708
639.000000	60.913694
640.000000	61.110428
641.000000	61.311057
642.000000	61.514335
643.000000	61.718499
644.000000	61.925636
645.000000	62.133146
646.000000	62.343761
647.000000	62.555624
648.000000	62.767150
649.000000	62.980626
650.000000	63.194796
651.000000	63.409900
652.000000	63.624553
653.000000	63.841188
654.000000	64.059493
655.000000	64.277901
656.000000	64.493647
657.000000	64.708712
658.000000	64.924354
659.000000	65.139965
660.000000	65.356372
661.000000	65.572411
662.000000	65.787808
663.000000	66.002831
664.000000	66.216992
665.000000	66.430469
666.000000	66.642404
667.000000	66.856322
668.000000	67.066968
669.000000	67.277778
670.000000	67.490037
671.000000	67.698298
672.000000	67.906280
673.000000	68.115511
674.000000	68.322781
675.000000	68.528534
676.000000	68.732844
677.000000	68.937302
678.000000	69.140077
679.000000	69.341470
680.000000	69.543648
681.000000	69.744203
682.000000	69.942348
683.000000	70.140792
684.000000	70.338390
685.000000	70.535148
686.000000	70.731032
687.000000	70.925605
688.000000	71.116421
689.000000	71.307269
690.000000	71.497027
691.000000	71.687265
692.000000	71.877621
693.000000	72.066641
694.000000	72.253636
695.000000	72.439564
696.000000	72.622796
697.000000	72.803273
698.000000	72.983925
699.000000	73.164651
700.000000	73.344690
701.000000	73.524758
702.000000	73.702835
703.000000	73.880086
704.000000	74.055377
705.000000	74.229930
706.000000	74.405137
707.000000	74.576207
708.000000	74.746478
709.000000	74.917827
710.000000	75.087998
711.000000	75.257877
712.000000	75.425728
713.000000	75.591783
714.000000	75.758453
715.000000	75.924751
716.000000	76.090839
717.000000	76.255770
718.000000	76.418533
719.000000	76.580143
720.000000	76.741640
721.000000	76.902887
722.000000	77.063385
723.000000	77.225040
724.000000	77.383496
725.000000	77.540126
726.000000	77.696082
727.000000	77.851367
728.000000	78.006577
729.000000	78.160529
730.000000	78.313082
731.000000	78.465071
732.000000	78.619241
733.000000	78.772042
734.000000	78.922549
735.000000	79.072111
736.000000	79.219456
737.000000	79.366522
738.000000	79.513619
739.000000	79.659403
740.000000	79.804437
741.000000	79.948294
742.000000	80.093443
743.000000	80.237674
744.000000	80.380813
745.000000	80.523939
746.000000	80.665412
747.000000	80.804928
748.000000	80.944558
749.000000	81.080617
750.000000	81.215545
751.000000	81.349775
752.000000	81.485946
753.000000	81.626777
754.000000	81.765185
755.000000	81.899378
756.000000	82.033123
757.000000	82.166965
758.000000	82.300589
759.000000	82.432182
760.000000	82.563152
761.000000	82.694521
762.000000	82.825017
763.000000	82.952871
764.000000	83.080620
765.000000	83.205356
766.000000	83.331468
767.000000	83.458188
768.000000	83.581259
769.000000	83.702268
770.000000	83.824925
771.000000	83.950070
772.000000	84.072288
773.000000	84.194746
774.000000	84.317638
775.000000	84.439396
776.000000	84.558083
777.000000	84.676543
778.000000	84.794899
779.000000	84.913987
780.000000	85.031779
781.000000	85.148335
782.000000	85.267217
783.000000	85.383782
784.000000	85.498736
785.000000	85.614003
786.000000	85.728766
787.000000	85.842310
788.000000	85.949210
789.000000	86.054187
790.000000	86.163054
791.000000	86.273115
792.000000	86.381630
793.000000	86.488692
794.000000	86.594203
795.000000	86.701700
796.000000	86.808297
797.000000	86.912046
798.000000	87.016229
799.000000	87.121785
800.000000	87.232502
801.000000	87.340275
802.000000	87.444956
803.000000	87.547292
804.000000	87.654007
805.000000	87.756652
806.000000	87.857141
807.000000	87.958604
808.000000	88.062110
809.000000	88.164336
810.000000	88.263415
811.000000	88.366105
812.000000	88.463800
813.000000	88.560658
814.000000	88.652987
815.000000	88.745796
816.000000	88.839061
817.000000	88.932719
818.000000	89.029559
819.000000	89.125352
820.000000	89.220907
821.000000	89.314385
822.000000	89.406705
823.000000	89.501575
824.000000	89.594599
825.000000	89.683849
826.000000	89.768059
827.000000	89.859551
828.000000	89.950045
829.000000	90.044441
830.000000	90.129524
831.000000	90.209915
832.000000	90.303046
833.000000	90.387344
834.000000	90.471083
835.000000	90.548477
836.000000	90.622720
837.000000	90.696517
838.000000	90.780782
839.000000	90.857323
840.000000	90.936487
841.000000	91.011332
842.000000	91.077740
843.000000	91.146788
844.000000	91.222164
845.000000	91.296138
846.000000	91.367072
847.000000	91.445873
848.000000	91.513600
849.000000	91.592098
850.000000	91.665851
851.000000	91.734734
852.000000	91.797598
853.000000	91.861910
854.000000	91.925574
855.000000	91.991352
856.000000	92.069208
857.000000	92.109604
858.000000	92.159601
859.000000	92.231788
860.000000	92.334817
861.000000	92.423070
862.000000	92.450629
863.000000	92.519319
864.000000	92.590361
865.000000	92.657017
866.000000	92.694627
867.000000	92.749751
868.000000	92.823439
869.000000	92.890859
870.000000	92.953840
871.000000	93.005085
872.000000	93.042394
873.000000	93.100411
874.000000	93.181419
875.000000	93.264303
876.000000	93.343625
877.000000	93.436141
878.000000	93.510306
879.000000	93.582881
880.000000	93.674470
881.000000	93.730717
882.000000	93.816724
883.000000	93.922351
884.000000	93.997507
885.000000	94.066530
886.000000	94.138608
887.000000	94.206501
888.000000	94.284553
889.000000	94.355792
890.000000	94.441089
891.000000	94.490960
892.000000	94.566542
893.000000	94.642459
894.000000	94.720515
895.000000	94.750599
896.000000	94.787484
897.000000	94.868516
898.000000	94.941961
899.000000	94.982131
900.000000	95.009078
901.000000	95.096719
902.000000	95.124558
903.000000	95.148736
904.000000	95.184968
905.000000	95.234112
906.000000	95.271794
907.000000	95.372051
908.000000	95.433967
909.000000	95.472815
910.000000	95.495231
911.000000	95.523037
912.000000	95.519605
913.000000	95.556288
914.000000	95.605381
915.000000	95.608680
916.000000	95.658405
917.000000	95.687323
918.000000	95.661603
919.000000	95.679904
920.000000	95.725470
921.000000	95.747234
922.000000	95.756710
923.000000	95.782165
924.000000	95.810846
925.000000	95.829529
926.000000	95.863894
927.000000	95.906692
928.000000	95.944135
929.000000	95.943345
930.000000	95.940423
931.000000	95.956987
932.000000	96.007743
933.000000	96.026183
934.000000	96.091450
935.000000	96.144693
936.000000	96.156133
937.000000	96.184257
938.000000	96.231626
939.000000	96.262913
940.000000	96.327170
941.000000	96.386261
942.000000	96.378098
943.000000	96.418635
944.000000	96.455505
945.000000	96.467700
946.000000	96.498320
947.000000	96.576940
948.000000	96.619634
949.000000	96.611891
950.000000	96.641405
951.000000	96.669974
952.000000	96.673959
953.000000	96.746036
954.000000	96.808369
955.000000	96.841358
956.000000	96.904875
957.000000	96.951461
958.000000	96.969365
959.000000	96.992179
960.000000	96.992848
961.000000	96.979709
962.000000	97.021320
963.000000	97.026651
964.000000	97.054979
965.000000	97.127345
966.000000	97.152170
967.000000	97.142596
968.000000	97.144227
969.000000	97.128823
970.000000	97.171835
971.000000	97.204260
972.000000	97.246387
973.000000	97.261916
974.000000	97.289438
975.000000	97.271189
976.000000	97.247725
977.000000	97.253114
978.000000	97.226582
979.000000	97.205180
980.000000	97.224804
981.000000	97.230110
982.000000	97.210318
983.000000	97.191393
984.000000	97.230210
985.000000	97.258692
986.000000	97.264022
987.000000	97.290661
988.000000	97.279868
989.000000	97.261870
990.000000	97.245959
991.000000	97.213723
992.000000	97.231633
993.000000	97.262165
994.000000	97.289628
995.000000	97.312351
996.000000	97.342146
997.000000	97.302724
998.000000	97.342140
999.000000	97.392364
1000.000000	97.406262
1001.000000	97.449091
1002.000000	97.452855
1003.000000	97.452227
1004.000000	97.464396
1005.000000	97.452617
1006.000000	97.459607
1007.000000	97.458856
1008.000000	97.489845
1009.000000	97.511637
1010.000000	97.517229
1011.000000	97.541129
1012.000000	97.563922
1013.000000	97.591369
1014.000000	97.615116
1015.000000	97.632911
1016.000000	97.664526
1017.000000	97.710092
1018.000000	97.758116
1019.000000	97.768870
1020.000000	97.777842
1021.000000	97.818753
1022.000000	97.823421
1023.000000	97.839545
1024.000000	97.857267
1025.000000	97.857818
1026.000000	97.873476
1027.000000	97.909961
1028.000000	97.919809
1029.000000	97.917621
1030.000000	97.930668
1031.000000	97.952438
1032.000000	97.961522
1033.000000	97.935936
1034.000000	97.910418
1035.000000	97.901097
1036.000000	97.890676
1037.000000	97.901491
1038.000000	97.925183
1039.000000	97.947448
1040.000000	97.961218
1041.000000	97.970054
1042.000000	98.009203
1043.000000	98.031692
1044.000000	98.036522
1045.000000	98.052159
1046.000000	98.095263
1047.000000	98.150740
1048.000000	98.177568
1049.000000	98.181787
1050.000000	98.207696
1051.000000	98.214113
1052.000000	98.170512
1053.000000	98.137627
1054.000000	98.113000
1055.000000	98.106090
1056.000000	98.069366
1057.000000	98.062106
1058.000000	98.076089
1059.000000	98.080062
1060.000000	98.095975
1061.000000	98.109674
1062.000000	98.072307
1063.000000	98.042213
1064.000000	98.030129
1065.000000	98.034748
1066.000000	98.057358
1067.000000	98.110120
1068.000000	98.127985
1069.000000	98.124830
1070.000000	98.136260
1071.000000	98.146521
1072.000000	98.191722
1073.000000	98.180692
1074.000000	98.165221
1075.000000	98.162107
1076.000000	98.168862
1077.000000	98.125877
1078.000000	98.101406
1079.000000	98.089168
1080.000000	98.095767
1081.000000	98.106722
1082.000000	98.074740
1083.000000	98.083505
1084.000000	98.119811
1085.000000	98.104125
1086.000000	98.098566
1087.000000	98.144595
1088.000000	98.163944
1089.000000	98.173569
1090.000000	98.195052
1091.000000	98.225608
1092.000000	98.235191
1093.000000	98.209962
1094.000000	98.206207
1095.000000	98.221882
1096.000000	98.208532
1097.000000	98.211841
1098.000000	98.226558
1099.000000	98.257171
1100.000000	98.257096
1101.000000	98.218414
1102.000000	98.222173
1103.000000	98.221393
1104.000000	98.218691
1105.000000	98.195576
1106.000000	98.184425
1107.000000	98.170594
1108.000000	98.191766
1109.000000	98.202822
1110.000000	98.232502
1111.000000	98.245796
1112.000000	98.303887
1113.000000	98.330103
1114.000000	98.328958
1115.000000	98.309691
1116.000000	98.269320
1117.000000	98.278028
1118.000000	98.278815
1119.000000	98.236644
1120.000000	98.229493
1121.000000	98.193988
1122.000000	98.175592
1123.000000	98.206213
1124.000000	98.222855
1125.000000	98.184637
1126.000000	98.142577
1127.000000	98.168735
1128.000000	98.218574
1129.000000	98.233000
1130.000000	98.224843
1131.000000	98.233836
1132.000000	98.227306
1133.000000	98.235440
1134.000000	98.275557
1135.000000	98.272503
1136.000000	98.307951
1137.000000	98.284863
1138.000000	98.320041
1139.000000	98.342959
1140.000000	98.352126
1141.000000	98.332227
1142.000000	98.321988
1143.000000	98.296293
1144.000000	98.281990
1145.000000	98.230809
1146.000000	98.226291
1147.000000	98.196524
1148.000000	98.163912
1149.000000	98.184926
1150.000000	98.191870
1151.000000	98.222237
1152.000000	98.235212
1153.000000	98.238527
1154.000000	98.235181
1155.000000	98.267138
1156.000000	98.283860
1157.000000	98.268871
1158.000000	98.234784
1159.000000	98.208358
1160.000000	98.199125
1161.000000	98.208756
1162.000000	98.173823
1163.000000	98.146071
1164.000000	98.099575
1165.000000	98.070322
1166.000000	98.023783
1167.000000	98.008308
1168.000000	97.995164
1169.000000	97.888153
1170.000000	97.845001
1171.000000	97.777170
1172.000000	97.742654
1173.000000	97.694456
1174.000000	97.655388
1175.000000	97.589795
1176.000000	97.555571
1177.000000	97.525479
1178.000000	97.521837
1179.000000	97.543077
1180.000000	97.524678
1181.000000	97.489102
1182.000000	97.443017
1183.000000	97.412292
1184.000000	97.354799
1185.000000	97.318146
1186.000000	97.277140
1187.000000	97.219437
1188.000000	97.173255
1189.000000	97.145924
1190.000000	97.077021
1191.000000	97.040308
1192.000000	97.022103
1193.000000	97.001892
1194.000000	96.974347
1195.000000	96.986868
1196.000000	96.985933
1197.000000	96.966331
1198.000000	96.935068
1199.000000	96.924144
1200.000000	96.921361
