PE UV       SUBTECH     SPECTRUM    ASCII       PEDS        4.00        
   -1
4-C. CUPREOMARGINATA MV 23-15.ASC
23/11/21
15:21:32.00
23/11/21
15:21:32.00
Vinicio Soto Monge

250,000000
1
Lambda 1050
1050L1511233
PerkinElmer UV WinLab 6.3.2.0749 / 2.02.05 Lambda 900 UV/VIS/NIR, Aug  7 2015 09:38:08

0
0
3350/servo 860,8/2
0
0
UV/VIS
1
1
1
DoubleDePol,CommonBeamDepol,RBeamAtt,SBeamAtt,60mm sphere, WB InGaAs Detector
0
0
0
0
Program
Program
3350/servo 860,8/2
3350/0,4 860,8/0,4
3350/0,4 860,8/0,4
0
20.00
 
 
 
0
 
860,8
319,2
860,8
Front
100
on
S:100 R:100
0
0
0
0
 
0
 
 
 
0
 
 
0
0
0
0
0
 
 
 
 
0
0


0
0
#HDR
-1
-1
#GR
nm
%R
1.0
0.0
2200,000000
-1,000000
1951
8
105,982360
6,136157
#DATA
284.000000	6.637100
285.000000	6.619275
286.000000	6.603475
287.000000	6.587961
288.000000	6.572881
289.000000	6.559737
290.000000	6.547668
291.000000	6.535999
292.000000	6.525558
293.000000	6.515227
294.000000	6.506243
295.000000	6.497124
296.000000	6.488999
297.000000	6.478293
298.000000	6.470759
299.000000	6.463188
300.000000	6.455394
301.000000	6.447255
302.000000	6.440738
303.000000	6.434180
304.000000	6.427975
305.000000	6.421820
306.000000	6.416887
307.000000	6.409773
308.000000	6.404547
309.000000	6.398234
310.000000	6.393116
311.000000	6.389427
312.000000	6.382974
313.000000	6.375589
314.000000	6.368531
315.000000	6.362572
316.000000	6.354909
317.000000	6.341219
318.000000	6.327689
319.000000	6.315095
320.000000	6.302632
321.000000	6.290538
322.000000	6.279948
323.000000	6.266403
324.000000	6.251177
325.000000	6.238738
326.000000	6.223157
327.000000	6.209276
328.000000	6.194513
329.000000	6.179471
330.000000	6.162617
331.000000	6.148898
332.000000	6.133672
333.000000	6.117703
334.000000	6.103803
335.000000	6.089787
336.000000	6.077818
337.000000	6.063858
338.000000	6.050182
339.000000	6.038215
340.000000	6.025280
341.000000	6.012070
342.000000	6.000671
343.000000	5.989879
344.000000	5.978610
345.000000	5.968382
346.000000	5.960558
347.000000	5.953310
348.000000	5.946975
349.000000	5.940364
350.000000	5.933941
351.000000	5.929425
352.000000	5.930983
353.000000	5.934414
354.000000	5.938548
355.000000	5.944474
356.000000	5.952042
357.000000	5.960605
358.000000	5.974241
359.000000	5.989566
360.000000	6.004205
361.000000	6.023166
362.000000	6.043226
363.000000	6.067016
364.000000	6.092776
365.000000	6.123299
366.000000	6.154400
367.000000	6.191461
368.000000	6.231648
369.000000	6.273405
370.000000	6.317529
371.000000	6.364335
372.000000	6.418182
373.000000	6.476287
374.000000	6.536357
375.000000	6.601550
376.000000	6.674010
377.000000	6.756037
378.000000	6.842306
379.000000	6.934552
380.000000	7.031085
381.000000	7.130394
382.000000	7.236156
383.000000	7.346933
384.000000	7.463505
385.000000	7.585546
386.000000	7.711801
387.000000	7.842344
388.000000	7.976556
389.000000	8.115802
390.000000	8.258268
391.000000	8.404286
392.000000	8.552735
393.000000	8.704167
394.000000	8.859395
395.000000	9.016912
396.000000	9.176570
397.000000	9.337585
398.000000	9.499517
399.000000	9.662406
400.000000	9.825693
401.000000	9.989213
402.000000	10.150829
403.000000	10.311299
404.000000	10.470856
405.000000	10.630007
406.000000	10.786284
407.000000	10.939886
408.000000	11.090107
409.000000	11.237434
410.000000	11.381903
411.000000	11.520075
412.000000	11.649041
413.000000	11.772854
414.000000	11.891375
415.000000	12.005041
416.000000	12.113044
417.000000	12.215465
418.000000	12.312683
419.000000	12.404816
420.000000	12.492414
421.000000	12.575293
422.000000	12.653734
423.000000	12.728374
424.000000	12.799263
425.000000	12.866683
426.000000	12.930884
427.000000	12.992239
428.000000	13.051330
429.000000	13.108725
430.000000	13.165068
431.000000	13.221303
432.000000	13.277347
433.000000	13.333884
434.000000	13.391549
435.000000	13.450852
436.000000	13.512558
437.000000	13.577077
438.000000	13.644648
439.000000	13.715337
440.000000	13.790155
441.000000	13.870438
442.000000	13.955278
443.000000	14.044955
444.000000	14.139961
445.000000	14.241139
446.000000	14.348407
447.000000	14.460878
448.000000	14.578939
449.000000	14.702999
450.000000	14.832486
451.000000	14.967632
452.000000	15.108601
453.000000	15.254839
454.000000	15.406260
455.000000	15.562066
456.000000	15.722117
457.000000	15.886800
458.000000	16.055353
459.000000	16.227680
460.000000	16.403308
461.000000	16.582424
462.000000	16.764829
463.000000	16.949853
464.000000	17.137239
465.000000	17.326682
466.000000	17.517807
467.000000	17.710862
468.000000	17.905065
469.000000	18.100000
470.000000	18.295563
471.000000	18.491505
472.000000	18.687812
473.000000	18.884506
474.000000	19.081632
475.000000	19.278724
476.000000	19.475384
477.000000	19.672530
478.000000	19.870834
479.000000	20.070130
480.000000	20.269968
481.000000	20.471424
482.000000	20.675308
483.000000	20.883176
484.000000	21.095944
485.000000	21.314361
486.000000	21.539121
487.000000	21.770485
488.000000	22.008321
489.000000	22.254160
490.000000	22.508095
491.000000	22.771983
492.000000	23.045883
493.000000	23.330744
494.000000	23.627498
495.000000	23.937044
496.000000	24.259178
497.000000	24.595105
498.000000	24.946064
499.000000	25.312448
500.000000	25.696010
501.000000	26.097069
502.000000	26.516538
503.000000	26.955530
504.000000	27.414807
505.000000	27.895018
506.000000	28.396927
507.000000	28.920892
508.000000	29.466950
509.000000	30.035182
510.000000	30.626115
511.000000	31.239613
512.000000	31.876392
513.000000	32.535843
514.000000	33.217098
515.000000	33.919265
516.000000	34.641077
517.000000	35.382035
518.000000	36.139400
519.000000	36.911620
520.000000	37.697237
521.000000	38.494467
522.000000	39.301834
523.000000	40.119324
524.000000	40.943426
525.000000	41.772715
526.000000	42.605134
527.000000	43.439040
528.000000	44.272852
529.000000	45.104727
530.000000	45.933687
531.000000	46.758248
532.000000	47.576664
533.000000	48.387296
534.000000	49.188706
535.000000	49.978527
536.000000	50.754917
537.000000	51.515262
538.000000	52.258850
539.000000	52.983472
540.000000	53.687610
541.000000	54.370159
542.000000	55.028880
543.000000	55.662825
544.000000	56.272005
545.000000	56.854433
546.000000	57.412013
547.000000	57.943403
548.000000	58.448217
549.000000	58.926442
550.000000	59.379938
551.000000	59.810486
552.000000	60.218597
553.000000	60.606256
554.000000	60.973991
555.000000	61.321809
556.000000	61.651052
557.000000	61.963538
558.000000	62.257050
559.000000	62.535076
560.000000	62.800297
561.000000	63.050295
562.000000	63.285646
563.000000	63.507510
564.000000	63.715129
565.000000	63.908338
566.000000	64.088670
567.000000	64.257500
568.000000	64.414827
569.000000	64.561141
570.000000	64.696535
571.000000	64.822708
572.000000	64.942436
573.000000	65.054542
574.000000	65.162178
575.000000	65.265018
576.000000	65.362098
577.000000	65.456099
578.000000	65.548004
579.000000	65.636255
580.000000	65.720749
581.000000	65.799071
582.000000	65.871337
583.000000	65.936418
584.000000	65.995588
585.000000	66.046600
586.000000	66.089654
587.000000	66.122416
588.000000	66.143643
589.000000	66.154298
590.000000	66.153962
591.000000	66.142775
592.000000	66.121470
593.000000	66.091764
594.000000	66.053368
595.000000	66.004383
596.000000	65.948241
597.000000	65.885290
598.000000	65.817150
599.000000	65.744586
600.000000	65.668119
601.000000	65.589612
602.000000	65.508512
603.000000	65.426621
604.000000	65.344714
605.000000	65.263336
606.000000	65.183436
607.000000	65.104581
608.000000	65.027893
609.000000	64.951581
610.000000	64.879160
611.000000	64.810747
612.000000	64.748845
613.000000	64.692399
614.000000	64.643933
615.000000	64.605420
616.000000	64.577382
617.000000	64.561154
618.000000	64.557676
619.000000	64.566348
620.000000	64.590361
621.000000	64.629092
622.000000	64.683766
623.000000	64.753814
624.000000	64.838920
625.000000	64.941166
626.000000	65.060217
627.000000	65.192974
628.000000	65.339425
629.000000	65.499166
630.000000	65.671697
631.000000	65.856724
632.000000	66.053072
633.000000	66.260992
634.000000	66.479099
635.000000	66.706433
636.000000	66.943138
637.000000	67.187808
638.000000	67.438180
639.000000	67.694491
640.000000	67.956300
641.000000	68.223521
642.000000	68.494628
643.000000	68.769248
644.000000	69.047333
645.000000	69.325886
646.000000	69.606639
647.000000	69.886415
648.000000	70.164984
649.000000	70.441192
650.000000	70.715415
651.000000	70.985955
652.000000	71.251395
653.000000	71.513142
654.000000	71.771850
655.000000	72.024546
656.000000	72.269404
657.000000	72.507789
658.000000	72.740866
659.000000	72.968724
660.000000	73.191966
661.000000	73.408842
662.000000	73.620974
663.000000	73.829546
664.000000	74.034299
665.000000	74.236456
666.000000	74.434810
667.000000	74.632356
668.000000	74.825058
669.000000	75.017320
670.000000	75.209572
671.000000	75.397478
672.000000	75.583829
673.000000	75.771427
674.000000	75.958193
675.000000	76.143031
676.000000	76.327541
677.000000	76.512535
678.000000	76.695347
679.000000	76.876674
680.000000	77.058818
681.000000	77.239457
682.000000	77.419903
683.000000	77.600579
684.000000	77.782364
685.000000	77.963837
686.000000	78.145355
687.000000	78.327484
688.000000	78.507418
689.000000	78.688169
690.000000	78.869077
691.000000	79.051612
692.000000	79.233809
693.000000	79.415120
694.000000	79.596919
695.000000	79.776488
696.000000	79.954861
697.000000	80.132391
698.000000	80.308366
699.000000	80.483253
700.000000	80.657469
701.000000	80.830757
702.000000	80.999402
703.000000	81.165679
704.000000	81.329162
705.000000	81.490683
706.000000	81.651575
707.000000	81.808982
708.000000	81.963206
709.000000	82.114748
710.000000	82.264284
711.000000	82.411900
712.000000	82.556064
713.000000	82.697921
714.000000	82.839561
715.000000	82.977501
716.000000	83.114479
717.000000	83.247712
718.000000	83.377253
719.000000	83.502381
720.000000	83.626089
721.000000	83.750078
722.000000	83.869876
723.000000	83.988211
724.000000	84.104229
725.000000	84.219190
726.000000	84.331838
727.000000	84.444311
728.000000	84.555992
729.000000	84.664518
730.000000	84.773004
731.000000	84.881952
732.000000	84.989556
733.000000	85.096457
734.000000	85.201429
735.000000	85.302722
736.000000	85.403168
737.000000	85.506135
738.000000	85.609384
739.000000	85.709934
740.000000	85.808008
741.000000	85.902631
742.000000	85.997923
743.000000	86.093283
744.000000	86.188401
745.000000	86.282845
746.000000	86.374439
747.000000	86.464652
748.000000	86.557658
749.000000	86.647958
750.000000	86.736260
751.000000	86.824884
752.000000	86.913867
753.000000	87.005776
754.000000	87.097011
755.000000	87.183743
756.000000	87.269212
757.000000	87.356259
758.000000	87.442870
759.000000	87.525753
760.000000	87.606086
761.000000	87.686603
762.000000	87.766576
763.000000	87.846985
764.000000	87.927676
765.000000	88.006860
766.000000	88.084563
767.000000	88.161320
768.000000	88.236581
769.000000	88.310200
770.000000	88.384832
771.000000	88.460020
772.000000	88.534575
773.000000	88.608319
774.000000	88.682263
775.000000	88.757565
776.000000	88.831138
777.000000	88.904550
778.000000	88.977520
779.000000	89.049210
780.000000	89.120523
781.000000	89.192153
782.000000	89.261564
783.000000	89.327785
784.000000	89.392508
785.000000	89.457023
786.000000	89.521638
787.000000	89.585721
788.000000	89.641913
789.000000	89.697237
790.000000	89.754589
791.000000	89.812413
792.000000	89.868005
793.000000	89.922878
794.000000	89.975849
795.000000	90.029520
796.000000	90.080350
797.000000	90.128830
798.000000	90.178739
799.000000	90.228814
800.000000	90.277721
801.000000	90.325196
802.000000	90.370330
803.000000	90.414578
804.000000	90.459735
805.000000	90.504445
806.000000	90.547229
807.000000	90.588222
808.000000	90.630452
809.000000	90.675170
810.000000	90.716198
811.000000	90.761506
812.000000	90.801236
813.000000	90.838376
814.000000	90.878127
815.000000	90.916694
816.000000	90.954431
817.000000	90.994938
818.000000	91.030223
819.000000	91.066117
820.000000	91.107124
821.000000	91.144020
822.000000	91.180825
823.000000	91.218699
824.000000	91.251569
825.000000	91.282892
826.000000	91.312719
827.000000	91.349541
828.000000	91.385784
829.000000	91.423149
830.000000	91.454627
831.000000	91.483117
832.000000	91.516758
833.000000	91.545386
834.000000	91.572826
835.000000	91.596119
836.000000	91.616369
837.000000	91.639704
838.000000	91.667691
839.000000	91.690531
840.000000	91.714250
841.000000	91.742302
842.000000	91.763035
843.000000	91.783726
844.000000	91.799890
845.000000	91.823661
846.000000	91.841217
847.000000	91.862286
848.000000	91.881914
849.000000	91.901130
850.000000	91.921290
851.000000	91.946698
852.000000	91.962262
853.000000	91.991089
854.000000	92.008349
855.000000	92.031536
856.000000	92.056798
857.000000	92.071012
858.000000	92.093361
859.000000	92.174144
860.000000	92.248572
861.000000	92.317513
862.000000	92.349291
863.000000	92.398613
864.000000	92.471112
865.000000	92.527457
866.000000	92.564693
867.000000	92.624570
868.000000	92.698280
869.000000	92.747232
870.000000	92.821782
871.000000	92.896955
872.000000	92.947285
873.000000	93.002242
874.000000	93.075778
875.000000	93.169445
876.000000	93.214896
877.000000	93.285623
878.000000	93.358972
879.000000	93.434252
880.000000	93.511968
881.000000	93.570163
882.000000	93.617487
883.000000	93.692903
884.000000	93.768228
885.000000	93.844426
886.000000	93.911450
887.000000	93.980966
888.000000	94.068678
889.000000	94.145055
890.000000	94.214654
891.000000	94.266885
892.000000	94.326889
893.000000	94.396821
894.000000	94.433821
895.000000	94.457841
896.000000	94.486691
897.000000	94.530180
898.000000	94.580729
899.000000	94.616019
900.000000	94.658547
901.000000	94.718990
902.000000	94.749669
903.000000	94.756042
904.000000	94.795307
905.000000	94.830753
906.000000	94.853166
907.000000	94.902517
908.000000	94.947987
909.000000	94.983413
910.000000	95.006048
911.000000	95.041889
912.000000	95.025313
913.000000	95.049685
914.000000	95.079885
915.000000	95.092551
916.000000	95.125891
917.000000	95.183921
918.000000	95.207463
919.000000	95.218399
920.000000	95.239306
921.000000	95.253456
922.000000	95.272685
923.000000	95.279300
924.000000	95.291537
925.000000	95.322222
926.000000	95.374337
927.000000	95.409801
928.000000	95.428270
929.000000	95.428792
930.000000	95.440036
931.000000	95.469461
932.000000	95.504165
933.000000	95.546113
934.000000	95.584899
935.000000	95.612379
936.000000	95.641102
937.000000	95.664904
938.000000	95.700318
939.000000	95.733819
940.000000	95.754467
941.000000	95.787594
942.000000	95.821856
943.000000	95.846658
944.000000	95.882163
945.000000	95.884164
946.000000	95.918450
947.000000	96.009305
948.000000	96.037823
949.000000	96.048219
950.000000	96.079181
951.000000	96.106984
952.000000	96.118316
953.000000	96.134633
954.000000	96.168937
955.000000	96.188378
956.000000	96.240757
957.000000	96.278816
958.000000	96.321339
959.000000	96.366791
960.000000	96.372824
961.000000	96.355012
962.000000	96.388550
963.000000	96.414430
964.000000	96.440874
965.000000	96.503247
966.000000	96.506200
967.000000	96.517459
968.000000	96.521160
969.000000	96.508710
970.000000	96.522886
971.000000	96.535041
972.000000	96.549899
973.000000	96.559032
974.000000	96.586118
975.000000	96.597775
976.000000	96.612125
977.000000	96.624045
978.000000	96.644735
979.000000	96.636054
980.000000	96.662494
981.000000	96.690702
982.000000	96.690895
983.000000	96.707943
984.000000	96.732766
985.000000	96.754154
986.000000	96.773337
987.000000	96.787354
988.000000	96.824361
989.000000	96.868073
990.000000	96.894458
991.000000	96.895588
992.000000	96.918390
993.000000	96.920741
994.000000	96.925403
995.000000	96.949780
996.000000	97.001662
997.000000	97.012147
998.000000	97.060676
999.000000	97.120092
1000.000000	97.116835
1001.000000	97.139956
1002.000000	97.157334
1003.000000	97.162222
1004.000000	97.181406
1005.000000	97.203457
1006.000000	97.214470
1007.000000	97.234040
1008.000000	97.276303
1009.000000	97.280515
1010.000000	97.299769
1011.000000	97.314631
1012.000000	97.329752
1013.000000	97.354513
1014.000000	97.380591
1015.000000	97.395880
1016.000000	97.401604
1017.000000	97.402669
1018.000000	97.405640
1019.000000	97.411410
1020.000000	97.411986
1021.000000	97.449212
1022.000000	97.479148
1023.000000	97.481664
1024.000000	97.466493
1025.000000	97.459734
1026.000000	97.467798
1027.000000	97.498901
1028.000000	97.510120
1029.000000	97.530441
1030.000000	97.559622
1031.000000	97.570072
1032.000000	97.568480
1033.000000	97.538292
1034.000000	97.512752
1035.000000	97.529283
1036.000000	97.569789
1037.000000	97.596828
1038.000000	97.622593
1039.000000	97.653624
1040.000000	97.668621
1041.000000	97.691114
1042.000000	97.718053
1043.000000	97.741412
1044.000000	97.765512
1045.000000	97.764941
1046.000000	97.766781
1047.000000	97.795700
1048.000000	97.795812
1049.000000	97.782485
1050.000000	97.761529
1051.000000	97.763382
1052.000000	97.775926
1053.000000	97.787315
1054.000000	97.805061
1055.000000	97.846939
1056.000000	97.832581
1057.000000	97.832524
1058.000000	97.856132
1059.000000	97.874731
1060.000000	97.904256
1061.000000	97.925500
1062.000000	97.906288
1063.000000	97.899965
1064.000000	97.903458
1065.000000	97.925714
1066.000000	97.948975
1067.000000	97.980222
1068.000000	98.007833
1069.000000	98.012337
1070.000000	98.025000
1071.000000	98.000294
1072.000000	98.008623
1073.000000	97.976718
1074.000000	97.947631
1075.000000	97.938424
1076.000000	97.953511
1077.000000	97.944056
1078.000000	97.928931
1079.000000	97.922192
1080.000000	97.941668
1081.000000	97.972881
1082.000000	97.947592
1083.000000	97.965932
1084.000000	97.991088
1085.000000	98.028777
1086.000000	98.039043
1087.000000	98.057088
1088.000000	98.066010
1089.000000	98.069475
1090.000000	98.063623
1091.000000	98.075218
1092.000000	98.085100
1093.000000	98.072559
1094.000000	98.074889
1095.000000	98.095858
1096.000000	98.093192
1097.000000	98.096129
1098.000000	98.120464
1099.000000	98.146294
1100.000000	98.116431
1101.000000	98.085674
1102.000000	98.081348
1103.000000	98.093774
1104.000000	98.104290
1105.000000	98.091500
1106.000000	98.117953
1107.000000	98.126604
1108.000000	98.159963
1109.000000	98.175870
1110.000000	98.187986
1111.000000	98.202621
1112.000000	98.204654
1113.000000	98.227348
1114.000000	98.203273
1115.000000	98.209347
1116.000000	98.186144
1117.000000	98.216901
1118.000000	98.215060
1119.000000	98.224548
1120.000000	98.220903
1121.000000	98.224584
1122.000000	98.238982
1123.000000	98.266557
1124.000000	98.278702
1125.000000	98.289776
1126.000000	98.267932
1127.000000	98.286215
1128.000000	98.314593
1129.000000	98.335529
1130.000000	98.302303
1131.000000	98.301078
1132.000000	98.301989
1133.000000	98.315969
1134.000000	98.337719
1135.000000	98.321936
1136.000000	98.330459
1137.000000	98.344365
1138.000000	98.358552
1139.000000	98.363185
1140.000000	98.374168
1141.000000	98.361575
1142.000000	98.340061
1143.000000	98.316309
1144.000000	98.322521
1145.000000	98.308179
1146.000000	98.303022
1147.000000	98.313620
1148.000000	98.280220
1149.000000	98.319734
1150.000000	98.300463
1151.000000	98.310814
1152.000000	98.297375
1153.000000	98.321043
1154.000000	98.297415
1155.000000	98.334882
1156.000000	98.339819
1157.000000	98.313035
1158.000000	98.275889
1159.000000	98.262008
1160.000000	98.233093
1161.000000	98.242528
1162.000000	98.206612
1163.000000	98.185948
1164.000000	98.159546
1165.000000	98.158254
1166.000000	98.120244
1167.000000	98.129394
1168.000000	98.116965
1169.000000	98.063247
1170.000000	98.062284
1171.000000	98.059400
1172.000000	98.033348
1173.000000	98.004530
1174.000000	97.989742
1175.000000	97.948641
1176.000000	97.943070
1177.000000	97.940377
1178.000000	97.941847
1179.000000	97.946734
1180.000000	97.950718
1181.000000	97.943758
1182.000000	97.917716
1183.000000	97.930242
1184.000000	97.905728
1185.000000	97.866100
1186.000000	97.853995
1187.000000	97.839435
1188.000000	97.817836
1189.000000	97.832328
1190.000000	97.780435
1191.000000	97.775338
1192.000000	97.794605
1193.000000	97.825371
1194.000000	97.803103
1195.000000	97.780056
1196.000000	97.776579
1197.000000	97.763326
1198.000000	97.720035
