PE UV       SUBTECH     SPECTRUM    ASCII       PEDS        4.00        
   -1
C. CHRYSARGYREA #73 MV23.ASC
23/11/14
11:38:59.00
23/11/14
11:38:59.00
Vinicio Soto Monge
2000nm-250nm step: 1nm Gain:20 Integration time: 400 ms
250,000000
1
Lambda 1050
1050L1511233
PerkinElmer UV WinLab 6.3.2.0749 / 2.02.05 Lambda 900 UV/VIS/NIR, Aug  7 2015 09:38:08

0
0
3350/servo 860,8/2
0
0
UV/VIS
1
1
1
DoubleDePol,CommonBeamDepol,RBeamAtt,SBeamAtt,60mm sphere, WB InGaAs Detector
0
0
0
0
Program
Program
3350/servo 860,8/2
3350/0,4 860,8/0,4
3350/0,4 860,8/0,4
0
20.00
 
 
 
0
 
860,8
319,2
860,8
Front
100
on
S:100 R:100
0
0
0
0
 
0
 
 
 
0
 
 
0
0
0
0
0
 
 
 
 
0
0


0
0
#HDR
-1
-1
#GR
nm
%R
1.0
0.0
2000,000000
-1,000000
1751
8
104,620193
5,639638
#DATA
284.000000	6.179175
285.000000	6.164557
286.000000	6.152401
287.000000	6.142337
288.000000	6.130404
289.000000	6.118367
290.000000	6.110211
291.000000	6.101096
292.000000	6.094594
293.000000	6.090227
294.000000	6.086971
295.000000	6.083925
296.000000	6.080391
297.000000	6.077039
298.000000	6.073703
299.000000	6.069889
300.000000	6.067701
301.000000	6.066312
302.000000	6.064634
303.000000	6.062310
304.000000	6.059432
305.000000	6.057061
306.000000	6.054642
307.000000	6.053619
308.000000	6.051777
309.000000	6.049934
310.000000	6.050081
311.000000	6.049401
312.000000	6.050139
313.000000	6.049613
314.000000	6.049197
315.000000	6.047411
316.000000	6.043504
317.000000	6.029898
318.000000	6.022913
319.000000	6.017362
320.000000	6.012072
321.000000	6.004807
322.000000	5.999085
323.000000	5.994535
324.000000	5.994884
325.000000	5.996060
326.000000	5.993053
327.000000	5.992478
328.000000	5.992435
329.000000	5.992770
330.000000	5.993137
331.000000	5.994061
332.000000	5.994912
333.000000	5.998091
334.000000	6.006317
335.000000	6.014721
336.000000	6.026048
337.000000	6.039339
338.000000	6.053357
339.000000	6.069642
340.000000	6.088346
341.000000	6.110042
342.000000	6.133142
343.000000	6.158770
344.000000	6.190194
345.000000	6.222673
346.000000	6.262125
347.000000	6.302147
348.000000	6.345270
349.000000	6.394784
350.000000	6.450484
351.000000	6.512613
352.000000	6.590460
353.000000	6.669946
354.000000	6.755724
355.000000	6.851375
356.000000	6.957426
357.000000	7.070862
358.000000	7.194738
359.000000	7.323996
360.000000	7.463062
361.000000	7.620093
362.000000	7.788343
363.000000	7.969540
364.000000	8.166183
365.000000	8.378531
366.000000	8.607438
367.000000	8.855195
368.000000	9.119844
369.000000	9.400245
370.000000	9.697457
371.000000	10.014755
372.000000	10.350184
373.000000	10.706245
374.000000	11.080422
375.000000	11.473717
376.000000	11.895089
377.000000	12.356038
378.000000	12.836560
379.000000	13.334000
380.000000	13.849546
381.000000	14.380794
382.000000	14.931198
383.000000	15.498524
384.000000	16.079031
385.000000	16.672234
386.000000	17.279045
387.000000	17.895702
388.000000	18.520927
389.000000	19.154081
390.000000	19.790882
391.000000	20.432598
392.000000	21.079612
393.000000	21.728413
394.000000	22.378745
395.000000	23.027145
396.000000	23.670975
397.000000	24.309799
398.000000	24.943082
399.000000	25.568997
400.000000	26.186895
401.000000	26.794860
402.000000	27.389271
403.000000	27.969928
404.000000	28.536485
405.000000	29.088460
406.000000	29.621500
407.000000	30.137699
408.000000	30.636385
409.000000	31.116155
410.000000	31.576080
411.000000	32.006853
412.000000	32.395644
413.000000	32.762412
414.000000	33.106897
415.000000	33.428531
416.000000	33.726151
417.000000	33.999997
418.000000	34.251093
419.000000	34.480380
420.000000	34.687190
421.000000	34.871642
422.000000	35.035284
423.000000	35.177598
424.000000	35.299369
425.000000	35.402787
426.000000	35.487086
427.000000	35.552917
428.000000	35.601961
429.000000	35.635938
430.000000	35.657269
431.000000	35.667397
432.000000	35.666989
433.000000	35.658112
434.000000	35.641782
435.000000	35.620308
436.000000	35.596722
437.000000	35.571517
438.000000	35.545254
439.000000	35.517970
440.000000	35.492680
441.000000	35.469617
442.000000	35.448554
443.000000	35.429522
444.000000	35.412429
445.000000	35.397858
446.000000	35.385529
447.000000	35.374525
448.000000	35.364940
449.000000	35.356756
450.000000	35.349101
451.000000	35.342465
452.000000	35.336614
453.000000	35.330593
454.000000	35.323492
455.000000	35.315498
456.000000	35.305296
457.000000	35.293252
458.000000	35.279071
459.000000	35.263283
460.000000	35.244643
461.000000	35.222143
462.000000	35.196549
463.000000	35.167530
464.000000	35.134406
465.000000	35.096737
466.000000	35.054688
467.000000	35.008163
468.000000	34.956959
469.000000	34.901828
470.000000	34.842414
471.000000	34.777757
472.000000	34.708852
473.000000	34.637612
474.000000	34.564594
475.000000	34.489147
476.000000	34.412106
477.000000	34.333812
478.000000	34.255142
479.000000	34.176652
480.000000	34.096576
481.000000	34.015638
482.000000	33.934289
483.000000	33.852180
484.000000	33.769169
485.000000	33.685476
486.000000	33.600628
487.000000	33.514080
488.000000	33.425581
489.000000	33.336253
490.000000	33.244851
491.000000	33.152643
492.000000	33.060043
493.000000	32.967141
494.000000	32.874207
495.000000	32.782265
496.000000	32.692714
497.000000	32.605201
498.000000	32.522114
499.000000	32.444508
500.000000	32.373085
501.000000	32.308658
502.000000	32.252791
503.000000	32.206157
504.000000	32.168955
505.000000	32.141505
506.000000	32.123931
507.000000	32.116184
508.000000	32.118096
509.000000	32.128957
510.000000	32.147847
511.000000	32.173456
512.000000	32.205821
513.000000	32.244074
514.000000	32.287890
515.000000	32.337964
516.000000	32.392326
517.000000	32.453232
518.000000	32.520203
519.000000	32.594259
520.000000	32.676458
521.000000	32.768871
522.000000	32.872296
523.000000	32.988025
524.000000	33.117036
525.000000	33.262868
526.000000	33.426386
527.000000	33.609981
528.000000	33.816904
529.000000	34.048769
530.000000	34.307673
531.000000	34.594900
532.000000	34.911611
533.000000	35.256482
534.000000	35.629562
535.000000	36.029055
536.000000	36.451846
537.000000	36.893480
538.000000	37.350231
539.000000	37.817284
540.000000	38.290413
541.000000	38.766239
542.000000	39.241751
543.000000	39.713661
544.000000	40.180607
545.000000	40.641785
546.000000	41.096989
547.000000	41.546514
548.000000	41.989040
549.000000	42.425725
550.000000	42.856581
551.000000	43.284478
552.000000	43.708466
553.000000	44.130834
554.000000	44.550686
555.000000	44.968877
556.000000	45.384618
557.000000	45.798608
558.000000	46.210476
559.000000	46.619624
560.000000	47.026109
561.000000	47.427987
562.000000	47.820612
563.000000	48.203654
564.000000	48.574633
565.000000	48.931246
566.000000	49.270722
567.000000	49.591286
568.000000	49.892160
569.000000	50.171885
570.000000	50.431115
571.000000	50.670705
572.000000	50.893814
573.000000	51.102322
574.000000	51.299595
575.000000	51.488216
576.000000	51.670318
577.000000	51.848792
578.000000	52.024870
579.000000	52.200017
580.000000	52.375606
581.000000	52.550616
582.000000	52.726469
583.000000	52.905073
584.000000	53.086848
585.000000	53.272335
586.000000	53.459962
587.000000	53.649590
588.000000	53.838953
589.000000	54.029560
590.000000	54.218815
591.000000	54.407241
592.000000	54.595107
593.000000	54.780548
594.000000	54.962955
595.000000	55.140367
596.000000	55.313734
597.000000	55.483899
598.000000	55.650444
599.000000	55.811598
600.000000	55.966234
601.000000	56.116563
602.000000	56.261512
603.000000	56.401352
604.000000	56.535153
605.000000	56.662819
606.000000	56.784539
607.000000	56.899127
608.000000	57.005961
609.000000	57.102659
610.000000	57.190532
611.000000	57.269231
612.000000	57.339943
613.000000	57.403043
614.000000	57.459960
615.000000	57.512905
616.000000	57.564935
617.000000	57.615462
618.000000	57.666354
619.000000	57.716073
620.000000	57.767422
621.000000	57.819209
622.000000	57.870829
623.000000	57.922334
624.000000	57.971952
625.000000	58.021877
626.000000	58.071182
627.000000	58.118399
628.000000	58.164574
629.000000	58.212025
630.000000	58.260601
631.000000	58.310368
632.000000	58.360238
633.000000	58.411726
634.000000	58.463912
635.000000	58.519439
636.000000	58.577740
637.000000	58.640928
638.000000	58.706589
639.000000	58.778065
640.000000	58.856011
641.000000	58.941223
642.000000	59.034206
643.000000	59.138482
644.000000	59.253840
645.000000	59.379965
646.000000	59.518070
647.000000	59.665972
648.000000	59.823155
649.000000	59.986702
650.000000	60.154802
651.000000	60.323662
652.000000	60.491511
653.000000	60.657681
654.000000	60.823549
655.000000	60.985925
656.000000	61.145985
657.000000	61.304769
658.000000	61.464703
659.000000	61.626809
660.000000	61.791647
661.000000	61.960030
662.000000	62.131778
663.000000	62.309659
664.000000	62.489817
665.000000	62.673589
666.000000	62.859775
667.000000	63.051148
668.000000	63.244067
669.000000	63.442561
670.000000	63.646124
671.000000	63.851778
672.000000	64.059729
673.000000	64.272198
674.000000	64.486332
675.000000	64.701884
676.000000	64.919226
677.000000	65.138055
678.000000	65.355995
679.000000	65.574128
680.000000	65.792660
681.000000	66.009697
682.000000	66.225352
683.000000	66.440862
684.000000	66.657175
685.000000	66.873013
686.000000	67.090155
687.000000	67.309675
688.000000	67.529035
689.000000	67.750312
690.000000	67.973303
691.000000	68.199824
692.000000	68.428794
693.000000	68.659247
694.000000	68.890602
695.000000	69.121640
696.000000	69.352837
697.000000	69.583663
698.000000	69.814319
699.000000	70.046995
700.000000	70.279552
701.000000	70.512029
702.000000	70.742852
703.000000	70.972845
704.000000	71.202234
705.000000	71.430601
706.000000	71.658616
707.000000	71.884855
708.000000	72.110635
709.000000	72.336173
710.000000	72.561369
711.000000	72.786745
712.000000	73.009787
713.000000	73.229602
714.000000	73.450899
715.000000	73.670133
716.000000	73.887410
717.000000	74.103662
718.000000	74.318966
719.000000	74.530780
720.000000	74.742055
721.000000	74.953481
722.000000	75.163973
723.000000	75.375466
724.000000	75.584461
725.000000	75.792076
726.000000	75.998600
727.000000	76.203213
728.000000	76.405715
729.000000	76.605521
730.000000	76.804611
731.000000	77.002567
732.000000	77.200310
733.000000	77.395348
734.000000	77.586468
735.000000	77.773571
736.000000	77.960819
737.000000	78.147999
738.000000	78.333486
739.000000	78.516106
740.000000	78.696377
741.000000	78.875008
742.000000	79.051851
743.000000	79.227209
744.000000	79.400679
745.000000	79.571506
746.000000	79.739638
747.000000	79.905781
748.000000	80.071063
749.000000	80.230910
750.000000	80.388205
751.000000	80.546290
752.000000	80.704412
753.000000	80.862782
754.000000	81.020819
755.000000	81.176398
756.000000	81.329606
757.000000	81.479653
758.000000	81.626603
759.000000	81.769968
760.000000	81.910589
761.000000	82.049679
762.000000	82.188185
763.000000	82.324447
764.000000	82.459894
765.000000	82.593250
766.000000	82.724363
767.000000	82.851479
768.000000	82.976463
769.000000	83.100526
770.000000	83.224621
771.000000	83.346479
772.000000	83.467826
773.000000	83.589370
774.000000	83.709181
775.000000	83.827446
776.000000	83.941631
777.000000	84.055894
778.000000	84.167191
779.000000	84.278337
780.000000	84.389382
781.000000	84.497597
782.000000	84.605562
783.000000	84.713188
784.000000	84.820030
785.000000	84.925285
786.000000	85.028937
787.000000	85.131351
788.000000	85.228831
789.000000	85.324015
790.000000	85.422319
791.000000	85.521629
792.000000	85.619709
793.000000	85.717787
794.000000	85.814849
795.000000	85.911400
796.000000	86.007188
797.000000	86.102569
798.000000	86.197379
799.000000	86.291618
800.000000	86.388373
801.000000	86.481191
802.000000	86.576553
803.000000	86.670574
804.000000	86.763291
805.000000	86.856501
806.000000	86.948016
807.000000	87.038874
808.000000	87.129386
809.000000	87.222078
810.000000	87.309676
811.000000	87.404465
812.000000	87.493996
813.000000	87.586560
814.000000	87.674401
815.000000	87.759720
816.000000	87.844747
817.000000	87.932278
818.000000	88.017689
819.000000	88.100814
820.000000	88.185136
821.000000	88.272367
822.000000	88.356152
823.000000	88.438824
824.000000	88.520868
825.000000	88.599285
826.000000	88.676580
827.000000	88.755711
828.000000	88.836944
829.000000	88.919698
830.000000	88.998056
831.000000	89.069845
832.000000	89.144635
833.000000	89.219833
834.000000	89.296634
835.000000	89.367808
836.000000	89.437266
837.000000	89.501527
838.000000	89.570416
839.000000	89.633253
840.000000	89.700755
841.000000	89.767104
842.000000	89.830226
843.000000	89.889881
844.000000	89.954526
845.000000	90.023682
846.000000	90.080941
847.000000	90.147378
848.000000	90.204125
849.000000	90.262251
850.000000	90.320313
851.000000	90.381636
852.000000	90.435880
853.000000	90.489663
854.000000	90.547019
855.000000	90.604286
856.000000	90.670773
857.000000	90.706726
858.000000	90.762094
859.000000	90.839352
860.000000	90.931274
861.000000	91.019348
862.000000	91.082907
863.000000	91.165011
864.000000	91.239518
865.000000	91.330504
866.000000	91.396346
867.000000	91.480564
868.000000	91.561282
869.000000	91.640742
870.000000	91.723609
871.000000	91.823831
872.000000	91.889932
873.000000	91.962219
874.000000	92.046408
875.000000	92.130748
876.000000	92.207301
877.000000	92.276713
878.000000	92.366699
879.000000	92.473021
880.000000	92.546355
881.000000	92.616754
882.000000	92.701004
883.000000	92.777275
884.000000	92.862422
885.000000	92.935592
886.000000	93.031320
887.000000	93.099365
888.000000	93.182529
889.000000	93.277235
890.000000	93.369311
891.000000	93.430183
892.000000	93.496310
893.000000	93.550491
894.000000	93.610586
895.000000	93.645617
896.000000	93.676322
897.000000	93.699708
898.000000	93.711714
899.000000	93.727827
900.000000	93.742076
901.000000	93.803878
902.000000	93.818262
903.000000	93.834037
904.000000	93.861922
905.000000	93.884562
906.000000	93.887508
907.000000	93.946588
908.000000	93.998478
909.000000	94.033127
910.000000	94.040440
911.000000	94.050757
912.000000	94.058067
913.000000	94.053786
914.000000	94.038287
915.000000	94.055768
916.000000	94.076850
917.000000	94.078611
918.000000	94.081455
919.000000	94.078327
920.000000	94.093495
921.000000	94.080320
922.000000	94.100377
923.000000	94.114531
924.000000	94.116213
925.000000	94.102620
926.000000	94.123937
927.000000	94.148370
928.000000	94.164915
929.000000	94.153581
930.000000	94.154360
931.000000	94.179721
932.000000	94.229747
933.000000	94.262533
934.000000	94.321941
935.000000	94.344284
936.000000	94.346049
937.000000	94.369455
938.000000	94.370582
939.000000	94.357415
940.000000	94.386227
941.000000	94.403822
942.000000	94.410793
943.000000	94.428654
944.000000	94.441738
945.000000	94.455769
946.000000	94.507500
947.000000	94.569733
948.000000	94.596127
949.000000	94.588743
950.000000	94.602710
951.000000	94.617374
952.000000	94.629971
953.000000	94.672858
954.000000	94.718258
955.000000	94.753020
956.000000	94.803650
957.000000	94.840731
958.000000	94.864127
959.000000	94.882486
960.000000	94.900879
961.000000	94.868725
962.000000	94.899314
963.000000	94.921051
964.000000	94.959191
965.000000	94.987196
966.000000	94.983719
967.000000	94.989888
968.000000	95.006745
969.000000	95.000801
970.000000	95.028384
971.000000	95.049081
972.000000	95.069658
973.000000	95.126454
974.000000	95.188048
975.000000	95.188491
976.000000	95.193020
977.000000	95.190475
978.000000	95.177443
979.000000	95.187464
980.000000	95.225500
981.000000	95.227954
982.000000	95.223657
983.000000	95.249515
984.000000	95.308245
985.000000	95.348224
986.000000	95.382805
987.000000	95.411875
988.000000	95.413651
989.000000	95.433782
990.000000	95.452051
991.000000	95.442413
992.000000	95.465711
993.000000	95.493118
994.000000	95.514570
995.000000	95.545135
996.000000	95.600503
997.000000	95.629045
998.000000	95.691930
999.000000	95.737392
1000.000000	95.773301
1001.000000	95.824016
1002.000000	95.867269
1003.000000	95.898990
1004.000000	95.930590
1005.000000	95.954207
1006.000000	95.973516
1007.000000	95.982899
1008.000000	96.007067
1009.000000	96.020713
1010.000000	96.043597
1011.000000	96.084929
1012.000000	96.119590
1013.000000	96.141169
1014.000000	96.158467
1015.000000	96.185096
1016.000000	96.212891
1017.000000	96.247588
1018.000000	96.288034
1019.000000	96.301425
1020.000000	96.306167
1021.000000	96.352450
1022.000000	96.385885
1023.000000	96.407894
1024.000000	96.413968
1025.000000	96.407941
1026.000000	96.424011
1027.000000	96.451600
1028.000000	96.470466
1029.000000	96.475695
1030.000000	96.493116
1031.000000	96.524515
1032.000000	96.537838
1033.000000	96.525813
1034.000000	96.519068
1035.000000	96.531639
1036.000000	96.555117
1037.000000	96.560527
1038.000000	96.574851
1039.000000	96.591489
1040.000000	96.604683
1041.000000	96.645474
1042.000000	96.698019
1043.000000	96.724291
1044.000000	96.755831
1045.000000	96.783536
1046.000000	96.804994
1047.000000	96.840341
1048.000000	96.879227
1049.000000	96.880331
1050.000000	96.865499
1051.000000	96.885422
1052.000000	96.901637
1053.000000	96.894660
1054.000000	96.911335
1055.000000	96.921549
1056.000000	96.896886
1057.000000	96.899313
1058.000000	96.929241
1059.000000	96.951259
1060.000000	96.993648
1061.000000	97.018091
1062.000000	97.008920
1063.000000	97.011049
1064.000000	97.034542
1065.000000	97.054188
1066.000000	97.076802
1067.000000	97.123408
1068.000000	97.137097
1069.000000	97.159387
1070.000000	97.187919
1071.000000	97.196189
1072.000000	97.231740
1073.000000	97.239151
1074.000000	97.253254
1075.000000	97.269008
1076.000000	97.267524
1077.000000	97.253652
1078.000000	97.253493
1079.000000	97.246682
1080.000000	97.257607
1081.000000	97.295258
1082.000000	97.270620
1083.000000	97.312711
1084.000000	97.369942
1085.000000	97.397853
1086.000000	97.400790
1087.000000	97.422626
1088.000000	97.441506
1089.000000	97.459807
1090.000000	97.497868
1091.000000	97.527378
1092.000000	97.519132
1093.000000	97.514004
1094.000000	97.537665
1095.000000	97.566398
1096.000000	97.570832
1097.000000	97.586514
1098.000000	97.597720
1099.000000	97.619015
1100.000000	97.618929
1101.000000	97.632111
1102.000000	97.623152
1103.000000	97.633917
1104.000000	97.624285
1105.000000	97.600523
1106.000000	97.596475
1107.000000	97.597182
1108.000000	97.613205
1109.000000	97.604866
1110.000000	97.613370
1111.000000	97.615925
1112.000000	97.647948
1113.000000	97.686282
1114.000000	97.705720
1115.000000	97.713548
1116.000000	97.677811
1117.000000	97.720719
1118.000000	97.686856
1119.000000	97.669396
1120.000000	97.695871
1121.000000	97.724348
1122.000000	97.750251
1123.000000	97.784381
1124.000000	97.787036
1125.000000	97.784346
1126.000000	97.755645
1127.000000	97.821397
1128.000000	97.871695
1129.000000	97.882056
1130.000000	97.848386
1131.000000	97.847223
1132.000000	97.840454
1133.000000	97.864204
1134.000000	97.940128
1135.000000	97.927979
1136.000000	97.913864
1137.000000	97.912948
1138.000000	97.931183
1139.000000	97.942852
1140.000000	97.975168
1141.000000	97.966193
1142.000000	97.944426
1143.000000	97.946133
1144.000000	97.952692
1145.000000	97.926681
1146.000000	97.965082
1147.000000	97.964283
1148.000000	97.909115
1149.000000	97.926706
1150.000000	97.904970
1151.000000	97.920033
1152.000000	97.925319
1153.000000	97.920617
1154.000000	97.908303
1155.000000	97.911945
1156.000000	97.883724
1157.000000	97.844949
1158.000000	97.811311
1159.000000	97.761413
1160.000000	97.713814
1161.000000	97.724324
1162.000000	97.654480
1163.000000	97.597772
1164.000000	97.544338
1165.000000	97.537718
1166.000000	97.513937
1167.000000	97.495469
1168.000000	97.467699
1169.000000	97.351368
1170.000000	97.318670
1171.000000	97.293223
1172.000000	97.255429
1173.000000	97.214219
1174.000000	97.191448
1175.000000	97.137313
1176.000000	97.101770
1177.000000	97.070449
1178.000000	97.031514
1179.000000	97.026636
1180.000000	97.014623
1181.000000	96.959550
1182.000000	96.941463
1183.000000	96.958337
1184.000000	96.902975
1185.000000	96.863949
1186.000000	96.823083
1187.000000	96.761749
1188.000000	96.747975
1189.000000	96.723409
1190.000000	96.664810
1191.000000	96.620475
1192.000000	96.596710
1193.000000	96.595554
1194.000000	96.597247
