PE UV       SUBTECH     SPECTRUM    ASCII       PEDS        4.00        
   -1
3-NI #001.ASC
23/11/20
16:23:20.00
23/11/20
16:23:20.00
Vinicio Soto Monge

250,000000
1
Lambda 1050
1050L1511233
PerkinElmer UV WinLab 6.3.2.0749 / 2.02.05 Lambda 900 UV/VIS/NIR, Aug  7 2015 09:38:08

0
0
3350/servo 860,8/2
0
0
UV/VIS
1
1
1
DoubleDePol,CommonBeamDepol,RBeamAtt,SBeamAtt,60mm sphere, WB InGaAs Detector
0
0
0
0
Program
Program
3350/servo 860,8/2
3350/0,4 860,8/0,4
3350/0,4 860,8/0,4
0
20.00
 
 
 
0
 
860,8
319,2
860,8
Front
100
on
S:100 R:100
0
0
0
0
 
0
 
 
 
0
 
 
0
0
0
0
0
 
 
 
 
0
0


0
0
#HDR
-1
-1
#GR
nm
%R
1.0
0.0
2200,000000
-1,000000
1951
8
100,873198
7,473757
#DATA
284.000000	7.890996
285.000000	7.866180
286.000000	7.843086
287.000000	7.822131
288.000000	7.803699
289.000000	7.785543
290.000000	7.768330
291.000000	7.752251
292.000000	7.734909
293.000000	7.718903
294.000000	7.703898
295.000000	7.688660
296.000000	7.676032
297.000000	7.663234
298.000000	7.650059
299.000000	7.637585
300.000000	7.627107
301.000000	7.616456
302.000000	7.607328
303.000000	7.598407
304.000000	7.588488
305.000000	7.579530
306.000000	7.569367
307.000000	7.557206
308.000000	7.549061
309.000000	7.537557
310.000000	7.527654
311.000000	7.516335
312.000000	7.504342
313.000000	7.494144
314.000000	7.483335
315.000000	7.472226
316.000000	7.460060
317.000000	7.447797
318.000000	7.438816
319.000000	7.425827
320.000000	7.417057
321.000000	7.408101
322.000000	7.398497
323.000000	7.384440
324.000000	7.373623
325.000000	7.360213
326.000000	7.347910
327.000000	7.337419
328.000000	7.326729
329.000000	7.314395
330.000000	7.303646
331.000000	7.290931
332.000000	7.278245
333.000000	7.265167
334.000000	7.253780
335.000000	7.237154
336.000000	7.222746
337.000000	7.211185
338.000000	7.197180
339.000000	7.182984
340.000000	7.169272
341.000000	7.156214
342.000000	7.144487
343.000000	7.131615
344.000000	7.122811
345.000000	7.112342
346.000000	7.100731
347.000000	7.089113
348.000000	7.077767
349.000000	7.066965
350.000000	7.057157
351.000000	7.048141
352.000000	7.038511
353.000000	7.028690
354.000000	7.021487
355.000000	7.010903
356.000000	7.000135
357.000000	6.989463
358.000000	6.983319
359.000000	6.975093
360.000000	6.968424
361.000000	6.960138
362.000000	6.950236
363.000000	6.939978
364.000000	6.931364
365.000000	6.922530
366.000000	6.914350
367.000000	6.906249
368.000000	6.900635
369.000000	6.890651
370.000000	6.885024
371.000000	6.878867
372.000000	6.869801
373.000000	6.863627
374.000000	6.856699
375.000000	6.850629
376.000000	6.841128
377.000000	6.829878
378.000000	6.817312
379.000000	6.804521
380.000000	6.791057
381.000000	6.779095
382.000000	6.767348
383.000000	6.754754
384.000000	6.742434
385.000000	6.728576
386.000000	6.714720
387.000000	6.701557
388.000000	6.686888
389.000000	6.673171
390.000000	6.658849
391.000000	6.644577
392.000000	6.630832
393.000000	6.615948
394.000000	6.600883
395.000000	6.587312
396.000000	6.573974
397.000000	6.562214
398.000000	6.550044
399.000000	6.536841
400.000000	6.523537
401.000000	6.510482
402.000000	6.498071
403.000000	6.483616
404.000000	6.472342
405.000000	6.459990
406.000000	6.447043
407.000000	6.433482
408.000000	6.419445
409.000000	6.407287
410.000000	6.394735
411.000000	6.384771
412.000000	6.377631
413.000000	6.370629
414.000000	6.363499
415.000000	6.356602
416.000000	6.350006
417.000000	6.343722
418.000000	6.337472
419.000000	6.331075
420.000000	6.325413
421.000000	6.319741
422.000000	6.314158
423.000000	6.308528
424.000000	6.303173
425.000000	6.298055
426.000000	6.292846
427.000000	6.287773
428.000000	6.282655
429.000000	6.277767
430.000000	6.272874
431.000000	6.268097
432.000000	6.263496
433.000000	6.258990
434.000000	6.254442
435.000000	6.249981
436.000000	6.245589
437.000000	6.241189
438.000000	6.236945
439.000000	6.232631
440.000000	6.228412
441.000000	6.224562
442.000000	6.220757
443.000000	6.216907
444.000000	6.213169
445.000000	6.209222
446.000000	6.205235
447.000000	6.201356
448.000000	6.197737
449.000000	6.193935
450.000000	6.189797
451.000000	6.185805
452.000000	6.182217
453.000000	6.178555
454.000000	6.174819
455.000000	6.170994
456.000000	6.167101
457.000000	6.163220
458.000000	6.159694
459.000000	6.156240
460.000000	6.152783
461.000000	6.149367
462.000000	6.146172
463.000000	6.142972
464.000000	6.139541
465.000000	6.136345
466.000000	6.133181
467.000000	6.129890
468.000000	6.126810
469.000000	6.124015
470.000000	6.121454
471.000000	6.119085
472.000000	6.117020
473.000000	6.115274
474.000000	6.113911
475.000000	6.112448
476.000000	6.110933
477.000000	6.110217
478.000000	6.110168
479.000000	6.110385
480.000000	6.111157
481.000000	6.112563
482.000000	6.114652
483.000000	6.117422
484.000000	6.121002
485.000000	6.125365
486.000000	6.130298
487.000000	6.135903
488.000000	6.142622
489.000000	6.150516
490.000000	6.159302
491.000000	6.168921
492.000000	6.179587
493.000000	6.190913
494.000000	6.203335
495.000000	6.216997
496.000000	6.232197
497.000000	6.248913
498.000000	6.267320
499.000000	6.287678
500.000000	6.309678
501.000000	6.333634
502.000000	6.360145
503.000000	6.389074
504.000000	6.420392
505.000000	6.454504
506.000000	6.491482
507.000000	6.531287
508.000000	6.573667
509.000000	6.618900
510.000000	6.667231
511.000000	6.718881
512.000000	6.773212
513.000000	6.830556
514.000000	6.891199
515.000000	6.955017
516.000000	7.021583
517.000000	7.090817
518.000000	7.163071
519.000000	7.238168
520.000000	7.316160
521.000000	7.397249
522.000000	7.481157
523.000000	7.567773
524.000000	7.657051
525.000000	7.748905
526.000000	7.843387
527.000000	7.940326
528.000000	8.040105
529.000000	8.142180
530.000000	8.246298
531.000000	8.352457
532.000000	8.460489
533.000000	8.569926
534.000000	8.680521
535.000000	8.792163
536.000000	8.904659
537.000000	9.017457
538.000000	9.129738
539.000000	9.241848
540.000000	9.352997
541.000000	9.462834
542.000000	9.571244
543.000000	9.677880
544.000000	9.782106
545.000000	9.883859
546.000000	9.982648
547.000000	10.078401
548.000000	10.170723
549.000000	10.258872
550.000000	10.342990
551.000000	10.423339
552.000000	10.499727
553.000000	10.572073
554.000000	10.640426
555.000000	10.704690
556.000000	10.764939
557.000000	10.821377
558.000000	10.874267
559.000000	10.923644
560.000000	10.969581
561.000000	11.012624
562.000000	11.052733
563.000000	11.089849
564.000000	11.124264
565.000000	11.156112
566.000000	11.185314
567.000000	11.212452
568.000000	11.237375
569.000000	11.260486
570.000000	11.281716
571.000000	11.300876
572.000000	11.318358
573.000000	11.334566
574.000000	11.349386
575.000000	11.362822
576.000000	11.375190
577.000000	11.386424
578.000000	11.396878
579.000000	11.407012
580.000000	11.416182
581.000000	11.424367
582.000000	11.432434
583.000000	11.440155
584.000000	11.448547
585.000000	11.456508
586.000000	11.464845
587.000000	11.473569
588.000000	11.482767
589.000000	11.492239
590.000000	11.501988
591.000000	11.511940
592.000000	11.521940
593.000000	11.531647
594.000000	11.541591
595.000000	11.551679
596.000000	11.561521
597.000000	11.570753
598.000000	11.580008
599.000000	11.588880
600.000000	11.597607
601.000000	11.605710
602.000000	11.614056
603.000000	11.622468
604.000000	11.631009
605.000000	11.639776
606.000000	11.649445
607.000000	11.659874
608.000000	11.671230
609.000000	11.683951
610.000000	11.698153
611.000000	11.714141
612.000000	11.732275
613.000000	11.752445
614.000000	11.774989
615.000000	11.801074
616.000000	11.830152
617.000000	11.862218
618.000000	11.898243
619.000000	11.937134
620.000000	11.980097
621.000000	12.026977
622.000000	12.077854
623.000000	12.132982
624.000000	12.192312
625.000000	12.256207
626.000000	12.324355
627.000000	12.397105
628.000000	12.474958
629.000000	12.556850
630.000000	12.643596
631.000000	12.735347
632.000000	12.831937
633.000000	12.933442
634.000000	13.039809
635.000000	13.150947
636.000000	13.267198
637.000000	13.387533
638.000000	13.512321
639.000000	13.641944
640.000000	13.776255
641.000000	13.914745
642.000000	14.057199
643.000000	14.204640
644.000000	14.355864
645.000000	14.511306
646.000000	14.670712
647.000000	14.833752
648.000000	15.000590
649.000000	15.171629
650.000000	15.346140
651.000000	15.525105
652.000000	15.707653
653.000000	15.893251
654.000000	16.083005
655.000000	16.276150
656.000000	16.472334
657.000000	16.671571
658.000000	16.873496
659.000000	17.078410
660.000000	17.285866
661.000000	17.496333
662.000000	17.709098
663.000000	17.924291
664.000000	18.142592
665.000000	18.363302
666.000000	18.585918
667.000000	18.811139
668.000000	19.038753
669.000000	19.268251
670.000000	19.499796
671.000000	19.733173
672.000000	19.968719
673.000000	20.206387
674.000000	20.445402
675.000000	20.686016
676.000000	20.928410
677.000000	21.171854
678.000000	21.416439
679.000000	21.662939
680.000000	21.911182
681.000000	22.160695
682.000000	22.411916
683.000000	22.665242
684.000000	22.918888
685.000000	23.173030
686.000000	23.428006
687.000000	23.683519
688.000000	23.940057
689.000000	24.197919
690.000000	24.456817
691.000000	24.717565
692.000000	24.978995
693.000000	25.240731
694.000000	25.503820
695.000000	25.767394
696.000000	26.032541
697.000000	26.298513
698.000000	26.564442
699.000000	26.830797
700.000000	27.098278
701.000000	27.366851
702.000000	27.636185
703.000000	27.905009
704.000000	28.174793
705.000000	28.444359
706.000000	28.715365
707.000000	28.986910
708.000000	29.259032
709.000000	29.531496
710.000000	29.804077
711.000000	30.077364
712.000000	30.351911
713.000000	30.626735
714.000000	30.901724
715.000000	31.176004
716.000000	31.450677
717.000000	31.725999
718.000000	32.001077
719.000000	32.276538
720.000000	32.553169
721.000000	32.830457
722.000000	33.107788
723.000000	33.385137
724.000000	33.662473
725.000000	33.938824
726.000000	34.214125
727.000000	34.490689
728.000000	34.768326
729.000000	35.045178
730.000000	35.323198
731.000000	35.600724
732.000000	35.877921
733.000000	36.154926
734.000000	36.430684
735.000000	36.707334
736.000000	36.984123
737.000000	37.260138
738.000000	37.537531
739.000000	37.813988
740.000000	38.090674
741.000000	38.366797
742.000000	38.642445
743.000000	38.918088
744.000000	39.192650
745.000000	39.467431
746.000000	39.742012
747.000000	40.015786
748.000000	40.290870
749.000000	40.565766
750.000000	40.840277
751.000000	41.115133
752.000000	41.389672
753.000000	41.663400
754.000000	41.936090
755.000000	42.208223
756.000000	42.480030
757.000000	42.751541
758.000000	43.022238
759.000000	43.290473
760.000000	43.559302
761.000000	43.829029
762.000000	44.097778
763.000000	44.365954
764.000000	44.634290
765.000000	44.901921
766.000000	45.169186
767.000000	45.435416
768.000000	45.701129
769.000000	45.969341
770.000000	46.234976
771.000000	46.498948
772.000000	46.762658
773.000000	47.025600
774.000000	47.288548
775.000000	47.551131
776.000000	47.813066
777.000000	48.074788
778.000000	48.335144
779.000000	48.594524
780.000000	48.855376
781.000000	49.113793
782.000000	49.372054
783.000000	49.627809
784.000000	49.883205
785.000000	50.139203
786.000000	50.392782
787.000000	50.644369
788.000000	50.894142
789.000000	51.146046
790.000000	51.398054
791.000000	51.649428
792.000000	51.898257
793.000000	52.146530
794.000000	52.395875
795.000000	52.643220
796.000000	52.892262
797.000000	53.139770
798.000000	53.385856
799.000000	53.630967
800.000000	53.875734
801.000000	54.120494
802.000000	54.364638
803.000000	54.608819
804.000000	54.851113
805.000000	55.091024
806.000000	55.331773
807.000000	55.570504
808.000000	55.808431
809.000000	56.045346
810.000000	56.280693
811.000000	56.515699
812.000000	56.750150
813.000000	56.984894
814.000000	57.220458
815.000000	57.453410
816.000000	57.684689
817.000000	57.916501
818.000000	58.147163
819.000000	58.374840
820.000000	58.602668
821.000000	58.831784
822.000000	59.056714
823.000000	59.284221
824.000000	59.506051
825.000000	59.724994
826.000000	59.944268
827.000000	60.165976
828.000000	60.386312
829.000000	60.608232
830.000000	60.830715
831.000000	61.046606
832.000000	61.263138
833.000000	61.478982
834.000000	61.692617
835.000000	61.910822
836.000000	62.121831
837.000000	62.330242
838.000000	62.542355
839.000000	62.752072
840.000000	62.959252
841.000000	63.165477
842.000000	63.367687
843.000000	63.565696
844.000000	63.776262
845.000000	63.985488
846.000000	64.186988
847.000000	64.390097
848.000000	64.588503
849.000000	64.785186
850.000000	64.973680
851.000000	65.170929
852.000000	65.366539
853.000000	65.563425
854.000000	65.754607
855.000000	65.940276
856.000000	66.135201
857.000000	66.328830
858.000000	66.540377
859.000000	66.774489
860.000000	66.993034
861.000000	67.238869
862.000000	67.444740
863.000000	67.639132
864.000000	67.856080
865.000000	68.077699
866.000000	68.272605
867.000000	68.490480
868.000000	68.690781
869.000000	68.890922
870.000000	69.100519
871.000000	69.289858
872.000000	69.486912
873.000000	69.721864
874.000000	69.917218
875.000000	70.122563
876.000000	70.325130
877.000000	70.524852
878.000000	70.732414
879.000000	70.918078
880.000000	71.097761
881.000000	71.296766
882.000000	71.491700
883.000000	71.696022
884.000000	71.903952
885.000000	72.110997
886.000000	72.290140
887.000000	72.483275
888.000000	72.668477
889.000000	72.885019
890.000000	73.069626
891.000000	73.238431
892.000000	73.412695
893.000000	73.582396
894.000000	73.729091
895.000000	73.887454
896.000000	74.019352
897.000000	74.182317
898.000000	74.345607
899.000000	74.474495
900.000000	74.630794
901.000000	74.795854
902.000000	74.941914
903.000000	75.096031
904.000000	75.251615
905.000000	75.381829
906.000000	75.527879
907.000000	75.672116
908.000000	75.790759
909.000000	75.956946
910.000000	76.090481
911.000000	76.226463
912.000000	76.377629
913.000000	76.527238
914.000000	76.708554
915.000000	76.862871
916.000000	77.000779
917.000000	77.131832
918.000000	77.253923
919.000000	77.380425
920.000000	77.512305
921.000000	77.676790
922.000000	77.791347
923.000000	77.918312
924.000000	78.008794
925.000000	78.162373
926.000000	78.318982
927.000000	78.465100
928.000000	78.569317
929.000000	78.673855
930.000000	78.804077
931.000000	78.916480
932.000000	79.019694
933.000000	79.159984
934.000000	79.297616
935.000000	79.403852
936.000000	79.543047
937.000000	79.651278
938.000000	79.755544
939.000000	79.897093
940.000000	80.046766
941.000000	80.187643
942.000000	80.338610
943.000000	80.439428
944.000000	80.544563
945.000000	80.678152
946.000000	80.826370
947.000000	80.956498
948.000000	81.050796
949.000000	81.118720
950.000000	81.224178
951.000000	81.318884
952.000000	81.401075
953.000000	81.523818
954.000000	81.636263
955.000000	81.720762
956.000000	81.807023
957.000000	81.917213
958.000000	82.015957
959.000000	82.137700
960.000000	82.222556
961.000000	82.314836
962.000000	82.428253
963.000000	82.554955
964.000000	82.672850
965.000000	82.781034
966.000000	82.879896
967.000000	82.995912
968.000000	83.073128
969.000000	83.177118
970.000000	83.290355
971.000000	83.365100
972.000000	83.476980
973.000000	83.587150
974.000000	83.651397
975.000000	83.736504
976.000000	83.843338
977.000000	83.926783
978.000000	84.015531
979.000000	84.090777
980.000000	84.160393
981.000000	84.215731
982.000000	84.297711
983.000000	84.398540
984.000000	84.496407
985.000000	84.594232
986.000000	84.714201
987.000000	84.846386
988.000000	84.938902
989.000000	85.025718
990.000000	85.116659
991.000000	85.217132
992.000000	85.335254
993.000000	85.458775
994.000000	85.553460
995.000000	85.656861
996.000000	85.766486
997.000000	85.860258
998.000000	85.953177
999.000000	86.064743
1000.000000	86.174835
1001.000000	86.282178
1002.000000	86.369095
1003.000000	86.465888
1004.000000	86.536502
1005.000000	86.598358
1006.000000	86.674173
1007.000000	86.759744
1008.000000	86.870767
1009.000000	86.962896
1010.000000	87.033851
1011.000000	87.118685
1012.000000	87.183821
1013.000000	87.264293
1014.000000	87.362630
1015.000000	87.453652
1016.000000	87.550755
1017.000000	87.634949
1018.000000	87.725609
1019.000000	87.803331
1020.000000	87.879576
1021.000000	87.938788
1022.000000	87.997019
1023.000000	88.071755
1024.000000	88.163036
1025.000000	88.254458
1026.000000	88.309432
1027.000000	88.369529
1028.000000	88.421272
1029.000000	88.458054
1030.000000	88.533392
1031.000000	88.589136
1032.000000	88.631152
1033.000000	88.686726
1034.000000	88.730234
1035.000000	88.746033
1036.000000	88.802667
1037.000000	88.877344
1038.000000	88.954874
1039.000000	89.051421
1040.000000	89.135021
1041.000000	89.205654
1042.000000	89.276508
1043.000000	89.355488
1044.000000	89.444645
1045.000000	89.524585
1046.000000	89.568940
1047.000000	89.651404
1048.000000	89.758147
1049.000000	89.824527
1050.000000	89.870962
1051.000000	89.906387
1052.000000	89.960673
1053.000000	90.019845
1054.000000	90.088187
1055.000000	90.162888
1056.000000	90.227927
1057.000000	90.294198
1058.000000	90.336258
1059.000000	90.353607
1060.000000	90.402435
1061.000000	90.462922
1062.000000	90.510199
1063.000000	90.547235
1064.000000	90.628037
1065.000000	90.666456
1066.000000	90.718850
1067.000000	90.787796
1068.000000	90.839763
1069.000000	90.911292
1070.000000	91.000402
1071.000000	91.051146
1072.000000	91.082041
1073.000000	91.115020
1074.000000	91.158672
1075.000000	91.207314
1076.000000	91.285510
1077.000000	91.328059
1078.000000	91.338122
1079.000000	91.368768
1080.000000	91.413938
1081.000000	91.455785
1082.000000	91.487973
1083.000000	91.521732
1084.000000	91.579261
1085.000000	91.646939
1086.000000	91.723011
1087.000000	91.752503
1088.000000	91.784410
1089.000000	91.822127
1090.000000	91.857933
1091.000000	91.909486
1092.000000	91.966772
1093.000000	92.037344
1094.000000	92.123707
1095.000000	92.186374
1096.000000	92.244527
1097.000000	92.289642
1098.000000	92.360928
1099.000000	92.415665
1100.000000	92.453956
1101.000000	92.478166
1102.000000	92.526119
1103.000000	92.564453
1104.000000	92.614829
1105.000000	92.619863
1106.000000	92.662013
1107.000000	92.726677
1108.000000	92.782737
1109.000000	92.856112
1110.000000	92.865275
1111.000000	92.882974
1112.000000	92.915529
1113.000000	92.961189
1114.000000	93.002967
1115.000000	93.033849
1116.000000	93.074483
1117.000000	93.104136
1118.000000	93.138603
1119.000000	93.158237
1120.000000	93.205235
1121.000000	93.259136
1122.000000	93.353429
1123.000000	93.448131
1124.000000	93.516240
1125.000000	93.565855
1126.000000	93.582208
1127.000000	93.615034
1128.000000	93.651388
1129.000000	93.699406
1130.000000	93.719508
1131.000000	93.741930
1132.000000	93.765916
1133.000000	93.790682
1134.000000	93.855357
1135.000000	93.900786
1136.000000	93.961147
1137.000000	93.981737
1138.000000	94.039562
1139.000000	94.035383
1140.000000	94.079893
1141.000000	94.108113
1142.000000	94.129656
1143.000000	94.134840
1144.000000	94.130498
1145.000000	94.205561
1146.000000	94.251033
1147.000000	94.271748
1148.000000	94.324318
1149.000000	94.352866
1150.000000	94.368595
1151.000000	94.406112
1152.000000	94.468506
1153.000000	94.474339
1154.000000	94.491096
1155.000000	94.503805
1156.000000	94.532983
1157.000000	94.522393
1158.000000	94.481872
1159.000000	94.433940
1160.000000	94.419275
1161.000000	94.456136
1162.000000	94.469655
1163.000000	94.450836
1164.000000	94.419647
1165.000000	94.449266
1166.000000	94.459044
1167.000000	94.480506
1168.000000	94.445364
1169.000000	94.365759
1170.000000	94.323079
1171.000000	94.320712
1172.000000	94.319187
1173.000000	94.312506
1174.000000	94.351349
1175.000000	94.347663
1176.000000	94.330792
1177.000000	94.332472
1178.000000	94.354245
1179.000000	94.348662
1180.000000	94.353806
1181.000000	94.373121
1182.000000	94.399916
1183.000000	94.385857
1184.000000	94.417784
1185.000000	94.440011
1186.000000	94.416870
1187.000000	94.383606
1188.000000	94.397945
1189.000000	94.394186
1190.000000	94.401252
1191.000000	94.359809
1192.000000	94.344821
1193.000000	94.331891
1194.000000	94.378952
1195.000000	94.398053
1196.000000	94.387812
1197.000000	94.385742
1198.000000	94.431039
1199.000000	94.465515
1200.000000	94.478423
1201.000000	94.500904
1202.000000	94.490113
1203.000000	94.544682
1204.000000	94.592258
1205.000000	94.649644
