PE UV       SUBTECH     SPECTRUM    ASCII       PEDS        4.00        
   -1
3-NI #2.ASC
23/11/20
15:22:41.00
23/11/20
15:22:41.00
Vinicio Soto Monge

250,000000
1
Lambda 1050
1050L1511233
PerkinElmer UV WinLab 6.3.2.0749 / 2.02.05 Lambda 900 UV/VIS/NIR, Aug  7 2015 09:38:08

0
0
3350/servo 860,8/2
0
0
UV/VIS
1
1
1
DoubleDePol,CommonBeamDepol,RBeamAtt,SBeamAtt,60mm sphere, WB InGaAs Detector
0
0
0
0
Program
Program
3350/servo 860,8/2
3350/0,4 860,8/0,4
3350/0,4 860,8/0,4
0
20.00
 
 
 
0
 
860,8
319,2
860,8
Front
100
on
S:100 R:100
0
0
0
0
 
0
 
 
 
0
 
 
0
0
0
0
0
 
 
 
 
0
0


0
0
#HDR
-1
-1
#GR
nm
%R
1.0
0.0
2200,000000
-1,000000
1951
8
98,685777
5,673864
#DATA
284.000000	8.005638
285.000000	7.968650
286.000000	7.932074
287.000000	7.900582
288.000000	7.870328
289.000000	7.840560
290.000000	7.813975
291.000000	7.789023
292.000000	7.764117
293.000000	7.739200
294.000000	7.716844
295.000000	7.695424
296.000000	7.676858
297.000000	7.660760
298.000000	7.646055
299.000000	7.629227
300.000000	7.615607
301.000000	7.601881
302.000000	7.590138
303.000000	7.577682
304.000000	7.564748
305.000000	7.553117
306.000000	7.539426
307.000000	7.526303
308.000000	7.514448
309.000000	7.500231
310.000000	7.488637
311.000000	7.475176
312.000000	7.462369
313.000000	7.451011
314.000000	7.437902
315.000000	7.424533
316.000000	7.411906
317.000000	7.396913
318.000000	7.378647
319.000000	7.362276
320.000000	7.350137
321.000000	7.334959
322.000000	7.320543
323.000000	7.301886
324.000000	7.284805
325.000000	7.263961
326.000000	7.242919
327.000000	7.222485
328.000000	7.201983
329.000000	7.180437
330.000000	7.160731
331.000000	7.137001
332.000000	7.112891
333.000000	7.088778
334.000000	7.068728
335.000000	7.044583
336.000000	7.023504
337.000000	7.002559
338.000000	6.983889
339.000000	6.962807
340.000000	6.940887
341.000000	6.920950
342.000000	6.901915
343.000000	6.883919
344.000000	6.867346
345.000000	6.850778
346.000000	6.835021
347.000000	6.816936
348.000000	6.799331
349.000000	6.782428
350.000000	6.766486
351.000000	6.749746
352.000000	6.735520
353.000000	6.724659
354.000000	6.713446
355.000000	6.698114
356.000000	6.686233
357.000000	6.670622
358.000000	6.662057
359.000000	6.652865
360.000000	6.644577
361.000000	6.633521
362.000000	6.622814
363.000000	6.612384
364.000000	6.603794
365.000000	6.593605
366.000000	6.585938
367.000000	6.578329
368.000000	6.569759
369.000000	6.558723
370.000000	6.549342
371.000000	6.539235
372.000000	6.527871
373.000000	6.516064
374.000000	6.507180
375.000000	6.497722
376.000000	6.485491
377.000000	6.473520
378.000000	6.460342
379.000000	6.448013
380.000000	6.435158
381.000000	6.421558
382.000000	6.409611
383.000000	6.398060
384.000000	6.386200
385.000000	6.373524
386.000000	6.360798
387.000000	6.348719
388.000000	6.336858
389.000000	6.323916
390.000000	6.310688
391.000000	6.298404
392.000000	6.286869
393.000000	6.273077
394.000000	6.258953
395.000000	6.246198
396.000000	6.235361
397.000000	6.224645
398.000000	6.213541
399.000000	6.200932
400.000000	6.188649
401.000000	6.176726
402.000000	6.164881
403.000000	6.153286
404.000000	6.142357
405.000000	6.132185
406.000000	6.121179
407.000000	6.110379
408.000000	6.099795
409.000000	6.088378
410.000000	6.078923
411.000000	6.071032
412.000000	6.062717
413.000000	6.054930
414.000000	6.047045
415.000000	6.039287
416.000000	6.032297
417.000000	6.025229
418.000000	6.018220
419.000000	6.011132
420.000000	6.004368
421.000000	5.998263
422.000000	5.992624
423.000000	5.987253
424.000000	5.981824
425.000000	5.976540
426.000000	5.971006
427.000000	5.965300
428.000000	5.960276
429.000000	5.955592
430.000000	5.950840
431.000000	5.946203
432.000000	5.941786
433.000000	5.937930
434.000000	5.934286
435.000000	5.930611
436.000000	5.926986
437.000000	5.923807
438.000000	5.920876
439.000000	5.918253
440.000000	5.915538
441.000000	5.913287
442.000000	5.911577
443.000000	5.909933
444.000000	5.908705
445.000000	5.907590
446.000000	5.906738
447.000000	5.906160
448.000000	5.905716
449.000000	5.905827
450.000000	5.906194
451.000000	5.906864
452.000000	5.908267
453.000000	5.910229
454.000000	5.912584
455.000000	5.915351
456.000000	5.918509
457.000000	5.922157
458.000000	5.926680
459.000000	5.932321
460.000000	5.938858
461.000000	5.946693
462.000000	5.956049
463.000000	5.966613
464.000000	5.978752
465.000000	5.992977
466.000000	6.009428
467.000000	6.028064
468.000000	6.049171
469.000000	6.073606
470.000000	6.101448
471.000000	6.133124
472.000000	6.168940
473.000000	6.209265
474.000000	6.254641
475.000000	6.305839
476.000000	6.363306
477.000000	6.427702
478.000000	6.499787
479.000000	6.580061
480.000000	6.668710
481.000000	6.765884
482.000000	6.872062
483.000000	6.988452
484.000000	7.115403
485.000000	7.253277
486.000000	7.402688
487.000000	7.563739
488.000000	7.737046
489.000000	7.923297
490.000000	8.123183
491.000000	8.336398
492.000000	8.563061
493.000000	8.802833
494.000000	9.056200
495.000000	9.322228
496.000000	9.600417
497.000000	9.889864
498.000000	10.190077
499.000000	10.500213
500.000000	10.818722
501.000000	11.144439
502.000000	11.476810
503.000000	11.814411
504.000000	12.156162
505.000000	12.500967
506.000000	12.847263
507.000000	13.193735
508.000000	13.538816
509.000000	13.880827
510.000000	14.218308
511.000000	14.549285
512.000000	14.872185
513.000000	15.185359
514.000000	15.487250
515.000000	15.776567
516.000000	16.051648
517.000000	16.310729
518.000000	16.552205
519.000000	16.774887
520.000000	16.977577
521.000000	17.158929
522.000000	17.318340
523.000000	17.454466
524.000000	17.566203
525.000000	17.652807
526.000000	17.714340
527.000000	17.750608
528.000000	17.762116
529.000000	17.748282
530.000000	17.709789
531.000000	17.647267
532.000000	17.561322
533.000000	17.452690
534.000000	17.322318
535.000000	17.171349
536.000000	17.001600
537.000000	16.813731
538.000000	16.608768
539.000000	16.387828
540.000000	16.151895
541.000000	15.902770
542.000000	15.641902
543.000000	15.370327
544.000000	15.089695
545.000000	14.801350
546.000000	14.507058
547.000000	14.207937
548.000000	13.905469
549.000000	13.600744
550.000000	13.294957
551.000000	12.989882
552.000000	12.687035
553.000000	12.387242
554.000000	12.091366
555.000000	11.800311
556.000000	11.515618
557.000000	11.237405
558.000000	10.966659
559.000000	10.704146
560.000000	10.449639
561.000000	10.203783
562.000000	9.966972
563.000000	9.738891
564.000000	9.519719
565.000000	9.309795
566.000000	9.108930
567.000000	8.917768
568.000000	8.735543
569.000000	8.562281
570.000000	8.398101
571.000000	8.242349
572.000000	8.094881
573.000000	7.955610
574.000000	7.824129
575.000000	7.700547
576.000000	7.584188
577.000000	7.474737
578.000000	7.372616
579.000000	7.277086
580.000000	7.187653
581.000000	7.103878
582.000000	7.025924
583.000000	6.953052
584.000000	6.885420
585.000000	6.822865
586.000000	6.765406
587.000000	6.712486
588.000000	6.664299
589.000000	6.620313
590.000000	6.580650
591.000000	6.544236
592.000000	6.511707
593.000000	6.482390
594.000000	6.456456
595.000000	6.433925
596.000000	6.414465
597.000000	6.397595
598.000000	6.383505
599.000000	6.372291
600.000000	6.363120
601.000000	6.356487
602.000000	6.352132
603.000000	6.350045
604.000000	6.350096
605.000000	6.351875
606.000000	6.355249
607.000000	6.360670
608.000000	6.367623
609.000000	6.376179
610.000000	6.386185
611.000000	6.398122
612.000000	6.411462
613.000000	6.426047
614.000000	6.442016
615.000000	6.459705
616.000000	6.478583
617.000000	6.498481
618.000000	6.519892
619.000000	6.542676
620.000000	6.566290
621.000000	6.590767
622.000000	6.617067
623.000000	6.644051
624.000000	6.672039
625.000000	6.700875
626.000000	6.731244
627.000000	6.762570
628.000000	6.794935
629.000000	6.827895
630.000000	6.862360
631.000000	6.897973
632.000000	6.934568
633.000000	6.972204
634.000000	7.010532
635.000000	7.050373
636.000000	7.091154
637.000000	7.132845
638.000000	7.175374
639.000000	7.218955
640.000000	7.263503
641.000000	7.309260
642.000000	7.355836
643.000000	7.403690
644.000000	7.452302
645.000000	7.502386
646.000000	7.552993
647.000000	7.604790
648.000000	7.657822
649.000000	7.711725
650.000000	7.766218
651.000000	7.822385
652.000000	7.879527
653.000000	7.938046
654.000000	7.997200
655.000000	8.057577
656.000000	8.119236
657.000000	8.181263
658.000000	8.244548
659.000000	8.309127
660.000000	8.375204
661.000000	8.441844
662.000000	8.509678
663.000000	8.578824
664.000000	8.649009
665.000000	8.719996
666.000000	8.792100
667.000000	8.865504
668.000000	8.939949
669.000000	9.015623
670.000000	9.092335
671.000000	9.169747
672.000000	9.248309
673.000000	9.328524
674.000000	9.409673
675.000000	9.492203
676.000000	9.575637
677.000000	9.660066
678.000000	9.745523
679.000000	9.832833
680.000000	9.920834
681.000000	10.009962
682.000000	10.099853
683.000000	10.190614
684.000000	10.282719
685.000000	10.376225
686.000000	10.470224
687.000000	10.565112
688.000000	10.660209
689.000000	10.756972
690.000000	10.854990
691.000000	10.954454
692.000000	11.055145
693.000000	11.156933
694.000000	11.260193
695.000000	11.364215
696.000000	11.469625
697.000000	11.575559
698.000000	11.682240
699.000000	11.790573
700.000000	11.900282
701.000000	12.011005
702.000000	12.122521
703.000000	12.235106
704.000000	12.348687
705.000000	12.463551
706.000000	12.579822
707.000000	12.696817
708.000000	12.814405
709.000000	12.933611
710.000000	13.053803
711.000000	13.174873
712.000000	13.297450
713.000000	13.421345
714.000000	13.546127
715.000000	13.672065
716.000000	13.799129
717.000000	13.927508
718.000000	14.057200
719.000000	14.187592
720.000000	14.318884
721.000000	14.451404
722.000000	14.585237
723.000000	14.721389
724.000000	14.858598
725.000000	14.996185
726.000000	15.134632
727.000000	15.273727
728.000000	15.413786
729.000000	15.554734
730.000000	15.697042
731.000000	15.839721
732.000000	15.983501
733.000000	16.128557
734.000000	16.274184
735.000000	16.421136
736.000000	16.569260
737.000000	16.718188
738.000000	16.868631
739.000000	17.019926
740.000000	17.172496
741.000000	17.325540
742.000000	17.479506
743.000000	17.635282
744.000000	17.791057
745.000000	17.948070
746.000000	18.106621
747.000000	18.265235
748.000000	18.424690
749.000000	18.585285
750.000000	18.746709
751.000000	18.909254
752.000000	19.072270
753.000000	19.236944
754.000000	19.403177
755.000000	19.569889
756.000000	19.737723
757.000000	19.906526
758.000000	20.075151
759.000000	20.244496
760.000000	20.414842
761.000000	20.585934
762.000000	20.758915
763.000000	20.934090
764.000000	21.109845
765.000000	21.285799
766.000000	21.463565
767.000000	21.642164
768.000000	21.820203
769.000000	21.999904
770.000000	22.180730
771.000000	22.362705
772.000000	22.545984
773.000000	22.728471
774.000000	22.912674
775.000000	23.097183
776.000000	23.283193
777.000000	23.470215
778.000000	23.657277
779.000000	23.845634
780.000000	24.034709
781.000000	24.222958
782.000000	24.412967
783.000000	24.603800
784.000000	24.794661
785.000000	24.987133
786.000000	25.180073
787.000000	25.374241
788.000000	25.566708
789.000000	25.759830
790.000000	25.954963
791.000000	26.152390
792.000000	26.348922
793.000000	26.546402
794.000000	26.744505
795.000000	26.942886
796.000000	27.142312
797.000000	27.342505
798.000000	27.543348
799.000000	27.743981
800.000000	27.945549
801.000000	28.147767
802.000000	28.351730
803.000000	28.558461
804.000000	28.764873
805.000000	28.970575
806.000000	29.176533
807.000000	29.382030
808.000000	29.588449
809.000000	29.795761
810.000000	30.003722
811.000000	30.210987
812.000000	30.420014
813.000000	30.629967
814.000000	30.837950
815.000000	31.048381
816.000000	31.260530
817.000000	31.473232
818.000000	31.686224
819.000000	31.899140
820.000000	32.111643
821.000000	32.326003
822.000000	32.539193
823.000000	32.755405
824.000000	32.970010
825.000000	33.184014
826.000000	33.395627
827.000000	33.611087
828.000000	33.828396
829.000000	34.045373
830.000000	34.261868
831.000000	34.475122
832.000000	34.687702
833.000000	34.903430
834.000000	35.119347
835.000000	35.336702
836.000000	35.553033
837.000000	35.769269
838.000000	35.986792
839.000000	36.206615
840.000000	36.425270
841.000000	36.642404
842.000000	36.863827
843.000000	37.078589
844.000000	37.300740
845.000000	37.524938
846.000000	37.744360
847.000000	37.967758
848.000000	38.186088
849.000000	38.408667
850.000000	38.627339
851.000000	38.846906
852.000000	39.065539
853.000000	39.283850
854.000000	39.501753
855.000000	39.719620
856.000000	39.944092
857.000000	40.158053
858.000000	40.347029
859.000000	40.569387
860.000000	40.801547
861.000000	41.045099
862.000000	41.255512
863.000000	41.436089
864.000000	41.685774
865.000000	41.907783
866.000000	42.110299
867.000000	42.337058
868.000000	42.549108
869.000000	42.750208
870.000000	42.960667
871.000000	43.164068
872.000000	43.386584
873.000000	43.588646
874.000000	43.772128
875.000000	43.996036
876.000000	44.207530
877.000000	44.419504
878.000000	44.643175
879.000000	44.850481
880.000000	45.058175
881.000000	45.266393
882.000000	45.454979
883.000000	45.670160
884.000000	45.869139
885.000000	46.098694
886.000000	46.280230
887.000000	46.483225
888.000000	46.671928
889.000000	46.917875
890.000000	47.131733
891.000000	47.340138
892.000000	47.545916
893.000000	47.765653
894.000000	47.979452
895.000000	48.171704
896.000000	48.355677
897.000000	48.557645
898.000000	48.804787
899.000000	48.974558
900.000000	49.188548
901.000000	49.411969
902.000000	49.595806
903.000000	49.812153
904.000000	50.026052
905.000000	50.235353
906.000000	50.450217
907.000000	50.639008
908.000000	50.876810
909.000000	51.121366
910.000000	51.318561
911.000000	51.518162
912.000000	51.716359
913.000000	51.938703
914.000000	52.161523
915.000000	52.366854
916.000000	52.566318
917.000000	52.779622
918.000000	52.998423
919.000000	53.211201
920.000000	53.379421
921.000000	53.613761
922.000000	53.808798
923.000000	54.045245
924.000000	54.195216
925.000000	54.406396
926.000000	54.621846
927.000000	54.839925
928.000000	55.066079
929.000000	55.250667
930.000000	55.457644
931.000000	55.661707
932.000000	55.855922
933.000000	56.051321
934.000000	56.254554
935.000000	56.438567
936.000000	56.615713
937.000000	56.835807
938.000000	57.005755
939.000000	57.195758
940.000000	57.382546
941.000000	57.574779
942.000000	57.775263
943.000000	57.964038
944.000000	58.151278
945.000000	58.346582
946.000000	58.546619
947.000000	58.754542
948.000000	58.910866
949.000000	59.075832
950.000000	59.248095
951.000000	59.423893
952.000000	59.588617
953.000000	59.753471
954.000000	59.963769
955.000000	60.148995
956.000000	60.328829
957.000000	60.538109
958.000000	60.691161
959.000000	60.874530
960.000000	61.055333
961.000000	61.199742
962.000000	61.362424
963.000000	61.532364
964.000000	61.713028
965.000000	61.895737
966.000000	62.086035
967.000000	62.282589
968.000000	62.452632
969.000000	62.618307
970.000000	62.797457
971.000000	63.009016
972.000000	63.192792
973.000000	63.402575
974.000000	63.602064
975.000000	63.814825
976.000000	64.009644
977.000000	64.205641
978.000000	64.369348
979.000000	64.524206
980.000000	64.688123
981.000000	64.861191
982.000000	65.041021
983.000000	65.242314
984.000000	65.433298
985.000000	65.625358
986.000000	65.847234
987.000000	66.077383
988.000000	66.256600
989.000000	66.411379
990.000000	66.594473
991.000000	66.767846
992.000000	66.938346
993.000000	67.134307
994.000000	67.340854
995.000000	67.522548
996.000000	67.730969
997.000000	67.912478
998.000000	68.072597
999.000000	68.245001
1000.000000	68.396821
1001.000000	68.547171
1002.000000	68.713266
1003.000000	68.876875
1004.000000	69.047258
1005.000000	69.212347
1006.000000	69.342361
1007.000000	69.485392
1008.000000	69.652564
1009.000000	69.821958
1010.000000	69.980256
1011.000000	70.136975
1012.000000	70.284221
1013.000000	70.434779
1014.000000	70.621026
1015.000000	70.788938
1016.000000	70.956344
1017.000000	71.116673
1018.000000	71.256889
1019.000000	71.399529
1020.000000	71.543241
1021.000000	71.673957
1022.000000	71.811432
1023.000000	71.971014
1024.000000	72.134887
1025.000000	72.280436
1026.000000	72.426716
1027.000000	72.581363
1028.000000	72.717987
1029.000000	72.827162
1030.000000	72.952547
1031.000000	73.086629
1032.000000	73.240579
1033.000000	73.394741
1034.000000	73.530914
1035.000000	73.678101
1036.000000	73.836644
1037.000000	73.986614
1038.000000	74.127045
1039.000000	74.282978
1040.000000	74.439245
1041.000000	74.602475
1042.000000	74.770458
1043.000000	74.937130
1044.000000	75.081289
1045.000000	75.219182
1046.000000	75.374950
1047.000000	75.514163
1048.000000	75.650691
1049.000000	75.772732
1050.000000	75.892294
1051.000000	76.001146
1052.000000	76.127093
1053.000000	76.266447
1054.000000	76.397397
1055.000000	76.546044
1056.000000	76.666048
1057.000000	76.780205
1058.000000	76.905640
1059.000000	77.021499
1060.000000	77.163526
1061.000000	77.286682
1062.000000	77.414693
1063.000000	77.557858
1064.000000	77.701298
1065.000000	77.827888
1066.000000	77.949843
1067.000000	78.076900
1068.000000	78.201164
1069.000000	78.347583
1070.000000	78.489940
1071.000000	78.607910
1072.000000	78.710498
1073.000000	78.851155
1074.000000	78.960893
1075.000000	79.071937
1076.000000	79.197711
1077.000000	79.305538
1078.000000	79.364036
1079.000000	79.460317
1080.000000	79.576095
1081.000000	79.674642
1082.000000	79.790977
1083.000000	79.910719
1084.000000	80.025924
1085.000000	80.148226
1086.000000	80.294000
1087.000000	80.397841
1088.000000	80.538026
1089.000000	80.660781
1090.000000	80.777555
1091.000000	80.881420
1092.000000	81.006966
1093.000000	81.098904
1094.000000	81.223763
1095.000000	81.356940
1096.000000	81.481575
1097.000000	81.598067
1098.000000	81.702420
1099.000000	81.836859
1100.000000	81.921127
1101.000000	82.041181
1102.000000	82.165533
1103.000000	82.288627
1104.000000	82.414673
1105.000000	82.501518
1106.000000	82.626274
1107.000000	82.755726
1108.000000	82.857274
1109.000000	82.991943
1110.000000	83.088675
1111.000000	83.189901
1112.000000	83.282553
1113.000000	83.401262
1114.000000	83.511612
1115.000000	83.588998
1116.000000	83.690319
1117.000000	83.778367
1118.000000	83.914598
1119.000000	84.020399
1120.000000	84.128066
1121.000000	84.233583
1122.000000	84.365932
1123.000000	84.470896
1124.000000	84.592376
1125.000000	84.701381
1126.000000	84.815830
1127.000000	84.948364
1128.000000	85.093048
1129.000000	85.182093
1130.000000	85.240579
1131.000000	85.342914
1132.000000	85.419244
1133.000000	85.523263
1134.000000	85.625351
1135.000000	85.743564
1136.000000	85.843930
1137.000000	85.923020
1138.000000	86.023613
1139.000000	86.085276
1140.000000	86.199976
1141.000000	86.257907
1142.000000	86.333986
1143.000000	86.405804
1144.000000	86.485825
1145.000000	86.588755
1146.000000	86.693960
1147.000000	86.781482
1148.000000	86.878874
1149.000000	86.960834
1150.000000	87.043034
1151.000000	87.132244
1152.000000	87.264222
1153.000000	87.301369
1154.000000	87.362178
1155.000000	87.463549
1156.000000	87.543285
1157.000000	87.601160
1158.000000	87.651391
1159.000000	87.694470
1160.000000	87.752973
1161.000000	87.843691
1162.000000	87.870384
1163.000000	87.911965
1164.000000	87.959608
1165.000000	88.032695
1166.000000	88.081589
1167.000000	88.146537
1168.000000	88.168811
1169.000000	88.192548
1170.000000	88.241639
1171.000000	88.275956
1172.000000	88.314819
1173.000000	88.360061
1174.000000	88.441719
1175.000000	88.482644
1176.000000	88.511550
1177.000000	88.565634
1178.000000	88.621387
1179.000000	88.694551
1180.000000	88.761710
1181.000000	88.812758
1182.000000	88.852739
1183.000000	88.888517
1184.000000	88.925060
1185.000000	89.005505
1186.000000	89.025049
1187.000000	89.022166
1188.000000	89.098696
1189.000000	89.148553
1190.000000	89.170744
1191.000000	89.202770
1192.000000	89.243313
1193.000000	89.268440
1194.000000	89.324241
1195.000000	89.359878
1196.000000	89.385285
1197.000000	89.430316
1198.000000	89.491146
1199.000000	89.548251
1200.000000	89.622946
1201.000000	89.695816
1202.000000	89.750508
1203.000000	89.867348
1204.000000	89.914951
1205.000000	89.975663
1206.000000	90.057023
1207.000000	90.125748
1208.000000	90.183993
1209.000000	90.222242
