PE UV       SUBTECH     SPECTRUM    ASCII       PEDS        4.00        
   -1
4-C. OPTIMA #8172.ASC
23/11/21
16:29:28.00
23/11/21
16:29:28.00
Vinicio Soto Monge

250,000000
1
Lambda 1050
1050L1511233
PerkinElmer UV WinLab 6.3.2.0749 / 2.02.05 Lambda 900 UV/VIS/NIR, Aug  7 2015 09:38:08

0
0
3350/servo 860,8/2
0
0
UV/VIS
1
1
1
DoubleDePol,CommonBeamDepol,RBeamAtt,SBeamAtt,60mm sphere, WB InGaAs Detector
0
0
0
0
Program
Program
3350/servo 860,8/2
3350/0,4 860,8/0,4
3350/0,4 860,8/0,4
0
20.00
 
 
 
0
 
860,8
319,2
860,8
Front
100
on
S:100 R:100
0
0
0
0
 
0
 
 
 
0
 
 
0
0
0
0
0
 
 
 
 
0
0


0
0
#HDR
-1
-1
#GR
nm
%R
1.0
0.0
2200,000000
-1,000000
1951
8
103,081603
5,696163
#DATA
284.000000	5.932551
285.000000	5.919278
286.000000	5.907002
287.000000	5.897725
288.000000	5.888200
289.000000	5.878915
290.000000	5.872027
291.000000	5.865536
292.000000	5.858678
293.000000	5.851477
294.000000	5.846718
295.000000	5.842964
296.000000	5.838543
297.000000	5.832501
298.000000	5.828133
299.000000	5.823777
300.000000	5.820736
301.000000	5.818640
302.000000	5.815748
303.000000	5.812194
304.000000	5.810154
305.000000	5.806987
306.000000	5.803722
307.000000	5.800995
308.000000	5.796963
309.000000	5.793764
310.000000	5.789758
311.000000	5.786820
312.000000	5.784142
313.000000	5.779403
314.000000	5.774681
315.000000	5.770065
316.000000	5.765998
317.000000	5.754876
318.000000	5.745968
319.000000	5.736882
320.000000	5.731041
321.000000	5.722700
322.000000	5.716056
323.000000	5.708044
324.000000	5.699870
325.000000	5.693096
326.000000	5.685224
327.000000	5.680470
328.000000	5.676625
329.000000	5.670067
330.000000	5.663983
331.000000	5.659393
332.000000	5.657792
333.000000	5.653550
334.000000	5.651989
335.000000	5.651051
336.000000	5.650494
337.000000	5.652465
338.000000	5.655265
339.000000	5.659248
340.000000	5.664059
341.000000	5.672020
342.000000	5.681961
343.000000	5.694813
344.000000	5.707382
345.000000	5.722940
346.000000	5.743315
347.000000	5.764941
348.000000	5.790763
349.000000	5.819497
350.000000	5.852579
351.000000	5.891713
352.000000	5.940241
353.000000	5.992283
354.000000	6.049717
355.000000	6.111032
356.000000	6.182327
357.000000	6.259072
358.000000	6.346990
359.000000	6.444367
360.000000	6.549472
361.000000	6.665927
362.000000	6.793035
363.000000	6.931550
364.000000	7.085907
365.000000	7.254067
366.000000	7.436219
367.000000	7.629845
368.000000	7.841047
369.000000	8.068524
370.000000	8.311181
371.000000	8.571881
372.000000	8.849625
373.000000	9.146623
374.000000	9.459575
375.000000	9.789809
376.000000	10.140170
377.000000	10.519394
378.000000	10.916712
379.000000	11.333563
380.000000	11.767917
381.000000	12.217849
382.000000	12.686968
383.000000	13.172432
384.000000	13.673772
385.000000	14.188827
386.000000	14.716182
387.000000	15.255343
388.000000	15.806849
389.000000	16.367887
390.000000	16.935902
391.000000	17.509549
392.000000	18.088083
393.000000	18.668602
394.000000	19.250905
395.000000	19.832952
396.000000	20.411989
397.000000	20.985638
398.000000	21.555225
399.000000	22.117600
400.000000	22.672109
401.000000	23.216793
402.000000	23.751799
403.000000	24.275546
404.000000	24.786831
405.000000	25.283198
406.000000	25.764144
407.000000	26.228238
408.000000	26.674125
409.000000	27.103491
410.000000	27.515146
411.000000	27.903990
412.000000	28.260989
413.000000	28.596343
414.000000	28.910034
415.000000	29.200540
416.000000	29.467212
417.000000	29.710332
418.000000	29.929798
419.000000	30.125156
420.000000	30.297500
421.000000	30.446506
422.000000	30.571515
423.000000	30.673294
424.000000	30.752117
425.000000	30.808665
426.000000	30.843430
427.000000	30.856182
428.000000	30.847972
429.000000	30.819780
430.000000	30.773072
431.000000	30.709573
432.000000	30.629798
433.000000	30.535232
434.000000	30.426931
435.000000	30.307263
436.000000	30.179577
437.000000	30.045699
438.000000	29.907058
439.000000	29.765402
440.000000	29.625092
441.000000	29.488146
442.000000	29.355780
443.000000	29.229291
444.000000	29.110510
445.000000	29.002105
446.000000	28.904016
447.000000	28.817188
448.000000	28.741266
449.000000	28.676528
450.000000	28.623491
451.000000	28.582407
452.000000	28.553102
453.000000	28.535425
454.000000	28.528983
455.000000	28.533152
456.000000	28.548001
457.000000	28.574495
458.000000	28.612050
459.000000	28.660050
460.000000	28.718839
461.000000	28.788161
462.000000	28.868021
463.000000	28.957866
464.000000	29.056388
465.000000	29.163050
466.000000	29.276608
467.000000	29.396299
468.000000	29.520780
469.000000	29.648789
470.000000	29.778509
471.000000	29.907370
472.000000	30.034190
473.000000	30.157473
474.000000	30.276233
475.000000	30.388897
476.000000	30.494351
477.000000	30.592321
478.000000	30.683291
479.000000	30.766466
480.000000	30.840140
481.000000	30.905669
482.000000	30.963952
483.000000	31.016416
484.000000	31.064087
485.000000	31.107071
486.000000	31.146537
487.000000	31.183365
488.000000	31.217757
489.000000	31.251061
490.000000	31.283792
491.000000	31.315805
492.000000	31.346635
493.000000	31.376580
494.000000	31.406947
495.000000	31.436388
496.000000	31.464328
497.000000	31.490991
498.000000	31.517793
499.000000	31.545263
500.000000	31.573041
501.000000	31.601601
502.000000	31.632030
503.000000	31.664814
504.000000	31.701152
505.000000	31.742236
506.000000	31.788507
507.000000	31.840944
508.000000	31.900765
509.000000	31.969225
510.000000	32.046165
511.000000	32.131713
512.000000	32.227099
513.000000	32.331713
514.000000	32.446255
515.000000	32.572167
516.000000	32.708109
517.000000	32.854317
518.000000	33.009683
519.000000	33.174918
520.000000	33.350720
521.000000	33.536975
522.000000	33.733308
523.000000	33.940825
524.000000	34.158604
525.000000	34.386666
526.000000	34.625310
527.000000	34.875178
528.000000	35.136980
529.000000	35.409179
530.000000	35.692881
531.000000	35.988227
532.000000	36.294720
533.000000	36.610678
534.000000	36.935962
535.000000	37.270126
536.000000	37.613545
537.000000	37.963348
538.000000	38.319184
539.000000	38.679779
540.000000	39.044134
541.000000	39.411274
542.000000	39.779025
543.000000	40.146876
544.000000	40.512821
545.000000	40.876810
546.000000	41.237730
547.000000	41.594212
548.000000	41.944821
549.000000	42.288087
550.000000	42.622556
551.000000	42.950400
552.000000	43.268833
553.000000	43.579284
554.000000	43.880383
555.000000	44.171424
556.000000	44.451822
557.000000	44.721471
558.000000	44.979661
559.000000	45.226696
560.000000	45.465298
561.000000	45.692440
562.000000	45.907765
563.000000	46.112796
564.000000	46.307991
565.000000	46.492613
566.000000	46.668683
567.000000	46.836427
568.000000	46.995970
569.000000	47.148321
570.000000	47.294028
571.000000	47.433648
572.000000	47.569750
573.000000	47.701853
574.000000	47.832654
575.000000	47.960759
576.000000	48.087184
577.000000	48.213421
578.000000	48.338750
579.000000	48.464067
580.000000	48.589132
581.000000	48.711494
582.000000	48.832949
583.000000	48.953302
584.000000	49.073356
585.000000	49.193482
586.000000	49.312582
587.000000	49.428790
588.000000	49.541655
589.000000	49.650331
590.000000	49.754587
591.000000	49.854649
592.000000	49.948812
593.000000	50.036872
594.000000	50.119598
595.000000	50.193201
596.000000	50.260874
597.000000	50.323987
598.000000	50.380031
599.000000	50.429861
600.000000	50.472082
601.000000	50.508054
602.000000	50.536642
603.000000	50.559705
604.000000	50.576871
605.000000	50.587817
606.000000	50.592388
607.000000	50.590585
608.000000	50.583622
609.000000	50.568739
610.000000	50.547369
611.000000	50.518822
612.000000	50.484411
613.000000	50.442879
614.000000	50.394807
615.000000	50.339419
616.000000	50.280570
617.000000	50.216353
618.000000	50.147406
619.000000	50.073667
620.000000	49.996370
621.000000	49.915475
622.000000	49.832827
623.000000	49.748744
624.000000	49.663883
625.000000	49.579325
626.000000	49.495177
627.000000	49.413241
628.000000	49.334161
629.000000	49.258343
630.000000	49.186572
631.000000	49.120002
632.000000	49.056678
633.000000	48.998427
634.000000	48.943925
635.000000	48.896083
636.000000	48.853807
637.000000	48.818447
638.000000	48.788403
639.000000	48.765256
640.000000	48.749348
641.000000	48.741802
642.000000	48.741603
643.000000	48.749152
644.000000	48.764493
645.000000	48.787821
646.000000	48.819764
647.000000	48.858350
648.000000	48.905088
649.000000	48.958731
650.000000	49.020888
651.000000	49.089142
652.000000	49.163493
653.000000	49.244739
654.000000	49.332615
655.000000	49.426273
656.000000	49.524271
657.000000	49.628245
658.000000	49.738220
659.000000	49.854573
660.000000	49.977059
661.000000	50.105017
662.000000	50.238022
663.000000	50.377160
664.000000	50.521164
665.000000	50.669842
666.000000	50.823358
667.000000	50.983349
668.000000	51.148674
669.000000	51.321758
670.000000	51.502339
671.000000	51.688429
672.000000	51.880625
673.000000	52.081245
674.000000	52.287675
675.000000	52.501399
676.000000	52.720013
677.000000	52.944179
678.000000	53.173135
679.000000	53.407715
680.000000	53.648328
681.000000	53.893684
682.000000	54.145067
683.000000	54.401691
684.000000	54.664284
685.000000	54.931424
686.000000	55.203164
687.000000	55.479585
688.000000	55.758932
689.000000	56.043288
690.000000	56.330455
691.000000	56.621938
692.000000	56.916764
693.000000	57.212207
694.000000	57.507916
695.000000	57.803186
696.000000	58.098995
697.000000	58.393610
698.000000	58.686509
699.000000	58.979441
700.000000	59.272391
701.000000	59.563667
702.000000	59.852526
703.000000	60.139029
704.000000	60.423459
705.000000	60.706632
706.000000	60.987661
707.000000	61.266066
708.000000	61.541397
709.000000	61.813046
710.000000	62.080885
711.000000	62.347808
712.000000	62.610990
713.000000	62.869111
714.000000	63.123408
715.000000	63.372585
716.000000	63.617830
717.000000	63.857645
718.000000	64.091979
719.000000	64.319690
720.000000	64.543412
721.000000	64.762778
722.000000	64.976483
723.000000	65.186688
724.000000	65.390350
725.000000	65.590300
726.000000	65.785677
727.000000	65.978252
728.000000	66.168230
729.000000	66.354209
730.000000	66.539054
731.000000	66.720953
732.000000	66.902710
733.000000	67.083388
734.000000	67.260844
735.000000	67.435958
736.000000	67.609489
737.000000	67.782763
738.000000	67.953568
739.000000	68.120108
740.000000	68.282864
741.000000	68.443549
742.000000	68.601321
743.000000	68.755832
744.000000	68.908985
745.000000	69.059652
746.000000	69.205608
747.000000	69.349063
748.000000	69.492946
749.000000	69.635893
750.000000	69.776318
751.000000	69.915402
752.000000	70.055743
753.000000	70.198488
754.000000	70.340644
755.000000	70.481387
756.000000	70.622858
757.000000	70.763170
758.000000	70.901874
759.000000	71.038956
760.000000	71.174053
761.000000	71.309263
762.000000	71.444052
763.000000	71.578463
764.000000	71.714030
765.000000	71.848263
766.000000	71.984382
767.000000	72.117643
768.000000	72.246606
769.000000	72.375265
770.000000	72.504091
771.000000	72.634762
772.000000	72.765068
773.000000	72.893769
774.000000	73.023282
775.000000	73.154717
776.000000	73.284292
777.000000	73.415563
778.000000	73.545888
779.000000	73.674466
780.000000	73.803553
781.000000	73.934632
782.000000	74.065843
783.000000	74.195799
784.000000	74.323780
785.000000	74.452672
786.000000	74.585931
787.000000	74.713792
788.000000	74.835911
789.000000	74.957158
790.000000	75.082361
791.000000	75.208348
792.000000	75.332869
793.000000	75.458648
794.000000	75.583717
795.000000	75.709710
796.000000	75.834339
797.000000	75.959718
798.000000	76.084869
799.000000	76.212265
800.000000	76.339618
801.000000	76.464283
802.000000	76.590566
803.000000	76.718645
804.000000	76.847689
805.000000	76.974842
806.000000	77.099911
807.000000	77.225073
808.000000	77.352480
809.000000	77.480029
810.000000	77.604925
811.000000	77.731804
812.000000	77.855403
813.000000	77.978937
814.000000	78.103145
815.000000	78.225951
816.000000	78.351199
817.000000	78.476419
818.000000	78.601189
819.000000	78.725274
820.000000	78.849630
821.000000	78.972765
822.000000	79.098801
823.000000	79.227737
824.000000	79.354057
825.000000	79.475655
826.000000	79.592651
827.000000	79.716529
828.000000	79.840974
829.000000	79.966446
830.000000	80.088823
831.000000	80.206244
832.000000	80.324461
833.000000	80.444645
834.000000	80.560107
835.000000	80.674831
836.000000	80.783625
837.000000	80.897955
838.000000	81.019503
839.000000	81.135396
840.000000	81.246873
841.000000	81.359723
842.000000	81.470692
843.000000	81.581541
844.000000	81.695726
845.000000	81.805573
846.000000	81.911463
847.000000	82.027053
848.000000	82.132486
849.000000	82.239860
850.000000	82.338754
851.000000	82.447183
852.000000	82.550784
853.000000	82.652432
854.000000	82.752623
855.000000	82.863046
856.000000	82.968340
857.000000	83.060150
858.000000	83.157232
859.000000	83.282010
860.000000	83.425627
861.000000	83.559463
862.000000	83.681012
863.000000	83.790457
864.000000	83.914871
865.000000	84.054494
866.000000	84.153410
867.000000	84.280692
868.000000	84.401313
869.000000	84.513065
870.000000	84.638632
871.000000	84.749790
872.000000	84.860757
873.000000	84.979021
874.000000	85.103674
875.000000	85.206066
876.000000	85.300150
877.000000	85.430569
878.000000	85.565064
879.000000	85.698825
880.000000	85.817657
881.000000	85.941886
882.000000	86.060302
883.000000	86.176859
884.000000	86.293335
885.000000	86.417528
886.000000	86.531427
887.000000	86.640104
888.000000	86.785443
889.000000	86.898010
890.000000	87.016709
891.000000	87.133810
892.000000	87.239874
893.000000	87.342609
894.000000	87.437080
895.000000	87.496733
896.000000	87.580884
897.000000	87.650364
898.000000	87.738734
899.000000	87.829433
900.000000	87.874515
901.000000	87.980866
902.000000	88.052434
903.000000	88.112041
904.000000	88.207612
905.000000	88.288417
906.000000	88.354763
907.000000	88.432997
908.000000	88.492278
909.000000	88.576976
910.000000	88.680722
911.000000	88.769172
912.000000	88.779078
913.000000	88.804806
914.000000	88.859468
915.000000	88.918078
916.000000	88.961109
917.000000	89.032119
918.000000	89.079387
919.000000	89.121557
920.000000	89.169741
921.000000	89.210604
922.000000	89.252281
923.000000	89.281424
924.000000	89.339559
925.000000	89.396764
926.000000	89.439337
927.000000	89.514519
928.000000	89.585350
929.000000	89.618931
930.000000	89.659281
931.000000	89.703131
932.000000	89.757100
933.000000	89.831179
934.000000	89.894328
935.000000	89.952079
936.000000	89.997754
937.000000	90.029591
938.000000	90.085698
939.000000	90.133699
940.000000	90.195313
941.000000	90.267353
942.000000	90.315519
943.000000	90.377369
944.000000	90.424196
945.000000	90.454429
946.000000	90.504866
947.000000	90.625312
948.000000	90.691296
949.000000	90.706690
950.000000	90.757729
951.000000	90.804796
952.000000	90.843352
953.000000	90.916585
954.000000	90.997901
955.000000	91.069023
956.000000	91.155065
957.000000	91.232434
958.000000	91.296544
959.000000	91.347163
960.000000	91.375560
961.000000	91.392613
962.000000	91.440716
963.000000	91.477937
964.000000	91.543663
965.000000	91.624964
966.000000	91.678106
967.000000	91.746861
968.000000	91.783535
969.000000	91.813524
970.000000	91.875366
971.000000	91.931484
972.000000	92.020943
973.000000	92.079675
974.000000	92.130225
975.000000	92.148251
976.000000	92.186110
977.000000	92.248243
978.000000	92.283590
979.000000	92.299046
980.000000	92.368921
981.000000	92.422255
982.000000	92.455304
983.000000	92.513405
984.000000	92.584691
985.000000	92.658791
986.000000	92.731846
987.000000	92.780547
988.000000	92.819408
989.000000	92.865235
990.000000	92.898817
991.000000	92.915243
992.000000	92.984924
993.000000	93.032509
994.000000	93.082997
995.000000	93.146415
996.000000	93.224995
997.000000	93.257439
998.000000	93.326508
999.000000	93.398276
1000.000000	93.452811
1001.000000	93.495181
1002.000000	93.519111
1003.000000	93.551864
1004.000000	93.578875
1005.000000	93.612225
1006.000000	93.642025
1007.000000	93.665556
1008.000000	93.731829
1009.000000	93.765943
1010.000000	93.815349
1011.000000	93.865734
1012.000000	93.889771
1013.000000	93.932298
1014.000000	93.975021
1015.000000	94.001679
1016.000000	94.055680
1017.000000	94.088806
1018.000000	94.128491
1019.000000	94.174898
1020.000000	94.195269
1021.000000	94.252415
1022.000000	94.282157
1023.000000	94.311945
1024.000000	94.339109
1025.000000	94.367444
1026.000000	94.392929
1027.000000	94.419357
1028.000000	94.456830
1029.000000	94.490375
1030.000000	94.515679
1031.000000	94.557027
1032.000000	94.598263
1033.000000	94.613705
1034.000000	94.618755
1035.000000	94.647780
1036.000000	94.711946
1037.000000	94.755552
1038.000000	94.798092
1039.000000	94.850148
1040.000000	94.897186
1041.000000	94.950876
1042.000000	94.995492
1043.000000	95.040281
1044.000000	95.096794
1045.000000	95.127891
1046.000000	95.162173
1047.000000	95.229285
1048.000000	95.274624
1049.000000	95.312086
1050.000000	95.338415
1051.000000	95.355382
1052.000000	95.376790
1053.000000	95.397765
1054.000000	95.414429
1055.000000	95.461020
1056.000000	95.477791
1057.000000	95.506991
1058.000000	95.553877
1059.000000	95.611162
1060.000000	95.693178
1061.000000	95.760490
1062.000000	95.760240
1063.000000	95.777088
1064.000000	95.817907
1065.000000	95.860783
1066.000000	95.906208
1067.000000	95.954648
1068.000000	95.997677
1069.000000	96.050687
1070.000000	96.101256
1071.000000	96.100811
1072.000000	96.140693
1073.000000	96.155006
1074.000000	96.178229
1075.000000	96.188745
1076.000000	96.208645
1077.000000	96.226782
1078.000000	96.204961
1079.000000	96.194351
1080.000000	96.223488
1081.000000	96.274923
1082.000000	96.268917
1083.000000	96.313825
1084.000000	96.353070
1085.000000	96.375712
1086.000000	96.409292
1087.000000	96.463297
1088.000000	96.486816
1089.000000	96.505300
1090.000000	96.506429
1091.000000	96.516094
1092.000000	96.529114
1093.000000	96.543373
1094.000000	96.544433
1095.000000	96.545472
1096.000000	96.556340
1097.000000	96.600512
1098.000000	96.620990
1099.000000	96.642434
1100.000000	96.634317
1101.000000	96.618307
1102.000000	96.632322
1103.000000	96.635169
1104.000000	96.627161
1105.000000	96.597787
1106.000000	96.612166
1107.000000	96.630218
1108.000000	96.651345
1109.000000	96.664290
1110.000000	96.706233
1111.000000	96.736100
1112.000000	96.766017
1113.000000	96.834687
1114.000000	96.869862
1115.000000	96.880934
1116.000000	96.858757
1117.000000	96.921311
1118.000000	96.910716
1119.000000	96.921836
1120.000000	96.930625
1121.000000	96.922737
1122.000000	96.941188
1123.000000	97.003923
1124.000000	97.047369
1125.000000	97.078435
1126.000000	97.074741
1127.000000	97.110499
1128.000000	97.128264
1129.000000	97.158941
1130.000000	97.142305
1131.000000	97.148992
1132.000000	97.159089
1133.000000	97.179723
1134.000000	97.251965
1135.000000	97.264476
1136.000000	97.279284
1137.000000	97.286847
1138.000000	97.305271
1139.000000	97.320054
1140.000000	97.335760
1141.000000	97.320625
1142.000000	97.329713
1143.000000	97.330192
1144.000000	97.315431
1145.000000	97.290587
1146.000000	97.263683
1147.000000	97.251688
1148.000000	97.185207
1149.000000	97.215280
1150.000000	97.194730
1151.000000	97.192376
1152.000000	97.165036
1153.000000	97.175511
1154.000000	97.146613
1155.000000	97.134835
1156.000000	97.135784
1157.000000	97.085601
1158.000000	97.027544
1159.000000	96.977833
1160.000000	96.939643
1161.000000	96.926291
1162.000000	96.882712
1163.000000	96.862160
1164.000000	96.802929
1165.000000	96.793641
1166.000000	96.744895
1167.000000	96.717985
1168.000000	96.682321
1169.000000	96.560601
1170.000000	96.501786
1171.000000	96.467284
1172.000000	96.429143
1173.000000	96.393043
1174.000000	96.362501
1175.000000	96.300371
1176.000000	96.265641
1177.000000	96.224499
1178.000000	96.188398
1179.000000	96.203194
1180.000000	96.188461
1181.000000	96.181740
1182.000000	96.155981
1183.000000	96.164656
1184.000000	96.080160
1185.000000	96.028824
1186.000000	95.998065
1187.000000	95.932768
1188.000000	95.894286
1189.000000	95.898181
1190.000000	95.885606
1191.000000	95.849954
1192.000000	95.854740
1193.000000	95.849984
1194.000000	95.842785
1195.000000	95.818798
1196.000000	95.797786
1197.000000	95.771129
