PE UV       SUBTECH     SPECTRUM    ASCII       PEDS        4.00        
   -1
CICIMAUCR0021-2.Sample.ASC
24/04/17
13:39:35.00
24/04/17
13:39:35.00
Vinicio Soto Monge
C. resplendens. 
250,000000
1
Lambda 1050
1050L1511233
PerkinElmer UV WinLab 6.3.2.0749 / 2.02.05 Lambda 900 UV/VIS/NIR, Aug  7 2015 09:38:08

0
0
3350/servo 860,8/2
0
0
UV/VIS
1
1
1
DoubleDePol,CommonBeamDepol,RBeamAtt,SBeamAtt,60mm sphere, WB InGaAs Detector
0
0
0
0
Program
Program
3350/servo 860,8/2
3350/0,2 860,8/0,2
3350/0,2 860,8/0,2
0
15.00
 
 
 
0
 
860,8
319,2
860,8
Front
100
on
S:100 R:100
0
0
0
0
 
0
 
 
 
0
 
 
0
0
0
0
0
 
 
 
 
0
0


0
0
#HDR
-1
-1
#GR
nm
%R
1.0
0.0
2500,000000
-1,000000
2251
8
60,763900
4,261100
#DATA
2482.000000	7.743300
2481.000000	7.722508
2480.000000	7.794533
2479.000000	7.768227
2478.000000	7.736178
2477.000000	7.737212
2476.000000	7.736178
2475.000000	7.649679
2474.000000	7.739969
2473.000000	7.702635
2472.000000	7.723772
2471.000000	7.697581
2470.000000	7.652206
2469.000000	7.664383
2468.000000	7.682533
2467.000000	7.701027
2466.000000	7.725035
2465.000000	7.743070
2464.000000	7.755476
2463.000000	7.761794
2462.000000	7.815784
2461.000000	7.834394
2460.000000	7.865064
2459.000000	7.857253
2458.000000	7.920088
2457.000000	7.959030
2456.000000	7.996823
2455.000000	8.055752
2454.000000	8.148454
2453.000000	8.182111
2452.000000	8.244832
2451.000000	8.271137
2450.000000	8.349940
2449.000000	8.429776
2448.000000	8.454703
2447.000000	8.485718
2446.000000	8.522248
2445.000000	8.602428
2444.000000	8.650445
2443.000000	8.733498
2442.000000	8.788521
2441.000000	8.825510
2440.000000	8.872033
2439.000000	8.918671
2438.000000	8.965424
2437.000000	8.993568
2436.000000	9.048247
2435.000000	9.088452
2434.000000	9.137733
2433.000000	9.174262
2432.000000	9.226184
2431.000000	9.254213
2430.000000	9.281667
2429.000000	9.326467
2428.000000	9.335313
2427.000000	9.361618
2426.000000	9.375288
2425.000000	9.407452
2424.000000	9.436745
2423.000000	9.458341
2422.000000	9.477524
2421.000000	9.505553
2420.000000	9.493606
2419.000000	9.478099
2418.000000	9.473274
2417.000000	9.480856
2416.000000	9.511986
2415.000000	9.532203
2414.000000	9.560002
2413.000000	9.565631
2412.000000	9.571605
2411.000000	9.575510
2410.000000	9.596187
2409.000000	9.606411
2408.000000	9.646157
2407.000000	9.651096
2406.000000	9.655002
2405.000000	9.692565
2404.000000	9.713587
2403.000000	9.708188
2402.000000	9.729669
2401.000000	9.742075
2400.000000	9.761488
2399.000000	9.792044
2398.000000	9.819039
2397.000000	9.831216
2396.000000	9.849940
2395.000000	9.871765
2394.000000	9.898301
2393.000000	9.911741
2392.000000	9.911971
2391.000000	9.917829
2390.000000	9.937128
2389.000000	9.954014
2388.000000	9.960102
2387.000000	9.953784
2386.000000	9.947581
2385.000000	9.942756
2384.000000	9.944824
2383.000000	9.935290
2382.000000	9.922309
2381.000000	9.920356
2380.000000	9.907376
2379.000000	9.882104
2378.000000	9.880955
2377.000000	9.868779
2376.000000	9.838453
2375.000000	9.838223
2374.000000	9.823634
2373.000000	9.778719
2372.000000	9.740926
2371.000000	9.728520
2370.000000	9.691416
2369.000000	9.638116
2368.000000	9.610661
2367.000000	9.564023
2366.000000	9.500614
2365.000000	9.463625
2364.000000	9.411817
2363.000000	9.340712
2362.000000	9.304412
2361.000000	9.259842
2360.000000	9.190574
2359.000000	9.143246
2358.000000	9.101088
2357.000000	9.066167
2356.000000	9.047443
2355.000000	9.032165
2354.000000	9.028145
2353.000000	9.021827
2352.000000	9.028949
2351.000000	9.047328
2350.000000	9.091095
2349.000000	9.145199
2348.000000	9.178512
2347.000000	9.200453
2346.000000	9.262713
2345.000000	9.304527
2344.000000	9.332441
2343.000000	9.365409
2342.000000	9.376322
2341.000000	9.402398
2340.000000	9.429967
2339.000000	9.443637
2338.000000	9.449496
2337.000000	9.436860
2336.000000	9.428819
2335.000000	9.416412
2334.000000	9.398263
2333.000000	9.368511
2332.000000	9.309926
2331.000000	9.263632
2330.000000	9.219062
2329.000000	9.176215
2328.000000	9.120272
2327.000000	9.056863
2326.000000	8.991960
2325.000000	8.931193
2324.000000	8.853998
2323.000000	8.747971
2322.000000	8.685251
2321.000000	8.604611
2320.000000	8.514551
2319.000000	8.405882
2318.000000	8.296179
2317.000000	8.215884
2316.000000	8.127203
2315.000000	8.030595
2314.000000	7.925372
2313.000000	7.831177
2312.000000	7.758118
2311.000000	7.714697
2310.000000	7.667944
2309.000000	7.626475
2308.000000	7.626130
2307.000000	7.616022
2306.000000	7.626015
2305.000000	7.658869
2304.000000	7.712170
2303.000000	7.762139
2302.000000	7.834049
2301.000000	7.881376
2300.000000	7.945360
2299.000000	8.027723
2298.000000	8.113762
2297.000000	8.184639
2296.000000	8.250345
2295.000000	8.315133
2294.000000	8.360393
2293.000000	8.414038
2292.000000	8.436438
2291.000000	8.458494
2290.000000	8.464812
2289.000000	8.450912
2288.000000	8.452865
2287.000000	8.415532
2286.000000	8.400598
2285.000000	8.376475
2284.000000	8.339371
2283.000000	8.311917
2282.000000	8.293422
2281.000000	8.232540
2280.000000	8.182571
2279.000000	8.155346
2278.000000	8.123986
2277.000000	8.083092
2276.000000	8.045643
2275.000000	8.032318
2274.000000	8.021635
2273.000000	8.045528
2272.000000	8.022669
2271.000000	8.027838
2270.000000	8.074132
2269.000000	8.125365
2268.000000	8.188085
2267.000000	8.276192
2266.000000	8.366022
2265.000000	8.475035
2264.000000	8.616558
2263.000000	8.748431
2262.000000	8.930274
2261.000000	9.122684
2260.000000	9.306480
2259.000000	9.500843
2258.000000	9.699457
2257.000000	9.929661
2256.000000	10.125288
2255.000000	10.330909
2254.000000	10.539977
2253.000000	10.736982
2252.000000	10.954205
2251.000000	11.169246
2250.000000	11.313640
2249.000000	11.499389
2248.000000	11.664115
2247.000000	11.811151
2246.000000	11.963931
2245.000000	12.079837
2244.000000	12.174262
2243.000000	12.323481
2242.000000	12.442718
2241.000000	12.523014
2240.000000	12.636278
2239.000000	12.738169
2238.000000	12.808127
2237.000000	12.879347
2236.000000	12.961021
2235.000000	13.033735
2234.000000	13.079569
2233.000000	13.167102
2232.000000	13.203746
2231.000000	13.235566
2230.000000	13.271061
2229.000000	13.303915
2228.000000	13.351931
2227.000000	13.386278
2226.000000	13.358824
2225.000000	13.359283
2224.000000	13.380075
2223.000000	13.375595
2222.000000	13.376629
2221.000000	13.359857
2220.000000	13.339180
2219.000000	13.336883
2218.000000	13.311611
2217.000000	13.286799
2216.000000	13.311037
2215.000000	13.277724
2214.000000	13.252797
2213.000000	13.232694
2212.000000	13.204550
2211.000000	13.169629
2210.000000	13.181806
2209.000000	13.179623
2208.000000	13.132066
2207.000000	13.136661
2206.000000	13.139648
2205.000000	13.128735
2204.000000	13.120694
2203.000000	13.114605
2202.000000	13.080718
2201.000000	13.080488
2200.000000	13.052574
2199.000000	13.055676
2198.000000	13.055102
2197.000000	13.022708
2196.000000	12.989395
2195.000000	12.977448
2194.000000	12.950913
2193.000000	12.949994
2192.000000	12.939196
2191.000000	12.884746
2190.000000	12.885665
2189.000000	12.868205
2188.000000	12.852467
2187.000000	12.830297
2186.000000	12.805025
2185.000000	12.762063
2184.000000	12.769644
2183.000000	12.738629
2182.000000	12.701640
2181.000000	12.685673
2180.000000	12.689349
2179.000000	12.674990
2178.000000	12.632028
2177.000000	12.632257
2176.000000	12.625020
2175.000000	12.605262
2174.000000	12.605262
2173.000000	12.606296
2172.000000	12.601357
2171.000000	12.594464
2170.000000	12.586883
2169.000000	12.599059
2168.000000	12.597451
2167.000000	12.598830
2166.000000	12.605377
2165.000000	12.629500
2164.000000	12.634670
2163.000000	12.638920
2162.000000	12.641447
2161.000000	12.678666
2160.000000	12.695782
2159.000000	12.708992
2158.000000	12.730014
2157.000000	12.772401
2156.000000	12.788483
2155.000000	12.819958
2154.000000	12.851548
2153.000000	12.882104
2152.000000	12.908640
2151.000000	12.940115
2150.000000	12.974117
2149.000000	12.986523
2148.000000	13.024661
2147.000000	13.063372
2146.000000	13.089104
2145.000000	13.113572
2144.000000	13.130458
2143.000000	13.146310
2142.000000	13.164575
2141.000000	13.193637
2140.000000	13.204550
2139.000000	13.226261
2138.000000	13.248776
2137.000000	13.277035
2136.000000	13.298401
2135.000000	13.301732
2134.000000	13.316091
2133.000000	13.334586
2132.000000	13.342971
2131.000000	13.344809
2130.000000	13.352161
2129.000000	13.349289
2128.000000	13.353425
2127.000000	13.345958
2126.000000	13.334700
2125.000000	13.332518
2124.000000	13.322524
2123.000000	13.307591
2122.000000	13.290475
2121.000000	13.270717
2120.000000	13.263135
2119.000000	13.249580
2118.000000	13.231086
2117.000000	13.215808
2116.000000	13.194097
2115.000000	13.179623
2114.000000	13.145851
2113.000000	13.127586
2112.000000	13.107024
2111.000000	13.097260
2110.000000	13.080029
2109.000000	13.055217
2108.000000	13.028451
2107.000000	12.987901
2106.000000	12.977908
2105.000000	12.975495
2104.000000	12.950913
2103.000000	12.932418
2102.000000	12.923228
2101.000000	12.918059
2100.000000	12.886125
2099.000000	12.849595
2098.000000	12.849940
2097.000000	12.828918
2096.000000	12.806748
2095.000000	12.803532
2094.000000	12.786875
2093.000000	12.789632
2092.000000	12.794916
2091.000000	12.783199
2090.000000	12.787220
2089.000000	12.785267
2088.000000	12.775388
2087.000000	12.785382
2086.000000	12.794457
2085.000000	12.779753
2084.000000	12.762522
2083.000000	12.763441
2082.000000	12.751495
2081.000000	12.741041
2080.000000	12.744947
2079.000000	12.726912
2078.000000	12.715540
2077.000000	12.721398
2076.000000	12.713357
2075.000000	12.678895
2074.000000	12.665800
2073.000000	12.672463
2072.000000	12.649373
2071.000000	12.623987
2070.000000	12.621115
2069.000000	12.610317
2068.000000	12.587342
2067.000000	12.579761
2066.000000	12.562989
2065.000000	12.549549
2064.000000	12.553915
2063.000000	12.552421
2062.000000	12.553455
2061.000000	12.556557
2060.000000	12.561381
2059.000000	12.558854
2058.000000	12.572064
2057.000000	12.586998
2056.000000	12.622953
2055.000000	12.673382
2054.000000	12.723810
2053.000000	12.784463
2052.000000	12.858900
2051.000000	12.934486
2050.000000	13.011335
2049.000000	13.101395
2048.000000	13.192259
2047.000000	13.292887
2046.000000	13.395468
2045.000000	13.512637
2044.000000	13.637848
2043.000000	13.761565
2042.000000	13.888499
2041.000000	14.009574
2040.000000	14.132947
2039.000000	14.257009
2038.000000	14.364874
2037.000000	14.464238
2036.000000	14.576698
2035.000000	14.699956
2034.000000	14.792083
2033.000000	14.890988
2032.000000	14.994717
2031.000000	15.096264
2030.000000	15.174952
2029.000000	15.247551
2028.000000	15.320035
2027.000000	15.414920
2026.000000	15.494756
2025.000000	15.545414
2024.000000	15.606871
2023.000000	15.685903
2022.000000	15.755745
2021.000000	15.824094
2020.000000	15.894166
2019.000000	15.950568
2018.000000	15.987902
2017.000000	16.032013
2016.000000	16.076238
2015.000000	16.128505
2014.000000	16.158487
2013.000000	16.196624
2012.000000	16.225113
2011.000000	16.247972
2010.000000	16.248202
2009.000000	16.262446
2008.000000	16.287258
2007.000000	16.284731
2006.000000	16.281400
2005.000000	16.279677
2004.000000	16.275427
2003.000000	16.250499
2002.000000	16.250729
2001.000000	16.213970
2000.000000	16.184448
1999.000000	16.151824
1998.000000	16.155500
1997.000000	16.099902
1996.000000	16.045108
1995.000000	16.021789
1994.000000	15.959643
1993.000000	15.885551
1992.000000	15.881990
1991.000000	15.819729
1990.000000	15.722203
1989.000000	15.674416
1988.000000	15.600553
1987.000000	15.528069
1986.000000	15.459949
1985.000000	15.400331
1984.000000	15.323137
1983.000000	15.255707
1982.000000	15.188851
1981.000000	15.113495
1980.000000	15.029179
1979.000000	14.974615
1978.000000	14.893170
1977.000000	14.844350
1976.000000	14.773244
1975.000000	14.672731
1974.000000	14.591172
1973.000000	14.528796
1972.000000	14.449994
1971.000000	14.380611
1970.000000	14.306978
1969.000000	14.241731
1968.000000	14.195897
1967.000000	14.126744
1966.000000	14.049435
1965.000000	13.995215
1964.000000	13.913656
1963.000000	13.872991
1962.000000	13.808088
1961.000000	13.726989
1960.000000	13.684716
1959.000000	13.589831
1958.000000	13.555140
1957.000000	13.497359
1956.000000	13.417638
1955.000000	13.346647
1954.000000	13.275656
1953.000000	13.212362
1952.000000	13.176292
1951.000000	13.102888
1950.000000	13.025120
1949.000000	12.998929
1948.000000	12.934371
1947.000000	12.887503
1946.000000	12.863265
1945.000000	12.820303
1944.000000	12.776192
1943.000000	12.742535
1942.000000	12.707499
1941.000000	12.680963
1940.000000	12.689119
1939.000000	12.668672
1938.000000	12.698194
1937.000000	12.713587
1936.000000	12.717722
1935.000000	12.745177
1934.000000	12.746785
1933.000000	12.775158
1932.000000	12.808471
1931.000000	12.868549
1930.000000	12.929202
1929.000000	12.980435
1928.000000	13.095077
1927.000000	13.202597
1926.000000	13.339066
1925.000000	13.461749
1924.000000	13.535841
1923.000000	13.603846
1922.000000	13.723428
1921.000000	13.930542
1920.000000	14.169017
1919.000000	14.330297
1918.000000	14.508693
1917.000000	14.630228
1916.000000	14.730052
1915.000000	14.876744
1914.000000	15.079148
1913.000000	15.425947
1912.000000	15.727027
1911.000000	15.977563
1910.000000	16.167102
1909.000000	16.274623
1908.000000	16.378582
1907.000000	16.604650
1906.000000	16.920319
1905.000000	17.319270
1904.000000	17.706733
1903.000000	17.961749
1902.000000	18.187358
1901.000000	18.385742
1900.000000	18.762063
1899.000000	19.246709
1898.000000	19.634862
1897.000000	19.998777
1896.000000	20.247245
1895.000000	20.392443
1894.000000	20.588760
1893.000000	20.866061
1892.000000	21.230895
1891.000000	21.682687
1890.000000	22.085084
1889.000000	22.425221
1888.000000	22.732848
1887.000000	22.994412
1886.000000	23.351894
1885.000000	23.766353
1884.000000	24.265587
1883.000000	24.822372
1882.000000	25.322410
1881.000000	25.788217
1880.000000	26.157186
1879.000000	26.505478
1878.000000	26.871461
1877.000000	27.214928
1876.000000	27.538293
1875.000000	27.861544
1874.000000	28.146426
1873.000000	28.507355
1872.000000	28.867134
1871.000000	29.199689
1870.000000	29.616215
1869.000000	29.943716
1868.000000	30.195515
1867.000000	30.340599
1866.000000	30.355877
1865.000000	30.352431
1864.000000	30.302576
1863.000000	30.198387
1862.000000	30.143249
1861.000000	30.155540
1860.000000	30.222395
1859.000000	30.322104
1858.000000	30.422847
1857.000000	30.442261
1856.000000	30.328537
1855.000000	30.248242
1854.000000	30.283393
1853.000000	30.283737
1852.000000	30.223085
1851.000000	30.072487
1850.000000	29.808281
1849.000000	29.643670
1848.000000	29.770144
1847.000000	30.063987
1846.000000	30.153357
1845.000000	29.968758
1844.000000	29.630345
1843.000000	29.352354
1842.000000	29.352009
1841.000000	29.498356
1840.000000	29.539366
1839.000000	29.484112
1838.000000	29.365564
1837.000000	29.346610
1836.000000	29.426102
1835.000000	29.469868
1834.000000	29.379119
1833.000000	29.142023
1832.000000	28.934564
1831.000000	28.844964
1830.000000	28.860472
1829.000000	28.813374
1828.000000	28.719524
1827.000000	28.657722
1826.000000	28.651864
1825.000000	28.608442
1824.000000	28.476454
1823.000000	28.267157
1822.000000	28.142176
1821.000000	28.238209
1820.000000	28.395469
1819.000000	28.414423
1818.000000	28.321262
1817.000000	28.201220
1816.000000	28.177672
1815.000000	28.216498
1814.000000	28.228560
1813.000000	28.187321
1812.000000	28.139190
1811.000000	28.159062
1810.000000	28.149758
1809.000000	28.078537
1808.000000	27.993072
1807.000000	27.940805
1806.000000	27.931271
1805.000000	27.897384
1804.000000	27.817318
1803.000000	27.733117
1802.000000	27.701527
1801.000000	27.690154
1800.000000	27.638921
1799.000000	27.577235
1798.000000	27.522211
1797.000000	27.468451
1796.000000	27.409752
1795.000000	27.353809
1794.000000	27.329341
1793.000000	27.272020
1792.000000	27.222855
1791.000000	27.176331
1790.000000	27.122342
1789.000000	27.050432
1788.000000	26.950378
1787.000000	26.878238
1786.000000	26.809889
1785.000000	26.761643
1784.000000	26.679050
1783.000000	26.584281
1782.000000	26.485376
1781.000000	26.386471
1780.000000	26.298019
1779.000000	26.238975
1778.000000	26.146503
1777.000000	26.050585
1776.000000	25.923766
1775.000000	25.786953
1774.000000	25.676331
1773.000000	25.551465
1772.000000	25.422809
1771.000000	25.253372
1770.000000	25.083936
1769.000000	24.950799
1768.000000	24.835582
1767.000000	24.744833
1766.000000	24.652017
1765.000000	24.530022
1764.000000	24.487060
1763.000000	24.467762
1762.000000	24.457768
1761.000000	24.498203
1760.000000	24.555983
1759.000000	24.615258
1758.000000	24.692566
1757.000000	24.761260
1756.000000	24.804911
1755.000000	24.844542
1754.000000	24.880497
1753.000000	24.871193
1752.000000	24.841556
1751.000000	24.794688
1750.000000	24.749658
1749.000000	24.686593
1748.000000	24.600439
1747.000000	24.498318
1746.000000	24.398034
1745.000000	24.258465
1744.000000	24.086386
1743.000000	23.876630
1742.000000	23.657913
1741.000000	23.396349
1740.000000	23.128123
1739.000000	22.873796
1738.000000	22.637504
1737.000000	22.425910
1736.000000	22.261298
1735.000000	22.154237
1734.000000	22.073252
1733.000000	22.089794
1732.000000	22.129195
1731.000000	22.215119
1730.000000	22.324707
1729.000000	22.460601
1728.000000	22.590636
1727.000000	22.685521
1726.000000	22.792237
1725.000000	22.885054
1724.000000	22.931577
1723.000000	22.969714
1722.000000	23.000270
1721.000000	23.013596
1720.000000	22.995675
1719.000000	23.004291
1718.000000	23.055639
1717.000000	23.113305
1716.000000	23.152591
1715.000000	23.211405
1714.000000	23.303992
1713.000000	23.373949
1712.000000	23.422081
1711.000000	23.457921
1710.000000	23.479517
1709.000000	23.510188
1708.000000	23.539480
1707.000000	23.474003
1706.000000	23.452177
1705.000000	23.419668
1704.000000	23.358671
1703.000000	23.275963
1702.000000	23.192566
1701.000000	23.058740
1700.000000	22.884135
1699.000000	22.764668
1698.000000	22.587190
1697.000000	22.457155
1696.000000	22.368244
1695.000000	22.332404
1694.000000	22.406381
1693.000000	22.527916
1692.000000	22.687129
1691.000000	22.899413
1690.000000	23.069194
1689.000000	23.210831
1688.000000	23.287566
1687.000000	23.297330
1686.000000	23.275849
1685.000000	23.279180
1684.000000	23.367287
1683.000000	23.555218
1682.000000	23.875136
1681.000000	24.356680
1680.000000	24.931386
1679.000000	25.596840
1678.000000	26.161436
1677.000000	26.740851
1676.000000	27.274547
1675.000000	27.702905
1674.000000	28.079801
1673.000000	28.429242
1672.000000	28.686211
1671.000000	28.942261
1670.000000	29.121002
1669.000000	29.307094
1668.000000	29.482734
1667.000000	29.677327
1666.000000	29.807822
1665.000000	29.941189
1664.000000	30.065250
1663.000000	30.164500
1662.000000	30.279142
1661.000000	30.315097
1660.000000	30.379655
1659.000000	30.405502
1658.000000	30.454437
1657.000000	30.503488
1656.000000	30.517617
1655.000000	30.530253
1654.000000	30.551389
1653.000000	30.535192
1652.000000	30.492804
1651.000000	30.480743
1650.000000	30.449383
1649.000000	30.449727
1648.000000	30.405387
1647.000000	30.338301
1646.000000	30.293846
1645.000000	30.239052
1644.000000	30.206888
1643.000000	30.152094
1642.000000	30.096151
1641.000000	30.028376
1640.000000	29.966575
1639.000000	29.902591
1638.000000	29.823674
1637.000000	29.761299
1636.000000	29.689733
1635.000000	29.595538
1634.000000	29.516277
1633.000000	29.434143
1632.000000	29.362463
1631.000000	29.287336
1630.000000	29.193945
1629.000000	29.118589
1628.000000	29.034733
1627.000000	28.955701
1626.000000	28.871614
1625.000000	28.784197
1624.000000	28.696090
1623.000000	28.628200
1622.000000	28.541127
1621.000000	28.457500
1620.000000	28.376400
1619.000000	28.268765
1618.000000	28.187206
1617.000000	28.107600
1616.000000	28.023398
1615.000000	27.960449
1614.000000	27.889228
1613.000000	27.794229
1612.000000	27.714163
1611.000000	27.660403
1610.000000	27.602852
1609.000000	27.512218
1608.000000	27.440308
1607.000000	27.392176
1606.000000	27.313144
1605.000000	27.241923
1604.000000	27.171507
1603.000000	27.106604
1602.000000	27.044114
1601.000000	26.943141
1600.000000	26.867555
1599.000000	26.808741
1598.000000	26.739932
1597.000000	26.680428
1596.000000	26.624256
