Time1=100ms:Average1=5:Objective=10X:Aperture=1: (11/21/2018 11:55:57 AM)
11/21/2018 11:55:57 AM
Reflectance
10X
Ap#: 1
Avg1: 5.000000
Avg2: 0.000000
Int.Time1:100.000000

420.190645	20.419183
420.624620	20.344663
421.058582	20.273271
421.492531	20.254098
421.926468	20.239494
422.360391	20.271414
422.794301	20.299761
423.228199	20.350761
423.662083	20.410027
424.095955	20.491296
424.529813	20.560675
424.963658	20.660874
425.397491	20.757895
425.831310	20.818414
426.265116	20.877938
426.698909	20.946714
427.132689	21.007477
427.566455	21.106722
428.000209	21.201052
428.433949	21.322462
428.867676	21.458028
429.301389	21.566006
429.735090	21.666781
430.168777	21.781908
430.602451	21.903563
431.036111	21.970840
431.469759	22.047715
431.903392	22.114120
432.337013	22.190135
432.770620	22.239968
433.204213	22.321796
433.637794	22.400299
434.071360	22.508247
434.504914	22.625418
434.938453	22.738338
435.371979	22.850340
435.805492	22.958560
436.238991	23.074342
436.672477	23.201798
437.105949	23.313715
437.539407	23.387869
437.972852	23.466723
438.406283	23.549357
438.839700	23.639891
439.273104	23.742054
439.706494	23.826495
440.139871	23.933001
440.573233	24.036937
441.006582	24.119501
441.439917	24.197956
441.873238	24.259134
442.306546	24.311419
442.739839	24.365177
443.173119	24.411163
443.606385	24.456615
444.039636	24.498969
444.472874	24.563528
444.906099	24.633650
445.339309	24.716707
445.772505	24.808298
446.205687	24.907110
446.638855	24.991182
447.072009	25.089056
447.505149	25.177723
447.938275	25.278757
448.371387	25.364425
448.804485	25.435878
449.237569	25.492023
449.670638	25.529976
450.103694	25.552769
450.536735	25.575464
450.969762	25.611747
451.402774	25.635365
451.835773	25.653417
452.268757	25.696027
452.701727	25.727988
453.134683	25.783623
453.567624	25.814356
454.000551	25.852188
454.433464	25.881772
454.866362	25.913417
455.299246	25.937963
455.732116	25.938647
456.164971	25.943644
456.597811	25.945048
457.030638	25.942310
457.463449	25.935418
457.896246	25.930157
458.329029	25.922189
458.761797	25.916042
459.194551	25.890580
459.627290	25.869001
460.060014	25.851152
460.492724	25.821368
460.925419	25.786166
461.358099	25.742413
461.790765	25.696082
462.223416	25.642490
462.656052	25.574690
463.088674	25.518446
463.521281	25.433983
463.953873	25.340971
464.386450	25.245336
464.819012	25.159987
465.251560	25.060900
465.684093	24.949032
466.116611	24.853236
466.549114	24.752850
466.981602	24.655775
467.414075	24.550113
467.846533	24.439534
468.278977	24.319749
468.711405	24.181480
469.143818	24.058956
469.576216	23.914507
470.008600	23.765719
470.440968	23.596889
470.873321	23.434739
471.305659	23.252465
471.737982	23.072342
472.170289	22.876200
472.602582	22.693234
473.034859	22.507990
473.467122	22.327605
473.899369	22.148374
474.331600	21.982844
474.763817	21.825104
475.196018	21.675335
475.628204	21.549552
476.060375	21.430366
476.492530	21.310312
476.924670	21.203248
477.356795	21.110052
477.788904	21.013725
478.220998	20.922423
478.653076	20.854181
479.085139	20.798704
479.517186	20.746621
479.949219	20.695412
480.381235	20.663140
480.813236	20.649323
481.245221	20.653798
481.677191	20.685546
482.109146	20.728025
482.541084	20.780776
482.973008	20.853424
483.404915	20.936201
483.836807	21.044393
484.268683	21.153625
484.700544	21.271353
485.132388	21.410095
485.564217	21.560096
485.996031	21.714503
486.427828	21.883717
486.859610	22.063088
487.291376	22.253064
487.723126	22.460967
488.154860	22.692285
488.586579	22.939906
489.018281	23.204915
489.449968	23.496783
489.881639	23.816736
490.313293	24.161392
490.744932	24.529037
491.176555	24.913991
491.608162	25.309163
492.039753	25.703527
492.471328	26.095137
492.902886	26.479849
493.334429	26.865169
493.765956	27.242716
494.197466	27.625436
494.628960	28.005664
495.060439	28.393523
495.491901	28.795977
495.923347	29.223741
496.354776	29.656671
496.786190	30.118106
497.217587	30.579317
497.648968	31.059523
498.080332	31.547848
498.511681	32.039360
498.943013	32.527196
499.374328	33.021654
499.805628	33.512700
500.236911	34.002936
500.668177	34.473580
501.099427	34.939894
501.530661	35.396600
501.961878	35.843058
502.393079	36.277979
502.824264	36.706120
503.255431	37.113315
503.686583	37.516713
504.117717	37.911702
504.548835	38.329243
504.979937	38.751348
505.411022	39.170934
505.842090	39.594442
506.273142	40.031424
506.704177	40.486409
507.135195	40.931417
507.566197	41.366691
507.997182	41.801103
508.428150	42.204388
508.859102	42.578896
509.290036	42.930508
509.720954	43.275528
510.151855	43.586566
510.582739	43.905269
511.013607	44.213523
511.444457	44.530614
511.875291	44.853289
512.306107	45.210764
512.736907	45.575527
513.167690	45.952227
513.598456	46.346928
514.029205	46.774262
514.459936	47.197926
514.890651	47.619804
515.321349	48.038852
515.752030	48.445132
516.182693	48.838864
516.613340	49.231124
517.043969	49.613382
517.474582	49.983368
517.905177	50.326099
518.335755	50.654358
518.766315	50.985628
519.196859	51.301392
519.627385	51.617590
520.057894	51.921543
520.488386	52.238413
520.918860	52.559108
521.349318	52.912564
521.779757	53.292467
522.210180	53.706105
522.640585	54.129192
523.070973	54.576936
523.501343	55.049279
523.931696	55.530835
524.362031	56.015546
524.792349	56.506108
525.222650	56.996845
525.652933	57.458328
526.083198	57.898910
526.513446	58.315898
526.943677	58.713752
527.373890	59.104493
527.804085	59.481368
528.234262	59.843969
528.664422	60.223330
529.094565	60.611986
529.524689	61.011554
529.954796	61.414432
530.384885	61.832270
530.814957	62.263646
531.245011	62.724632
531.675047	63.206105
532.105065	63.696913
532.535065	64.208069
532.965048	64.720575
533.395013	65.207459
533.824959	65.700690
534.254888	66.182594
534.684799	66.620347
535.114693	67.036098
535.544568	67.422054
535.974425	67.792063
536.404264	68.115917
536.834086	68.415035
537.263889	68.695605
537.693674	68.963019
538.123441	69.219618
538.553190	69.456642
538.982921	69.705577
539.412634	69.958529
539.842329	70.249663
540.272006	70.534538
540.701664	70.808633
541.131304	71.112902
541.560926	71.410613
541.990530	71.708365
542.420116	72.017162
542.849683	72.313610
543.279232	72.620887
543.708763	72.900128
544.138275	73.172391
544.567769	73.399225
544.997245	73.603961
545.426702	73.781269
545.856141	73.932414
546.285562	74.072604
546.714964	74.208519
547.144347	74.318905
547.573713	74.438016
548.003059	74.563743
548.432387	74.706917
548.861697	74.876406
549.290988	75.059797
549.720260	75.271876
550.149514	75.503694
550.578750	75.755035
551.007966	76.017786
551.437164	76.310367
551.866344	76.602356
552.295504	76.882418
552.724646	77.176232
553.153769	77.433167
553.582874	77.682158
554.011960	77.906324
554.441027	78.088611
554.870075	78.250537
555.299104	78.374246
555.728115	78.444158
556.157106	78.512464
556.586079	78.540652
557.015033	78.553538
557.443968	78.550880
557.872884	78.537316
558.301781	78.520967
558.730659	78.531574
559.159518	78.543855
559.588358	78.565563
560.017180	78.608918
560.445982	78.672339
560.874765	78.747897
561.303528	78.834127
561.732273	78.941743
562.160999	79.049131
562.589705	79.163572
563.018393	79.294132
563.447061	79.422956
563.875710	79.548972
564.304340	79.680130
564.732950	79.787810
565.161542	79.897172
565.590114	80.006266
566.018666	80.095112
566.447200	80.182517
566.875714	80.260972
567.304208	80.345220
567.732684	80.430147
568.161140	80.516373
568.589576	80.611389
569.017993	80.718706
569.446391	80.824241
569.874769	80.951139
570.303128	81.084974
570.731467	81.234230
571.159787	81.408932
571.588087	81.596532
572.016368	81.777637
572.444629	81.968584
572.872870	82.150343
573.301092	82.332035
573.729294	82.495649
574.157476	82.638196
574.585639	82.757686
575.013782	82.834126
575.441906	82.880882
575.870009	82.891255
576.298093	82.853174
576.726157	82.783642
577.154202	82.680719
577.582226	82.568391
578.010231	82.418583
578.438216	82.267933
578.866181	82.095068
579.294126	81.942909
579.722051	81.796605
580.149957	81.674079
580.577842	81.551529
581.005707	81.442050
581.433553	81.353110
581.861378	81.282976
582.289184	81.231959
582.716969	81.186344
583.144734	81.125192
583.572479	81.096668
584.000205	81.060775
584.427910	81.024703
584.855594	80.989054
585.283259	80.947524
585.710904	80.913225
586.138528	80.870417
586.566132	80.826590
586.993716	80.777953
587.421280	80.728835
587.848823	80.680996
588.276346	80.635343
588.703849	80.567803
589.131332	80.495937
589.558794	80.422673
589.986236	80.333721
590.413657	80.245289
590.841058	80.135577
591.268438	80.031921
591.695799	79.918304
592.123138	79.807700
592.550458	79.693216
592.977756	79.578093
593.405034	79.461785
593.832292	79.361849
594.259529	79.273084
594.686746	79.184177
595.113942	79.104694
595.541117	79.012910
595.968272	78.924032
596.395406	78.851885
596.822519	78.756569
597.249612	78.658622
597.676684	78.542439
598.103735	78.401836
598.530766	78.247050
598.957775	78.071785
599.384764	77.870965
599.811733	77.634831
600.238680	77.398475
600.665606	77.137428
601.092512	76.871487
601.519397	76.595109
601.946261	76.326135
602.373104	76.047803
602.799926	75.771294
603.226727	75.507862
603.653507	75.241786
604.080266	74.975598
604.507004	74.717790
604.933721	74.451317
605.360417	74.191547
605.787092	73.921695
606.213746	73.635672
606.640379	73.328222
607.066991	73.010218
607.493581	72.668233
607.920150	72.320411
608.346699	71.957132
608.773226	71.591189
609.199731	71.213485
609.626216	70.826899
610.052679	70.436428
610.479121	70.037503
610.905542	69.641031
611.331941	69.253405
611.758319	68.855900
612.184676	68.461810
612.611011	68.075040
613.037325	67.690356
613.463617	67.284943
613.889888	66.878296
614.316138	66.452990
614.742366	66.024455
615.168573	65.581786
615.594758	65.136741
616.020921	64.686627
616.447063	64.225106
616.873184	63.765505
617.299283	63.304688
617.725360	62.849588
618.151416	62.405466
618.577450	61.965247
619.003462	61.524432
619.429453	61.109267
619.855422	60.711228
620.281369	60.321922
620.707295	59.945726
621.133199	59.572566
621.559081	59.193028
621.984941	58.812025
622.410779	58.422270
622.836596	58.016911
623.262391	57.606343
623.688163	57.179419
624.113914	56.742303
624.539644	56.277085
624.965351	55.796008
625.391036	55.289269
625.816699	54.771917
626.242340	54.244429
626.667960	53.711850
627.093557	53.173185
627.519132	52.642616
627.944685	52.096846
628.370216	51.562954
628.795725	51.028795
629.221212	50.493725
629.646677	49.968745
630.072119	49.449458
630.497540	48.931047
630.922938	48.413713
631.348314	47.896389
631.773668	47.387599
632.198999	46.883467
632.624308	46.386302
633.049595	45.901515
633.474860	45.428471
633.900102	44.972251
634.325322	44.533486
634.750520	44.128654
635.175695	43.749356
635.600848	43.408202
636.025978	43.106099
636.451086	42.839253
636.876171	42.614430
637.301234	42.414789
637.726275	42.260869
638.151293	42.148554
638.576288	42.064707
639.001261	42.018232
639.426211	42.004962
639.851139	42.007872
640.276044	42.036037
640.700927	42.084798
641.125787	42.156446
641.550624	42.246289
641.975438	42.356769
642.400230	42.485763
642.824999	42.621853
643.249745	42.764086
643.674469	42.928032
644.099169	43.107010
644.523847	43.302020
644.948502	43.509634
645.373135	43.733004
645.797744	43.964121
646.222330	44.209131
646.646894	44.467234
647.071435	44.738225
647.495953	45.018862
647.920447	45.294932
648.344919	45.582840
648.769368	45.870060
649.193794	46.158454
649.618197	46.442544
650.042576	46.727687
650.466933	47.018090
650.891267	47.302092
651.315577	47.587967
651.739864	47.875088
652.164129	48.154410
652.588370	48.435373
653.012587	48.727734
653.436782	49.026304
653.860953	49.331174
654.285102	49.646911
654.709226	49.963105
655.133328	50.297143
655.557406	50.634281
655.981461	50.992278
656.405493	51.364388
656.829501	51.740149
657.253486	52.118775
657.677448	52.499459
658.101386	52.878950
658.525301	53.256803
658.949192	53.636958
659.373060	54.006304
659.796904	54.363178
660.220725	54.713533
660.644522	55.051832
661.068296	55.390227
661.492046	55.728229
661.915772	56.059044
662.339475	56.387455
662.763154	56.718056
663.186810	57.047809
663.610442	57.384942
664.034050	57.728950
664.457635	58.079305
664.881196	58.445810
665.304733	58.831378
665.728247	59.227064
666.151736	59.640512
666.575202	60.063258
666.998644	60.506398
667.422062	60.960779
667.845457	61.421423
668.268827	61.883020
668.692174	62.356459
669.115496	62.826932
669.538795	63.291571
669.962070	63.749106
670.385321	64.202683
670.808547	64.638488
671.231750	65.071165
671.654929	65.491367
672.078084	65.892777
672.501214	66.280987
672.924321	66.655375
673.347404	67.014742
673.770462	67.365481
674.193496	67.695480
674.616506	68.004759
675.039492	68.303337
675.462454	68.594778
675.885391	68.869030
676.308305	69.135127
676.731194	69.397377
677.154058	69.656172
677.576899	69.898574
677.999715	70.140923
678.422507	70.380050
678.845274	70.612755
679.268017	70.836823
679.690736	71.060980
680.113430	71.266716
680.536100	71.472016
680.958746	71.678875
681.381367	71.875469
681.803963	72.057500
682.226535	72.237375
682.649083	72.419668
683.071605	72.598289
683.494104	72.771708
683.916578	72.946758
684.339027	73.112490
684.761451	73.268815
685.183851	73.417475
685.606227	73.568921
686.028577	73.715272
686.450903	73.853832
686.873204	73.981041
687.295481	74.113445
687.717733	74.228206
688.139959	74.328959
688.562162	74.406555
688.984339	74.473793
689.406492	74.522702
689.828619	74.554266
690.250722	74.562376
690.672800	74.573037
691.094853	74.564347
691.516881	74.528593
691.938884	74.480714
692.360863	74.423906
692.782816	74.357495
693.204744	74.293045
693.626647	74.219357
694.048526	74.143882
694.470379	74.076660
694.892207	74.015469
695.314010	73.966681
695.735788	73.928483
696.157540	73.907221
696.579268	73.907659
697.000970	73.925591
697.422648	73.962774
697.844300	74.015527
698.265926	74.098421
698.687528	74.189390
699.109104	74.304393
699.530655	74.429172
699.952181	74.575450
