Time1=100ms:Average1=5:Objective=10X:Aperture=1: (11/28/2018 10:37:27 AM)
11/28/2018 10:37:27 AM
Reflectance
10X
Ap#: 1
Avg1: 5.000000
Avg2: 0.000000
Int.Time1:100.000000

420.190645	9.110762
420.624620	8.956725
421.058582	8.842771
421.492531	8.716865
421.926468	8.591885
422.360391	8.470103
422.794301	8.369986
423.228199	8.277199
423.662083	8.188936
424.095955	8.121706
424.529813	8.045597
424.963658	7.996124
425.397491	7.923042
425.831310	7.877571
426.265116	7.828749
426.698909	7.785565
427.132689	7.741808
427.566455	7.724367
428.000209	7.679165
428.433949	7.632483
428.867676	7.600189
429.301389	7.560851
429.735090	7.557299
430.168777	7.538381
430.602451	7.514007
431.036111	7.478028
431.469759	7.457938
431.903392	7.438920
432.337013	7.413636
432.770620	7.391455
433.204213	7.374058
433.637794	7.358939
434.071360	7.357568
434.504914	7.344444
434.938453	7.342524
435.371979	7.332812
435.805492	7.328567
436.238991	7.321155
436.672477	7.325853
437.105949	7.341471
437.539407	7.347395
437.972852	7.356906
438.406283	7.350862
438.839700	7.356872
439.273104	7.364217
439.706494	7.369223
440.139871	7.380762
440.573233	7.383555
441.006582	7.383812
441.439917	7.408019
441.873238	7.421916
442.306546	7.429756
442.739839	7.455207
443.173119	7.459796
443.606385	7.480922
444.039636	7.490135
444.472874	7.512043
444.906099	7.523037
445.339309	7.544015
445.772505	7.564940
446.205687	7.591829
446.638855	7.611711
447.072009	7.635009
447.505149	7.654904
447.938275	7.676030
448.371387	7.702098
448.804485	7.732371
449.237569	7.756619
449.670638	7.782825
450.103694	7.799253
450.536735	7.806711
450.969762	7.823516
451.402774	7.840898
451.835773	7.864640
452.268757	7.884420
452.701727	7.893005
453.134683	7.914628
453.567624	7.934834
454.000551	7.968002
454.433464	7.996634
454.866362	8.012696
455.299246	8.041152
455.732116	8.068794
456.164971	8.100742
456.597811	8.129974
457.030638	8.157344
457.463449	8.192055
457.896246	8.229013
458.329029	8.267822
458.761797	8.298521
459.194551	8.335319
459.627290	8.367219
460.060014	8.400410
460.492724	8.435005
460.925419	8.471995
461.358099	8.513857
461.790765	8.553254
462.223416	8.590506
462.656052	8.631783
463.088674	8.674151
463.521281	8.719687
463.953873	8.766406
464.386450	8.818913
464.819012	8.874340
465.251560	8.923010
465.684093	8.976083
466.116611	9.037870
466.549114	9.087585
466.981602	9.133735
467.414075	9.186253
467.846533	9.241577
468.278977	9.298027
468.711405	9.349718
469.143818	9.402817
469.576216	9.447619
470.008600	9.502109
470.440968	9.553924
470.873321	9.604571
471.305659	9.653374
471.737982	9.704101
472.170289	9.754223
472.602582	9.803358
473.034859	9.849177
473.467122	9.906267
473.899369	9.957377
474.331600	10.004721
474.763817	10.047982
475.196018	10.092866
475.628204	10.147843
476.060375	10.202595
476.492530	10.258738
476.924670	10.316296
477.356795	10.375073
477.788904	10.429145
478.220998	10.485469
478.653076	10.545576
479.085139	10.607860
479.517186	10.667859
479.949219	10.734995
480.381235	10.800446
480.813236	10.853134
481.245221	10.908958
481.677191	10.968149
482.109146	11.031768
482.541084	11.094247
482.973008	11.158846
483.404915	11.219293
483.836807	11.281945
484.268683	11.351886
484.700544	11.422557
485.132388	11.491552
485.564217	11.556475
485.996031	11.624436
486.427828	11.691499
486.859610	11.752653
487.291376	11.819957
487.723126	11.894075
488.154860	11.965669
488.586579	12.036545
489.018281	12.102496
489.449968	12.166543
489.881639	12.228805
490.313293	12.291443
490.744932	12.351837
491.176555	12.413922
491.608162	12.471452
492.039753	12.528354
492.471328	12.586540
492.902886	12.635896
493.334429	12.682260
493.765956	12.728878
494.197466	12.777837
494.628960	12.825574
495.060439	12.870042
495.491901	12.913447
495.923347	12.960498
496.354776	13.005931
496.786190	13.057529
497.217587	13.113965
497.648968	13.166800
498.080332	13.219613
498.511681	13.273208
498.943013	13.334479
499.374328	13.401470
499.805628	13.470211
500.236911	13.542611
500.668177	13.620027
501.099427	13.693695
501.530661	13.778405
501.961878	13.869204
502.393079	13.963761
502.824264	14.071668
503.255431	14.179777
503.686583	14.298748
504.117717	14.427524
504.548835	14.563934
504.979937	14.713177
505.411022	14.872731
505.842090	15.039587
506.273142	15.223265
506.704177	15.419159
507.135195	15.628226
507.566197	15.860590
507.997182	16.104863
508.428150	16.366936
508.859102	16.651072
509.290036	16.952540
509.720954	17.279095
510.151855	17.622954
510.582739	17.981645
511.013607	18.366477
511.444457	18.772062
511.875291	19.203039
512.306107	19.655314
512.736907	20.133859
513.167690	20.634327
513.598456	21.161484
514.029205	21.715298
514.459936	22.290348
514.890651	22.894994
515.321349	23.521503
515.752030	24.183429
516.182693	24.862909
516.613340	25.577176
517.043969	26.310546
517.474582	27.071347
517.905177	27.852127
518.335755	28.646239
518.766315	29.464021
519.196859	30.295196
519.627385	31.139516
520.057894	31.982764
520.488386	32.840102
520.918860	33.705434
521.349318	34.583035
521.779757	35.473592
522.210180	36.373392
522.640585	37.279400
523.070973	38.190359
523.501343	39.108004
523.931696	40.034433
524.362031	40.958255
524.792349	41.892628
525.222650	42.829013
525.652933	43.757658
526.083198	44.684326
526.513446	45.608477
526.943677	46.533498
527.373890	47.442499
527.804085	48.358379
528.234262	49.267629
528.664422	50.176759
529.094565	51.069313
529.524689	51.956910
529.954796	52.841431
530.384885	53.708642
530.814957	54.569762
531.245011	55.420572
531.675047	56.259775
532.105065	57.084675
532.535065	57.905414
532.965048	58.710456
533.395013	59.519295
533.824959	60.302845
534.254888	61.081662
534.684799	61.861749
535.114693	62.631308
535.544568	63.371663
535.974425	64.106173
536.404264	64.832168
536.834086	65.544908
537.263889	66.229448
537.693674	66.895494
538.123441	67.541962
538.553190	68.167940
538.982921	68.787756
539.412634	69.377357
539.842329	69.958411
540.272006	70.521909
540.701664	71.055144
541.131304	71.578992
541.560926	72.079159
541.990530	72.572863
542.420116	73.056605
542.849683	73.516210
543.279232	73.944434
543.708763	74.372304
544.138275	74.781954
544.567769	75.180178
544.997245	75.557798
545.426702	75.922150
545.856141	76.274653
546.285562	76.630937
546.714964	76.958273
547.144347	77.299448
547.573713	77.626997
548.003059	77.949678
548.432387	78.278652
548.861697	78.591149
549.290988	78.894181
549.720260	79.176550
550.149514	79.454159
550.578750	79.736372
551.007966	80.010409
551.437164	80.274194
551.866344	80.534252
552.295504	80.777716
552.724646	81.012449
553.153769	81.242126
553.582874	81.452437
554.011960	81.668618
554.441027	81.863725
554.870075	82.054187
555.299104	82.228114
555.728115	82.384017
556.157106	82.538893
556.586079	82.690489
557.015033	82.822213
557.443968	82.941462
557.872884	83.066495
558.301781	83.192246
558.730659	83.302534
559.159518	83.406345
559.588358	83.499171
560.017180	83.606355
560.445982	83.704697
560.874765	83.794761
561.303528	83.876257
561.732273	83.945026
562.160999	84.024684
562.589705	84.104260
563.018393	84.183500
563.447061	84.265332
563.875710	84.328491
564.304340	84.404296
564.732950	84.487713
565.161542	84.555036
565.590114	84.638000
566.018666	84.724470
566.447200	84.806525
566.875714	84.901260
567.304208	84.999940
567.732684	85.087213
568.161140	85.177192
568.589576	85.268728
569.017993	85.363893
569.446391	85.447272
569.874769	85.540215
570.303128	85.621445
570.731467	85.701635
571.159787	85.744869
571.588087	85.791165
572.016368	85.839732
572.444629	85.874348
572.872870	85.906802
573.301092	85.922152
573.729294	85.919752
574.157476	85.923553
574.585639	85.908192
575.013782	85.901077
575.441906	85.891662
575.870009	85.861512
576.298093	85.840246
576.726157	85.805914
577.154202	85.788609
577.582226	85.768688
578.010231	85.748754
578.438216	85.732131
578.866181	85.712089
579.294126	85.695014
579.722051	85.689590
580.149957	85.673491
580.577842	85.650373
581.005707	85.639085
581.433553	85.618042
581.861378	85.588456
582.289184	85.562148
582.716969	85.529289
583.144734	85.497105
583.572479	85.473743
584.000205	85.442023
584.427910	85.427556
584.855594	85.391143
585.283259	85.351167
585.710904	85.302031
586.138528	85.243751
586.566132	85.175430
586.993716	85.105585
587.421280	85.016189
587.848823	84.929943
588.276346	84.821238
588.703849	84.685011
589.131332	84.547643
589.558794	84.378444
589.986236	84.202529
590.413657	83.989822
590.841058	83.744827
591.268438	83.478096
591.695799	83.198837
592.123138	82.896469
592.550458	82.561023
592.977756	82.197001
593.405034	81.811093
593.832292	81.415104
594.259529	80.991459
594.686746	80.557716
595.113942	80.108526
595.541117	79.639288
595.968272	79.158967
596.395406	78.647998
596.822519	78.126804
597.249612	77.586499
597.676684	77.036052
598.103735	76.469787
598.530766	75.895672
598.957775	75.318255
599.384764	74.720940
599.811733	74.120993
600.238680	73.510921
600.665606	72.885542
601.092512	72.251375
601.519397	71.593069
601.946261	70.936851
602.373104	70.264990
602.799926	69.583723
603.226727	68.875112
603.653507	68.162303
604.080266	67.442254
604.507004	66.694959
604.933721	65.929370
605.360417	65.151873
605.787092	64.360241
606.213746	63.561627
606.640379	62.747488
607.066991	61.919540
607.493581	61.092831
607.920150	60.247007
608.346699	59.392238
608.773226	58.528083
609.199731	57.664046
609.626216	56.802896
610.052679	55.926425
610.479121	55.065279
610.905542	54.190500
611.331941	53.326866
611.758319	52.450415
612.184676	51.579544
612.611011	50.708937
613.037325	49.847749
613.463617	48.997084
613.889888	48.149780
614.316138	47.310253
614.742366	46.496662
615.168573	45.698284
615.594758	44.923085
616.020921	44.174340
616.447063	43.459410
616.873184	42.777152
617.299283	42.122094
617.725360	41.516670
618.151416	40.946616
618.577450	40.411396
619.003462	39.925274
619.429453	39.475383
619.855422	39.076351
620.281369	38.716248
620.707295	38.401249
621.133199	38.134820
621.559081	37.915564
621.984941	37.738198
622.410779	37.604566
622.836596	37.508424
623.262391	37.457276
623.688163	37.434406
624.113914	37.449905
624.539644	37.497432
624.965351	37.584201
625.391036	37.698382
625.816699	37.834938
626.242340	37.998010
626.667960	38.182359
627.093557	38.389273
627.519132	38.615979
627.944685	38.854050
628.370216	39.110808
628.795725	39.381521
629.221212	39.658512
629.646677	39.946689
630.072119	40.241612
630.497540	40.549558
630.922938	40.859229
631.348314	41.178497
631.773668	41.500046
632.198999	41.819522
632.624308	42.143689
633.049595	42.466288
633.474860	42.786316
633.900102	43.106796
634.325322	43.420580
634.750520	43.730080
635.175695	44.036761
635.600848	44.336524
636.025978	44.632146
636.451086	44.921867
636.876171	45.203290
637.301234	45.481158
637.726275	45.745279
638.151293	45.997867
638.576288	46.244886
639.001261	46.486884
639.426211	46.723362
639.851139	46.943644
640.276044	47.166228
640.700927	47.377724
641.125787	47.585105
641.550624	47.772190
641.975438	47.947829
642.400230	48.119129
642.824999	48.271993
643.249745	48.414747
643.674469	48.538955
644.099169	48.647022
644.523847	48.738327
644.948502	48.814797
645.373135	48.882718
645.797744	48.932951
646.222330	48.967716
646.646894	48.994025
647.071435	49.004538
647.495953	49.000528
647.920447	48.990000
648.344919	48.970160
648.769368	48.940811
649.193794	48.903265
649.618197	48.862900
650.042576	48.819127
650.466933	48.781480
650.891267	48.743636
651.315577	48.706423
651.739864	48.673409
652.164129	48.648869
652.588370	48.623924
653.012587	48.599325
653.436782	48.571315
653.860953	48.558890
654.285102	48.545347
654.709226	48.539415
655.133328	48.542041
655.557406	48.552526
655.981461	48.570371
656.405493	48.599224
656.829501	48.631780
657.253486	48.668392
657.677448	48.710565
658.101386	48.767038
658.525301	48.825652
658.949192	48.885712
659.373060	48.954909
659.796904	49.024621
660.220725	49.098837
660.644522	49.179040
661.068296	49.255604
661.492046	49.327846
661.915772	49.399078
662.339475	49.469914
662.763154	49.537841
663.186810	49.600956
663.610442	49.650952
664.034050	49.694568
664.457635	49.733918
664.881196	49.759752
665.304733	49.772381
665.728247	49.777274
666.151736	49.775691
666.575202	49.768688
666.998644	49.741510
667.422062	49.708936
667.845457	49.664039
668.268827	49.610268
668.692174	49.538062
669.115496	49.457541
669.538795	49.358651
669.962070	49.259101
670.385321	49.155826
670.808547	49.040105
671.231750	48.916234
671.654929	48.783099
672.078084	48.651221
672.501214	48.507645
672.924321	48.361354
673.347404	48.216211
673.770462	48.069172
674.193496	47.928373
674.616506	47.791375
675.039492	47.659588
675.462454	47.531023
675.885391	47.405249
676.308305	47.292919
676.731194	47.193345
677.154058	47.106982
677.576899	47.032214
677.999715	46.972909
678.422507	46.930111
678.845274	46.901780
679.268017	46.898112
679.690736	46.897200
680.113430	46.920292
680.536100	46.956649
680.958746	47.014579
681.381367	47.082458
681.803963	47.169433
682.226535	47.269645
682.649083	47.386698
683.071605	47.513359
683.494104	47.644930
683.916578	47.797269
684.339027	47.957535
684.761451	48.133196
685.183851	48.312346
685.606227	48.496033
686.028577	48.689410
686.450903	48.889417
686.873204	49.093537
687.295481	49.297446
687.717733	49.507982
688.139959	49.723664
688.562162	49.940526
688.984339	50.158463
689.406492	50.376470
689.828619	50.592680
690.250722	50.801547
690.672800	51.009745
691.094853	51.206843
691.516881	51.411855
691.938884	51.604845
692.360863	51.787217
692.782816	51.974430
693.204744	52.151214
693.626647	52.319725
694.048526	52.481149
694.470379	52.639553
694.892207	52.794236
695.314010	52.946303
695.735788	53.092871
696.157540	53.238676
696.579268	53.379541
697.000970	53.517421
697.422648	53.650938
697.844300	53.774867
698.265926	53.900241
698.687528	54.035447
699.109104	54.168602
699.530655	54.292440
699.952181	54.425002
