PE UV       SUBTECH     SPECTRUM    ASCII       PEDS        4.00        
   -1
CICIMAUCR0101-1.ASC
24/04/03
16:31:32.00
24/04/03
16:31:32.00
Vinicio Soto Monge
C. resplendens
250,000000
1
Lambda 1050
1050L1511233
PerkinElmer UV WinLab 6.3.2.0749 / 2.02.05 Lambda 900 UV/VIS/NIR, Aug  7 2015 09:38:08

0
0
3350/servo 860,8/2
0
0
UV/VIS
1
1
1
DoubleDePol,CommonBeamDepol,RBeamAtt,SBeamAtt,60mm sphere, WB InGaAs Detector
0
0
0
0
Program
Program
3350/servo 860,8/2
3350/0,2 860,8/0,2
3350/0,2 860,8/0,2
0
15.00
 
 
 
0
 
860,8
319,2
860,8
Front
100
on
S:100 R:100
0
0
0
0
 
0
 
 
 
0
 
 
0
0
0
0
0
 
 
 
 
0
0


0
0
#HDR
-1
-1
#GR
nm
%R
1.0
0.0
2500,000000
-1,000000
2251
8
72,895300
3,379900
#DATA
250.000000	nan
251.000000	nan
252.000000	nan
253.000000	nan
254.000000	nan
255.000000	nan
256.000000	nan
257.000000	nan
258.000000	nan
259.000000	nan
260.000000	nan
261.000000	nan
262.000000	nan
263.000000	nan
264.000000	nan
265.000000	nan
266.000000	nan
267.000000	nan
268.000000	nan
269.000000	nan
270.000000	nan
271.000000	nan
272.000000	nan
273.000000	nan
274.000000	nan
275.000000	nan
276.000000	nan
277.000000	nan
278.000000	nan
279.000000	nan
280.000000	nan
281.000000	nan
282.000000	nan
283.000000	nan
284.000000	4.965800
285.000000	4.955637
286.000000	4.944327
287.000000	4.933444
288.000000	4.922498
289.000000	4.911709
290.000000	4.900777
291.000000	4.891269
292.000000	4.880885
293.000000	4.871264
294.000000	4.861037
295.000000	4.850240
296.000000	4.841273
297.000000	4.831859
298.000000	4.823046
299.000000	4.815260
300.000000	4.806522
301.000000	4.800076
302.000000	4.792729
303.000000	4.785569
304.000000	4.778773
305.000000	4.771848
306.000000	4.766099
307.000000	4.759177
308.000000	4.753574
309.000000	4.747853
310.000000	4.742382
311.000000	4.735945
312.000000	4.732687
313.000000	4.728162
314.000000	4.723218
315.000000	4.717635
316.000000	4.713540
317.000000	4.707846
318.000000	4.707122
319.000000	4.706157
320.000000	4.702387
321.000000	4.701817
322.000000	4.701480
323.000000	4.701238
324.000000	4.699144
325.000000	4.698223
326.000000	4.696492
327.000000	4.695120
328.000000	4.691011
329.000000	4.689043
330.000000	4.690038
331.000000	4.690653
332.000000	4.690468
333.000000	4.688886
334.000000	4.688421
335.000000	4.689300
336.000000	4.687484
337.000000	4.686902
338.000000	4.684857
339.000000	4.682862
340.000000	4.682504
341.000000	4.683485
342.000000	4.683887
343.000000	4.685072
344.000000	4.683576
345.000000	4.681931
346.000000	4.682622
347.000000	4.680969
348.000000	4.680594
349.000000	4.681481
350.000000	4.683099
351.000000	4.684959
352.000000	4.688203
353.000000	4.685136
354.000000	4.683380
355.000000	4.685034
356.000000	4.686786
357.000000	4.687428
358.000000	4.687613
359.000000	4.690722
360.000000	4.693334
361.000000	4.696594
362.000000	4.701039
363.000000	4.708433
364.000000	4.716026
365.000000	4.720294
366.000000	4.724357
367.000000	4.730116
368.000000	4.738072
369.000000	4.744956
370.000000	4.751785
371.000000	4.759882
372.000000	4.769232
373.000000	4.781014
374.000000	4.793145
375.000000	4.804314
376.000000	4.814445
377.000000	4.824291
378.000000	4.834513
379.000000	4.846933
380.000000	4.861274
381.000000	4.873731
382.000000	4.887130
383.000000	4.901565
384.000000	4.915446
385.000000	4.931035
386.000000	4.946055
387.000000	4.961848
388.000000	4.979676
389.000000	4.997330
390.000000	5.015909
391.000000	5.033605
392.000000	5.052581
393.000000	5.073402
394.000000	5.094508
395.000000	5.116704
396.000000	5.139475
397.000000	5.162376
398.000000	5.186517
399.000000	5.210843
400.000000	5.237087
401.000000	5.265494
402.000000	5.295637
403.000000	5.326866
404.000000	5.360496
405.000000	5.396062
406.000000	5.434751
407.000000	5.475339
408.000000	5.517752
409.000000	5.563793
410.000000	5.613944
411.000000	5.668655
412.000000	5.728807
413.000000	5.793274
414.000000	5.863173
415.000000	5.938393
416.000000	6.019803
417.000000	6.107549
418.000000	6.201641
419.000000	6.302725
420.000000	6.410894
421.000000	6.526498
422.000000	6.650282
423.000000	6.782479
424.000000	6.923359
425.000000	7.072962
426.000000	7.231395
427.000000	7.399159
428.000000	7.576367
429.000000	7.762383
430.000000	7.957688
431.000000	8.162592
432.000000	8.376448
433.000000	8.598777
434.000000	8.830266
435.000000	9.070919
436.000000	9.320010
437.000000	9.577264
438.000000	9.842452
439.000000	10.114588
440.000000	10.393387
441.000000	10.678174
442.000000	10.968760
443.000000	11.264438
444.000000	11.564473
445.000000	11.868367
446.000000	12.175135
447.000000	12.484394
448.000000	12.795453
449.000000	13.107509
450.000000	13.419598
451.000000	13.731164
452.000000	14.041997
453.000000	14.350970
454.000000	14.657534
455.000000	14.960515
456.000000	15.259387
457.000000	15.553999
458.000000	15.843193
459.000000	16.126225
460.000000	16.403329
461.000000	16.673731
462.000000	16.936378
463.000000	17.190951
464.000000	17.437016
465.000000	17.674257
466.000000	17.901889
467.000000	18.120255
468.000000	18.328824
469.000000	18.526916
470.000000	18.714467
471.000000	18.891369
472.000000	19.057670
473.000000	19.212952
474.000000	19.357611
475.000000	19.491947
476.000000	19.615819
477.000000	19.729491
478.000000	19.833857
479.000000	19.929964
480.000000	20.017539
481.000000	20.097116
482.000000	20.170242
483.000000	20.237217
484.000000	20.298859
485.000000	20.355990
486.000000	20.409914
487.000000	20.461927
488.000000	20.513106
489.000000	20.564483
490.000000	20.617990
491.000000	20.674892
492.000000	20.735851
493.000000	20.802272
494.000000	20.875139
495.000000	20.953873
496.000000	21.039560
497.000000	21.133021
498.000000	21.233824
499.000000	21.343068
500.000000	21.459733
501.000000	21.583398
502.000000	21.714096
503.000000	21.851684
504.000000	21.995626
505.000000	22.145560
506.000000	22.301093
507.000000	22.461664
508.000000	22.626964
509.000000	22.796528
510.000000	22.969723
511.000000	23.147271
512.000000	23.329059
513.000000	23.514821
514.000000	23.704891
515.000000	23.900097
516.000000	24.101713
517.000000	24.310969
518.000000	24.528550
519.000000	24.755548
520.000000	24.993616
521.000000	25.243927
522.000000	25.507313
523.000000	25.785883
524.000000	26.080809
525.000000	26.393348
526.000000	26.724651
527.000000	27.075286
528.000000	27.446995
529.000000	27.841277
530.000000	28.258807
531.000000	28.699520
532.000000	29.164136
533.000000	29.653690
534.000000	30.166582
535.000000	30.704595
536.000000	31.265974
537.000000	31.851276
538.000000	32.459711
539.000000	33.091507
540.000000	33.744776
541.000000	34.420616
542.000000	35.118551
543.000000	35.839319
544.000000	36.581563
545.000000	37.344925
546.000000	38.127641
547.000000	38.928755
548.000000	39.746206
549.000000	40.579527
550.000000	41.426939
551.000000	42.286044
552.000000	43.154712
553.000000	44.030787
554.000000	44.912371
555.000000	45.797114
556.000000	46.682716
557.000000	47.565893
558.000000	48.444454
559.000000	49.315219
560.000000	50.182277
561.000000	51.037725
562.000000	51.878289
563.000000	52.702161
564.000000	53.505728
565.000000	54.289108
566.000000	55.049907
567.000000	55.788588
568.000000	56.502841
569.000000	57.194590
570.000000	57.860833
571.000000	58.503606
572.000000	59.121567
573.000000	59.715286
574.000000	60.286423
575.000000	60.834932
576.000000	61.361051
577.000000	61.864408
578.000000	62.346127
579.000000	62.808258
580.000000	63.249157
581.000000	63.673585
582.000000	64.080470
583.000000	64.470290
584.000000	64.844253
585.000000	65.202420
586.000000	65.547309
587.000000	65.878739
588.000000	66.196575
589.000000	66.500884
590.000000	66.791079
591.000000	67.067888
592.000000	67.331651
593.000000	67.581897
594.000000	67.817170
595.000000	68.032166
596.000000	68.231468
597.000000	68.417194
598.000000	68.587639
599.000000	68.742616
600.000000	68.883447
601.000000	69.010458
602.000000	69.121813
603.000000	69.219041
604.000000	69.302085
605.000000	69.371937
606.000000	69.429394
607.000000	69.472371
608.000000	69.504507
609.000000	69.522331
610.000000	69.529243
611.000000	69.521659
612.000000	69.501784
613.000000	69.468223
614.000000	69.418323
615.000000	69.355066
616.000000	69.273612
617.000000	69.174141
618.000000	69.057249
619.000000	68.920533
620.000000	68.762477
621.000000	68.579951
622.000000	68.373445
623.000000	68.141482
624.000000	67.881381
625.000000	67.594342
626.000000	67.277298
627.000000	66.929738
628.000000	66.550497
629.000000	66.141119
630.000000	65.698141
631.000000	65.223921
632.000000	64.718615
633.000000	64.183480
634.000000	63.620257
635.000000	63.028586
636.000000	62.412705
637.000000	61.776194
638.000000	61.121128
639.000000	60.449265
640.000000	59.765831
641.000000	59.073536
642.000000	58.378797
643.000000	57.682526
644.000000	56.991455
645.000000	56.307202
646.000000	55.635460
647.000000	54.980430
648.000000	54.344770
649.000000	53.733455
650.000000	53.150044
651.000000	52.597483
652.000000	52.079084
653.000000	51.597131
654.000000	51.154140
655.000000	50.752379
656.000000	50.392313
657.000000	50.075511
658.000000	49.803136
659.000000	49.576915
660.000000	49.395466
661.000000	49.258807
662.000000	49.169011
663.000000	49.125566
664.000000	49.127302
665.000000	49.176143
666.000000	49.270007
667.000000	49.406255
668.000000	49.583516
669.000000	49.801099
670.000000	50.057741
671.000000	50.350176
672.000000	50.673035
673.000000	51.025636
674.000000	51.403644
675.000000	51.801418
676.000000	52.217347
677.000000	52.646774
678.000000	53.083438
679.000000	53.523373
680.000000	53.963688
681.000000	54.401843
682.000000	54.832871
683.000000	55.253689
684.000000	55.661869
685.000000	56.053922
686.000000	56.427794
687.000000	56.782240
688.000000	57.115627
689.000000	57.426512
690.000000	57.716307
691.000000	57.984405
692.000000	58.228213
693.000000	58.449919
694.000000	58.650216
695.000000	58.830750
696.000000	58.991856
697.000000	59.134148
698.000000	59.259615
699.000000	59.370804
700.000000	59.466823
701.000000	59.550774
702.000000	59.624206
703.000000	59.690544
704.000000	59.752324
705.000000	59.808196
706.000000	59.859237
707.000000	59.908500
708.000000	59.957107
709.000000	60.008696
710.000000	60.064480
711.000000	60.123094
712.000000	60.184562
713.000000	60.253698
714.000000	60.331454
715.000000	60.415782
716.000000	60.504655
717.000000	60.601100
718.000000	60.705883
719.000000	60.817370
720.000000	60.937044
721.000000	61.062016
722.000000	61.191790
723.000000	61.327620
724.000000	61.466806
725.000000	61.607455
726.000000	61.752329
727.000000	61.901874
728.000000	62.054403
729.000000	62.209154
730.000000	62.365076
731.000000	62.524945
732.000000	62.686811
733.000000	62.851191
734.000000	63.017389
735.000000	63.187358
736.000000	63.357712
737.000000	63.529001
738.000000	63.700116
739.000000	63.871046
740.000000	64.041803
741.000000	64.211804
742.000000	64.381417
743.000000	64.547161
744.000000	64.707741
745.000000	64.862555
746.000000	65.012858
747.000000	65.159936
748.000000	65.298235
749.000000	65.424904
750.000000	65.543526
751.000000	65.655095
752.000000	65.757568
753.000000	65.850503
754.000000	65.933459
755.000000	66.004788
756.000000	66.067213
757.000000	66.119403
758.000000	66.160942
759.000000	66.194014
760.000000	66.218023
761.000000	66.232331
762.000000	66.235815
763.000000	66.230088
764.000000	66.214656
765.000000	66.191212
766.000000	66.161749
767.000000	66.126921
768.000000	66.084881
769.000000	66.035075
770.000000	65.980013
771.000000	65.925244
772.000000	65.867303
773.000000	65.804594
774.000000	65.738178
775.000000	65.670520
776.000000	65.599648
777.000000	65.526870
778.000000	65.454416
779.000000	65.384939
780.000000	65.317617
781.000000	65.247161
782.000000	65.175121
783.000000	65.103957
784.000000	65.034295
785.000000	64.965389
786.000000	64.896774
787.000000	64.825483
788.000000	64.752099
789.000000	64.680450
790.000000	64.607773
791.000000	64.535496
792.000000	64.460907
793.000000	64.384747
794.000000	64.307718
795.000000	64.228232
796.000000	64.145824
797.000000	64.063549
798.000000	63.980408
799.000000	63.897678
800.000000	63.815701
801.000000	63.733266
802.000000	63.650707
803.000000	63.568101
804.000000	63.484210
805.000000	63.399232
806.000000	63.310461
807.000000	63.221277
808.000000	63.130552
809.000000	63.034820
810.000000	62.933444
811.000000	62.831545
812.000000	62.724348
813.000000	62.612437
814.000000	62.488631
815.000000	62.355147
816.000000	62.219472
817.000000	62.079465
818.000000	61.939191
819.000000	61.795821
820.000000	61.648090
821.000000	61.494488
822.000000	61.339084
823.000000	61.186185
824.000000	61.035527
825.000000	60.886017
826.000000	60.732600
827.000000	60.581735
828.000000	60.440425
829.000000	60.301002
830.000000	60.169978
831.000000	60.050968
832.000000	59.938538
833.000000	59.834996
834.000000	59.742654
835.000000	59.654594
836.000000	59.572732
837.000000	59.496961
838.000000	59.432284
839.000000	59.375368
840.000000	59.329872
841.000000	59.286600
842.000000	59.245613
843.000000	59.209506
844.000000	59.181107
845.000000	59.157947
846.000000	59.135021
847.000000	59.116094
848.000000	59.102130
849.000000	59.081343
850.000000	59.057461
851.000000	59.037702
852.000000	59.022355
853.000000	59.006746
854.000000	58.991605
855.000000	58.967905
856.000000	58.960872
857.000000	58.953263
858.000000	58.923092
859.000000	58.948085
860.000000	58.975739
861.000000	59.010421
862.000000	59.049730
863.000000	59.083539
864.000000	59.119442
865.000000	59.152991
866.000000	59.181290
867.000000	59.207475
868.000000	59.230298
869.000000	59.246709
870.000000	59.263763
871.000000	59.277876
872.000000	59.288810
873.000000	59.292285
874.000000	59.294397
875.000000	59.287806
876.000000	59.280597
877.000000	59.272242
878.000000	59.263038
879.000000	59.249967
880.000000	59.234236
881.000000	59.218854
882.000000	59.200927
883.000000	59.179215
884.000000	59.168348
885.000000	59.165076
886.000000	59.157896
887.000000	59.147000
888.000000	59.133000
889.000000	59.118291
890.000000	59.113381
891.000000	59.095894
892.000000	59.079409
893.000000	59.082589
894.000000	59.025774
895.000000	58.964291
896.000000	58.897914
897.000000	58.825937
898.000000	58.750897
899.000000	58.672071
900.000000	58.590500
901.000000	58.504849
902.000000	58.416563
903.000000	58.325029
904.000000	58.231791
905.000000	58.134640
906.000000	58.034646
907.000000	57.933097
908.000000	57.828366
909.000000	57.721806
910.000000	57.613054
911.000000	57.503203
912.000000	57.392403
913.000000	57.279166
914.000000	57.164940
915.000000	57.050754
916.000000	56.935500
917.000000	56.820737
918.000000	56.704129
919.000000	56.587146
920.000000	56.469757
921.000000	56.351749
922.000000	56.233771
923.000000	56.116769
924.000000	56.002194
925.000000	55.887069
926.000000	55.773220
927.000000	55.661449
928.000000	55.551243
929.000000	55.442989
930.000000	55.337069
931.000000	55.234631
932.000000	55.135531
933.000000	55.038969
934.000000	54.946089
935.000000	54.856580
936.000000	54.770671
937.000000	54.687989
938.000000	54.609200
939.000000	54.533200
940.000000	54.460103
941.000000	54.388649
942.000000	54.318383
943.000000	54.251140
944.000000	54.184914
945.000000	54.119789
946.000000	54.054369
947.000000	53.988926
948.000000	53.923154
949.000000	53.856480
950.000000	53.788280
951.000000	53.718786
952.000000	53.648006
953.000000	53.576280
954.000000	53.504011
955.000000	53.430226
956.000000	53.355060
957.000000	53.278440
958.000000	53.199923
959.000000	53.118329
960.000000	53.035711
961.000000	52.949783
962.000000	52.862491
963.000000	52.772986
964.000000	52.681703
965.000000	52.589266
966.000000	52.495637
967.000000	52.401231
968.000000	52.306231
969.000000	52.209900
970.000000	52.112271
971.000000	52.015029
972.000000	51.917200
973.000000	51.818286
974.000000	51.718917
975.000000	51.620257
976.000000	51.522049
977.000000	51.423657
978.000000	51.325286
979.000000	51.226646
980.000000	51.127643
981.000000	51.028043
982.000000	50.928297
983.000000	50.827949
984.000000	50.727663
985.000000	50.627411
986.000000	50.526743
987.000000	50.426069
988.000000	50.326483
989.000000	50.226877
990.000000	50.127757
991.000000	50.030274
992.000000	49.933886
993.000000	49.838940
994.000000	49.745786
995.000000	49.654306
996.000000	49.565700
997.000000	49.478394
998.000000	49.393089
999.000000	49.309731
1000.000000	49.227711
1001.000000	49.145946
1002.000000	49.065280
1003.000000	48.985717
1004.000000	48.907211
1005.000000	48.829377
1006.000000	48.750837
1007.000000	48.672886
1008.000000	48.595354
1009.000000	48.517757
1010.000000	48.439680
1011.000000	48.362183
1012.000000	48.285420
1013.000000	48.209749
1014.000000	48.135869
1015.000000	48.064686
1016.000000	47.997020
1017.000000	47.932577
1018.000000	47.872254
1019.000000	47.815331
1020.000000	47.762206
1021.000000	47.713700
1022.000000	47.668906
1023.000000	47.627917
1024.000000	47.591203
1025.000000	47.558300
1026.000000	47.529186
1027.000000	47.503957
1028.000000	47.482517
1029.000000	47.464609
1030.000000	47.450337
1031.000000	47.439066
1032.000000	47.431389
1033.000000	47.427269
1034.000000	47.426011
1035.000000	47.427691
1036.000000	47.432714
1037.000000	47.440589
1038.000000	47.451194
1039.000000	47.464803
1040.000000	47.481860
1041.000000	47.502386
1042.000000	47.525346
1043.000000	47.551103
1044.000000	47.580406
1045.000000	47.613297
1046.000000	47.648909
1047.000000	47.686911
1048.000000	47.727423
1049.000000	47.769806
1050.000000	47.813289
1051.000000	47.857780
1052.000000	47.903617
1053.000000	47.950989
1054.000000	47.999703
1055.000000	48.049809
1056.000000	48.100394
1057.000000	48.152334
1058.000000	48.205314
1059.000000	48.259037
1060.000000	48.313340
1061.000000	48.368157
1062.000000	48.423111
1063.000000	48.478031
1064.000000	48.533469
1065.000000	48.589583
1066.000000	48.645566
1067.000000	48.701717
1068.000000	48.757837
1069.000000	48.814037
1070.000000	48.870420
1071.000000	48.927280
1072.000000	48.984426
1073.000000	49.041586
1074.000000	49.098763
1075.000000	49.155811
1076.000000	49.212863
1077.000000	49.270614
1078.000000	49.328594
1079.000000	49.386743
1080.000000	49.444434
1081.000000	49.502186
1082.000000	49.560071
1083.000000	49.617806
1084.000000	49.675474
1085.000000	49.733469
1086.000000	49.791314
1087.000000	49.848517
1088.000000	49.904983
1089.000000	49.960480
1090.000000	50.015149
1091.000000	50.069563
1092.000000	50.123031
1093.000000	50.174760
1094.000000	50.225446
1095.000000	50.275757
1096.000000	50.324746
1097.000000	50.373154
1098.000000	50.421180
1099.000000	50.468300
1100.000000	50.514949
1101.000000	50.560897
1102.000000	50.605606
1103.000000	50.649354
1104.000000	50.692194
1105.000000	50.734011
1106.000000	50.774734
1107.000000	50.814689
1108.000000	50.853751
1109.000000	50.891800
1110.000000	50.928560
1111.000000	50.964326
1112.000000	50.998814
1113.000000	51.032086
1114.000000	51.063657
1115.000000	51.094189
1116.000000	51.123620
1117.000000	51.151320
1118.000000	51.176506
1119.000000	51.198580
1120.000000	51.217237
1121.000000	51.231526
1122.000000	51.241414
1123.000000	51.245897
1124.000000	51.245669
1125.000000	51.239380
1126.000000	51.226820
1127.000000	51.207143
1128.000000	51.179749
1129.000000	51.142146
1130.000000	51.092529
1131.000000	51.028791
1132.000000	50.949191
1133.000000	50.853669
1134.000000	50.742011
1135.000000	50.611074
1136.000000	50.461300
1137.000000	50.292209
1138.000000	50.104214
1139.000000	49.897763
1140.000000	49.673966
1141.000000	49.432309
1142.000000	49.174266
1143.000000	48.900129
1144.000000	48.611329
1145.000000	48.310114
1146.000000	48.000740
1147.000000	47.686820
1148.000000	47.370791
1149.000000	47.055157
1150.000000	46.740503
1151.000000	46.426026
1152.000000	46.112500
1153.000000	45.798386
1154.000000	45.481949
1155.000000	45.160834
1156.000000	44.834091
1157.000000	44.498229
1158.000000	44.152589
1159.000000	43.796129
1160.000000	43.427783
1161.000000	43.049371
1162.000000	42.659829
1163.000000	42.260677
1164.000000	41.853803
1165.000000	41.441577
1166.000000	41.026911
1167.000000	40.612331
1168.000000	40.197957
1169.000000	39.783986
1170.000000	39.372503
1171.000000	38.965334
1172.000000	38.564223
1173.000000	38.167709
1174.000000	37.777140
1175.000000	37.391834
1176.000000	37.011854
