PE UV       SUBTECH     SPECTRUM    ASCII       PEDS        4.00        
   -1
CICIMAUCR0009-1 fail.Sample.ASC
24/03/08
13:57:38.00
24/03/08
13:57:38.00
Vinicio Soto Monge
C. kalinini
250,000000
1
Lambda 1050
1050L1511233
PerkinElmer UV WinLab 6.3.2.0749 / 2.02.05 Lambda 900 UV/VIS/NIR, Aug  7 2015 09:38:08

0
0
3350/servo 860,8/2
0
0
UV/VIS
1
1
1
DoubleDePol,CommonBeamDepol,RBeamAtt,SBeamAtt,60mm sphere, WB InGaAs Detector
0
0
0
0
Program
Program
3350/servo 860,8/2
3350/0,2 860,8/0,2
3350/0,2 860,8/0,2
0
15.00
 
 
 
0
 
860,8
319,2
860,8
Front
100
on
S:100 R:100
0
0
0
0
 
0
 
 
 
0
 
 
0
0
0
0
0
 
 
 
 
0
0


0
0
#HDR
-1
-1
#GR
nm
%R
1.0
0.0
2500,000000
-1,000000
2251
8
24,370700
1,836500
#DATA
250.000000	nan
251.000000	nan
252.000000	nan
253.000000	nan
254.000000	nan
255.000000	nan
256.000000	nan
257.000000	nan
258.000000	nan
259.000000	nan
260.000000	nan
261.000000	nan
262.000000	nan
263.000000	nan
264.000000	nan
265.000000	nan
266.000000	nan
267.000000	nan
268.000000	nan
269.000000	nan
270.000000	nan
271.000000	nan
272.000000	nan
273.000000	nan
274.000000	nan
275.000000	nan
276.000000	nan
277.000000	nan
278.000000	nan
279.000000	nan
280.000000	nan
281.000000	nan
282.000000	nan
283.000000	nan
284.000000	2.192648
285.000000	2.187597
286.000000	2.182064
287.000000	2.177396
288.000000	2.173159
289.000000	2.169631
290.000000	2.165314
291.000000	2.160847
292.000000	2.156623
293.000000	2.153858
294.000000	2.149847
295.000000	2.144822
296.000000	2.138928
297.000000	2.135418
298.000000	2.131743
299.000000	2.128487
300.000000	2.126606
301.000000	2.123812
302.000000	2.120182
303.000000	2.118161
304.000000	2.113780
305.000000	2.111146
306.000000	2.109853
307.000000	2.107800
308.000000	2.107078
309.000000	2.105316
310.000000	2.103393
311.000000	2.101963
312.000000	2.101752
313.000000	2.101206
314.000000	2.101497
315.000000	2.101111
316.000000	2.102289
317.000000	2.127347
318.000000	2.136571
319.000000	2.148484
320.000000	2.160445
321.000000	2.177629
322.000000	2.196046
323.000000	2.209386
324.000000	2.222783
325.000000	2.232796
326.000000	2.249776
327.000000	2.264052
328.000000	2.275476
329.000000	2.282842
330.000000	2.293554
331.000000	2.310384
332.000000	2.317926
333.000000	2.323494
334.000000	2.332712
335.000000	2.341652
336.000000	2.353067
337.000000	2.362889
338.000000	2.365593
339.000000	2.374904
340.000000	2.383387
341.000000	2.389409
342.000000	2.398381
343.000000	2.406552
344.000000	2.415454
345.000000	2.424241
346.000000	2.432319
347.000000	2.438976
348.000000	2.446345
349.000000	2.450879
350.000000	2.456671
351.000000	2.460924
352.000000	2.443593
353.000000	2.441179
354.000000	2.434640
355.000000	2.431986
356.000000	2.424640
357.000000	2.414467
358.000000	2.409876
359.000000	2.405872
360.000000	2.406012
361.000000	2.397069
362.000000	2.393684
363.000000	2.389709
364.000000	2.391928
365.000000	2.391117
366.000000	2.382008
367.000000	2.383007
368.000000	2.385807
369.000000	2.384712
370.000000	2.385076
371.000000	2.381906
372.000000	2.380347
373.000000	2.383614
374.000000	2.382541
375.000000	2.377247
376.000000	2.375584
377.000000	2.370705
378.000000	2.364546
379.000000	2.359095
380.000000	2.354175
381.000000	2.351129
382.000000	2.348511
383.000000	2.346311
384.000000	2.346812
385.000000	2.346423
386.000000	2.345928
387.000000	2.343725
388.000000	2.343951
389.000000	2.344753
390.000000	2.342265
391.000000	2.340426
392.000000	2.340602
393.000000	2.341512
394.000000	2.342792
395.000000	2.344884
396.000000	2.349574
397.000000	2.352735
398.000000	2.358786
399.000000	2.364970
400.000000	2.373741
401.000000	2.386708
402.000000	2.399728
403.000000	2.415032
404.000000	2.432772
405.000000	2.450496
406.000000	2.472987
407.000000	2.499229
408.000000	2.528540
409.000000	2.561389
410.000000	2.602128
411.000000	2.644906
412.000000	2.692800
413.000000	2.744998
414.000000	2.800999
415.000000	2.860652
416.000000	2.924762
417.000000	2.993752
418.000000	3.066729
419.000000	3.144190
420.000000	3.226235
421.000000	3.312536
422.000000	3.403177
423.000000	3.497630
424.000000	3.595847
425.000000	3.697765
426.000000	3.802969
427.000000	3.911528
428.000000	4.023395
429.000000	4.137708
430.000000	4.254422
431.000000	4.373426
432.000000	4.494763
433.000000	4.617591
434.000000	4.741793
435.000000	4.867204
436.000000	4.993963
437.000000	5.121875
438.000000	5.249582
439.000000	5.377197
440.000000	5.505319
441.000000	5.633004
442.000000	5.759833
443.000000	5.885334
444.000000	6.008852
445.000000	6.131342
446.000000	6.252526
447.000000	6.370929
448.000000	6.486372
449.000000	6.599520
450.000000	6.709733
451.000000	6.816341
452.000000	6.919173
453.000000	7.018565
454.000000	7.114471
455.000000	7.206708
456.000000	7.295046
457.000000	7.379119
458.000000	7.459494
459.000000	7.536536
460.000000	7.609875
461.000000	7.679279
462.000000	7.744600
463.000000	7.805451
464.000000	7.862182
465.000000	7.915290
466.000000	7.964461
467.000000	8.009606
468.000000	8.051248
469.000000	8.088806
470.000000	8.122492
471.000000	8.152122
472.000000	8.177921
473.000000	8.200887
474.000000	8.220773
475.000000	8.237826
476.000000	8.252562
477.000000	8.265020
478.000000	8.276020
479.000000	8.286075
480.000000	8.293999
481.000000	8.299300
482.000000	8.303811
483.000000	8.308326
484.000000	8.313779
485.000000	8.321085
486.000000	8.330504
487.000000	8.342631
488.000000	8.357194
489.000000	8.374534
490.000000	8.394219
491.000000	8.416409
492.000000	8.441551
493.000000	8.469706
494.000000	8.500361
495.000000	8.533120
496.000000	8.567997
497.000000	8.604718
498.000000	8.643627
499.000000	8.684931
500.000000	8.728080
501.000000	8.773346
502.000000	8.821032
503.000000	8.870593
504.000000	8.922973
505.000000	8.977827
506.000000	9.035628
507.000000	9.095809
508.000000	9.159137
509.000000	9.226016
510.000000	9.296171
511.000000	9.369825
512.000000	9.447445
513.000000	9.529018
514.000000	9.614588
515.000000	9.704855
516.000000	9.800288
517.000000	9.900766
518.000000	10.005334
519.000000	10.113421
520.000000	10.224997
521.000000	10.339694
522.000000	10.457219
523.000000	10.578345
524.000000	10.703131
525.000000	10.832051
526.000000	10.965972
527.000000	11.105036
528.000000	11.249462
529.000000	11.399785
530.000000	11.556758
531.000000	11.720255
532.000000	11.890789
533.000000	12.068599
534.000000	12.253543
535.000000	12.445530
536.000000	12.643922
537.000000	12.848294
538.000000	13.058874
539.000000	13.274980
540.000000	13.496642
541.000000	13.722896
542.000000	13.953849
543.000000	14.189088
544.000000	14.427580
545.000000	14.669233
546.000000	14.913178
547.000000	15.159901
548.000000	15.408196
549.000000	15.657898
550.000000	15.907492
551.000000	16.156868
552.000000	16.405309
553.000000	16.652173
554.000000	16.897811
555.000000	17.142079
556.000000	17.385089
557.000000	17.626247
558.000000	17.864059
559.000000	18.097969
560.000000	18.314455
561.000000	18.521918
562.000000	18.721901
563.000000	18.913667
564.000000	19.096928
565.000000	19.272344
566.000000	19.440726
567.000000	19.601959
568.000000	19.756879
569.000000	19.905277
570.000000	20.047808
571.000000	20.183383
572.000000	20.312249
573.000000	20.434123
574.000000	20.549700
575.000000	20.658742
576.000000	20.762125
577.000000	20.861096
578.000000	20.955623
579.000000	21.045867
580.000000	21.131565
581.000000	21.212611
582.000000	21.287166
583.000000	21.354888
584.000000	21.415780
585.000000	21.469335
586.000000	21.515616
587.000000	21.555202
588.000000	21.587897
589.000000	21.614303
590.000000	21.633703
591.000000	21.646456
592.000000	21.652152
593.000000	21.651963
594.000000	21.644336
595.000000	21.644307
596.000000	21.639786
597.000000	21.629469
598.000000	21.613735
599.000000	21.592080
600.000000	21.565748
601.000000	21.533679
602.000000	21.497072
603.000000	21.453658
604.000000	21.404538
605.000000	21.350619
606.000000	21.293156
607.000000	21.231437
608.000000	21.167055
609.000000	21.097717
610.000000	21.024267
611.000000	20.946105
612.000000	20.861310
613.000000	20.770912
614.000000	20.675473
615.000000	20.573478
616.000000	20.466697
617.000000	20.353891
618.000000	20.237969
619.000000	20.117440
620.000000	19.993973
621.000000	19.867022
622.000000	19.736783
623.000000	19.604095
624.000000	19.467636
625.000000	19.327961
626.000000	19.185417
627.000000	19.042048
628.000000	18.898887
629.000000	18.756988
630.000000	18.615797
631.000000	18.479204
632.000000	18.347971
633.000000	18.222959
634.000000	18.105166
635.000000	17.993267
636.000000	17.888536
637.000000	17.790024
638.000000	17.699138
639.000000	17.617431
640.000000	17.543397
641.000000	17.477514
642.000000	17.421523
643.000000	17.373642
644.000000	17.335605
645.000000	17.307440
646.000000	17.289250
647.000000	17.281740
648.000000	17.283761
649.000000	17.293615
650.000000	17.313545
651.000000	17.341282
652.000000	17.378594
653.000000	17.423337
654.000000	17.474947
655.000000	17.534099
656.000000	17.600544
657.000000	17.672934
658.000000	17.750065
659.000000	17.831909
660.000000	17.918549
661.000000	18.009072
662.000000	18.101730
663.000000	18.195327
664.000000	18.290997
665.000000	18.387563
666.000000	18.484223
667.000000	18.581061
668.000000	18.677461
669.000000	18.773677
670.000000	18.870387
671.000000	18.967586
672.000000	19.065079
673.000000	19.164474
674.000000	19.264199
675.000000	19.364859
676.000000	19.467869
677.000000	19.571802
678.000000	19.677059
679.000000	19.783847
680.000000	19.893214
681.000000	20.005125
682.000000	20.118969
683.000000	20.235402
684.000000	20.354773
685.000000	20.476800
686.000000	20.602505
687.000000	20.730978
688.000000	20.862741
689.000000	20.998724
690.000000	21.138816
691.000000	21.281514
692.000000	21.428967
693.000000	21.581195
694.000000	21.737099
695.000000	21.896627
696.000000	22.059520
697.000000	22.225488
698.000000	22.394678
699.000000	22.567182
700.000000	22.741643
701.000000	22.916596
702.000000	23.092427
703.000000	23.268989
704.000000	23.445423
705.000000	23.620044
706.000000	23.791833
707.000000	23.960429
708.000000	24.124538
709.000000	24.283903
710.000000	24.437154
711.000000	24.581480
712.000000	24.719331
713.000000	24.849858
714.000000	24.972514
715.000000	25.087252
716.000000	25.194272
717.000000	25.292607
718.000000	25.382555
719.000000	25.465894
720.000000	25.541610
721.000000	25.609987
722.000000	25.672891
723.000000	25.729910
724.000000	25.781079
725.000000	25.826888
726.000000	25.869693
727.000000	25.907506
728.000000	25.941323
729.000000	25.973265
730.000000	26.001643
731.000000	26.027889
732.000000	26.053675
733.000000	26.077663
734.000000	26.100081
735.000000	26.122284
736.000000	26.145053
737.000000	26.167946
738.000000	26.190817
739.000000	26.212657
740.000000	26.235240
741.000000	26.258530
742.000000	26.282783
743.000000	26.307279
744.000000	26.330744
745.000000	26.355457
746.000000	26.382859
747.000000	26.410605
748.000000	26.439514
749.000000	26.468646
750.000000	26.496482
751.000000	26.524500
752.000000	26.555299
753.000000	26.586634
754.000000	26.616820
755.000000	26.647788
756.000000	26.679564
757.000000	26.710031
758.000000	26.739393
759.000000	26.767807
760.000000	26.795643
761.000000	26.824104
762.000000	26.851203
763.000000	26.878148
764.000000	26.903988
765.000000	26.929103
766.000000	26.951364
767.000000	26.970385
768.000000	26.990043
769.000000	27.008463
770.000000	27.023780
771.000000	27.036673
772.000000	27.046415
773.000000	27.054001
774.000000	27.060055
775.000000	27.063363
776.000000	27.063107
777.000000	27.060620
778.000000	27.055032
779.000000	27.046028
780.000000	27.033065
781.000000	27.016101
782.000000	26.994740
783.000000	26.970806
784.000000	26.944861
785.000000	26.915878
786.000000	26.883908
787.000000	26.847767
788.000000	26.807993
789.000000	26.765128
790.000000	26.719460
791.000000	26.667814
792.000000	26.613429
793.000000	26.555739
794.000000	26.495540
795.000000	26.431995
796.000000	26.361479
797.000000	26.288725
798.000000	26.212488
799.000000	26.130305
800.000000	26.043761
801.000000	25.955541
802.000000	25.865567
803.000000	25.769904
804.000000	25.668031
805.000000	25.561563
806.000000	25.452921
807.000000	25.342168
808.000000	25.229104
809.000000	25.111792
810.000000	24.991729
811.000000	24.871417
812.000000	24.748885
813.000000	24.624447
814.000000	24.498819
815.000000	24.372354
816.000000	24.244924
817.000000	24.115624
818.000000	23.988587
819.000000	23.861946
820.000000	23.736835
821.000000	23.613202
822.000000	23.489799
823.000000	23.367813
824.000000	23.250579
825.000000	23.136211
826.000000	23.026452
827.000000	22.917426
828.000000	22.814419
829.000000	22.714203
830.000000	22.615143
831.000000	22.523838
832.000000	22.436026
833.000000	22.354725
834.000000	22.278101
835.000000	22.203959
836.000000	22.135585
837.000000	22.072327
838.000000	22.013916
839.000000	21.963592
840.000000	21.913023
841.000000	21.871649
842.000000	21.832248
843.000000	21.793914
844.000000	21.762480
845.000000	21.733418
846.000000	21.706974
847.000000	21.681868
848.000000	21.659693
849.000000	21.640418
850.000000	21.630098
851.000000	21.618789
852.000000	21.606413
853.000000	21.598230
854.000000	21.592058
855.000000	21.588645
856.000000	21.585640
857.000000	21.596059
858.000000	21.685677
859.000000	21.710629
860.000000	21.735358
861.000000	21.760855
862.000000	21.789453
863.000000	21.816290
864.000000	21.843523
865.000000	21.872149
866.000000	21.898013
867.000000	21.923405
868.000000	21.945446
869.000000	21.967885
870.000000	21.992910
871.000000	22.015701
872.000000	22.036552
873.000000	22.057348
874.000000	22.076707
875.000000	22.102917
876.000000	22.123920
877.000000	22.145933
878.000000	22.169838
879.000000	22.191405
880.000000	22.213435
881.000000	22.235208
882.000000	22.258024
883.000000	22.281214
884.000000	22.306191
885.000000	22.324120
886.000000	22.345817
887.000000	22.373308
888.000000	22.395297
889.000000	22.416502
890.000000	22.435804
891.000000	22.453272
892.000000	22.457977
893.000000	22.383860
894.000000	22.371746
895.000000	22.356326
896.000000	22.339263
897.000000	22.319926
898.000000	22.298363
899.000000	22.276014
900.000000	22.252943
901.000000	22.228571
902.000000	22.202660
903.000000	22.175374
904.000000	22.147566
905.000000	22.118306
906.000000	22.088177
907.000000	22.057229
908.000000	22.025283
909.000000	21.992563
910.000000	21.958969
911.000000	21.924771
912.000000	21.890317
913.000000	21.855491
914.000000	21.821100
915.000000	21.787243
916.000000	21.752451
917.000000	21.717400
918.000000	21.682626
919.000000	21.646446
920.000000	21.611474
921.000000	21.577111
922.000000	21.542217
923.000000	21.506960
924.000000	21.471040
925.000000	21.435506
926.000000	21.401306
927.000000	21.367731
928.000000	21.334626
929.000000	21.301666
930.000000	21.270626
931.000000	21.239443
932.000000	21.209020
933.000000	21.179577
934.000000	21.150746
935.000000	21.122283
936.000000	21.094657
937.000000	21.068260
938.000000	21.042963
939.000000	21.017660
940.000000	20.992997
941.000000	20.968340
942.000000	20.944174
943.000000	20.919871
944.000000	20.894771
945.000000	20.870557
946.000000	20.846437
947.000000	20.822917
948.000000	20.798700
949.000000	20.774566
950.000000	20.750620
951.000000	20.727077
952.000000	20.704314
953.000000	20.681320
954.000000	20.658820
955.000000	20.636137
956.000000	20.613363
957.000000	20.591997
958.000000	20.571057
959.000000	20.551103
960.000000	20.530971
961.000000	20.511063
962.000000	20.492123
963.000000	20.473060
964.000000	20.454940
965.000000	20.437400
966.000000	20.421031
967.000000	20.405700
968.000000	20.390989
969.000000	20.377151
970.000000	20.364097
971.000000	20.351789
972.000000	20.339146
973.000000	20.327420
974.000000	20.316631
975.000000	20.306877
976.000000	20.298331
977.000000	20.290271
978.000000	20.283160
979.000000	20.277291
980.000000	20.271171
981.000000	20.265423
982.000000	20.260183
983.000000	20.255134
984.000000	20.250326
985.000000	20.245434
986.000000	20.240671
987.000000	20.235649
988.000000	20.230980
989.000000	20.226851
990.000000	20.223357
991.000000	20.220300
992.000000	20.216943
993.000000	20.214051
994.000000	20.211997
995.000000	20.211003
996.000000	20.210066
997.000000	20.209997
998.000000	20.211280
999.000000	20.212431
1000.000000	20.214651
1001.000000	20.217631
1002.000000	20.220694
1003.000000	20.223689
1004.000000	20.227249
1005.000000	20.231420
1006.000000	20.235740
1007.000000	20.241006
1008.000000	20.245863
1009.000000	20.251551
1010.000000	20.258023
1011.000000	20.264620
1012.000000	20.271580
1013.000000	20.279529
1014.000000	20.288120
1015.000000	20.297343
1016.000000	20.307646
1017.000000	20.318871
1018.000000	20.331357
1019.000000	20.344723
1020.000000	20.359609
1021.000000	20.376137
1022.000000	20.394114
1023.000000	20.413049
1024.000000	20.432954
1025.000000	20.453791
1026.000000	20.475303
1027.000000	20.497851
1028.000000	20.521683
1029.000000	20.546086
1030.000000	20.571540
1031.000000	20.598463
1032.000000	20.625703
1033.000000	20.653166
1034.000000	20.681906
1035.000000	20.710717
1036.000000	20.739429
1037.000000	20.768923
1038.000000	20.800043
1039.000000	20.830871
1040.000000	20.861477
1041.000000	20.892886
1042.000000	20.924889
1043.000000	20.957383
1044.000000	20.989911
1045.000000	21.022343
1046.000000	21.055209
1047.000000	21.088500
1048.000000	21.121497
1049.000000	21.154706
1050.000000	21.187771
1051.000000	21.220194
1052.000000	21.251951
1053.000000	21.284277
1054.000000	21.316900
1055.000000	21.348511
1056.000000	21.380183
1057.000000	21.411689
1058.000000	21.442986
1059.000000	21.474309
1060.000000	21.505303
1061.000000	21.537000
1062.000000	21.568226
1063.000000	21.598809
1064.000000	21.629626
1065.000000	21.660337
1066.000000	21.690537
1067.000000	21.721086
1068.000000	21.752020
1069.000000	21.782786
1070.000000	21.813209
1071.000000	21.843866
1072.000000	21.874394
1073.000000	21.904829
1074.000000	21.935814
1075.000000	21.967337
1076.000000	21.998577
1077.000000	22.030303
1078.000000	22.062849
1079.000000	22.095720
1080.000000	22.128586
1081.000000	22.161317
1082.000000	22.194209
1083.000000	22.227151
1084.000000	22.260254
1085.000000	22.293726
1086.000000	22.327891
1087.000000	22.362617
1088.000000	22.396860
1089.000000	22.430794
1090.000000	22.464603
1091.000000	22.497486
1092.000000	22.529891
1093.000000	22.561917
1094.000000	22.592974
1095.000000	22.623960
1096.000000	22.653531
1097.000000	22.682740
1098.000000	22.710986
1099.000000	22.738340
1100.000000	22.765274
1101.000000	22.791737
1102.000000	22.817043
1103.000000	22.841031
1104.000000	22.865071
1105.000000	22.888529
1106.000000	22.911683
1107.000000	22.934094
1108.000000	22.955254
1109.000000	22.974669
1110.000000	22.993626
1111.000000	23.012074
1112.000000	23.029706
1113.000000	23.046014
1114.000000	23.061514
1115.000000	23.076186
1116.000000	23.090251
1117.000000	23.103737
1118.000000	23.116537
1119.000000	23.127951
1120.000000	23.138209
1121.000000	23.146360
1122.000000	23.152951
1123.000000	23.158183
1124.000000	23.161371
1125.000000	23.163089
1126.000000	23.163003
1127.000000	23.161380
1128.000000	23.156854
1129.000000	23.149451
1130.000000	23.137726
1131.000000	23.122180
1132.000000	23.101251
1133.000000	23.075257
1134.000000	23.045277
1135.000000	23.009349
1136.000000	22.968054
1137.000000	22.920829
1138.000000	22.867571
1139.000000	22.807789
1140.000000	22.742786
1141.000000	22.672811
1142.000000	22.597566
1143.000000	22.517680
1144.000000	22.433934
1145.000000	22.346777
1146.000000	22.257154
1147.000000	22.165414
1148.000000	22.072494
1149.000000	21.979083
1150.000000	21.884951
1151.000000	21.790580
1152.000000	21.695946
1153.000000	21.600851
1154.000000	21.503174
1155.000000	21.403294
1156.000000	21.301986
1157.000000	21.197186
1158.000000	21.088829
1159.000000	20.977397
1160.000000	20.861591
1161.000000	20.743206
1162.000000	20.621326
1163.000000	20.496997
1164.000000	20.369263
1165.000000	20.240483
1166.000000	20.109646
1167.000000	19.979157
1168.000000	19.849294
1169.000000	19.719617
1170.000000	19.590029
1171.000000	19.460914
1172.000000	19.333717
1173.000000	19.209060
1174.000000	19.085837
1175.000000	18.964446
1176.000000	18.843937
1177.000000	18.724520
1178.000000	18.604503
1179.000000	18.483591
1180.000000	18.359986
