PE UV       SUBTECH     SPECTRUM    ASCII       PEDS        4.00        
   -1
CICIMAUCR0158-1.ASC
24/04/03
16:46:49.00
24/04/03
16:46:49.00
Vinicio Soto Monge
C. cupreomarginata
250,000000
1
Lambda 1050
1050L1511233
PerkinElmer UV WinLab 6.3.2.0749 / 2.02.05 Lambda 900 UV/VIS/NIR, Aug  7 2015 09:38:08

0
0
3350/servo 860,8/2
0
0
UV/VIS
1
1
1
DoubleDePol,CommonBeamDepol,RBeamAtt,SBeamAtt,60mm sphere, WB InGaAs Detector
0
0
0
0
Program
Program
3350/servo 860,8/2
3350/0,2 860,8/0,2
3350/0,2 860,8/0,2
0
15.00
 
 
 
0
 
860,8
319,2
860,8
Front
100
on
S:100 R:100
0
0
0
0
 
0
 
 
 
0
 
 
0
0
0
0
0
 
 
 
 
0
0


0
0
#HDR
-1
-1
#GR
nm
%R
1.0
0.0
2500,000000
-1,000000
2251
8
61,268000
5,280400
#DATA
250.000000	nan
251.000000	nan
252.000000	nan
253.000000	nan
254.000000	nan
255.000000	nan
256.000000	nan
257.000000	nan
258.000000	nan
259.000000	nan
260.000000	nan
261.000000	nan
262.000000	nan
263.000000	nan
264.000000	nan
265.000000	nan
266.000000	nan
267.000000	nan
268.000000	nan
269.000000	nan
270.000000	nan
271.000000	nan
272.000000	nan
273.000000	nan
274.000000	nan
275.000000	nan
276.000000	nan
277.000000	nan
278.000000	nan
279.000000	nan
280.000000	nan
281.000000	nan
282.000000	nan
283.000000	nan
284.000000	5.572989
285.000000	5.559441
286.000000	5.544282
287.000000	5.530475
288.000000	5.517893
289.000000	5.502993
290.000000	5.488282
291.000000	5.472804
292.000000	5.458915
293.000000	5.446981
294.000000	5.433940
295.000000	5.422863
296.000000	5.411683
297.000000	5.400729
298.000000	5.392505
299.000000	5.384404
300.000000	5.376889
301.000000	5.370056
302.000000	5.365178
303.000000	5.359975
304.000000	5.351678
305.000000	5.346318
306.000000	5.341701
307.000000	5.337118
308.000000	5.334890
309.000000	5.332409
310.000000	5.328314
311.000000	5.327181
312.000000	5.325387
313.000000	5.324446
314.000000	5.322585
315.000000	5.323421
316.000000	5.323973
317.000000	5.338144
318.000000	5.348627
319.000000	5.356139
320.000000	5.364434
321.000000	5.369346
322.000000	5.373036
323.000000	5.379376
324.000000	5.385886
325.000000	5.391556
326.000000	5.395082
327.000000	5.400090
328.000000	5.401465
329.000000	5.401146
330.000000	5.400411
331.000000	5.405681
332.000000	5.406233
333.000000	5.403459
334.000000	5.400698
335.000000	5.401586
336.000000	5.402005
337.000000	5.405729
338.000000	5.409368
339.000000	5.413672
340.000000	5.418488
341.000000	5.421772
342.000000	5.426104
343.000000	5.428527
344.000000	5.429622
345.000000	5.431735
346.000000	5.434754
347.000000	5.440517
348.000000	5.441565
349.000000	5.443165
350.000000	5.445689
351.000000	5.446342
352.000000	5.435861
353.000000	5.428707
354.000000	5.424755
355.000000	5.419254
356.000000	5.422448
357.000000	5.424231
358.000000	5.423465
359.000000	5.424586
360.000000	5.426400
361.000000	5.430588
362.000000	5.434264
363.000000	5.443083
364.000000	5.455831
365.000000	5.466853
366.000000	5.473463
367.000000	5.486775
368.000000	5.502354
369.000000	5.521431
370.000000	5.538040
371.000000	5.558408
372.000000	5.574276
373.000000	5.591069
374.000000	5.613062
375.000000	5.637783
376.000000	5.668938
377.000000	5.702112
378.000000	5.739692
379.000000	5.781699
380.000000	5.829002
381.000000	5.877778
382.000000	5.928550
383.000000	5.988083
384.000000	6.051421
385.000000	6.117741
386.000000	6.191095
387.000000	6.267054
388.000000	6.347444
389.000000	6.433664
390.000000	6.525957
391.000000	6.619007
392.000000	6.719316
393.000000	6.823867
394.000000	6.932755
395.000000	7.046601
396.000000	7.165134
397.000000	7.287804
398.000000	7.412347
399.000000	7.540431
400.000000	7.673475
401.000000	7.809592
402.000000	7.947537
403.000000	8.089825
404.000000	8.233341
405.000000	8.377989
406.000000	8.522255
407.000000	8.670976
408.000000	8.820976
409.000000	8.969917
410.000000	9.115515
411.000000	9.257082
412.000000	9.399449
413.000000	9.540461
414.000000	9.678828
415.000000	9.813742
416.000000	9.945020
417.000000	10.072631
418.000000	10.196467
419.000000	10.316014
420.000000	10.429961
421.000000	10.538393
422.000000	10.641274
423.000000	10.737642
424.000000	10.827589
425.000000	10.911364
426.000000	10.988790
427.000000	11.058888
428.000000	11.122316
429.000000	11.179328
430.000000	11.229926
431.000000	11.274322
432.000000	11.312757
433.000000	11.345461
434.000000	11.373360
435.000000	11.397437
436.000000	11.418798
437.000000	11.437892
438.000000	11.455122
439.000000	11.471002
440.000000	11.487586
441.000000	11.505660
442.000000	11.525230
443.000000	11.547544
444.000000	11.573094
445.000000	11.603170
446.000000	11.638513
447.000000	11.678878
448.000000	11.724626
449.000000	11.776424
450.000000	11.835159
451.000000	11.901193
452.000000	11.974284
453.000000	12.054246
454.000000	12.141548
455.000000	12.236463
456.000000	12.338526
457.000000	12.448099
458.000000	12.565198
459.000000	12.689234
460.000000	12.819997
461.000000	12.957221
462.000000	13.100593
463.000000	13.249793
464.000000	13.404055
465.000000	13.563632
466.000000	13.728788
467.000000	13.898840
468.000000	14.073184
469.000000	14.251705
470.000000	14.433939
471.000000	14.619463
472.000000	14.808228
473.000000	14.999726
474.000000	15.194586
475.000000	15.391785
476.000000	15.590262
477.000000	15.790032
478.000000	15.991442
479.000000	16.194127
480.000000	16.397426
481.000000	16.601255
482.000000	16.805363
483.000000	17.010155
484.000000	17.215327
485.000000	17.420387
486.000000	17.624802
487.000000	17.829270
488.000000	18.033893
489.000000	18.239108
490.000000	18.445294
491.000000	18.652556
492.000000	18.861559
493.000000	19.072399
494.000000	19.285038
495.000000	19.499139
496.000000	19.715598
497.000000	19.935214
498.000000	20.157607
499.000000	20.383105
500.000000	20.611793
501.000000	20.844492
502.000000	21.081048
503.000000	21.321231
504.000000	21.564628
505.000000	21.810788
506.000000	22.060151
507.000000	22.312279
508.000000	22.567608
509.000000	22.825248
510.000000	23.086258
511.000000	23.351441
512.000000	23.620177
513.000000	23.892264
514.000000	24.168740
515.000000	24.450130
516.000000	24.736737
517.000000	25.029090
518.000000	25.327778
519.000000	25.634493
520.000000	25.948917
521.000000	26.272335
522.000000	26.605380
523.000000	26.947928
524.000000	27.300819
525.000000	27.664593
526.000000	28.039972
527.000000	28.427449
528.000000	28.827859
529.000000	29.243049
530.000000	29.673930
531.000000	30.120189
532.000000	30.582467
533.000000	31.062338
534.000000	31.559911
535.000000	32.074953
536.000000	32.607450
537.000000	33.155675
538.000000	33.720200
539.000000	34.299644
540.000000	34.893062
541.000000	35.499236
542.000000	36.116534
543.000000	36.743253
544.000000	37.378723
545.000000	38.020285
546.000000	38.664932
547.000000	39.312362
548.000000	39.961259
549.000000	40.608438
550.000000	41.252876
551.000000	41.892422
552.000000	42.525676
553.000000	43.150595
554.000000	43.764653
555.000000	44.367202
556.000000	44.956914
557.000000	45.530987
558.000000	46.089999
559.000000	46.632233
560.000000	47.160992
561.000000	47.671809
562.000000	48.163377
563.000000	48.635102
564.000000	49.086531
565.000000	49.515978
566.000000	49.923723
567.000000	50.308411
568.000000	50.667974
569.000000	51.002580
570.000000	51.311641
571.000000	51.593851
572.000000	51.852337
573.000000	52.087408
574.000000	52.300087
575.000000	52.491303
576.000000	52.661504
577.000000	52.811476
578.000000	52.942697
579.000000	53.057582
580.000000	53.156156
581.000000	53.239844
582.000000	53.307779
583.000000	53.360661
584.000000	53.401007
585.000000	53.428086
586.000000	53.443383
587.000000	53.447591
588.000000	53.442163
589.000000	53.426455
590.000000	53.402280
591.000000	53.371764
592.000000	53.335280
593.000000	53.293597
594.000000	53.246976
595.000000	53.190730
596.000000	53.129618
597.000000	53.064007
598.000000	52.992755
599.000000	52.914337
600.000000	52.830254
601.000000	52.739773
602.000000	52.641232
603.000000	52.534980
604.000000	52.419831
605.000000	52.296104
606.000000	52.163184
607.000000	52.020448
608.000000	51.866953
609.000000	51.703286
610.000000	51.528314
611.000000	51.340115
612.000000	51.141023
613.000000	50.929781
614.000000	50.704636
615.000000	50.466957
616.000000	50.218659
617.000000	49.960891
618.000000	49.695209
619.000000	49.419128
620.000000	49.135695
621.000000	48.843446
622.000000	48.542286
623.000000	48.233320
624.000000	47.916175
625.000000	47.590927
626.000000	47.256907
627.000000	46.915590
628.000000	46.567253
629.000000	46.212872
630.000000	45.853343
631.000000	45.489216
632.000000	45.122630
633.000000	44.756237
634.000000	44.392890
635.000000	44.033510
636.000000	43.680703
637.000000	43.338760
638.000000	43.009715
639.000000	42.695885
640.000000	42.397598
641.000000	42.118269
642.000000	41.858313
643.000000	41.617366
644.000000	41.395570
645.000000	41.195406
646.000000	41.018073
647.000000	40.861820
648.000000	40.728554
649.000000	40.616998
650.000000	40.528277
651.000000	40.460074
652.000000	40.413496
653.000000	40.385566
654.000000	40.379842
655.000000	40.392715
656.000000	40.424934
657.000000	40.476301
658.000000	40.546866
659.000000	40.637165
660.000000	40.746617
661.000000	40.873579
662.000000	41.017808
663.000000	41.176695
664.000000	41.349862
665.000000	41.535875
666.000000	41.734482
667.000000	41.942263
668.000000	42.156460
669.000000	42.375146
670.000000	42.597745
671.000000	42.820823
672.000000	43.041340
673.000000	43.258622
674.000000	43.470681
675.000000	43.677315
676.000000	43.876758
677.000000	44.067819
678.000000	44.250642
679.000000	44.425304
680.000000	44.591193
681.000000	44.748001
682.000000	44.896378
683.000000	45.037202
684.000000	45.170077
685.000000	45.293778
686.000000	45.409466
687.000000	45.516509
688.000000	45.617736
689.000000	45.710471
690.000000	45.796756
691.000000	45.878011
692.000000	45.953981
693.000000	46.023867
694.000000	46.089611
695.000000	46.149580
696.000000	46.207216
697.000000	46.262175
698.000000	46.315066
699.000000	46.365633
700.000000	46.414814
701.000000	46.461979
702.000000	46.508611
703.000000	46.557339
704.000000	46.607897
705.000000	46.658188
706.000000	46.710719
707.000000	46.765818
708.000000	46.823249
709.000000	46.883303
710.000000	46.946547
711.000000	47.012457
712.000000	47.080518
713.000000	47.153818
714.000000	47.231569
715.000000	47.310944
716.000000	47.393230
717.000000	47.479593
718.000000	47.566864
719.000000	47.655326
720.000000	47.746332
721.000000	47.839213
722.000000	47.933850
723.000000	48.029232
724.000000	48.126753
725.000000	48.225896
726.000000	48.325283
727.000000	48.425291
728.000000	48.525859
729.000000	48.628449
730.000000	48.731668
731.000000	48.830853
732.000000	48.928678
733.000000	49.025576
734.000000	49.120282
735.000000	49.214268
736.000000	49.306107
737.000000	49.396369
738.000000	49.484939
739.000000	49.571505
740.000000	49.657075
741.000000	49.740667
742.000000	49.821465
743.000000	49.899703
744.000000	49.976335
745.000000	50.050624
746.000000	50.124941
747.000000	50.199193
748.000000	50.270367
749.000000	50.340715
750.000000	50.410286
751.000000	50.478908
752.000000	50.546729
753.000000	50.614360
754.000000	50.683711
755.000000	50.753443
756.000000	50.823735
757.000000	50.894550
758.000000	50.965887
759.000000	51.038658
760.000000	51.111798
761.000000	51.187808
762.000000	51.266003
763.000000	51.343058
764.000000	51.421707
765.000000	51.502525
766.000000	51.586306
767.000000	51.671748
768.000000	51.757047
769.000000	51.845315
770.000000	51.937850
771.000000	52.033619
772.000000	52.130945
773.000000	52.228941
774.000000	52.326318
775.000000	52.427492
776.000000	52.529606
777.000000	52.632642
778.000000	52.737857
779.000000	52.845284
780.000000	52.954071
781.000000	53.064032
782.000000	53.175222
783.000000	53.286882
784.000000	53.396010
785.000000	53.506391
786.000000	53.619927
787.000000	53.733553
788.000000	53.846641
789.000000	53.958200
790.000000	54.072220
791.000000	54.185922
792.000000	54.298227
793.000000	54.412718
794.000000	54.526138
795.000000	54.639125
796.000000	54.751799
797.000000	54.861402
798.000000	54.973919
799.000000	55.084942
800.000000	55.192870
801.000000	55.300714
802.000000	55.406949
803.000000	55.511697
804.000000	55.614462
805.000000	55.713267
806.000000	55.814268
807.000000	55.913470
808.000000	56.012081
809.000000	56.109373
810.000000	56.202128
811.000000	56.294536
812.000000	56.388156
813.000000	56.476914
814.000000	56.564657
815.000000	56.652948
816.000000	56.735041
817.000000	56.812141
818.000000	56.889157
819.000000	56.968693
820.000000	57.043390
821.000000	57.113558
822.000000	57.181081
823.000000	57.252300
824.000000	57.321395
825.000000	57.387612
826.000000	57.456354
827.000000	57.524421
828.000000	57.582669
829.000000	57.641453
830.000000	57.699456
831.000000	57.751071
832.000000	57.808302
833.000000	57.858658
834.000000	57.908371
835.000000	57.954823
836.000000	58.001346
837.000000	58.047350
838.000000	58.094653
839.000000	58.133781
840.000000	58.166564
841.000000	58.197530
842.000000	58.224443
843.000000	58.252351
844.000000	58.276827
845.000000	58.295575
846.000000	58.322198
847.000000	58.339464
848.000000	58.352251
849.000000	58.366388
850.000000	58.371720
851.000000	58.374289
852.000000	58.389811
853.000000	58.391512
854.000000	58.399526
855.000000	58.399709
856.000000	58.385473
857.000000	58.374891
858.000000	58.365754
859.000000	58.382962
860.000000	58.398978
861.000000	58.410605
862.000000	58.422046
863.000000	58.437893
864.000000	58.449847
865.000000	58.459279
866.000000	58.470180
867.000000	58.473182
868.000000	58.478583
869.000000	58.479391
870.000000	58.482066
871.000000	58.481902
872.000000	58.479999
873.000000	58.476037
874.000000	58.477964
875.000000	58.484106
876.000000	58.485112
877.000000	58.488617
878.000000	58.488419
879.000000	58.490857
880.000000	58.497655
881.000000	58.494018
882.000000	58.495881
883.000000	58.503732
884.000000	58.506281
885.000000	58.514264
886.000000	58.525570
887.000000	58.525367
888.000000	58.536340
889.000000	58.536855
890.000000	58.546363
891.000000	58.569172
892.000000	58.587078
893.000000	58.597517
894.000000	58.581331
895.000000	58.562977
896.000000	58.543480
897.000000	58.523666
898.000000	58.503466
899.000000	58.482569
900.000000	58.462269
901.000000	58.441823
902.000000	58.422269
903.000000	58.403380
904.000000	58.384037
905.000000	58.365017
906.000000	58.345354
907.000000	58.325674
908.000000	58.305680
909.000000	58.285660
910.000000	58.264663
911.000000	58.244529
912.000000	58.224023
913.000000	58.202091
914.000000	58.180800
915.000000	58.159117
916.000000	58.135963
917.000000	58.112857
918.000000	58.089157
919.000000	58.065580
920.000000	58.040583
921.000000	58.016191
922.000000	57.990840
923.000000	57.965683
924.000000	57.939363
925.000000	57.912906
926.000000	57.886997
927.000000	57.862040
928.000000	57.836114
929.000000	57.810780
930.000000	57.786134
931.000000	57.762260
932.000000	57.737686
933.000000	57.714077
934.000000	57.691583
935.000000	57.668051
936.000000	57.645480
937.000000	57.622611
938.000000	57.599811
939.000000	57.577949
940.000000	57.555497
941.000000	57.533969
942.000000	57.512777
943.000000	57.492974
944.000000	57.473554
945.000000	57.455283
946.000000	57.437526
947.000000	57.420283
948.000000	57.405546
949.000000	57.389937
950.000000	57.375503
951.000000	57.363166
952.000000	57.352323
953.000000	57.341551
954.000000	57.331349
955.000000	57.322857
956.000000	57.314274
957.000000	57.306600
958.000000	57.299389
959.000000	57.293469
960.000000	57.287757
961.000000	57.282183
962.000000	57.276471
963.000000	57.271991
964.000000	57.267726
965.000000	57.263374
966.000000	57.259334
967.000000	57.256694
968.000000	57.253980
969.000000	57.251503
970.000000	57.251114
971.000000	57.250991
972.000000	57.252051
973.000000	57.253189
974.000000	57.255469
975.000000	57.259197
976.000000	57.263460
977.000000	57.268060
978.000000	57.273280
979.000000	57.279020
980.000000	57.285840
981.000000	57.292449
982.000000	57.300149
983.000000	57.307346
984.000000	57.315886
985.000000	57.324154
986.000000	57.331957
987.000000	57.340231
988.000000	57.349731
989.000000	57.359674
990.000000	57.369897
991.000000	57.381346
992.000000	57.393551
993.000000	57.406129
994.000000	57.419600
995.000000	57.434234
996.000000	57.449854
997.000000	57.465957
998.000000	57.482829
999.000000	57.500434
1000.000000	57.518689
1001.000000	57.537900
1002.000000	57.557597
1003.000000	57.578126
1004.000000	57.599166
1005.000000	57.619894
1006.000000	57.641083
1007.000000	57.663246
1008.000000	57.686211
1009.000000	57.709617
1010.000000	57.733611
1011.000000	57.757703
1012.000000	57.782623
1013.000000	57.807449
1014.000000	57.833280
1015.000000	57.858946
1016.000000	57.885483
1017.000000	57.912509
1018.000000	57.939614
1019.000000	57.966903
1020.000000	57.995409
1021.000000	58.024706
1022.000000	58.054506
1023.000000	58.084997
1024.000000	58.116143
1025.000000	58.147863
1026.000000	58.179723
1027.000000	58.211183
1028.000000	58.243060
1029.000000	58.275597
1030.000000	58.308337
1031.000000	58.341214
1032.000000	58.374460
1033.000000	58.407794
1034.000000	58.441346
1035.000000	58.475674
1036.000000	58.510206
1037.000000	58.544537
1038.000000	58.578711
1039.000000	58.613209
1040.000000	58.648474
1041.000000	58.683714
1042.000000	58.718986
1043.000000	58.754483
1044.000000	58.789737
1045.000000	58.824986
1046.000000	58.860151
1047.000000	58.895443
1048.000000	58.931366
1049.000000	58.967169
1050.000000	59.002723
1051.000000	59.038037
1052.000000	59.073594
1053.000000	59.110086
1054.000000	59.146354
1055.000000	59.182100
1056.000000	59.218034
1057.000000	59.253691
1058.000000	59.288554
1059.000000	59.323071
1060.000000	59.357717
1061.000000	59.392497
1062.000000	59.427606
1063.000000	59.462503
1064.000000	59.497014
1065.000000	59.531963
1066.000000	59.566840
1067.000000	59.601266
1068.000000	59.635683
1069.000000	59.670094
1070.000000	59.704726
1071.000000	59.739089
1072.000000	59.773454
1073.000000	59.807837
1074.000000	59.841740
1075.000000	59.875606
1076.000000	59.909717
1077.000000	59.943914
1078.000000	59.977477
1079.000000	60.011346
1080.000000	60.045169
1081.000000	60.079269
1082.000000	60.112937
1083.000000	60.146077
1084.000000	60.179646
1085.000000	60.213597
1086.000000	60.247703
1087.000000	60.280686
1088.000000	60.313269
1089.000000	60.345914
1090.000000	60.378240
1091.000000	60.409706
1092.000000	60.440871
1093.000000	60.472394
1094.000000	60.503946
1095.000000	60.534586
1096.000000	60.564011
1097.000000	60.593331
1098.000000	60.622206
1099.000000	60.650486
1100.000000	60.678183
1101.000000	60.705131
1102.000000	60.731414
1103.000000	60.757334
1104.000000	60.782343
1105.000000	60.806380
1106.000000	60.829511
1107.000000	60.851934
1108.000000	60.873823
1109.000000	60.895711
1110.000000	60.916574
1111.000000	60.936806
1112.000000	60.956109
1113.000000	60.975071
1114.000000	60.993286
1115.000000	61.010806
1116.000000	61.027954
1117.000000	61.044837
1118.000000	61.061186
1119.000000	61.076254
1120.000000	61.090011
1121.000000	61.102789
1122.000000	61.115391
1123.000000	61.126377
1124.000000	61.136149
1125.000000	61.144731
1126.000000	61.152411
1127.000000	61.157663
1128.000000	61.159994
1129.000000	61.160237
1130.000000	61.158020
1131.000000	61.153109
1132.000000	61.144937
1133.000000	61.133920
1134.000000	61.121700
1135.000000	61.106626
1136.000000	61.088020
1137.000000	61.064983
1138.000000	61.038329
1139.000000	61.008040
1140.000000	60.974494
1141.000000	60.938331
1142.000000	60.899117
1143.000000	60.857894
1144.000000	60.814237
1145.000000	60.768269
1146.000000	60.720051
1147.000000	60.669171
1148.000000	60.616220
1149.000000	60.560600
1150.000000	60.503077
1151.000000	60.442794
1152.000000	60.380483
1153.000000	60.316054
1154.000000	60.249431
1155.000000	60.180674
1156.000000	60.109100
1157.000000	60.034503
1158.000000	59.958214
1159.000000	59.878577
1160.000000	59.796337
1161.000000	59.711471
1162.000000	59.625011
1163.000000	59.535883
1164.000000	59.444691
1165.000000	59.352834
1166.000000	59.260074
1167.000000	59.166229
1168.000000	59.071677
1169.000000	58.974651
1170.000000	58.877280
1171.000000	58.780389
1172.000000	58.685014
1173.000000	58.591003
1174.000000	58.497860
1175.000000	58.406126
