PE UV       SUBTECH     SPECTRUM    ASCII       PEDS        4.00        
   -1
CICIMAUCR0104-3.Sample.ASC
24/04/04
11:30:21.00
24/04/04
11:30:21.00
Vinicio Soto Monge
C. resplendens
250,000000
1
Lambda 1050
1050L1511233
PerkinElmer UV WinLab 6.3.2.0749 / 2.02.05 Lambda 900 UV/VIS/NIR, Aug  7 2015 09:38:08

0
0
3350/servo 860,8/2
0
0
UV/VIS
1
1
1
DoubleDePol,CommonBeamDepol,RBeamAtt,SBeamAtt,60mm sphere, WB InGaAs Detector
0
0
0
0
Program
Program
3350/servo 860,8/2
3350/0,2 860,8/0,2
3350/0,2 860,8/0,2
0
15.00
 
 
 
0
 
860,8
319,2
860,8
Front
100
on
S:100 R:100
0
0
0
0
 
0
 
 
 
0
 
 
0
0
0
0
0
 
 
 
 
0
0


0
0
#HDR
-1
-1
#GR
nm
%R
1.0
0.0
2500,000000
-1,000000
2251
8
72,628200
5,074300
#DATA
250.000000	nan
251.000000	nan
252.000000	nan
253.000000	nan
254.000000	nan
255.000000	nan
256.000000	nan
257.000000	nan
258.000000	nan
259.000000	nan
260.000000	nan
261.000000	nan
262.000000	nan
263.000000	nan
264.000000	nan
265.000000	nan
266.000000	nan
267.000000	nan
268.000000	nan
269.000000	nan
270.000000	nan
271.000000	nan
272.000000	nan
273.000000	nan
274.000000	nan
275.000000	nan
276.000000	nan
277.000000	nan
278.000000	nan
279.000000	nan
280.000000	nan
281.000000	nan
282.000000	nan
283.000000	nan
284.000000	5.570001
285.000000	5.560201
286.000000	5.550553
287.000000	5.541038
288.000000	5.532580
289.000000	5.523784
290.000000	5.513965
291.000000	5.504774
292.000000	5.496036
293.000000	5.486303
294.000000	5.477433
295.000000	5.468920
296.000000	5.460102
297.000000	5.451642
298.000000	5.444483
299.000000	5.436832
300.000000	5.430506
301.000000	5.423625
302.000000	5.417394
303.000000	5.411671
304.000000	5.406918
305.000000	5.401024
306.000000	5.395268
307.000000	5.389155
308.000000	5.382735
309.000000	5.376814
310.000000	5.371321
311.000000	5.365903
312.000000	5.359429
313.000000	5.353516
314.000000	5.347318
315.000000	5.341180
316.000000	5.335175
317.000000	5.333273
318.000000	5.327867
319.000000	5.324675
320.000000	5.321544
321.000000	5.319388
322.000000	5.317932
323.000000	5.313720
324.000000	5.313274
325.000000	5.311794
326.000000	5.308587
327.000000	5.304628
328.000000	5.303179
329.000000	5.300038
330.000000	5.296057
331.000000	5.294971
332.000000	5.292547
333.000000	5.289788
334.000000	5.288940
335.000000	5.288501
336.000000	5.287668
337.000000	5.287638
338.000000	5.288270
339.000000	5.286737
340.000000	5.286600
341.000000	5.286058
342.000000	5.286653
343.000000	5.288427
344.000000	5.290688
345.000000	5.293071
346.000000	5.294979
347.000000	5.297467
348.000000	5.301427
349.000000	5.306237
350.000000	5.310068
351.000000	5.313727
352.000000	5.316258
353.000000	5.321782
354.000000	5.326731
355.000000	5.332278
356.000000	5.337469
357.000000	5.343166
358.000000	5.352553
359.000000	5.358691
360.000000	5.368164
361.000000	5.379313
362.000000	5.391433
363.000000	5.402922
364.000000	5.417504
365.000000	5.432778
366.000000	5.445757
367.000000	5.461012
368.000000	5.476746
369.000000	5.492498
370.000000	5.507824
371.000000	5.524235
372.000000	5.541360
373.000000	5.559053
374.000000	5.581497
375.000000	5.602275
376.000000	5.624528
377.000000	5.649281
378.000000	5.675058
379.000000	5.702047
380.000000	5.731162
381.000000	5.762956
382.000000	5.797646
383.000000	5.833994
384.000000	5.872690
385.000000	5.916077
386.000000	5.962939
387.000000	6.011468
388.000000	6.064639
389.000000	6.121230
390.000000	6.182507
391.000000	6.248451
392.000000	6.319637
393.000000	6.395444
394.000000	6.478577
395.000000	6.566847
396.000000	6.662831
397.000000	6.767290
398.000000	6.878798
399.000000	6.997244
400.000000	7.125121
401.000000	7.262923
402.000000	7.409987
403.000000	7.566959
404.000000	7.733242
405.000000	7.910177
406.000000	8.097969
407.000000	8.295573
408.000000	8.502910
409.000000	8.719169
410.000000	8.947352
411.000000	9.186047
412.000000	9.434133
413.000000	9.692249
414.000000	9.959897
415.000000	10.236437
416.000000	10.521354
417.000000	10.814716
418.000000	11.115737
419.000000	11.423894
420.000000	11.738953
421.000000	12.060158
422.000000	12.386845
423.000000	12.718720
424.000000	13.054841
425.000000	13.394460
426.000000	13.736961
427.000000	14.081443
428.000000	14.427174
429.000000	14.773158
430.000000	15.118499
431.000000	15.462752
432.000000	15.804795
433.000000	16.144026
434.000000	16.479692
435.000000	16.810571
436.000000	17.136395
437.000000	17.456518
438.000000	17.769808
439.000000	18.075376
440.000000	18.372663
441.000000	18.660661
442.000000	18.939174
443.000000	19.207409
444.000000	19.464333
445.000000	19.709905
446.000000	19.943061
447.000000	20.162772
448.000000	20.368926
449.000000	20.561122
450.000000	20.739400
451.000000	20.903623
452.000000	21.052943
453.000000	21.187339
454.000000	21.306982
455.000000	21.411647
456.000000	21.501707
457.000000	21.577218
458.000000	21.638738
459.000000	21.687199
460.000000	21.723695
461.000000	21.748593
462.000000	21.763208
463.000000	21.769095
464.000000	21.767409
465.000000	21.759946
466.000000	21.748029
467.000000	21.733495
468.000000	21.718095
469.000000	21.703042
470.000000	21.690573
471.000000	21.681664
472.000000	21.677847
473.000000	21.680835
474.000000	21.691949
475.000000	21.712459
476.000000	21.743203
477.000000	21.784333
478.000000	21.836534
479.000000	21.901112
480.000000	21.978189
481.000000	22.067808
482.000000	22.169943
483.000000	22.284466
484.000000	22.411132
485.000000	22.549355
486.000000	22.698462
487.000000	22.858489
488.000000	23.028956
489.000000	23.208993
490.000000	23.397668
491.000000	23.594459
492.000000	23.798849
493.000000	24.009833
494.000000	24.225776
495.000000	24.445694
496.000000	24.668868
497.000000	24.894193
498.000000	25.120338
499.000000	25.346555
500.000000	25.571645
501.000000	25.794869
502.000000	26.015233
503.000000	26.232325
504.000000	26.445560
505.000000	26.654848
506.000000	26.860598
507.000000	27.063065
508.000000	27.262821
509.000000	27.460841
510.000000	27.658323
511.000000	27.856712
512.000000	28.057896
513.000000	28.263880
514.000000	28.476603
515.000000	28.697704
516.000000	28.929288
517.000000	29.173894
518.000000	29.433217
519.000000	29.709817
520.000000	30.005946
521.000000	30.323925
522.000000	30.665421
523.000000	31.031896
524.000000	31.424976
525.000000	31.845882
526.000000	32.294963
527.000000	32.773560
528.000000	33.281772
529.000000	33.820286
530.000000	34.389463
531.000000	34.989253
532.000000	35.619113
533.000000	36.278346
534.000000	36.966170
535.000000	37.682342
536.000000	38.425172
537.000000	39.193229
538.000000	39.984790
539.000000	40.798806
540.000000	41.633157
541.000000	42.485646
542.000000	43.354109
543.000000	44.236115
544.000000	45.128462
545.000000	46.028513
546.000000	46.933538
547.000000	47.840695
548.000000	48.746498
549.000000	49.648939
550.000000	50.545906
551.000000	51.434241
552.000000	52.312521
553.000000	53.178173
554.000000	54.029200
555.000000	54.863712
556.000000	55.680177
557.000000	56.476593
558.000000	57.252579
559.000000	58.006439
560.000000	58.741138
561.000000	59.453065
562.000000	60.142123
563.000000	60.807794
564.000000	61.449475
565.000000	62.066886
566.000000	62.660176
567.000000	63.229648
568.000000	63.775558
569.000000	64.299390
570.000000	64.799782
571.000000	65.278338
572.000000	65.736423
573.000000	66.173263
574.000000	66.590379
575.000000	66.987870
576.000000	67.366613
577.000000	67.726695
578.000000	68.069301
579.000000	68.394485
580.000000	68.703419
581.000000	68.996044
582.000000	69.272988
583.000000	69.536782
584.000000	69.785144
585.000000	70.018763
586.000000	70.238004
587.000000	70.443756
588.000000	70.635821
589.000000	70.814846
590.000000	70.980289
591.000000	71.132400
592.000000	71.272268
593.000000	71.398977
594.000000	71.511776
595.000000	71.608538
596.000000	71.692036
597.000000	71.762511
598.000000	71.819949
599.000000	71.863587
600.000000	71.894788
601.000000	71.912246
602.000000	71.916733
603.000000	71.907363
604.000000	71.883459
605.000000	71.845430
606.000000	71.792547
607.000000	71.724923
608.000000	71.641171
609.000000	71.540696
610.000000	71.424735
611.000000	71.291490
612.000000	71.140123
613.000000	70.970320
614.000000	70.782906
615.000000	70.576732
616.000000	70.351526
617.000000	70.107572
618.000000	69.843269
619.000000	69.559205
620.000000	69.255431
621.000000	68.932043
622.000000	68.586606
623.000000	68.220774
624.000000	67.832733
625.000000	67.422856
626.000000	66.992120
627.000000	66.538656
628.000000	66.063265
629.000000	65.567223
630.000000	65.049647
631.000000	64.511381
632.000000	63.953046
633.000000	63.376255
634.000000	62.782792
635.000000	62.175646
636.000000	61.556688
637.000000	60.928510
638.000000	60.294452
639.000000	59.656501
640.000000	59.017434
641.000000	58.380818
642.000000	57.748848
643.000000	57.126743
644.000000	56.516615
645.000000	55.920714
646.000000	55.342180
647.000000	54.785216
648.000000	54.251181
649.000000	53.741965
650.000000	53.260501
651.000000	52.808521
652.000000	52.387652
653.000000	51.998966
654.000000	51.644479
655.000000	51.324083
656.000000	51.039660
657.000000	50.791722
658.000000	50.580572
659.000000	50.407455
660.000000	50.272085
661.000000	50.173815
662.000000	50.114361
663.000000	50.093141
664.000000	50.109102
665.000000	50.162438
666.000000	50.252378
667.000000	50.376270
668.000000	50.533148
669.000000	50.722844
670.000000	50.941563
671.000000	51.187144
672.000000	51.456757
673.000000	51.748420
674.000000	52.059224
675.000000	52.386215
676.000000	52.725965
677.000000	53.076525
678.000000	53.434537
679.000000	53.797038
680.000000	54.161280
681.000000	54.524923
682.000000	54.884700
683.000000	55.239310
684.000000	55.586563
685.000000	55.924465
686.000000	56.251463
687.000000	56.566691
688.000000	56.869524
689.000000	57.159700
690.000000	57.436603
691.000000	57.699986
692.000000	57.949900
693.000000	58.186840
694.000000	58.411009
695.000000	58.623666
696.000000	58.824660
697.000000	59.013674
698.000000	59.192153
699.000000	59.361687
700.000000	59.522301
701.000000	59.675771
702.000000	59.823882
703.000000	59.967096
704.000000	60.105072
705.000000	60.238667
706.000000	60.370405
707.000000	60.500507
708.000000	60.629591
709.000000	60.759696
710.000000	60.890668
711.000000	61.023348
712.000000	61.157301
713.000000	61.294281
714.000000	61.436039
715.000000	61.581354
716.000000	61.731340
717.000000	61.887028
718.000000	62.048555
719.000000	62.216200
720.000000	62.390445
721.000000	62.571209
722.000000	62.758512
723.000000	62.952947
724.000000	63.152911
725.000000	63.358756
726.000000	63.570207
727.000000	63.786474
728.000000	64.006623
729.000000	64.230985
730.000000	64.458168
731.000000	64.689263
732.000000	64.924348
733.000000	65.161531
734.000000	65.400083
735.000000	65.638921
736.000000	65.876550
737.000000	66.113737
738.000000	66.350781
739.000000	66.587065
740.000000	66.822091
741.000000	67.055621
742.000000	67.284630
743.000000	67.508898
744.000000	67.728760
745.000000	67.944647
746.000000	68.155548
747.000000	68.361127
748.000000	68.561462
749.000000	68.754820
750.000000	68.941315
751.000000	69.120607
752.000000	69.292592
753.000000	69.457668
754.000000	69.617157
755.000000	69.768209
756.000000	69.911360
757.000000	70.047615
758.000000	70.175120
759.000000	70.295233
760.000000	70.408254
761.000000	70.514583
762.000000	70.614240
763.000000	70.706905
764.000000	70.792533
765.000000	70.870216
766.000000	70.940006
767.000000	71.002750
768.000000	71.059646
769.000000	71.110907
770.000000	71.155664
771.000000	71.196172
772.000000	71.229151
773.000000	71.255781
774.000000	71.277365
775.000000	71.292051
776.000000	71.298449
777.000000	71.302163
778.000000	71.303207
779.000000	71.298273
780.000000	71.287802
781.000000	71.272569
782.000000	71.255101
783.000000	71.232162
784.000000	71.204731
785.000000	71.175032
786.000000	71.143088
787.000000	71.108619
788.000000	71.070080
789.000000	71.027568
790.000000	70.984738
791.000000	70.940506
792.000000	70.893954
793.000000	70.845642
794.000000	70.795952
795.000000	70.745435
796.000000	70.690501
797.000000	70.632981
798.000000	70.573797
799.000000	70.513076
800.000000	70.450854
801.000000	70.386523
802.000000	70.319135
803.000000	70.248219
804.000000	70.176457
805.000000	70.102605
806.000000	70.025850
807.000000	69.947001
808.000000	69.865702
809.000000	69.779967
810.000000	69.691443
811.000000	69.599540
812.000000	69.503652
813.000000	69.400671
814.000000	69.296252
815.000000	69.188113
816.000000	69.076667
817.000000	68.957989
818.000000	68.832703
819.000000	68.703598
820.000000	68.568194
821.000000	68.427359
822.000000	68.281346
823.000000	68.132149
824.000000	67.976521
825.000000	67.814571
826.000000	67.647483
827.000000	67.474482
828.000000	67.297369
829.000000	67.115129
830.000000	66.926826
831.000000	66.738460
832.000000	66.549058
833.000000	66.358134
834.000000	66.162781
835.000000	65.963929
836.000000	65.763464
837.000000	65.569697
838.000000	65.378211
839.000000	65.183681
840.000000	64.988786
841.000000	64.796581
842.000000	64.611275
843.000000	64.428397
844.000000	64.244505
845.000000	64.065613
846.000000	63.897266
847.000000	63.732548
848.000000	63.576258
849.000000	63.423369
850.000000	63.275213
851.000000	63.135397
852.000000	63.000529
853.000000	62.871035
854.000000	62.741893
855.000000	62.623594
856.000000	62.514226
857.000000	62.407355
858.000000	62.303501
859.000000	62.245425
860.000000	62.192988
861.000000	62.148861
862.000000	62.113067
863.000000	62.084901
864.000000	62.064158
865.000000	62.050368
866.000000	62.039868
867.000000	62.033058
868.000000	62.029154
869.000000	62.030806
870.000000	62.038520
871.000000	62.050049
872.000000	62.057469
873.000000	62.065499
874.000000	62.076716
875.000000	62.091834
876.000000	62.106638
877.000000	62.118518
878.000000	62.130743
879.000000	62.148545
880.000000	62.165389
881.000000	62.177779
882.000000	62.190131
883.000000	62.200278
884.000000	62.209887
885.000000	62.220421
886.000000	62.227408
887.000000	62.236186
888.000000	62.248177
889.000000	62.264755
890.000000	62.277068
891.000000	62.286203
892.000000	62.297960
893.000000	62.310920
894.000000	62.284998
895.000000	62.258445
896.000000	62.229112
897.000000	62.196628
898.000000	62.160922
899.000000	62.122420
900.000000	62.082170
901.000000	62.040635
902.000000	61.997643
903.000000	61.954611
904.000000	61.910738
905.000000	61.867239
906.000000	61.823655
907.000000	61.779684
908.000000	61.735837
909.000000	61.692408
910.000000	61.649734
911.000000	61.607350
912.000000	61.565213
913.000000	61.523932
914.000000	61.482747
915.000000	61.442425
916.000000	61.402510
917.000000	61.362965
918.000000	61.323790
919.000000	61.284201
920.000000	61.244378
921.000000	61.204474
922.000000	61.163974
923.000000	61.122325
924.000000	61.080228
925.000000	61.037606
926.000000	60.994141
927.000000	60.950454
928.000000	60.905813
929.000000	60.860591
930.000000	60.815204
931.000000	60.769037
932.000000	60.722576
933.000000	60.676200
934.000000	60.629410
935.000000	60.582489
936.000000	60.535407
937.000000	60.488363
938.000000	60.440947
939.000000	60.394128
940.000000	60.346652
941.000000	60.298940
942.000000	60.252063
943.000000	60.204878
944.000000	60.158421
945.000000	60.112104
946.000000	60.066045
947.000000	60.020414
948.000000	59.975244
949.000000	59.931052
950.000000	59.886918
951.000000	59.843423
952.000000	59.800296
953.000000	59.757896
954.000000	59.716606
955.000000	59.675769
956.000000	59.635621
957.000000	59.596255
958.000000	59.557676
959.000000	59.519407
960.000000	59.481545
961.000000	59.444695
962.000000	59.408063
963.000000	59.371757
964.000000	59.335521
965.000000	59.299395
966.000000	59.263650
967.000000	59.228324
968.000000	59.193110
969.000000	59.158575
970.000000	59.124087
971.000000	59.089770
972.000000	59.055940
973.000000	59.022113
974.000000	58.988337
975.000000	58.954894
976.000000	58.921601
977.000000	58.887704
978.000000	58.854167
979.000000	58.819427
980.000000	58.783768
981.000000	58.747609
982.000000	58.710983
983.000000	58.673342
984.000000	58.634803
985.000000	58.595608
986.000000	58.555855
987.000000	58.515175
988.000000	58.473720
989.000000	58.431948
990.000000	58.390082
991.000000	58.347472
992.000000	58.304696
993.000000	58.262130
994.000000	58.219880
995.000000	58.177794
996.000000	58.135935
997.000000	58.094510
998.000000	58.054171
999.000000	58.014595
1000.000000	57.975398
1001.000000	57.937066
1002.000000	57.899514
1003.000000	57.862380
1004.000000	57.826172
1005.000000	57.790531
1006.000000	57.755643
1007.000000	57.721576
1008.000000	57.688600
1009.000000	57.656343
1010.000000	57.624908
1011.000000	57.594490
1012.000000	57.565834
1013.000000	57.538506
1014.000000	57.512889
1015.000000	57.489006
1016.000000	57.467716
1017.000000	57.448504
1018.000000	57.431453
1019.000000	57.416680
1020.000000	57.404387
1021.000000	57.394250
1022.000000	57.387071
1023.000000	57.382428
1024.000000	57.379972
1025.000000	57.380149
1026.000000	57.383148
1027.000000	57.388536
1028.000000	57.396249
1029.000000	57.406379
1030.000000	57.418897
1031.000000	57.433492
1032.000000	57.450427
1033.000000	57.469205
1034.000000	57.489861
1035.000000	57.512596
1036.000000	57.537231
1037.000000	57.563411
1038.000000	57.591106
1039.000000	57.620223
1040.000000	57.650992
1041.000000	57.683450
1042.000000	57.717019
1043.000000	57.751814
1044.000000	57.788105
1045.000000	57.825974
1046.000000	57.864997
1047.000000	57.904554
1048.000000	57.944968
1049.000000	57.986604
1050.000000	58.028856
1051.000000	58.071190
1052.000000	58.113849
1053.000000	58.157043
1054.000000	58.200574
1055.000000	58.244490
1056.000000	58.288475
1057.000000	58.332555
1058.000000	58.376848
1059.000000	58.421317
1060.000000	58.465799
1061.000000	58.510328
1062.000000	58.555270
1063.000000	58.600637
1064.000000	58.646230
1065.000000	58.692038
1066.000000	58.737974
1067.000000	58.783946
1068.000000	58.830285
1069.000000	58.876782
1070.000000	58.923733
1071.000000	58.971095
1072.000000	59.018875
1073.000000	59.067202
1074.000000	59.115921
1075.000000	59.165306
1076.000000	59.215306
1077.000000	59.266232
1078.000000	59.317953
1079.000000	59.370036
1080.000000	59.422925
1081.000000	59.476273
1082.000000	59.530310
1083.000000	59.584789
1084.000000	59.639908
1085.000000	59.695405
1086.000000	59.751525
1087.000000	59.807968
1088.000000	59.864770
1089.000000	59.921762
1090.000000	59.978593
1091.000000	60.035682
1092.000000	60.092350
1093.000000	60.149155
1094.000000	60.205782
1095.000000	60.261940
1096.000000	60.317736
1097.000000	60.372747
1098.000000	60.427193
1099.000000	60.480932
1100.000000	60.533915
1101.000000	60.586174
1102.000000	60.637521
1103.000000	60.688134
1104.000000	60.738056
1105.000000	60.786999
1106.000000	60.835045
1107.000000	60.882192
1108.000000	60.928189
1109.000000	60.973317
1110.000000	61.017368
1111.000000	61.060244
1112.000000	61.102088
1113.000000	61.142879
1114.000000	61.182339
1115.000000	61.220410
1116.000000	61.257713
1117.000000	61.293808
1118.000000	61.328470
1119.000000	61.361072
1120.000000	61.391816
1121.000000	61.420138
1122.000000	61.446240
1123.000000	61.469736
1124.000000	61.490157
1125.000000	61.507059
1126.000000	61.520530
1127.000000	61.530092
1128.000000	61.535233
1129.000000	61.534929
1130.000000	61.528695
1131.000000	61.515223
1132.000000	61.493859
1133.000000	61.464110
1134.000000	61.427097
1135.000000	61.381470
1136.000000	61.326047
1137.000000	61.260612
1138.000000	61.184688
1139.000000	61.099161
1140.000000	61.004223
1141.000000	60.900750
1142.000000	60.788270
1143.000000	60.667590
1144.000000	60.539402
1145.000000	60.404423
1146.000000	60.264409
1147.000000	60.120846
1148.000000	59.975372
1149.000000	59.829348
1150.000000	59.682527
1151.000000	59.535312
1152.000000	59.387289
1153.000000	59.238590
1154.000000	59.087871
1155.000000	58.933888
1156.000000	58.775973
1157.000000	58.612420
1158.000000	58.442709
1159.000000	58.266701
1160.000000	58.083813
1161.000000	57.894060
1162.000000	57.697478
1163.000000	57.494158
1164.000000	57.285362
1165.000000	57.071889
1166.000000	56.854410
1167.000000	56.634328
1168.000000	56.412278
1169.000000	56.187236
1170.000000	55.960785
1171.000000	55.733980
1172.000000	55.507593
1173.000000	55.282053
1174.000000	55.057340
1175.000000	54.833060
