PE UV       SUBTECH     SPECTRUM    ASCII       PEDS        4.00        
   -1
CICIMAUCR0020-1.Sample.ASC
24/03/08
12:01:00.00
24/03/08
12:01:00.00
Vinicio Soto Monge
C. resplendens
250,000000
1
Lambda 1050
1050L1511233
PerkinElmer UV WinLab 6.3.2.0749 / 2.02.05 Lambda 900 UV/VIS/NIR, Aug  7 2015 09:38:08

0
0
3350/servo 860,8/2
0
0
UV/VIS
1
1
1
DoubleDePol,CommonBeamDepol,RBeamAtt,SBeamAtt,60mm sphere, WB InGaAs Detector
0
0
0
0
Program
Program
3350/servo 860,8/2
3350/0,2 860,8/0,2
3350/0,2 860,8/0,2
0
15.00
 
 
 
0
 
860,8
319,2
860,8
Front
100
on
S:100 R:100
0
0
0
0
 
0
 
 
 
0
 
 
0
0
0
0
0
 
 
 
 
0
0


0
0
#HDR
-1
-1
#GR
nm
%R
1.0
0.0
2500,000000
-1,000000
2251
8
26,391500
2,064300
#DATA
250.000000	nan
251.000000	nan
252.000000	nan
253.000000	nan
254.000000	nan
255.000000	nan
256.000000	nan
257.000000	nan
258.000000	nan
259.000000	nan
260.000000	nan
261.000000	nan
262.000000	nan
263.000000	nan
264.000000	nan
265.000000	nan
266.000000	nan
267.000000	nan
268.000000	nan
269.000000	nan
270.000000	nan
271.000000	nan
272.000000	nan
273.000000	nan
274.000000	nan
275.000000	nan
276.000000	nan
277.000000	nan
278.000000	nan
279.000000	nan
280.000000	nan
281.000000	nan
282.000000	nan
283.000000	nan
284.000000	2.313948
285.000000	2.311444
286.000000	2.308265
287.000000	2.305667
288.000000	2.302762
289.000000	2.300839
290.000000	2.296901
291.000000	2.293592
292.000000	2.290377
293.000000	2.289420
294.000000	2.286764
295.000000	2.284929
296.000000	2.281610
297.000000	2.280270
298.000000	2.276685
299.000000	2.273339
300.000000	2.269389
301.000000	2.267639
302.000000	2.265627
303.000000	2.264564
304.000000	2.264479
305.000000	2.265062
306.000000	2.264530
307.000000	2.262728
308.000000	2.260963
309.000000	2.260610
310.000000	2.260717
311.000000	2.258936
312.000000	2.256815
313.000000	2.257526
314.000000	2.258389
315.000000	2.258016
316.000000	2.259395
317.000000	2.278681
318.000000	2.293370
319.000000	2.303164
320.000000	2.320441
321.000000	2.338123
322.000000	2.348062
323.000000	2.358549
324.000000	2.371220
325.000000	2.386690
326.000000	2.391457
327.000000	2.398723
328.000000	2.407249
329.000000	2.416213
330.000000	2.425554
331.000000	2.432989
332.000000	2.439592
333.000000	2.446362
334.000000	2.454232
335.000000	2.465108
336.000000	2.474072
337.000000	2.481902
338.000000	2.487353
339.000000	2.493112
340.000000	2.498159
341.000000	2.504042
342.000000	2.512626
343.000000	2.522301
344.000000	2.528566
345.000000	2.536005
346.000000	2.544872
347.000000	2.551575
348.000000	2.557856
349.000000	2.562997
350.000000	2.570345
351.000000	2.574693
352.000000	2.560144
353.000000	2.550457
354.000000	2.546771
355.000000	2.535993
356.000000	2.523966
357.000000	2.521058
358.000000	2.518320
359.000000	2.512632
360.000000	2.506615
361.000000	2.510711
362.000000	2.511653
363.000000	2.509909
364.000000	2.509730
365.000000	2.511000
366.000000	2.514883
367.000000	2.518949
368.000000	2.524619
369.000000	2.526248
370.000000	2.526600
371.000000	2.526652
372.000000	2.526819
373.000000	2.530174
374.000000	2.532064
375.000000	2.530967
376.000000	2.532152
377.000000	2.527147
378.000000	2.520076
379.000000	2.516500
380.000000	2.512088
381.000000	2.507490
382.000000	2.504087
383.000000	2.501058
384.000000	2.499155
385.000000	2.495664
386.000000	2.493327
387.000000	2.492589
388.000000	2.492154
389.000000	2.491319
390.000000	2.489751
391.000000	2.489711
392.000000	2.489192
393.000000	2.488077
394.000000	2.487973
395.000000	2.486843
396.000000	2.485403
397.000000	2.486229
398.000000	2.488298
399.000000	2.488970
400.000000	2.488630
401.000000	2.489681
402.000000	2.490854
403.000000	2.492677
404.000000	2.497970
405.000000	2.503233
406.000000	2.510119
407.000000	2.519481
408.000000	2.529682
409.000000	2.542012
410.000000	2.558482
411.000000	2.574170
412.000000	2.596623
413.000000	2.620388
414.000000	2.645952
415.000000	2.673640
416.000000	2.703701
417.000000	2.736063
418.000000	2.770481
419.000000	2.807228
420.000000	2.846870
421.000000	2.889672
422.000000	2.935312
423.000000	2.984258
424.000000	3.036201
425.000000	3.091613
426.000000	3.150803
427.000000	3.213806
428.000000	3.280914
429.000000	3.351526
430.000000	3.425477
431.000000	3.503515
432.000000	3.585115
433.000000	3.670342
434.000000	3.759323
435.000000	3.851810
436.000000	3.947916
437.000000	4.047504
438.000000	4.150252
439.000000	4.256070
440.000000	4.364907
441.000000	4.476851
442.000000	4.591128
443.000000	4.707046
444.000000	4.824808
445.000000	4.944618
446.000000	5.066227
447.000000	5.189186
448.000000	5.313326
449.000000	5.438171
450.000000	5.563214
451.000000	5.688111
452.000000	5.812835
453.000000	5.937364
454.000000	6.061344
455.000000	6.184238
456.000000	6.305857
457.000000	6.425606
458.000000	6.543317
459.000000	6.659028
460.000000	6.772038
461.000000	6.882307
462.000000	6.989862
463.000000	7.094097
464.000000	7.195305
465.000000	7.293170
466.000000	7.387179
467.000000	7.477676
468.000000	7.564535
469.000000	7.647274
470.000000	7.725607
471.000000	7.799492
472.000000	7.869009
473.000000	7.933884
474.000000	7.994080
475.000000	8.049711
476.000000	8.100629
477.000000	8.146759
478.000000	8.188525
479.000000	8.226298
480.000000	8.259164
481.000000	8.285825
482.000000	8.306849
483.000000	8.322924
484.000000	8.334771
485.000000	8.342991
486.000000	8.347455
487.000000	8.348539
488.000000	8.346063
489.000000	8.340429
490.000000	8.331979
491.000000	8.321818
492.000000	8.310289
493.000000	8.297618
494.000000	8.284136
495.000000	8.270519
496.000000	8.256897
497.000000	8.243953
498.000000	8.232147
499.000000	8.221719
500.000000	8.213259
501.000000	8.207544
502.000000	8.204651
503.000000	8.204636
504.000000	8.208592
505.000000	8.216909
506.000000	8.229066
507.000000	8.245150
508.000000	8.265691
509.000000	8.291130
510.000000	8.321149
511.000000	8.355583
512.000000	8.394635
513.000000	8.438209
514.000000	8.485989
515.000000	8.538521
516.000000	8.596650
517.000000	8.660856
518.000000	8.730885
519.000000	8.806428
520.000000	8.886709
521.000000	8.972772
522.000000	9.064496
523.000000	9.162158
524.000000	9.266149
525.000000	9.376443
526.000000	9.492306
527.000000	9.614425
528.000000	9.742154
529.000000	9.875888
530.000000	10.015495
531.000000	10.161565
532.000000	10.314038
533.000000	10.472922
534.000000	10.638178
535.000000	10.810076
536.000000	10.988174
537.000000	11.172750
538.000000	11.364524
539.000000	11.562862
540.000000	11.768419
541.000000	11.982224
542.000000	12.203916
543.000000	12.433546
544.000000	12.671590
545.000000	12.917525
546.000000	13.171691
547.000000	13.433585
548.000000	13.703315
549.000000	13.981341
550.000000	14.267845
551.000000	14.561730
552.000000	14.863071
553.000000	15.170967
554.000000	15.484205
555.000000	15.802915
556.000000	16.126320
557.000000	16.453985
558.000000	16.784631
559.000000	17.116744
560.000000	17.435707
561.000000	17.752873
562.000000	18.068849
563.000000	18.382858
564.000000	18.694385
565.000000	19.002934
566.000000	19.307579
567.000000	19.606483
568.000000	19.899089
569.000000	20.185638
570.000000	20.465776
571.000000	20.738092
572.000000	21.001378
573.000000	21.256082
574.000000	21.502397
575.000000	21.740805
576.000000	21.969013
577.000000	22.187819
578.000000	22.397472
579.000000	22.597934
580.000000	22.788976
581.000000	22.970528
582.000000	23.144311
583.000000	23.309758
584.000000	23.466996
585.000000	23.615403
586.000000	23.756143
587.000000	23.889013
588.000000	24.013968
589.000000	24.131089
590.000000	24.241866
591.000000	24.344790
592.000000	24.439632
593.000000	24.528406
594.000000	24.610601
595.000000	24.702009
596.000000	24.789276
597.000000	24.870875
598.000000	24.948759
599.000000	25.021929
600.000000	25.090322
601.000000	25.154307
602.000000	25.214785
603.000000	25.272477
604.000000	25.326054
605.000000	25.375037
606.000000	25.420537
607.000000	25.463458
608.000000	25.503322
609.000000	25.538703
610.000000	25.569163
611.000000	25.595629
612.000000	25.618364
613.000000	25.638064
614.000000	25.653260
615.000000	25.664409
616.000000	25.672726
617.000000	25.676424
618.000000	25.676493
619.000000	25.671841
620.000000	25.662455
621.000000	25.648766
622.000000	25.629674
623.000000	25.605326
624.000000	25.576881
625.000000	25.542584
626.000000	25.502674
627.000000	25.457873
628.000000	25.406802
629.000000	25.349187
630.000000	25.283625
631.000000	25.212284
632.000000	25.134310
633.000000	25.048174
634.000000	24.954584
635.000000	24.853807
636.000000	24.745757
637.000000	24.629304
638.000000	24.505975
639.000000	24.375274
640.000000	24.237879
641.000000	24.094225
642.000000	23.945325
643.000000	23.789653
644.000000	23.629803
645.000000	23.463358
646.000000	23.292128
647.000000	23.115094
648.000000	22.930224
649.000000	22.738340
650.000000	22.539580
651.000000	22.332883
652.000000	22.118611
653.000000	21.897125
654.000000	21.667960
655.000000	21.432502
656.000000	21.191262
657.000000	20.946278
658.000000	20.698538
659.000000	20.449012
660.000000	20.200409
661.000000	19.955565
662.000000	19.714944
663.000000	19.480486
664.000000	19.255497
665.000000	19.041753
666.000000	18.839957
667.000000	18.652343
668.000000	18.480940
669.000000	18.325766
670.000000	18.187556
671.000000	18.065953
672.000000	17.962685
673.000000	17.876415
674.000000	17.807350
675.000000	17.754882
676.000000	17.718081
677.000000	17.695185
678.000000	17.686653
679.000000	17.690515
680.000000	17.709044
681.000000	17.740436
682.000000	17.784955
683.000000	17.842370
684.000000	17.912937
685.000000	17.996545
686.000000	18.092733
687.000000	18.203394
688.000000	18.328351
689.000000	18.466986
690.000000	18.619085
691.000000	18.783937
692.000000	18.959576
693.000000	19.145899
694.000000	19.341253
695.000000	19.542717
696.000000	19.748178
697.000000	19.956501
698.000000	20.166154
699.000000	20.375492
700.000000	20.580484
701.000000	20.779351
702.000000	20.971702
703.000000	21.156558
704.000000	21.333582
705.000000	21.500555
706.000000	21.657787
707.000000	21.804711
708.000000	21.942224
709.000000	22.070315
710.000000	22.189554
711.000000	22.300734
712.000000	22.405348
713.000000	22.503575
714.000000	22.595530
715.000000	22.681439
716.000000	22.762835
717.000000	22.839287
718.000000	22.912102
719.000000	22.981455
720.000000	23.046753
721.000000	23.107531
722.000000	23.161710
723.000000	23.208657
724.000000	23.249903
725.000000	23.284933
726.000000	23.312721
727.000000	23.334429
728.000000	23.350039
729.000000	23.359407
730.000000	23.364293
731.000000	23.365836
732.000000	23.363761
733.000000	23.358699
734.000000	23.351722
735.000000	23.345201
736.000000	23.340066
737.000000	23.336793
738.000000	23.335599
739.000000	23.335866
740.000000	23.339136
741.000000	23.346401
742.000000	23.357620
743.000000	23.370789
744.000000	23.386715
745.000000	23.405324
746.000000	23.427269
747.000000	23.451171
748.000000	23.476151
749.000000	23.502192
750.000000	23.528862
751.000000	23.555614
752.000000	23.581349
753.000000	23.608736
754.000000	23.637579
755.000000	23.667154
756.000000	23.698795
757.000000	23.733590
758.000000	23.772114
759.000000	23.814634
760.000000	23.860526
761.000000	23.910646
762.000000	23.963004
763.000000	24.016758
764.000000	24.074413
765.000000	24.135034
766.000000	24.196405
767.000000	24.258727
768.000000	24.321502
769.000000	24.383646
770.000000	24.445330
771.000000	24.506656
772.000000	24.565210
773.000000	24.620562
774.000000	24.674640
775.000000	24.727051
776.000000	24.776429
777.000000	24.823698
778.000000	24.870380
779.000000	24.915774
780.000000	24.958814
781.000000	25.001069
782.000000	25.041407
783.000000	25.080982
784.000000	25.119384
785.000000	25.157862
786.000000	25.196827
787.000000	25.235824
788.000000	25.272355
789.000000	25.304291
790.000000	25.334714
791.000000	25.361077
792.000000	25.385100
793.000000	25.406216
794.000000	25.422236
795.000000	25.434849
796.000000	25.443062
797.000000	25.450370
798.000000	25.458693
799.000000	25.462194
800.000000	25.465952
801.000000	25.469109
802.000000	25.471972
803.000000	25.475275
804.000000	25.480431
805.000000	25.484774
806.000000	25.487463
807.000000	25.493686
808.000000	25.503999
809.000000	25.516166
810.000000	25.528472
811.000000	25.542435
812.000000	25.556136
813.000000	25.569099
814.000000	25.580770
815.000000	25.593669
816.000000	25.604353
817.000000	25.614001
818.000000	25.624660
819.000000	25.635469
820.000000	25.643111
821.000000	25.647183
822.000000	25.651914
823.000000	25.659592
824.000000	25.668502
825.000000	25.678587
826.000000	25.693066
827.000000	25.708897
828.000000	25.723100
829.000000	25.737454
830.000000	25.753833
831.000000	25.772241
832.000000	25.793526
833.000000	25.812995
834.000000	25.833150
835.000000	25.850841
836.000000	25.868201
837.000000	25.883248
838.000000	25.893142
839.000000	25.902477
840.000000	25.913303
841.000000	25.921347
842.000000	25.924874
843.000000	25.925209
844.000000	25.922322
845.000000	25.923501
846.000000	25.920137
847.000000	25.915467
848.000000	25.914270
849.000000	25.907180
850.000000	25.902045
851.000000	25.893598
852.000000	25.891285
853.000000	25.887493
854.000000	25.885035
855.000000	25.879462
856.000000	25.866821
857.000000	25.863309
858.000000	25.912835
859.000000	25.922919
860.000000	25.932412
861.000000	25.940596
862.000000	25.948058
863.000000	25.957895
864.000000	25.970152
865.000000	25.980832
866.000000	25.991211
867.000000	25.998836
868.000000	26.006825
869.000000	26.015807
870.000000	26.024256
871.000000	26.032707
872.000000	26.042209
873.000000	26.056186
874.000000	26.069047
875.000000	26.080658
876.000000	26.095480
877.000000	26.111405
878.000000	26.126829
879.000000	26.142980
880.000000	26.154385
881.000000	26.167875
882.000000	26.182221
883.000000	26.192976
884.000000	26.210789
885.000000	26.225764
886.000000	26.244909
887.000000	26.258279
888.000000	26.272168
889.000000	26.285640
890.000000	26.304399
891.000000	26.331779
892.000000	26.349912
893.000000	26.311949
894.000000	26.313669
895.000000	26.315229
896.000000	26.315006
897.000000	26.313500
898.000000	26.310094
899.000000	26.305494
900.000000	26.301177
901.000000	26.296129
902.000000	26.288980
903.000000	26.281000
904.000000	26.273549
905.000000	26.264577
906.000000	26.255426
907.000000	26.247157
908.000000	26.238637
909.000000	26.231260
910.000000	26.223286
911.000000	26.215923
912.000000	26.209020
913.000000	26.202603
914.000000	26.196660
915.000000	26.190846
916.000000	26.185903
917.000000	26.180600
918.000000	26.174511
919.000000	26.167146
920.000000	26.158460
921.000000	26.147831
922.000000	26.135786
923.000000	26.122377
924.000000	26.106694
925.000000	26.089943
926.000000	26.072334
927.000000	26.053423
928.000000	26.033346
929.000000	26.011711
930.000000	25.988683
931.000000	25.966229
932.000000	25.943343
933.000000	25.921777
934.000000	25.900963
935.000000	25.879951
936.000000	25.859489
937.000000	25.840323
938.000000	25.821009
939.000000	25.801797
940.000000	25.782486
941.000000	25.761791
942.000000	25.740206
943.000000	25.718000
944.000000	25.693186
945.000000	25.668089
946.000000	25.641694
947.000000	25.614117
948.000000	25.584886
949.000000	25.555120
950.000000	25.525357
951.000000	25.495354
952.000000	25.466083
953.000000	25.437217
954.000000	25.409160
955.000000	25.382757
956.000000	25.357811
957.000000	25.334794
958.000000	25.312811
959.000000	25.291843
960.000000	25.271660
961.000000	25.251511
962.000000	25.231897
963.000000	25.213351
964.000000	25.195469
965.000000	25.178309
966.000000	25.160951
967.000000	25.143429
968.000000	25.125046
969.000000	25.105437
970.000000	25.085537
971.000000	25.065189
972.000000	25.043786
973.000000	25.022409
974.000000	25.000054
975.000000	24.979051
976.000000	24.958577
977.000000	24.938331
978.000000	24.919171
979.000000	24.900811
980.000000	24.882586
981.000000	24.864797
982.000000	24.847694
983.000000	24.831180
984.000000	24.813857
985.000000	24.795746
986.000000	24.777274
987.000000	24.757834
988.000000	24.737214
989.000000	24.716109
990.000000	24.693351
991.000000	24.668974
992.000000	24.643551
993.000000	24.617169
994.000000	24.590597
995.000000	24.563120
996.000000	24.535357
997.000000	24.506837
998.000000	24.477666
999.000000	24.448920
1000.000000	24.420226
1001.000000	24.391389
1002.000000	24.362957
1003.000000	24.334497
1004.000000	24.306369
1005.000000	24.278294
1006.000000	24.250563
1007.000000	24.223643
1008.000000	24.196417
1009.000000	24.169514
1010.000000	24.142369
1011.000000	24.115489
1012.000000	24.088714
1013.000000	24.060774
1014.000000	24.032300
1015.000000	24.004277
1016.000000	23.976420
1017.000000	23.948066
1018.000000	23.919583
1019.000000	23.891974
1020.000000	23.865654
1021.000000	23.839900
1022.000000	23.815083
1023.000000	23.791509
1024.000000	23.768857
1025.000000	23.747586
1026.000000	23.728223
1027.000000	23.710040
1028.000000	23.693029
1029.000000	23.677466
1030.000000	23.663491
1031.000000	23.651549
1032.000000	23.641129
1033.000000	23.631917
1034.000000	23.623920
1035.000000	23.616943
1036.000000	23.611200
1037.000000	23.606906
1038.000000	23.604089
1039.000000	23.602846
1040.000000	23.602514
1041.000000	23.602797
1042.000000	23.604034
1043.000000	23.606800
1044.000000	23.610626
1045.000000	23.615400
1046.000000	23.621491
1047.000000	23.628951
1048.000000	23.637691
1049.000000	23.647434
1050.000000	23.657706
1051.000000	23.669063
1052.000000	23.681986
1053.000000	23.695854
1054.000000	23.709780
1055.000000	23.723917
1056.000000	23.738880
1057.000000	23.754300
1058.000000	23.769443
1059.000000	23.784409
1060.000000	23.800023
1061.000000	23.815729
1062.000000	23.831486
1063.000000	23.846811
1064.000000	23.861909
1065.000000	23.876766
1066.000000	23.890871
1067.000000	23.904671
1068.000000	23.918169
1069.000000	23.930903
1070.000000	23.943811
1071.000000	23.956603
1072.000000	23.969023
1073.000000	23.980803
1074.000000	23.992271
1075.000000	24.004014
1076.000000	24.015689
1077.000000	24.027029
1078.000000	24.038271
1079.000000	24.049689
1080.000000	24.061509
1081.000000	24.073223
1082.000000	24.084877
1083.000000	24.096403
1084.000000	24.107837
1085.000000	24.119471
1086.000000	24.130517
1087.000000	24.140789
1088.000000	24.151797
1089.000000	24.163486
1090.000000	24.174871
1091.000000	24.185003
1092.000000	24.194223
1093.000000	24.203954
1094.000000	24.213726
1095.000000	24.223320
1096.000000	24.232257
1097.000000	24.240589
1098.000000	24.248923
1099.000000	24.256923
1100.000000	24.264469
1101.000000	24.271849
1102.000000	24.279171
1103.000000	24.286877
1104.000000	24.294789
1105.000000	24.302066
1106.000000	24.308903
1107.000000	24.315720
1108.000000	24.322849
1109.000000	24.329420
1110.000000	24.335240
1111.000000	24.341546
1112.000000	24.348126
1113.000000	24.354909
1114.000000	24.360851
1115.000000	24.366069
1116.000000	24.371817
1117.000000	24.377083
1118.000000	24.381549
1119.000000	24.386500
1120.000000	24.390500
1121.000000	24.393526
1122.000000	24.396517
1123.000000	24.397534
1124.000000	24.397740
1125.000000	24.396206
1126.000000	24.394111
1127.000000	24.391217
1128.000000	24.385126
1129.000000	24.376963
1130.000000	24.365929
1131.000000	24.351486
1132.000000	24.333460
1133.000000	24.310983
1134.000000	24.284491
1135.000000	24.254023
1136.000000	24.218986
1137.000000	24.178700
1138.000000	24.131689
1139.000000	24.078800
1140.000000	24.020737
1141.000000	23.957874
1142.000000	23.889440
1143.000000	23.815883
1144.000000	23.738434
1145.000000	23.657100
1146.000000	23.572700
1147.000000	23.486714
1148.000000	23.399540
1149.000000	23.313240
1150.000000	23.227423
1151.000000	23.140443
1152.000000	23.053914
1153.000000	22.967371
1154.000000	22.879526
1155.000000	22.791129
1156.000000	22.700723
1157.000000	22.606500
1158.000000	22.508897
1159.000000	22.406189
1160.000000	22.300214
1161.000000	22.189480
1162.000000	22.074466
1163.000000	21.956851
1164.000000	21.835354
1165.000000	21.710443
1166.000000	21.583343
1167.000000	21.454169
1168.000000	21.323643
1169.000000	21.191511
1170.000000	21.058709
1171.000000	20.924711
1172.000000	20.790729
1173.000000	20.658571
1174.000000	20.527646
1175.000000	20.397414
1176.000000	20.267637
1177.000000	20.138591
1178.000000	20.009280
1179.000000	19.878374
1180.000000	19.745120
