PE UV       SUBTECH     SPECTRUM    ASCII       PEDS        4.00        
   -1
CICIMAUCR0013-3.Sample.ASC
24/04/04
14:19:19.00
24/04/04
14:19:19.00
Vinicio Soto Monge
C. resplendens
250,000000
1
Lambda 1050
1050L1511233
PerkinElmer UV WinLab 6.3.2.0749 / 2.02.05 Lambda 900 UV/VIS/NIR, Aug  7 2015 09:38:08

0
0
3350/servo 860,8/2
0
0
UV/VIS
1
1
1
DoubleDePol,CommonBeamDepol,RBeamAtt,SBeamAtt,60mm sphere, WB InGaAs Detector
0
0
0
0
Program
Program
3350/servo 860,8/2
3350/0,2 860,8/0,2
3350/0,2 860,8/0,2
0
15.00
 
 
 
0
 
860,8
319,2
860,8
Front
100
on
S:100 R:100
0
0
0
0
 
0
 
 
 
0
 
 
0
0
0
0
0
 
 
 
 
0
0


0
0
#HDR
-1
-1
#GR
nm
%R
1.0
0.0
2500,000000
-1,000000
2251
8
70,616200
5,151800
#DATA
250.000000	nan
251.000000	nan
252.000000	nan
253.000000	nan
254.000000	nan
255.000000	nan
256.000000	nan
257.000000	nan
258.000000	nan
259.000000	nan
260.000000	nan
261.000000	nan
262.000000	nan
263.000000	nan
264.000000	nan
265.000000	nan
266.000000	nan
267.000000	nan
268.000000	nan
269.000000	nan
270.000000	nan
271.000000	nan
272.000000	nan
273.000000	nan
274.000000	nan
275.000000	nan
276.000000	nan
277.000000	nan
278.000000	nan
279.000000	nan
280.000000	nan
281.000000	nan
282.000000	nan
283.000000	nan
284.000000	5.129824
285.000000	5.120166
286.000000	5.110447
287.000000	5.100772
288.000000	5.091934
289.000000	5.081898
290.000000	5.072650
291.000000	5.063615
292.000000	5.054192
293.000000	5.044984
294.000000	5.036566
295.000000	5.029014
296.000000	5.020618
297.000000	5.012859
298.000000	5.006296
299.000000	4.999071
300.000000	4.993201
301.000000	4.988391
302.000000	4.982758
303.000000	4.978120
304.000000	4.972520
305.000000	4.968410
306.000000	4.964400
307.000000	4.960595
308.000000	4.956287
309.000000	4.952616
310.000000	4.948520
311.000000	4.944158
312.000000	4.940105
313.000000	4.935969
314.000000	4.932367
315.000000	4.928681
316.000000	4.927072
317.000000	4.936708
318.000000	4.944542
319.000000	4.947692
320.000000	4.948467
321.000000	4.952069
322.000000	4.953507
323.000000	4.956790
324.000000	4.960526
325.000000	4.962707
326.000000	4.966630
327.000000	4.970434
328.000000	4.975042
329.000000	4.981118
330.000000	4.983375
331.000000	4.987220
332.000000	4.991866
333.000000	4.995668
334.000000	4.995938
335.000000	4.996877
336.000000	4.999358
337.000000	5.001874
338.000000	5.005269
339.000000	5.009195
340.000000	5.012430
341.000000	5.014017
342.000000	5.016679
343.000000	5.021859
344.000000	5.025729
345.000000	5.030798
346.000000	5.035617
347.000000	5.040333
348.000000	5.044641
349.000000	5.048964
350.000000	5.055838
351.000000	5.059489
352.000000	5.054143
353.000000	5.052254
354.000000	5.055839
355.000000	5.062361
356.000000	5.068095
357.000000	5.077246
358.000000	5.084804
359.000000	5.094552
360.000000	5.106249
361.000000	5.116644
362.000000	5.128625
363.000000	5.140766
364.000000	5.150760
365.000000	5.165770
366.000000	5.182709
367.000000	5.198429
368.000000	5.216609
369.000000	5.240392
370.000000	5.265029
371.000000	5.289570
372.000000	5.317822
373.000000	5.344626
374.000000	5.374148
375.000000	5.408336
376.000000	5.450940
377.000000	5.494371
378.000000	5.540616
379.000000	5.591819
380.000000	5.646308
381.000000	5.706589
382.000000	5.771924
383.000000	5.842778
384.000000	5.920115
385.000000	6.000880
386.000000	6.090106
387.000000	6.184219
388.000000	6.283760
389.000000	6.390220
390.000000	6.503974
391.000000	6.623319
392.000000	6.749969
393.000000	6.884395
394.000000	7.025305
395.000000	7.174147
396.000000	7.331152
397.000000	7.494668
398.000000	7.666488
399.000000	7.847167
400.000000	8.034383
401.000000	8.228054
402.000000	8.428874
403.000000	8.636642
404.000000	8.851138
405.000000	9.071041
406.000000	9.296263
407.000000	9.526498
408.000000	9.762781
409.000000	10.003625
410.000000	10.246390
411.000000	10.488211
412.000000	10.734098
413.000000	10.982085
414.000000	11.231544
415.000000	11.481964
416.000000	11.732025
417.000000	11.981361
418.000000	12.229548
419.000000	12.476273
420.000000	12.720698
421.000000	12.961984
422.000000	13.199559
423.000000	13.432794
424.000000	13.661148
425.000000	13.884524
426.000000	14.101978
427.000000	14.312945
428.000000	14.516660
429.000000	14.712609
430.000000	14.900219
431.000000	15.079726
432.000000	15.250576
433.000000	15.411669
434.000000	15.562932
435.000000	15.704296
436.000000	15.835047
437.000000	15.955229
438.000000	16.064441
439.000000	16.162389
440.000000	16.249578
441.000000	16.326190
442.000000	16.392243
443.000000	16.448238
444.000000	16.494203
445.000000	16.530389
446.000000	16.557646
447.000000	16.576784
448.000000	16.588847
449.000000	16.594919
450.000000	16.595894
451.000000	16.593115
452.000000	16.588204
453.000000	16.582550
454.000000	16.577428
455.000000	16.574122
456.000000	16.573737
457.000000	16.577592
458.000000	16.587054
459.000000	16.603068
460.000000	16.625915
461.000000	16.657029
462.000000	16.697058
463.000000	16.746255
464.000000	16.805337
465.000000	16.874280
466.000000	16.953103
467.000000	17.041848
468.000000	17.140620
469.000000	17.249116
470.000000	17.367570
471.000000	17.495648
472.000000	17.632684
473.000000	17.778505
474.000000	17.932955
475.000000	18.095479
476.000000	18.265582
477.000000	18.442708
478.000000	18.625781
479.000000	18.814781
480.000000	19.009201
481.000000	19.208530
482.000000	19.411753
483.000000	19.617711
484.000000	19.825870
485.000000	20.036037
486.000000	20.247519
487.000000	20.459803
488.000000	20.672885
489.000000	20.886401
490.000000	21.099875
491.000000	21.313933
492.000000	21.528505
493.000000	21.744064
494.000000	21.960212
495.000000	22.177602
496.000000	22.396185
497.000000	22.616315
498.000000	22.838879
499.000000	23.064723
500.000000	23.294707
501.000000	23.529667
502.000000	23.770846
503.000000	24.019826
504.000000	24.277546
505.000000	24.544816
506.000000	24.823827
507.000000	25.115502
508.000000	25.421185
509.000000	25.742812
510.000000	26.081574
511.000000	26.439419
512.000000	26.817765
513.000000	27.218378
514.000000	27.642112
515.000000	28.090199
516.000000	28.562712
517.000000	29.060784
518.000000	29.584928
519.000000	30.135394
520.000000	30.711967
521.000000	31.314623
522.000000	31.943244
523.000000	32.596481
524.000000	33.273711
525.000000	33.973335
526.000000	34.693952
527.000000	35.433633
528.000000	36.190505
529.000000	36.963946
530.000000	37.751620
531.000000	38.551457
532.000000	39.362070
533.000000	40.181803
534.000000	41.008635
535.000000	41.840764
536.000000	42.675763
537.000000	43.512032
538.000000	44.347813
539.000000	45.181724
540.000000	46.012488
541.000000	46.837836
542.000000	47.657112
543.000000	48.468936
544.000000	49.270971
545.000000	50.062307
546.000000	50.841295
547.000000	51.605779
548.000000	52.354395
549.000000	53.086773
550.000000	53.800968
551.000000	54.496277
552.000000	55.172620
553.000000	55.827555
554.000000	56.461046
555.000000	57.072276
556.000000	57.659717
557.000000	58.222946
558.000000	58.761901
559.000000	59.274823
560.000000	59.762786
561.000000	60.226395
562.000000	60.665661
563.000000	61.081403
564.000000	61.473313
565.000000	61.841721
566.000000	62.188962
567.000000	62.515180
568.000000	62.820345
569.000000	63.105881
570.000000	63.372285
571.000000	63.621677
572.000000	63.853872
573.000000	64.069924
574.000000	64.269706
575.000000	64.453970
576.000000	64.622779
577.000000	64.776461
578.000000	64.915491
579.000000	65.040588
580.000000	65.150904
581.000000	65.247129
582.000000	65.330196
583.000000	65.399037
584.000000	65.453312
585.000000	65.493506
586.000000	65.519984
587.000000	65.531640
588.000000	65.529526
589.000000	65.513835
590.000000	65.484053
591.000000	65.441032
592.000000	65.383821
593.000000	65.313650
594.000000	65.231229
595.000000	65.136999
596.000000	65.030054
597.000000	64.910940
598.000000	64.780270
599.000000	64.638316
600.000000	64.486590
601.000000	64.323600
602.000000	64.149600
603.000000	63.965130
604.000000	63.769940
605.000000	63.563124
606.000000	63.344594
607.000000	63.113853
608.000000	62.870332
609.000000	62.615499
610.000000	62.347866
611.000000	62.067149
612.000000	61.773647
613.000000	61.467033
614.000000	61.147663
615.000000	60.816133
616.000000	60.471701
617.000000	60.115114
618.000000	59.747876
619.000000	59.368854
620.000000	58.978867
621.000000	58.577910
622.000000	58.164899
623.000000	57.741401
624.000000	57.307106
625.000000	56.862066
626.000000	56.407326
627.000000	55.944077
628.000000	55.471662
629.000000	54.991731
630.000000	54.503835
631.000000	54.009002
632.000000	53.508114
633.000000	53.003161
634.000000	52.495395
635.000000	51.985823
636.000000	51.477243
637.000000	50.971396
638.000000	50.470068
639.000000	49.975466
640.000000	49.489868
641.000000	49.015119
642.000000	48.554873
643.000000	48.110730
644.000000	47.684251
645.000000	47.277803
646.000000	46.893164
647.000000	46.532306
648.000000	46.197081
649.000000	45.887979
650.000000	45.606326
651.000000	45.353702
652.000000	45.130739
653.000000	44.937892
654.000000	44.775997
655.000000	44.644720
656.000000	44.544650
657.000000	44.476951
658.000000	44.440322
659.000000	44.434952
660.000000	44.461386
661.000000	44.518391
662.000000	44.603953
663.000000	44.717885
664.000000	44.859533
665.000000	45.026863
666.000000	45.219114
667.000000	45.435296
668.000000	45.672960
669.000000	45.930609
670.000000	46.206502
671.000000	46.498439
672.000000	46.805023
673.000000	47.124203
674.000000	47.453610
675.000000	47.792679
676.000000	48.137840
677.000000	48.487912
678.000000	48.841315
679.000000	49.195404
680.000000	49.548342
681.000000	49.899539
682.000000	50.246303
683.000000	50.585885
684.000000	50.917648
685.000000	51.240295
686.000000	51.551694
687.000000	51.849877
688.000000	52.134118
689.000000	52.404802
690.000000	52.661185
691.000000	52.901860
692.000000	53.125770
693.000000	53.334695
694.000000	53.527484
695.000000	53.703958
696.000000	53.864742
697.000000	54.011097
698.000000	54.142619
699.000000	54.258389
700.000000	54.361104
701.000000	54.450616
702.000000	54.526016
703.000000	54.588522
704.000000	54.638890
705.000000	54.676561
706.000000	54.702882
707.000000	54.718148
708.000000	54.723340
709.000000	54.719853
710.000000	54.707616
711.000000	54.688730
712.000000	54.663607
713.000000	54.634474
714.000000	54.601877
715.000000	54.567752
716.000000	54.532642
717.000000	54.497374
718.000000	54.464140
719.000000	54.433814
720.000000	54.407556
721.000000	54.386320
722.000000	54.371783
723.000000	54.364703
724.000000	54.365080
725.000000	54.374105
726.000000	54.392874
727.000000	54.422839
728.000000	54.463455
729.000000	54.515796
730.000000	54.580205
731.000000	54.656817
732.000000	54.747474
733.000000	54.852374
734.000000	54.970538
735.000000	55.102330
736.000000	55.248073
737.000000	55.408013
738.000000	55.581100
739.000000	55.766858
740.000000	55.964668
741.000000	56.173386
742.000000	56.393518
743.000000	56.623510
744.000000	56.860853
745.000000	57.106677
746.000000	57.359883
747.000000	57.618435
748.000000	57.879607
749.000000	58.142916
750.000000	58.407073
751.000000	58.672298
752.000000	58.937855
753.000000	59.201074
754.000000	59.461235
755.000000	59.718513
756.000000	59.971896
757.000000	60.220873
758.000000	60.464490
759.000000	60.703529
760.000000	60.938163
761.000000	61.168248
762.000000	61.393725
763.000000	61.613505
764.000000	61.827418
765.000000	62.036460
766.000000	62.240822
767.000000	62.438889
768.000000	62.630294
769.000000	62.816982
770.000000	62.997400
771.000000	63.172575
772.000000	63.343296
773.000000	63.507937
774.000000	63.666756
775.000000	63.821381
776.000000	63.970281
777.000000	64.113410
778.000000	64.251905
779.000000	64.384618
780.000000	64.510291
781.000000	64.630482
782.000000	64.743354
783.000000	64.849316
784.000000	64.949571
785.000000	65.045775
786.000000	65.136182
787.000000	65.221810
788.000000	65.302755
789.000000	65.379895
790.000000	65.452861
791.000000	65.523370
792.000000	65.589527
793.000000	65.651708
794.000000	65.710566
795.000000	65.763881
796.000000	65.813359
797.000000	65.860249
798.000000	65.905628
799.000000	65.949922
800.000000	65.990172
801.000000	66.027803
802.000000	66.065758
803.000000	66.100676
804.000000	66.131010
805.000000	66.160463
806.000000	66.187660
807.000000	66.212132
808.000000	66.231991
809.000000	66.252259
810.000000	66.268940
811.000000	66.283798
812.000000	66.295659
813.000000	66.302263
814.000000	66.308118
815.000000	66.312181
816.000000	66.313494
817.000000	66.313931
818.000000	66.313655
819.000000	66.310409
820.000000	66.303581
821.000000	66.294465
822.000000	66.282886
823.000000	66.268628
824.000000	66.251546
825.000000	66.231875
826.000000	66.205153
827.000000	66.174494
828.000000	66.145009
829.000000	66.107738
830.000000	66.067554
831.000000	66.019313
832.000000	65.965898
833.000000	65.907115
834.000000	65.839800
835.000000	65.768034
836.000000	65.689331
837.000000	65.598492
838.000000	65.503050
839.000000	65.406567
840.000000	65.296749
841.000000	65.180788
842.000000	65.058752
843.000000	64.932511
844.000000	64.796963
845.000000	64.654605
846.000000	64.505040
847.000000	64.353715
848.000000	64.202716
849.000000	64.043644
850.000000	63.878063
851.000000	63.708683
852.000000	63.539019
853.000000	63.368927
854.000000	63.196604
855.000000	63.017858
856.000000	62.839614
857.000000	62.663528
858.000000	62.457748
859.000000	62.322873
860.000000	62.190533
861.000000	62.065854
862.000000	61.946632
863.000000	61.827209
864.000000	61.713579
865.000000	61.603024
866.000000	61.498487
867.000000	61.395995
868.000000	61.294769
869.000000	61.197640
870.000000	61.102367
871.000000	61.009950
872.000000	60.923111
873.000000	60.837968
874.000000	60.752037
875.000000	60.674489
876.000000	60.599110
877.000000	60.526029
878.000000	60.456995
879.000000	60.391866
880.000000	60.331439
881.000000	60.275982
882.000000	60.221241
883.000000	60.167069
884.000000	60.119095
885.000000	60.077505
886.000000	60.039722
887.000000	60.002544
888.000000	59.965879
889.000000	59.933749
890.000000	59.909292
891.000000	59.885293
892.000000	59.859705
893.000000	59.866450
894.000000	59.803512
895.000000	59.739037
896.000000	59.671217
897.000000	59.600873
898.000000	59.528722
899.000000	59.455706
900.000000	59.381699
901.000000	59.307671
902.000000	59.232693
903.000000	59.157654
904.000000	59.082951
905.000000	59.008242
906.000000	58.934012
907.000000	58.859655
908.000000	58.786072
909.000000	58.713508
910.000000	58.642021
911.000000	58.570823
912.000000	58.500557
913.000000	58.431010
914.000000	58.362550
915.000000	58.295570
916.000000	58.230002
917.000000	58.163967
918.000000	58.098886
919.000000	58.035124
920.000000	57.971991
921.000000	57.908310
922.000000	57.845253
923.000000	57.783194
924.000000	57.721563
925.000000	57.661139
926.000000	57.601338
927.000000	57.542130
928.000000	57.483740
929.000000	57.427002
930.000000	57.370804
931.000000	57.316229
932.000000	57.262710
933.000000	57.209670
934.000000	57.157844
935.000000	57.107181
936.000000	57.057016
937.000000	57.008230
938.000000	56.960118
939.000000	56.912548
940.000000	56.866214
941.000000	56.820346
942.000000	56.775219
943.000000	56.730610
944.000000	56.686617
945.000000	56.642804
946.000000	56.599226
947.000000	56.555875
948.000000	56.512521
949.000000	56.469540
950.000000	56.426787
951.000000	56.383899
952.000000	56.341735
953.000000	56.298871
954.000000	56.256234
955.000000	56.213276
956.000000	56.170930
957.000000	56.128490
958.000000	56.085662
959.000000	56.042439
960.000000	55.998702
961.000000	55.954858
962.000000	55.910810
963.000000	55.866427
964.000000	55.821515
965.000000	55.777070
966.000000	55.732523
967.000000	55.688089
968.000000	55.644764
969.000000	55.601682
970.000000	55.559047
971.000000	55.516893
972.000000	55.474886
973.000000	55.433330
974.000000	55.391774
975.000000	55.349823
976.000000	55.307447
977.000000	55.264830
978.000000	55.221695
979.000000	55.177120
980.000000	55.131639
981.000000	55.085049
982.000000	55.037521
983.000000	54.989156
984.000000	54.939051
985.000000	54.887714
986.000000	54.835394
987.000000	54.781916
988.000000	54.727928
989.000000	54.672883
990.000000	54.617292
991.000000	54.561410
992.000000	54.505332
993.000000	54.449240
994.000000	54.392871
995.000000	54.336344
996.000000	54.280063
997.000000	54.223863
998.000000	54.167869
999.000000	54.112023
1000.000000	54.055992
1001.000000	53.999964
1002.000000	53.944362
1003.000000	53.888466
1004.000000	53.832974
1005.000000	53.777463
1006.000000	53.722370
1007.000000	53.667782
1008.000000	53.613710
1009.000000	53.560107
1010.000000	53.507387
1011.000000	53.455781
1012.000000	53.405519
1013.000000	53.356796
1014.000000	53.310244
1015.000000	53.265809
1016.000000	53.224348
1017.000000	53.185523
1018.000000	53.149057
1019.000000	53.115673
1020.000000	53.085262
1021.000000	53.057929
1022.000000	53.033828
1023.000000	53.012495
1024.000000	52.994106
1025.000000	52.979115
1026.000000	52.966965
1027.000000	52.957192
1028.000000	52.950255
1029.000000	52.946086
1030.000000	52.944211
1031.000000	52.944734
1032.000000	52.947748
1033.000000	52.952980
1034.000000	52.960304
1035.000000	52.969710
1036.000000	52.980874
1037.000000	52.993859
1038.000000	53.008899
1039.000000	53.025651
1040.000000	53.043946
1041.000000	53.063935
1042.000000	53.085839
1043.000000	53.109574
1044.000000	53.135064
1045.000000	53.162434
1046.000000	53.191502
1047.000000	53.221828
1048.000000	53.253176
1049.000000	53.285801
1050.000000	53.319430
1051.000000	53.353577
1052.000000	53.388350
1053.000000	53.423975
1054.000000	53.460448
1055.000000	53.497437
1056.000000	53.534749
1057.000000	53.572430
1058.000000	53.610944
1059.000000	53.649743
1060.000000	53.688529
1061.000000	53.727413
1062.000000	53.766610
1063.000000	53.805923
1064.000000	53.845659
1065.000000	53.886001
1066.000000	53.926584
1067.000000	53.967261
1068.000000	54.008184
1069.000000	54.049277
1070.000000	54.090777
1071.000000	54.132799
1072.000000	54.175150
1073.000000	54.217715
1074.000000	54.260955
1075.000000	54.304972
1076.000000	54.349490
1077.000000	54.394444
1078.000000	54.439996
1079.000000	54.486189
1080.000000	54.532701
1081.000000	54.579917
1082.000000	54.628010
1083.000000	54.676780
1084.000000	54.726043
1085.000000	54.775512
1086.000000	54.825424
1087.000000	54.875751
1088.000000	54.926356
1089.000000	54.976966
1090.000000	55.027653
1091.000000	55.078268
1092.000000	55.128690
1093.000000	55.178439
1094.000000	55.228129
1095.000000	55.277684
1096.000000	55.327090
1097.000000	55.375925
1098.000000	55.424389
1099.000000	55.471898
1100.000000	55.518723
1101.000000	55.564951
1102.000000	55.610588
1103.000000	55.655032
1104.000000	55.698901
1105.000000	55.742014
1106.000000	55.784122
1107.000000	55.825096
1108.000000	55.865065
1109.000000	55.903761
1110.000000	55.941272
1111.000000	55.977956
1112.000000	56.013291
1113.000000	56.047556
1114.000000	56.080537
1115.000000	56.112318
1116.000000	56.143000
1117.000000	56.171930
1118.000000	56.199099
1119.000000	56.224110
1120.000000	56.247030
1121.000000	56.267172
1122.000000	56.284757
1123.000000	56.298740
1124.000000	56.309207
1125.000000	56.316132
1126.000000	56.319398
1127.000000	56.318350
1128.000000	56.312230
1129.000000	56.300383
1130.000000	56.281666
1131.000000	56.255199
1132.000000	56.219742
1133.000000	56.175275
1134.000000	56.122550
1135.000000	56.059102
1136.000000	55.983974
1137.000000	55.896644
1138.000000	55.798213
1139.000000	55.688283
1140.000000	55.567485
1141.000000	55.436349
1142.000000	55.294874
1143.000000	55.143461
1144.000000	54.983071
1145.000000	54.815528
1146.000000	54.642071
1147.000000	54.466088
1148.000000	54.289001
1149.000000	54.112584
1150.000000	53.936740
1151.000000	53.761273
1152.000000	53.585926
1153.000000	53.410284
1154.000000	53.233328
1155.000000	53.053346
1156.000000	52.868763
1157.000000	52.677639
1158.000000	52.480470
1159.000000	52.275129
1160.000000	52.061668
1161.000000	51.839799
1162.000000	51.610228
1163.000000	51.373278
1164.000000	51.129881
1165.000000	50.880327
1166.000000	50.625752
1167.000000	50.368914
1168.000000	50.109211
1169.000000	49.846416
1170.000000	49.583105
1171.000000	49.319874
1172.000000	49.058250
1173.000000	48.797868
1174.000000	48.538525
1175.000000	48.280451
