PE UV       SUBTECH     SPECTRUM    ASCII       PEDS        4.00        
   -1
CICIMAUCR0008-1.Sample.ASC
24/03/08
13:07:07.00
24/03/08
13:07:07.00
Vinicio Soto Monge
C. kalinini
250,000000
1
Lambda 1050
1050L1511233
PerkinElmer UV WinLab 6.3.2.0749 / 2.02.05 Lambda 900 UV/VIS/NIR, Aug  7 2015 09:38:08

0
0
3350/servo 860,8/2
0
0
UV/VIS
1
1
1
DoubleDePol,CommonBeamDepol,RBeamAtt,SBeamAtt,60mm sphere, WB InGaAs Detector
0
0
0
0
Program
Program
3350/servo 860,8/2
3350/0,2 860,8/0,2
3350/0,2 860,8/0,2
0
15.00
 
 
 
0
 
860,8
319,2
860,8
Front
100
on
S:100 R:100
0
0
0
0
 
0
 
 
 
0
 
 
0
0
0
0
0
 
 
 
 
0
0


0
0
#HDR
-1
-1
#GR
nm
%R
1.0
0.0
2500,000000
-1,000000
2251
8
36,165400
2,347300
#DATA
250.000000	nan
251.000000	nan
252.000000	nan
253.000000	nan
254.000000	nan
255.000000	nan
256.000000	nan
257.000000	nan
258.000000	nan
259.000000	nan
260.000000	nan
261.000000	nan
262.000000	nan
263.000000	nan
264.000000	nan
265.000000	nan
266.000000	nan
267.000000	nan
268.000000	nan
269.000000	nan
270.000000	nan
271.000000	nan
272.000000	nan
273.000000	nan
274.000000	nan
275.000000	nan
276.000000	nan
277.000000	nan
278.000000	nan
279.000000	nan
280.000000	nan
281.000000	nan
282.000000	nan
283.000000	nan
284.000000	2.595860
285.000000	2.589474
286.000000	2.583856
287.000000	2.577523
288.000000	2.573192
289.000000	2.567517
290.000000	2.562984
291.000000	2.558147
292.000000	2.550832
293.000000	2.545548
294.000000	2.540137
295.000000	2.533852
296.000000	2.527331
297.000000	2.523253
298.000000	2.519265
299.000000	2.514999
300.000000	2.510638
301.000000	2.505308
302.000000	2.500953
303.000000	2.496703
304.000000	2.493381
305.000000	2.491586
306.000000	2.488188
307.000000	2.485073
308.000000	2.482660
309.000000	2.480494
310.000000	2.477504
311.000000	2.474939
312.000000	2.471244
313.000000	2.467879
314.000000	2.464903
315.000000	2.461820
316.000000	2.459285
317.000000	2.468864
318.000000	2.477850
319.000000	2.496505
320.000000	2.507275
321.000000	2.522415
322.000000	2.536984
323.000000	2.540295
324.000000	2.548595
325.000000	2.552453
326.000000	2.557696
327.000000	2.565849
328.000000	2.574530
329.000000	2.577871
330.000000	2.580878
331.000000	2.584950
332.000000	2.589817
333.000000	2.593011
334.000000	2.601015
335.000000	2.603396
336.000000	2.612074
337.000000	2.616933
338.000000	2.625095
339.000000	2.629682
340.000000	2.632546
341.000000	2.639933
342.000000	2.644335
343.000000	2.649683
344.000000	2.655823
345.000000	2.661654
346.000000	2.666200
347.000000	2.672702
348.000000	2.679378
349.000000	2.685488
350.000000	2.691449
351.000000	2.698351
352.000000	2.695040
353.000000	2.691618
354.000000	2.678641
355.000000	2.675229
356.000000	2.668762
357.000000	2.662641
358.000000	2.667397
359.000000	2.666725
360.000000	2.671543
361.000000	2.672623
362.000000	2.672612
363.000000	2.672721
364.000000	2.679509
365.000000	2.688808
366.000000	2.697288
367.000000	2.700547
368.000000	2.706165
369.000000	2.707601
370.000000	2.712517
371.000000	2.713872
372.000000	2.718799
373.000000	2.721857
374.000000	2.725130
375.000000	2.732557
376.000000	2.738352
377.000000	2.737802
378.000000	2.737307
379.000000	2.734970
380.000000	2.734535
381.000000	2.735590
382.000000	2.736276
383.000000	2.737476
384.000000	2.739307
385.000000	2.741301
386.000000	2.743020
387.000000	2.744661
388.000000	2.747553
389.000000	2.750760
390.000000	2.754678
391.000000	2.757265
392.000000	2.761798
393.000000	2.766831
394.000000	2.774331
395.000000	2.781176
396.000000	2.792913
397.000000	2.805509
398.000000	2.818295
399.000000	2.831974
400.000000	2.846053
401.000000	2.863748
402.000000	2.887414
403.000000	2.913559
404.000000	2.943243
405.000000	2.978096
406.000000	3.015310
407.000000	3.056965
408.000000	3.102412
409.000000	3.154149
410.000000	3.207690
411.000000	3.264949
412.000000	3.336778
413.000000	3.413389
414.000000	3.495321
415.000000	3.583184
416.000000	3.676540
417.000000	3.775452
418.000000	3.880196
419.000000	3.990112
420.000000	4.105902
421.000000	4.227220
422.000000	4.353707
423.000000	4.485878
424.000000	4.622972
425.000000	4.764550
426.000000	4.910661
427.000000	5.060697
428.000000	5.214501
429.000000	5.371975
430.000000	5.532448
431.000000	5.695543
432.000000	5.861097
433.000000	6.028997
434.000000	6.199124
435.000000	6.370441
436.000000	6.542328
437.000000	6.715269
438.000000	6.888885
439.000000	7.062029
440.000000	7.234279
441.000000	7.405576
442.000000	7.575250
443.000000	7.743103
444.000000	7.908608
445.000000	8.071594
446.000000	8.231670
447.000000	8.387906
448.000000	8.540336
449.000000	8.688509
450.000000	8.832557
451.000000	8.972231
452.000000	9.106997
453.000000	9.236795
454.000000	9.361949
455.000000	9.482228
456.000000	9.596747
457.000000	9.705836
458.000000	9.808885
459.000000	9.905999
460.000000	9.997763
461.000000	10.083597
462.000000	10.163875
463.000000	10.238413
464.000000	10.306909
465.000000	10.369495
466.000000	10.425583
467.000000	10.475265
468.000000	10.518427
469.000000	10.554602
470.000000	10.584327
471.000000	10.607683
472.000000	10.624173
473.000000	10.634073
474.000000	10.638292
475.000000	10.636785
476.000000	10.630264
477.000000	10.619831
478.000000	10.605765
479.000000	10.588906
480.000000	10.569731
481.000000	10.549344
482.000000	10.529244
483.000000	10.510461
484.000000	10.494247
485.000000	10.481466
486.000000	10.473097
487.000000	10.469672
488.000000	10.472069
489.000000	10.480413
490.000000	10.494883
491.000000	10.516264
492.000000	10.544068
493.000000	10.578630
494.000000	10.619637
495.000000	10.666382
496.000000	10.719120
497.000000	10.777076
498.000000	10.839951
499.000000	10.907832
500.000000	10.980286
501.000000	11.057256
502.000000	11.138944
503.000000	11.225496
504.000000	11.316765
505.000000	11.412657
506.000000	11.513092
507.000000	11.618081
508.000000	11.727782
509.000000	11.842117
510.000000	11.961740
511.000000	12.086472
512.000000	12.216055
513.000000	12.350968
514.000000	12.491610
515.000000	12.637862
516.000000	12.789612
517.000000	12.946915
518.000000	13.108617
519.000000	13.274612
520.000000	13.444275
521.000000	13.617963
522.000000	13.795861
523.000000	13.977268
524.000000	14.162138
525.000000	14.350662
526.000000	14.542916
527.000000	14.739191
528.000000	14.940374
529.000000	15.147042
530.000000	15.359915
531.000000	15.578493
532.000000	15.803785
533.000000	16.035999
534.000000	16.275234
535.000000	16.521551
536.000000	16.774838
537.000000	17.034606
538.000000	17.301036
539.000000	17.574050
540.000000	17.853835
541.000000	18.140076
542.000000	18.432738
543.000000	18.730555
544.000000	19.033452
545.000000	19.340878
546.000000	19.651147
547.000000	19.964580
548.000000	20.279961
549.000000	20.595778
550.000000	20.912209
551.000000	21.228493
552.000000	21.543861
553.000000	21.857155
554.000000	22.167746
555.000000	22.473768
556.000000	22.774779
557.000000	23.069900
558.000000	23.359692
559.000000	23.643204
560.000000	23.900406
561.000000	24.148160
562.000000	24.388633
563.000000	24.621323
564.000000	24.845910
565.000000	25.061583
566.000000	25.268131
567.000000	25.464729
568.000000	25.652391
569.000000	25.832092
570.000000	26.003395
571.000000	26.167886
572.000000	26.326364
573.000000	26.479189
574.000000	26.625601
575.000000	26.765169
576.000000	26.898335
577.000000	27.024876
578.000000	27.145860
579.000000	27.260442
580.000000	27.367961
581.000000	27.471152
582.000000	27.569672
583.000000	27.663077
584.000000	27.751653
585.000000	27.834265
586.000000	27.910536
587.000000	27.979056
588.000000	28.040182
589.000000	28.093157
590.000000	28.138713
591.000000	28.175323
592.000000	28.204901
593.000000	28.226217
594.000000	28.239286
595.000000	28.264141
596.000000	28.283074
597.000000	28.293787
598.000000	28.295996
599.000000	28.289326
600.000000	28.274267
601.000000	28.249978
602.000000	28.217429
603.000000	28.176167
604.000000	28.125450
605.000000	28.065714
606.000000	27.997222
607.000000	27.919356
608.000000	27.831477
609.000000	27.734725
610.000000	27.630484
611.000000	27.517981
612.000000	27.397814
613.000000	27.269936
614.000000	27.134085
615.000000	26.991713
616.000000	26.841081
617.000000	26.682782
618.000000	26.516205
619.000000	26.342595
620.000000	26.161969
621.000000	25.974802
622.000000	25.783789
623.000000	25.588354
624.000000	25.390099
625.000000	25.190456
626.000000	24.991014
627.000000	24.791124
628.000000	24.591821
629.000000	24.394066
630.000000	24.198661
631.000000	24.006244
632.000000	23.818232
633.000000	23.635573
634.000000	23.459224
635.000000	23.289482
636.000000	23.129954
637.000000	22.979961
638.000000	22.839221
639.000000	22.708868
640.000000	22.589985
641.000000	22.482028
642.000000	22.385274
643.000000	22.301132
644.000000	22.229423
645.000000	22.169430
646.000000	22.121667
647.000000	22.086218
648.000000	22.063600
649.000000	22.053536
650.000000	22.055313
651.000000	22.069392
652.000000	22.094611
653.000000	22.132917
654.000000	22.181550
655.000000	22.240121
656.000000	22.308858
657.000000	22.386354
658.000000	22.473676
659.000000	22.568063
660.000000	22.669736
661.000000	22.777304
662.000000	22.888393
663.000000	23.003573
664.000000	23.121956
665.000000	23.243195
666.000000	23.365767
667.000000	23.489318
668.000000	23.613039
669.000000	23.737045
670.000000	23.861720
671.000000	23.985010
672.000000	24.107999
673.000000	24.231164
674.000000	24.354340
675.000000	24.477222
676.000000	24.599400
677.000000	24.722435
678.000000	24.845233
679.000000	24.969413
680.000000	25.095571
681.000000	25.224011
682.000000	25.355074
683.000000	25.487446
684.000000	25.623493
685.000000	25.764445
686.000000	25.909005
687.000000	26.057064
688.000000	26.208827
689.000000	26.365453
690.000000	26.526562
691.000000	26.692032
692.000000	26.861460
693.000000	27.034088
694.000000	27.211847
695.000000	27.393031
696.000000	27.576699
697.000000	27.764548
698.000000	27.954288
699.000000	28.146542
700.000000	28.341471
701.000000	28.539201
702.000000	28.738363
703.000000	28.938446
704.000000	29.138497
705.000000	29.338363
706.000000	29.537781
707.000000	29.735563
708.000000	29.932012
709.000000	30.125800
710.000000	30.315840
711.000000	30.502710
712.000000	30.684451
713.000000	30.860812
714.000000	31.031176
715.000000	31.194032
716.000000	31.349286
717.000000	31.495698
718.000000	31.634281
719.000000	31.764721
720.000000	31.886325
721.000000	31.999081
722.000000	32.103619
723.000000	32.199396
724.000000	32.285731
725.000000	32.365010
726.000000	32.437171
727.000000	32.502380
728.000000	32.562613
729.000000	32.616026
730.000000	32.663769
731.000000	32.708198
732.000000	32.749524
733.000000	32.788746
734.000000	32.825297
735.000000	32.858825
736.000000	32.891586
737.000000	32.923928
738.000000	32.956039
739.000000	32.987170
740.000000	33.018021
741.000000	33.048356
742.000000	33.078355
743.000000	33.109443
744.000000	33.140828
745.000000	33.172353
746.000000	33.204209
747.000000	33.238471
748.000000	33.273077
749.000000	33.307008
750.000000	33.342391
751.000000	33.380294
752.000000	33.420994
753.000000	33.462156
754.000000	33.503492
755.000000	33.543982
756.000000	33.585253
757.000000	33.625060
758.000000	33.664519
759.000000	33.706239
760.000000	33.747350
761.000000	33.787448
762.000000	33.827119
763.000000	33.865727
764.000000	33.903768
765.000000	33.941187
766.000000	33.976201
767.000000	34.008932
768.000000	34.040180
769.000000	34.069298
770.000000	34.096512
771.000000	34.120845
772.000000	34.142615
773.000000	34.161977
774.000000	34.178814
775.000000	34.193315
776.000000	34.205375
777.000000	34.215093
778.000000	34.220600
779.000000	34.222716
780.000000	34.221895
781.000000	34.217901
782.000000	34.210022
783.000000	34.198329
784.000000	34.182748
785.000000	34.162760
786.000000	34.135998
787.000000	34.103041
788.000000	34.067016
789.000000	34.026158
790.000000	33.981043
791.000000	33.932378
792.000000	33.879735
793.000000	33.820560
794.000000	33.755666
795.000000	33.684597
796.000000	33.610481
797.000000	33.532999
798.000000	33.448648
799.000000	33.360102
800.000000	33.266961
801.000000	33.167271
802.000000	33.064331
803.000000	32.957867
804.000000	32.845897
805.000000	32.728320
806.000000	32.605628
807.000000	32.476398
808.000000	32.344386
809.000000	32.210442
810.000000	32.071113
811.000000	31.927337
812.000000	31.780979
813.000000	31.629517
814.000000	31.475438
815.000000	31.316343
816.000000	31.151286
817.000000	30.982029
818.000000	30.811967
819.000000	30.642405
820.000000	30.468039
821.000000	30.291458
822.000000	30.113416
823.000000	29.933826
824.000000	29.753918
825.000000	29.573763
826.000000	29.395405
827.000000	29.216961
828.000000	29.042532
829.000000	28.867777
830.000000	28.694368
831.000000	28.522690
832.000000	28.352715
833.000000	28.188662
834.000000	28.027409
835.000000	27.872231
836.000000	27.720342
837.000000	27.573149
838.000000	27.424617
839.000000	27.280884
840.000000	27.146951
841.000000	27.019446
842.000000	26.897647
843.000000	26.776244
844.000000	26.659053
845.000000	26.551428
846.000000	26.446885
847.000000	26.349211
848.000000	26.256016
849.000000	26.167576
850.000000	26.088143
851.000000	26.015224
852.000000	25.948970
853.000000	25.881362
854.000000	25.817785
855.000000	25.763425
856.000000	25.715138
857.000000	25.674498
858.000000	25.618738
859.000000	25.599423
860.000000	25.586017
861.000000	25.577152
862.000000	25.576485
863.000000	25.580748
864.000000	25.592665
865.000000	25.612664
866.000000	25.635801
867.000000	25.663457
868.000000	25.693379
869.000000	25.727380
870.000000	25.761321
871.000000	25.802904
872.000000	25.845220
873.000000	25.895328
874.000000	25.949401
875.000000	26.003031
876.000000	26.057859
877.000000	26.115149
878.000000	26.176552
879.000000	26.240444
880.000000	26.303134
881.000000	26.369738
882.000000	26.435929
883.000000	26.506186
884.000000	26.575969
885.000000	26.644835
886.000000	26.716471
887.000000	26.787083
888.000000	26.862323
889.000000	26.936864
890.000000	27.008836
891.000000	27.080348
892.000000	27.150277
893.000000	27.239011
894.000000	27.294417
895.000000	27.347463
896.000000	27.395886
897.000000	27.440009
898.000000	27.479534
899.000000	27.514426
900.000000	27.544497
901.000000	27.572160
902.000000	27.595277
903.000000	27.616089
904.000000	27.632500
905.000000	27.646414
906.000000	27.656226
907.000000	27.662863
908.000000	27.664703
909.000000	27.663786
910.000000	27.658971
911.000000	27.651203
912.000000	27.641537
913.000000	27.629123
914.000000	27.613574
915.000000	27.594451
916.000000	27.573509
917.000000	27.549680
918.000000	27.522526
919.000000	27.495786
920.000000	27.467151
921.000000	27.435429
922.000000	27.403149
923.000000	27.369840
924.000000	27.333923
925.000000	27.297943
926.000000	27.261094
927.000000	27.222803
928.000000	27.184040
929.000000	27.145194
930.000000	27.105480
931.000000	27.064874
932.000000	27.024326
933.000000	26.984737
934.000000	26.945009
935.000000	26.904686
936.000000	26.864386
937.000000	26.824580
938.000000	26.783909
939.000000	26.743937
940.000000	26.703457
941.000000	26.662780
942.000000	26.622797
943.000000	26.583574
944.000000	26.544049
945.000000	26.503811
946.000000	26.463551
947.000000	26.423314
948.000000	26.384251
949.000000	26.343814
950.000000	26.303820
951.000000	26.264343
952.000000	26.224077
953.000000	26.184280
954.000000	26.143103
955.000000	26.102406
956.000000	26.061951
957.000000	26.020623
958.000000	25.979834
959.000000	25.939266
960.000000	25.897983
961.000000	25.857177
962.000000	25.815626
963.000000	25.773563
964.000000	25.731566
965.000000	25.689754
966.000000	25.648723
967.000000	25.607831
968.000000	25.566971
969.000000	25.526011
970.000000	25.486226
971.000000	25.446754
972.000000	25.407663
973.000000	25.368614
974.000000	25.330066
975.000000	25.291866
976.000000	25.254397
977.000000	25.217163
978.000000	25.180351
979.000000	25.144331
980.000000	25.109357
981.000000	25.074903
982.000000	25.040820
983.000000	25.006934
984.000000	24.974314
985.000000	24.941777
986.000000	24.909431
987.000000	24.878071
988.000000	24.847403
989.000000	24.817920
990.000000	24.789297
991.000000	24.761663
992.000000	24.734951
993.000000	24.708797
994.000000	24.684520
995.000000	24.661900
996.000000	24.640263
997.000000	24.619203
998.000000	24.599334
999.000000	24.580431
1000.000000	24.562466
1001.000000	24.545131
1002.000000	24.528689
1003.000000	24.512951
1004.000000	24.498434
1005.000000	24.484477
1006.000000	24.470909
1007.000000	24.457697
1008.000000	24.445703
1009.000000	24.434800
1010.000000	24.424509
1011.000000	24.414349
1012.000000	24.405011
1013.000000	24.396934
1014.000000	24.389846
1015.000000	24.383229
1016.000000	24.377766
1017.000000	24.373523
1018.000000	24.370340
1019.000000	24.368763
1020.000000	24.369169
1021.000000	24.370597
1022.000000	24.373280
1023.000000	24.377731
1024.000000	24.383451
1025.000000	24.390091
1026.000000	24.397923
1027.000000	24.407177
1028.000000	24.418463
1029.000000	24.430494
1030.000000	24.443066
1031.000000	24.456906
1032.000000	24.472643
1033.000000	24.489626
1034.000000	24.507546
1035.000000	24.526620
1036.000000	24.546649
1037.000000	24.567469
1038.000000	24.589709
1039.000000	24.612814
1040.000000	24.636494
1041.000000	24.660497
1042.000000	24.685509
1043.000000	24.711600
1044.000000	24.737791
1045.000000	24.764897
1046.000000	24.793040
1047.000000	24.821940
1048.000000	24.850820
1049.000000	24.879323
1050.000000	24.908414
1051.000000	24.938037
1052.000000	24.967451
1053.000000	24.996763
1054.000000	25.025757
1055.000000	25.054637
1056.000000	25.083477
1057.000000	25.112757
1058.000000	25.141723
1059.000000	25.170177
1060.000000	25.198791
1061.000000	25.227554
1062.000000	25.255703
1063.000000	25.283557
1064.000000	25.311663
1065.000000	25.339580
1066.000000	25.367309
1067.000000	25.394874
1068.000000	25.422114
1069.000000	25.449363
1070.000000	25.477109
1071.000000	25.505197
1072.000000	25.533200
1073.000000	25.560643
1074.000000	25.588051
1075.000000	25.615849
1076.000000	25.644117
1077.000000	25.672569
1078.000000	25.700694
1079.000000	25.729426
1080.000000	25.758617
1081.000000	25.787469
1082.000000	25.816406
1083.000000	25.845757
1084.000000	25.875620
1085.000000	25.905446
1086.000000	25.935297
1087.000000	25.965297
1088.000000	25.995649
1089.000000	26.025943
1090.000000	26.055929
1091.000000	26.086186
1092.000000	26.116174
1093.000000	26.145520
1094.000000	26.174423
1095.000000	26.202900
1096.000000	26.230460
1097.000000	26.258089
1098.000000	26.284837
1099.000000	26.311123
1100.000000	26.337569
1101.000000	26.363237
1102.000000	26.388211
1103.000000	26.412466
1104.000000	26.436557
1105.000000	26.459166
1106.000000	26.480997
1107.000000	26.501800
1108.000000	26.522174
1109.000000	26.542531
1110.000000	26.562417
1111.000000	26.581366
1112.000000	26.599271
1113.000000	26.616714
1114.000000	26.633343
1115.000000	26.648289
1116.000000	26.663046
1117.000000	26.676214
1118.000000	26.689197
1119.000000	26.701309
1120.000000	26.711634
1121.000000	26.720660
1122.000000	26.728214
1123.000000	26.734180
1124.000000	26.737880
1125.000000	26.739337
1126.000000	26.739260
1127.000000	26.735857
1128.000000	26.730349
1129.000000	26.721551
1130.000000	26.708949
1131.000000	26.691849
1132.000000	26.668814
1133.000000	26.640689
1134.000000	26.607309
1135.000000	26.568631
1136.000000	26.523586
1137.000000	26.471691
1138.000000	26.414709
1139.000000	26.350700
1140.000000	26.281151
1141.000000	26.206751
1142.000000	26.127714
1143.000000	26.043337
1144.000000	25.953629
1145.000000	25.859983
1146.000000	25.764009
1147.000000	25.666151
1148.000000	25.567671
1149.000000	25.468154
1150.000000	25.369051
1151.000000	25.269574
1152.000000	25.170157
1153.000000	25.069306
1154.000000	24.966794
1155.000000	24.863243
1156.000000	24.757086
1157.000000	24.647514
1158.000000	24.534960
1159.000000	24.418820
1160.000000	24.299494
1161.000000	24.175949
1162.000000	24.049940
1163.000000	23.920771
1164.000000	23.789234
1165.000000	23.655797
1166.000000	23.522354
1167.000000	23.389271
1168.000000	23.256014
1169.000000	23.123183
1170.000000	22.990914
1171.000000	22.860434
1172.000000	22.732060
1173.000000	22.604811
1174.000000	22.480074
1175.000000	22.357006
1176.000000	22.235334
1177.000000	22.113911
