PE UV       SUBTECH     SPECTRUM    ASCII       PEDS        4.00        
   -1
CICIMAUCR0097-1.ASC
24/04/03
15:09:17.00
24/04/03
15:09:17.00
Vinicio Soto Monge
C. kalinini
250,000000
1
Lambda 1050
1050L1511233
PerkinElmer UV WinLab 6.3.2.0749 / 2.02.05 Lambda 900 UV/VIS/NIR, Aug  7 2015 09:38:08

0
0
3350/servo 860,8/2
0
0
UV/VIS
1
1
1
DoubleDePol,CommonBeamDepol,RBeamAtt,SBeamAtt,60mm sphere, WB InGaAs Detector
0
0
0
0
Program
Program
3350/servo 860,8/2
3350/0,2 860,8/0,2
3350/0,2 860,8/0,2
0
15.00
 
 
 
0
 
860,8
319,2
860,8
Front
100
on
S:100 R:100
0
0
0
0
 
0
 
 
 
0
 
 
0
0
0
0
0
 
 
 
 
0
0


0
0
#HDR
-1
-1
#GR
nm
%R
1.0
0.0
2500,000000
-1,000000
2251
8
71,118700
4,659200
#DATA
250.000000	nan
251.000000	nan
252.000000	nan
253.000000	nan
254.000000	nan
255.000000	nan
256.000000	nan
257.000000	nan
258.000000	nan
259.000000	nan
260.000000	nan
261.000000	nan
262.000000	nan
263.000000	nan
264.000000	nan
265.000000	nan
266.000000	nan
267.000000	nan
268.000000	nan
269.000000	nan
270.000000	nan
271.000000	nan
272.000000	nan
273.000000	nan
274.000000	nan
275.000000	nan
276.000000	nan
277.000000	nan
278.000000	nan
279.000000	nan
280.000000	nan
281.000000	nan
282.000000	nan
283.000000	nan
284.000000	5.459483
285.000000	5.441320
286.000000	5.423178
287.000000	5.407411
288.000000	5.391002
289.000000	5.377103
290.000000	5.361871
291.000000	5.346959
292.000000	5.330613
293.000000	5.316088
294.000000	5.302125
295.000000	5.289561
296.000000	5.276643
297.000000	5.263759
298.000000	5.251680
299.000000	5.240914
300.000000	5.230022
301.000000	5.220745
302.000000	5.213226
303.000000	5.202827
304.000000	5.195490
305.000000	5.187438
306.000000	5.180520
307.000000	5.172791
308.000000	5.165769
309.000000	5.159998
310.000000	5.155455
311.000000	5.151453
312.000000	5.147594
313.000000	5.143707
314.000000	5.138031
315.000000	5.132983
316.000000	5.130293
317.000000	5.133038
318.000000	5.139446
319.000000	5.152258
320.000000	5.153734
321.000000	5.156627
322.000000	5.163441
323.000000	5.167203
324.000000	5.172595
325.000000	5.185331
326.000000	5.191350
327.000000	5.202041
328.000000	5.201238
329.000000	5.196941
330.000000	5.196061
331.000000	5.200171
332.000000	5.205707
333.000000	5.209422
334.000000	5.214048
335.000000	5.218133
336.000000	5.221247
337.000000	5.222196
338.000000	5.226091
339.000000	5.231845
340.000000	5.235434
341.000000	5.239632
342.000000	5.242735
343.000000	5.249879
344.000000	5.254028
345.000000	5.256689
346.000000	5.260670
347.000000	5.261597
348.000000	5.265858
349.000000	5.269565
350.000000	5.274486
351.000000	5.278450
352.000000	5.274395
353.000000	5.270208
354.000000	5.259550
355.000000	5.263100
356.000000	5.266989
357.000000	5.264154
358.000000	5.262995
359.000000	5.259509
360.000000	5.251024
361.000000	5.248610
362.000000	5.243022
363.000000	5.250436
364.000000	5.259903
365.000000	5.265193
366.000000	5.268280
367.000000	5.268857
368.000000	5.269786
369.000000	5.270815
370.000000	5.274398
371.000000	5.278756
372.000000	5.284336
373.000000	5.286378
374.000000	5.285263
375.000000	5.290419
376.000000	5.299560
377.000000	5.305678
378.000000	5.308375
379.000000	5.312496
380.000000	5.318170
381.000000	5.323174
382.000000	5.332130
383.000000	5.340083
384.000000	5.349853
385.000000	5.359364
386.000000	5.368896
387.000000	5.381364
388.000000	5.392847
389.000000	5.404661
390.000000	5.415422
391.000000	5.426541
392.000000	5.440834
393.000000	5.458838
394.000000	5.477327
395.000000	5.496854
396.000000	5.518664
397.000000	5.541691
398.000000	5.564298
399.000000	5.591007
400.000000	5.619694
401.000000	5.650174
402.000000	5.684805
403.000000	5.723579
404.000000	5.765286
405.000000	5.807577
406.000000	5.852836
407.000000	5.903661
408.000000	5.961228
409.000000	6.023007
410.000000	6.084819
411.000000	6.148829
412.000000	6.222938
413.000000	6.301912
414.000000	6.385940
415.000000	6.475616
416.000000	6.571025
417.000000	6.672323
418.000000	6.779730
419.000000	6.893570
420.000000	7.013799
421.000000	7.141041
422.000000	7.275580
423.000000	7.416948
424.000000	7.565375
425.000000	7.720745
426.000000	7.882892
427.000000	8.052307
428.000000	8.229148
429.000000	8.412706
430.000000	8.602935
431.000000	8.800221
432.000000	9.004513
433.000000	9.214782
434.000000	9.430960
435.000000	9.653487
436.000000	9.881090
437.000000	10.113603
438.000000	10.350380
439.000000	10.591363
440.000000	10.836219
441.000000	11.084741
442.000000	11.336546
443.000000	11.590540
444.000000	11.846987
445.000000	12.104830
446.000000	12.363108
447.000000	12.621850
448.000000	12.879905
449.000000	13.137143
450.000000	13.393750
451.000000	13.648139
452.000000	13.899425
453.000000	14.147834
454.000000	14.392903
455.000000	14.634736
456.000000	14.872142
457.000000	15.103981
458.000000	15.330514
459.000000	15.551507
460.000000	15.766549
461.000000	15.975152
462.000000	16.176815
463.000000	16.371671
464.000000	16.560069
465.000000	16.740997
466.000000	16.913593
467.000000	17.078366
468.000000	17.235424
469.000000	17.384300
470.000000	17.524717
471.000000	17.657201
472.000000	17.781346
473.000000	17.897216
474.000000	18.005123
475.000000	18.104592
476.000000	18.195220
477.000000	18.277758
478.000000	18.352970
479.000000	18.420553
480.000000	18.480657
481.000000	18.533552
482.000000	18.578893
483.000000	18.617913
484.000000	18.650539
485.000000	18.676277
486.000000	18.696896
487.000000	18.713076
488.000000	18.724463
489.000000	18.731949
490.000000	18.735954
491.000000	18.737217
492.000000	18.736842
493.000000	18.735924
494.000000	18.735038
495.000000	18.734611
496.000000	18.735551
497.000000	18.739143
498.000000	18.745388
499.000000	18.754954
500.000000	18.769896
501.000000	18.790801
502.000000	18.818318
503.000000	18.852704
504.000000	18.894584
505.000000	18.945244
506.000000	19.005550
507.000000	19.075667
508.000000	19.155698
509.000000	19.245631
510.000000	19.346612
511.000000	19.459053
512.000000	19.582393
513.000000	19.716482
514.000000	19.861685
515.000000	20.017807
516.000000	20.184917
517.000000	20.362996
518.000000	20.552078
519.000000	20.751358
520.000000	20.960436
521.000000	21.179162
522.000000	21.407364
523.000000	21.644433
524.000000	21.890343
525.000000	22.144986
526.000000	22.408091
527.000000	22.679165
528.000000	22.957505
529.000000	23.243028
530.000000	23.536437
531.000000	23.837279
532.000000	24.145012
533.000000	24.460728
534.000000	24.784354
535.000000	25.115720
536.000000	25.455224
537.000000	25.802600
538.000000	26.158629
539.000000	26.524055
540.000000	26.898273
541.000000	27.280793
542.000000	27.672622
543.000000	28.074415
544.000000	28.486604
545.000000	28.907595
546.000000	29.337476
547.000000	29.775546
548.000000	30.222656
549.000000	30.677867
550.000000	31.141433
551.000000	31.613875
552.000000	32.095459
553.000000	32.584623
554.000000	33.081567
555.000000	33.585825
556.000000	34.098235
557.000000	34.617239
558.000000	35.143213
559.000000	35.674844
560.000000	36.210596
561.000000	36.751241
562.000000	37.296730
563.000000	37.845287
564.000000	38.396491
565.000000	38.947814
566.000000	39.499363
567.000000	40.050529
568.000000	40.598834
569.000000	41.143035
570.000000	41.682189
571.000000	42.215511
572.000000	42.740246
573.000000	43.256383
574.000000	43.762447
575.000000	44.257321
576.000000	44.740647
577.000000	45.211956
578.000000	45.669456
579.000000	46.113808
580.000000	46.544456
581.000000	46.963047
582.000000	47.367843
583.000000	47.760230
584.000000	48.138248
585.000000	48.504475
586.000000	48.856460
587.000000	49.195086
588.000000	49.520556
589.000000	49.833571
590.000000	50.134959
591.000000	50.423646
592.000000	50.700595
593.000000	50.964495
594.000000	51.216885
595.000000	51.456685
596.000000	51.684141
597.000000	51.897632
598.000000	52.098542
599.000000	52.285650
600.000000	52.462193
601.000000	52.625465
602.000000	52.777254
603.000000	52.917586
604.000000	53.046861
605.000000	53.164453
606.000000	53.270376
607.000000	53.365854
608.000000	53.451763
609.000000	53.526892
610.000000	53.591355
611.000000	53.646086
612.000000	53.689927
613.000000	53.725628
614.000000	53.750688
615.000000	53.766582
616.000000	53.772247
617.000000	53.768104
618.000000	53.753237
619.000000	53.729482
620.000000	53.694423
621.000000	53.649200
622.000000	53.591123
623.000000	53.521405
624.000000	53.438958
625.000000	53.342557
626.000000	53.232537
627.000000	53.107926
628.000000	52.968714
629.000000	52.813673
630.000000	52.644470
631.000000	52.458943
632.000000	52.259120
633.000000	52.044004
634.000000	51.813643
635.000000	51.568221
636.000000	51.309880
637.000000	51.038427
638.000000	50.755464
639.000000	50.462969
640.000000	50.160634
641.000000	49.851119
642.000000	49.534551
643.000000	49.212252
644.000000	48.886460
645.000000	48.559606
646.000000	48.231605
647.000000	47.904398
648.000000	47.578146
649.000000	47.254936
650.000000	46.936178
651.000000	46.622533
652.000000	46.315783
653.000000	46.017243
654.000000	45.726077
655.000000	45.444618
656.000000	45.173568
657.000000	44.914672
658.000000	44.668428
659.000000	44.436898
660.000000	44.220717
661.000000	44.019159
662.000000	43.834898
663.000000	43.668343
664.000000	43.520479
665.000000	43.391261
666.000000	43.281807
667.000000	43.191998
668.000000	43.120526
669.000000	43.071080
670.000000	43.039734
671.000000	43.027087
672.000000	43.031337
673.000000	43.051460
674.000000	43.084229
675.000000	43.131104
676.000000	43.190293
677.000000	43.260330
678.000000	43.340234
679.000000	43.429288
680.000000	43.524583
681.000000	43.626019
682.000000	43.733658
683.000000	43.845951
684.000000	43.961346
685.000000	44.079112
686.000000	44.198714
687.000000	44.321858
688.000000	44.446019
689.000000	44.573977
690.000000	44.704629
691.000000	44.836746
692.000000	44.972128
693.000000	45.111864
694.000000	45.253544
695.000000	45.398942
696.000000	45.548334
697.000000	45.699324
698.000000	45.854818
699.000000	46.015718
700.000000	46.181636
701.000000	46.351407
702.000000	46.525520
703.000000	46.706291
704.000000	46.892080
705.000000	47.082726
706.000000	47.278489
707.000000	47.481167
708.000000	47.690626
709.000000	47.906930
710.000000	48.132428
711.000000	48.364671
712.000000	48.605599
713.000000	48.852695
714.000000	49.107625
715.000000	49.372247
716.000000	49.644552
717.000000	49.924566
718.000000	50.211642
719.000000	50.507185
720.000000	50.809564
721.000000	51.118897
722.000000	51.433870
723.000000	51.755064
724.000000	52.082177
725.000000	52.412986
726.000000	52.749525
727.000000	53.090065
728.000000	53.432537
729.000000	53.776873
730.000000	54.122544
731.000000	54.470411
732.000000	54.821414
733.000000	55.173587
734.000000	55.523492
735.000000	55.873202
736.000000	56.224884
737.000000	56.576907
738.000000	56.928641
739.000000	57.278141
740.000000	57.628047
741.000000	57.978002
742.000000	58.326834
743.000000	58.674359
744.000000	59.019699
745.000000	59.361533
746.000000	59.702987
747.000000	60.042328
748.000000	60.378086
749.000000	60.709813
750.000000	61.037762
751.000000	61.361725
752.000000	61.681374
753.000000	61.997109
754.000000	62.306828
755.000000	62.610228
756.000000	62.907117
757.000000	63.198667
758.000000	63.482339
759.000000	63.755942
760.000000	64.023566
761.000000	64.284826
762.000000	64.536261
763.000000	64.778991
764.000000	65.014386
765.000000	65.240687
766.000000	65.458128
767.000000	65.666916
768.000000	65.867586
769.000000	66.060714
770.000000	66.244920
771.000000	66.418520
772.000000	66.581183
773.000000	66.734726
774.000000	66.879258
775.000000	67.017256
776.000000	67.150046
777.000000	67.275463
778.000000	67.390061
779.000000	67.497345
780.000000	67.598529
781.000000	67.689326
782.000000	67.773064
783.000000	67.855095
784.000000	67.928599
785.000000	67.993051
786.000000	68.052761
787.000000	68.107774
788.000000	68.155471
789.000000	68.195955
790.000000	68.232446
791.000000	68.265684
792.000000	68.295882
793.000000	68.320283
794.000000	68.341274
795.000000	68.358271
796.000000	68.370689
797.000000	68.382323
798.000000	68.390168
799.000000	68.390372
800.000000	68.391329
801.000000	68.390505
802.000000	68.388571
803.000000	68.386844
804.000000	68.381507
805.000000	68.374912
806.000000	68.366744
807.000000	68.356304
808.000000	68.347943
809.000000	68.339693
810.000000	68.324630
811.000000	68.307307
812.000000	68.287684
813.000000	68.266710
814.000000	68.243840
815.000000	68.216866
816.000000	68.193594
817.000000	68.169092
818.000000	68.142868
819.000000	68.115434
820.000000	68.089359
821.000000	68.057621
822.000000	68.022419
823.000000	67.985355
824.000000	67.950925
825.000000	67.910309
826.000000	67.866238
827.000000	67.824913
828.000000	67.782401
829.000000	67.733948
830.000000	67.676905
831.000000	67.619005
832.000000	67.554683
833.000000	67.488786
834.000000	67.427567
835.000000	67.360064
836.000000	67.288013
837.000000	67.213993
838.000000	67.127207
839.000000	67.041502
840.000000	66.947605
841.000000	66.851672
842.000000	66.748717
843.000000	66.637075
844.000000	66.522615
845.000000	66.405749
846.000000	66.284423
847.000000	66.165002
848.000000	66.032822
849.000000	65.899020
850.000000	65.768641
851.000000	65.622633
852.000000	65.461959
853.000000	65.292985
854.000000	65.121493
855.000000	64.948823
856.000000	64.758918
857.000000	64.572881
858.000000	64.374644
859.000000	64.228794
860.000000	64.083959
861.000000	63.935964
862.000000	63.778355
863.000000	63.618039
864.000000	63.459337
865.000000	63.301137
866.000000	63.135490
867.000000	62.966484
868.000000	62.791383
869.000000	62.607779
870.000000	62.419771
871.000000	62.226341
872.000000	62.024591
873.000000	61.824459
874.000000	61.616952
875.000000	61.410467
876.000000	61.199391
877.000000	60.991613
878.000000	60.782869
879.000000	60.570764
880.000000	60.359714
881.000000	60.144830
882.000000	59.923289
883.000000	59.712600
884.000000	59.501693
885.000000	59.284667
886.000000	59.076897
887.000000	58.880302
888.000000	58.685990
889.000000	58.494665
890.000000	58.301074
891.000000	58.126714
892.000000	57.947458
893.000000	57.780280
894.000000	57.557003
895.000000	57.336191
896.000000	57.118803
897.000000	56.903183
898.000000	56.690823
899.000000	56.481394
900.000000	56.277117
901.000000	56.076931
902.000000	55.882757
903.000000	55.695217
904.000000	55.514471
905.000000	55.340014
906.000000	55.172240
907.000000	55.009746
908.000000	54.852511
909.000000	54.700469
910.000000	54.553654
911.000000	54.411549
912.000000	54.273129
913.000000	54.139669
914.000000	54.010083
915.000000	53.883571
916.000000	53.761040
917.000000	53.639283
918.000000	53.519986
919.000000	53.403426
920.000000	53.288706
921.000000	53.174717
922.000000	53.061394
923.000000	52.948569
924.000000	52.835754
925.000000	52.723514
926.000000	52.609654
927.000000	52.495680
928.000000	52.381234
929.000000	52.266871
930.000000	52.152823
931.000000	52.036006
932.000000	51.918471
933.000000	51.799337
934.000000	51.679577
935.000000	51.558766
936.000000	51.436737
937.000000	51.313449
938.000000	51.187766
939.000000	51.059566
940.000000	50.930109
941.000000	50.798434
942.000000	50.666146
943.000000	50.531889
944.000000	50.396274
945.000000	50.258954
946.000000	50.120669
947.000000	49.981526
948.000000	49.840003
949.000000	49.697643
950.000000	49.554554
951.000000	49.409797
952.000000	49.264783
953.000000	49.118423
954.000000	48.970049
955.000000	48.820523
956.000000	48.669406
957.000000	48.517806
958.000000	48.365469
959.000000	48.210871
960.000000	48.054886
961.000000	47.898397
962.000000	47.739406
963.000000	47.578683
964.000000	47.415671
965.000000	47.250291
966.000000	47.085091
967.000000	46.918160
968.000000	46.751217
969.000000	46.582974
970.000000	46.413634
971.000000	46.244280
972.000000	46.074569
973.000000	45.904854
974.000000	45.735534
975.000000	45.565537
976.000000	45.395897
977.000000	45.226134
978.000000	45.056594
979.000000	44.887274
980.000000	44.716986
981.000000	44.545611
982.000000	44.374231
983.000000	44.202477
984.000000	44.029271
985.000000	43.855314
986.000000	43.681537
987.000000	43.507577
988.000000	43.333357
989.000000	43.158609
990.000000	42.983909
991.000000	42.809569
992.000000	42.635289
993.000000	42.461386
994.000000	42.288866
995.000000	42.117120
996.000000	41.946283
997.000000	41.777389
998.000000	41.609889
999.000000	41.444043
1000.000000	41.279966
1001.000000	41.117303
1002.000000	40.956177
1003.000000	40.795991
1004.000000	40.637509
1005.000000	40.480174
1006.000000	40.324180
1007.000000	40.169057
1008.000000	40.015706
1009.000000	39.863291
1010.000000	39.712109
1011.000000	39.562531
1012.000000	39.415000
1013.000000	39.269206
1014.000000	39.125300
1015.000000	38.984114
1016.000000	38.845623
1017.000000	38.708780
1018.000000	38.575049
1019.000000	38.444626
1020.000000	38.316451
1021.000000	38.190591
1022.000000	38.067480
1023.000000	37.947469
1024.000000	37.830226
1025.000000	37.715600
1026.000000	37.603203
1027.000000	37.492900
1028.000000	37.385380
1029.000000	37.280289
1030.000000	37.177560
1031.000000	37.077306
1032.000000	36.979237
1033.000000	36.883777
1034.000000	36.791414
1035.000000	36.701546
1036.000000	36.614003
1037.000000	36.529226
1038.000000	36.447583
1039.000000	36.368380
1040.000000	36.291734
1041.000000	36.218503
1042.000000	36.148369
1043.000000	36.081251
1044.000000	36.017657
1045.000000	35.957357
1046.000000	35.899849
1047.000000	35.844954
1048.000000	35.793254
1049.000000	35.744834
1050.000000	35.699560
1051.000000	35.657743
1052.000000	35.619020
1053.000000	35.583134
1054.000000	35.549866
1055.000000	35.519769
1056.000000	35.493309
1057.000000	35.470369
1058.000000	35.450703
1059.000000	35.434326
1060.000000	35.421511
1061.000000	35.412494
1062.000000	35.407666
1063.000000	35.406006
1064.000000	35.407409
1065.000000	35.412374
1066.000000	35.420503
1067.000000	35.431869
1068.000000	35.446546
1069.000000	35.463711
1070.000000	35.483580
1071.000000	35.506843
1072.000000	35.532417
1073.000000	35.559777
1074.000000	35.589346
1075.000000	35.620786
1076.000000	35.653954
1077.000000	35.689134
1078.000000	35.725729
1079.000000	35.763780
1080.000000	35.802749
1081.000000	35.843443
1082.000000	35.885360
1083.000000	35.928286
1084.000000	35.971911
1085.000000	36.015894
1086.000000	36.060660
1087.000000	36.105703
1088.000000	36.151266
1089.000000	36.197420
1090.000000	36.244094
1091.000000	36.290403
1092.000000	36.336594
1093.000000	36.382637
1094.000000	36.429166
1095.000000	36.475980
1096.000000	36.522840
1097.000000	36.569046
1098.000000	36.615046
1099.000000	36.661206
1100.000000	36.706934
1101.000000	36.753023
1102.000000	36.798677
1103.000000	36.842920
1104.000000	36.887591
1105.000000	36.931831
1106.000000	36.975329
1107.000000	37.019223
1108.000000	37.063174
1109.000000	37.107203
1110.000000	37.151491
1111.000000	37.195454
1112.000000	37.239303
1113.000000	37.283546
1114.000000	37.327131
1115.000000	37.370640
1116.000000	37.413631
1117.000000	37.457029
1118.000000	37.500983
1119.000000	37.544517
1120.000000	37.587897
1121.000000	37.631120
1122.000000	37.674629
1123.000000	37.717531
1124.000000	37.760120
1125.000000	37.801974
1126.000000	37.842663
1127.000000	37.882434
1128.000000	37.920760
1129.000000	37.957111
1130.000000	37.990740
1131.000000	38.021520
1132.000000	38.049046
1133.000000	38.072809
1134.000000	38.094023
1135.000000	38.111560
1136.000000	38.124217
1137.000000	38.131543
1138.000000	38.133914
1139.000000	38.131106
1140.000000	38.124657
1141.000000	38.112549
1142.000000	38.095343
1143.000000	38.074106
1144.000000	38.048771
1145.000000	38.019340
1146.000000	37.986766
1147.000000	37.951746
1148.000000	37.914940
1149.000000	37.877683
1150.000000	37.840149
1151.000000	37.802420
1152.000000	37.763846
1153.000000	37.723663
1154.000000	37.682151
1155.000000	37.638614
1156.000000	37.592034
1157.000000	37.541577
1158.000000	37.488097
1159.000000	37.430723
1160.000000	37.369529
1161.000000	37.304014
1162.000000	37.234694
1163.000000	37.160977
1164.000000	37.084097
1165.000000	37.003563
1166.000000	36.920629
1167.000000	36.835157
1168.000000	36.748051
1169.000000	36.658089
1170.000000	36.565866
1171.000000	36.472851
1172.000000	36.378951
1173.000000	36.285534
1174.000000	36.190780
1175.000000	36.094994
1176.000000	35.998180
