PE UV       SUBTECH     SPECTRUM    ASCII       PEDS        4.00        
   -1
CICIMAUCR0021-1.Sample.ASC
24/03/08
13:20:54.00
24/03/08
13:20:54.00
Vinicio Soto Monge
C. resplendens. 
250,000000
1
Lambda 1050
1050L1511233
PerkinElmer UV WinLab 6.3.2.0749 / 2.02.05 Lambda 900 UV/VIS/NIR, Aug  7 2015 09:38:08

0
0
3350/servo 860,8/2
0
0
UV/VIS
1
1
1
DoubleDePol,CommonBeamDepol,RBeamAtt,SBeamAtt,60mm sphere, WB InGaAs Detector
0
0
0
0
Program
Program
3350/servo 860,8/2
3350/0,2 860,8/0,2
3350/0,2 860,8/0,2
0
15.00
 
 
 
0
 
860,8
319,2
860,8
Front
100
on
S:100 R:100
0
0
0
0
 
0
 
 
 
0
 
 
0
0
0
0
0
 
 
 
 
0
0


0
0
#HDR
-1
-1
#GR
nm
%R
1.0
0.0
2500,000000
-1,000000
2251
8
31,927300
2,181000
#DATA
250.000000	nan
251.000000	nan
252.000000	nan
253.000000	nan
254.000000	nan
255.000000	nan
256.000000	nan
257.000000	nan
258.000000	nan
259.000000	nan
260.000000	nan
261.000000	nan
262.000000	nan
263.000000	nan
264.000000	nan
265.000000	nan
266.000000	nan
267.000000	nan
268.000000	nan
269.000000	nan
270.000000	nan
271.000000	nan
272.000000	nan
273.000000	nan
274.000000	nan
275.000000	nan
276.000000	nan
277.000000	nan
278.000000	nan
279.000000	nan
280.000000	nan
281.000000	nan
282.000000	nan
283.000000	nan
284.000000	2.543167
285.000000	2.536844
286.000000	2.531134
287.000000	2.524726
288.000000	2.517289
289.000000	2.513027
290.000000	2.507795
291.000000	2.502786
292.000000	2.497503
293.000000	2.491751
294.000000	2.484937
295.000000	2.479175
296.000000	2.474871
297.000000	2.469696
298.000000	2.464320
299.000000	2.457981
300.000000	2.452422
301.000000	2.446997
302.000000	2.443813
303.000000	2.439594
304.000000	2.435630
305.000000	2.431342
306.000000	2.426969
307.000000	2.424402
308.000000	2.420412
309.000000	2.419100
310.000000	2.415226
311.000000	2.412587
312.000000	2.408940
313.000000	2.404878
314.000000	2.402089
315.000000	2.399833
316.000000	2.400806
317.000000	2.418185
318.000000	2.428407
319.000000	2.432687
320.000000	2.430550
321.000000	2.439502
322.000000	2.451188
323.000000	2.461650
324.000000	2.467592
325.000000	2.468304
326.000000	2.470789
327.000000	2.473395
328.000000	2.480325
329.000000	2.483808
330.000000	2.489181
331.000000	2.494429
332.000000	2.496165
333.000000	2.501850
334.000000	2.507687
335.000000	2.510069
336.000000	2.513022
337.000000	2.516579
338.000000	2.522125
339.000000	2.522360
340.000000	2.527280
341.000000	2.531890
342.000000	2.535728
343.000000	2.541094
344.000000	2.542038
345.000000	2.546666
346.000000	2.551496
347.000000	2.557464
348.000000	2.563959
349.000000	2.568289
350.000000	2.570035
351.000000	2.569763
352.000000	2.553132
353.000000	2.544358
354.000000	2.542367
355.000000	2.547749
356.000000	2.543316
357.000000	2.535306
358.000000	2.530125
359.000000	2.526606
360.000000	2.530084
361.000000	2.532515
362.000000	2.533917
363.000000	2.532404
364.000000	2.535468
365.000000	2.537274
366.000000	2.537583
367.000000	2.541114
368.000000	2.542645
369.000000	2.545024
370.000000	2.549189
371.000000	2.551730
372.000000	2.554228
373.000000	2.551409
374.000000	2.557006
375.000000	2.560283
376.000000	2.562064
377.000000	2.557788
378.000000	2.553516
379.000000	2.551923
380.000000	2.549233
381.000000	2.545822
382.000000	2.542038
383.000000	2.539689
384.000000	2.539139
385.000000	2.541032
386.000000	2.542411
387.000000	2.543314
388.000000	2.544520
389.000000	2.546346
390.000000	2.548343
391.000000	2.549703
392.000000	2.552530
393.000000	2.555627
394.000000	2.560438
395.000000	2.565042
396.000000	2.570161
397.000000	2.577732
398.000000	2.585765
399.000000	2.594215
400.000000	2.603715
401.000000	2.615311
402.000000	2.628800
403.000000	2.643388
404.000000	2.659869
405.000000	2.679964
406.000000	2.702431
407.000000	2.726035
408.000000	2.756129
409.000000	2.785299
410.000000	2.815542
411.000000	2.850660
412.000000	2.895069
413.000000	2.942470
414.000000	2.992970
415.000000	3.046575
416.000000	3.103643
417.000000	3.164478
418.000000	3.228509
419.000000	3.296154
420.000000	3.367475
421.000000	3.442891
422.000000	3.522415
423.000000	3.605901
424.000000	3.692949
425.000000	3.784090
426.000000	3.879261
427.000000	3.978204
428.000000	4.081041
429.000000	4.187354
430.000000	4.297370
431.000000	4.410703
432.000000	4.527436
433.000000	4.647536
434.000000	4.770720
435.000000	4.896703
436.000000	5.025046
437.000000	5.155952
438.000000	5.288912
439.000000	5.423453
440.000000	5.559731
441.000000	5.697706
442.000000	5.836723
443.000000	5.976204
444.000000	6.116026
445.000000	6.255751
446.000000	6.395305
447.000000	6.534642
448.000000	6.672970
449.000000	6.810235
450.000000	6.946232
451.000000	7.080316
452.000000	7.212267
453.000000	7.342579
454.000000	7.470597
455.000000	7.595701
456.000000	7.718003
457.000000	7.837408
458.000000	7.953874
459.000000	8.066967
460.000000	8.176392
461.000000	8.282290
462.000000	8.384616
463.000000	8.482998
464.000000	8.577603
465.000000	8.668335
466.000000	8.755206
467.000000	8.837629
468.000000	8.915638
469.000000	8.989395
470.000000	9.058815
471.000000	9.124029
472.000000	9.184633
473.000000	9.240541
474.000000	9.291771
475.000000	9.337899
476.000000	9.379048
477.000000	9.415596
478.000000	9.447231
479.000000	9.474212
480.000000	9.496353
481.000000	9.513436
482.000000	9.525577
483.000000	9.533279
484.000000	9.536952
485.000000	9.536638
486.000000	9.532996
487.000000	9.526480
488.000000	9.516407
489.000000	9.503769
490.000000	9.489716
491.000000	9.473783
492.000000	9.456736
493.000000	9.439393
494.000000	9.422382
495.000000	9.406488
496.000000	9.392077
497.000000	9.379540
498.000000	9.370079
499.000000	9.364252
500.000000	9.362285
501.000000	9.364931
502.000000	9.373302
503.000000	9.387432
504.000000	9.407349
505.000000	9.434050
506.000000	9.467501
507.000000	9.508070
508.000000	9.555715
509.000000	9.611113
510.000000	9.674338
511.000000	9.745160
512.000000	9.823298
513.000000	9.909026
514.000000	10.002207
515.000000	10.103264
516.000000	10.211917
517.000000	10.328162
518.000000	10.452007
519.000000	10.583444
520.000000	10.722582
521.000000	10.869334
522.000000	11.023181
523.000000	11.184729
524.000000	11.353977
525.000000	11.530820
526.000000	11.715497
527.000000	11.907821
528.000000	12.107648
529.000000	12.314902
530.000000	12.529500
531.000000	12.751205
532.000000	12.980486
533.000000	13.216450
534.000000	13.459490
535.000000	13.709512
536.000000	13.965826
537.000000	14.228020
538.000000	14.496181
539.000000	14.770033
540.000000	15.049395
541.000000	15.334226
542.000000	15.624615
543.000000	15.920054
544.000000	16.220759
545.000000	16.525823
546.000000	16.835884
547.000000	17.150345
548.000000	17.469167
549.000000	17.792233
550.000000	18.119054
551.000000	18.449467
552.000000	18.783118
553.000000	19.119627
554.000000	19.458665
555.000000	19.799014
556.000000	20.139763
557.000000	20.481285
558.000000	20.823379
559.000000	21.163757
560.000000	21.483386
561.000000	21.798668
562.000000	22.110115
563.000000	22.418199
564.000000	22.721924
565.000000	23.020517
566.000000	23.313095
567.000000	23.599618
568.000000	23.878314
569.000000	24.149828
570.000000	24.413583
571.000000	24.668868
572.000000	24.914830
573.000000	25.151880
574.000000	25.379861
575.000000	25.597515
576.000000	25.806230
577.000000	26.004440
578.000000	26.192946
579.000000	26.371452
580.000000	26.540699
581.000000	26.700027
582.000000	26.849969
583.000000	26.990535
584.000000	27.121884
585.000000	27.245414
586.000000	27.359885
587.000000	27.465686
588.000000	27.563463
589.000000	27.653912
590.000000	27.736397
591.000000	27.813040
592.000000	27.882324
593.000000	27.943767
594.000000	28.000171
595.000000	28.068279
596.000000	28.133467
597.000000	28.192991
598.000000	28.246215
599.000000	28.293457
600.000000	28.334992
601.000000	28.370979
602.000000	28.401014
603.000000	28.426138
604.000000	28.444821
605.000000	28.457158
606.000000	28.464574
607.000000	28.466925
608.000000	28.463226
609.000000	28.454187
610.000000	28.440307
611.000000	28.420016
612.000000	28.394570
613.000000	28.363898
614.000000	28.328934
615.000000	28.287990
616.000000	28.241606
617.000000	28.190280
618.000000	28.134321
619.000000	28.073328
620.000000	28.006082
621.000000	27.934360
622.000000	27.857691
623.000000	27.775664
624.000000	27.687772
625.000000	27.595731
626.000000	27.497079
627.000000	27.394407
628.000000	27.287526
629.000000	27.175744
630.000000	27.060820
631.000000	26.940591
632.000000	26.816943
633.000000	26.689041
634.000000	26.558124
635.000000	26.423562
636.000000	26.286014
637.000000	26.145636
638.000000	26.002860
639.000000	25.856769
640.000000	25.707933
641.000000	25.555360
642.000000	25.399792
643.000000	25.241546
644.000000	25.079967
645.000000	24.915291
646.000000	24.748202
647.000000	24.578831
648.000000	24.407191
649.000000	24.232117
650.000000	24.055973
651.000000	23.877054
652.000000	23.696436
653.000000	23.514422
654.000000	23.330502
655.000000	23.145769
656.000000	22.960957
657.000000	22.775912
658.000000	22.590513
659.000000	22.405387
660.000000	22.220152
661.000000	22.035872
662.000000	21.851532
663.000000	21.667293
664.000000	21.483137
665.000000	21.299932
666.000000	21.117894
667.000000	20.937555
668.000000	20.759281
669.000000	20.583323
670.000000	20.409779
671.000000	20.239431
672.000000	20.072532
673.000000	19.909589
674.000000	19.752386
675.000000	19.600918
676.000000	19.455696
677.000000	19.317258
678.000000	19.186223
679.000000	19.063301
680.000000	18.949240
681.000000	18.843916
682.000000	18.747826
683.000000	18.660898
684.000000	18.583507
685.000000	18.515319
686.000000	18.457760
687.000000	18.409747
688.000000	18.370630
689.000000	18.341310
690.000000	18.322038
691.000000	18.312016
692.000000	18.311216
693.000000	18.320605
694.000000	18.338584
695.000000	18.365318
696.000000	18.401344
697.000000	18.445966
698.000000	18.499106
699.000000	18.561462
700.000000	18.631427
701.000000	18.708458
702.000000	18.791761
703.000000	18.882048
704.000000	18.977981
705.000000	19.079527
706.000000	19.185739
707.000000	19.295290
708.000000	19.407756
709.000000	19.522883
710.000000	19.639897
711.000000	19.759148
712.000000	19.879431
713.000000	20.000545
714.000000	20.121767
715.000000	20.240804
716.000000	20.358224
717.000000	20.474404
718.000000	20.589216
719.000000	20.701241
720.000000	20.811101
721.000000	20.918929
722.000000	21.023260
723.000000	21.124745
724.000000	21.223860
725.000000	21.319008
726.000000	21.409851
727.000000	21.497014
728.000000	21.579669
729.000000	21.659036
730.000000	21.735394
731.000000	21.806671
732.000000	21.874277
733.000000	21.938591
734.000000	21.998148
735.000000	22.054033
736.000000	22.106827
737.000000	22.156659
738.000000	22.202225
739.000000	22.243954
740.000000	22.283491
741.000000	22.319293
742.000000	22.351648
743.000000	22.382524
744.000000	22.410282
745.000000	22.435172
746.000000	22.456196
747.000000	22.474302
748.000000	22.489621
749.000000	22.502320
750.000000	22.514933
751.000000	22.526344
752.000000	22.535645
753.000000	22.543429
754.000000	22.551061
755.000000	22.557646
756.000000	22.562603
757.000000	22.567918
758.000000	22.573091
759.000000	22.578271
760.000000	22.584237
761.000000	22.592329
762.000000	22.600566
763.000000	22.607789
764.000000	22.615907
765.000000	22.624990
766.000000	22.637577
767.000000	22.651213
768.000000	22.665098
769.000000	22.682755
770.000000	22.703310
771.000000	22.726487
772.000000	22.752015
773.000000	22.779776
774.000000	22.810570
775.000000	22.845235
776.000000	22.885083
777.000000	22.928139
778.000000	22.973512
779.000000	23.025085
780.000000	23.081214
781.000000	23.141785
782.000000	23.207320
783.000000	23.276478
784.000000	23.350371
785.000000	23.427950
786.000000	23.508347
787.000000	23.592233
788.000000	23.681813
789.000000	23.773370
790.000000	23.868776
791.000000	23.968037
792.000000	24.070340
793.000000	24.175109
794.000000	24.282828
795.000000	24.391283
796.000000	24.500109
797.000000	24.612413
798.000000	24.729048
799.000000	24.846730
800.000000	24.965626
801.000000	25.084163
802.000000	25.203514
803.000000	25.325559
804.000000	25.446146
805.000000	25.566207
806.000000	25.685533
807.000000	25.804085
808.000000	25.923395
809.000000	26.042191
810.000000	26.157034
811.000000	26.269430
812.000000	26.382312
813.000000	26.493149
814.000000	26.601975
815.000000	26.706819
816.000000	26.810165
817.000000	26.909890
818.000000	27.007155
819.000000	27.101987
820.000000	27.193156
821.000000	27.280768
822.000000	27.366396
823.000000	27.447528
824.000000	27.525624
825.000000	27.599968
826.000000	27.671981
827.000000	27.741956
828.000000	27.806375
829.000000	27.871185
830.000000	27.929964
831.000000	27.983340
832.000000	28.034478
833.000000	28.081894
834.000000	28.124724
835.000000	28.161570
836.000000	28.198059
837.000000	28.232814
838.000000	28.260795
839.000000	28.286648
840.000000	28.307985
841.000000	28.322447
842.000000	28.335067
843.000000	28.339180
844.000000	28.343332
845.000000	28.347980
846.000000	28.345045
847.000000	28.340050
848.000000	28.330311
849.000000	28.315568
850.000000	28.296523
851.000000	28.274156
852.000000	28.254023
853.000000	28.228387
854.000000	28.198851
855.000000	28.159741
856.000000	28.120621
857.000000	28.086352
858.000000	27.992641
859.000000	27.969406
860.000000	27.948082
861.000000	27.929811
862.000000	27.915488
863.000000	27.908859
864.000000	27.903441
865.000000	27.904762
866.000000	27.913173
867.000000	27.922609
868.000000	27.937067
869.000000	27.955627
870.000000	27.981262
871.000000	28.008894
872.000000	28.040564
873.000000	28.078917
874.000000	28.122007
875.000000	28.169776
876.000000	28.224053
877.000000	28.280054
878.000000	28.346133
879.000000	28.412263
880.000000	28.481044
881.000000	28.557348
882.000000	28.633499
883.000000	28.714645
884.000000	28.799746
885.000000	28.890270
886.000000	28.982105
887.000000	29.071155
888.000000	29.164377
889.000000	29.260713
890.000000	29.365962
891.000000	29.471434
892.000000	29.569453
893.000000	29.724803
894.000000	29.808546
895.000000	29.888891
896.000000	29.962646
897.000000	30.030351
898.000000	30.091040
899.000000	30.144837
900.000000	30.193663
901.000000	30.235503
902.000000	30.273220
903.000000	30.305123
904.000000	30.332357
905.000000	30.352923
906.000000	30.367731
907.000000	30.376806
908.000000	30.379894
909.000000	30.377237
910.000000	30.369223
911.000000	30.358023
912.000000	30.344229
913.000000	30.324243
914.000000	30.301014
915.000000	30.271057
916.000000	30.237206
917.000000	30.201226
918.000000	30.161614
919.000000	30.117454
920.000000	30.069811
921.000000	30.020117
922.000000	29.968371
923.000000	29.914826
924.000000	29.857217
925.000000	29.798354
926.000000	29.737846
927.000000	29.676051
928.000000	29.612286
929.000000	29.547809
930.000000	29.482351
931.000000	29.416931
932.000000	29.349306
933.000000	29.281357
934.000000	29.212974
935.000000	29.144403
936.000000	29.076626
937.000000	29.009240
938.000000	28.941097
939.000000	28.873780
940.000000	28.807680
941.000000	28.741823
942.000000	28.676811
943.000000	28.613183
944.000000	28.550066
945.000000	28.488349
946.000000	28.427103
947.000000	28.366289
948.000000	28.307737
949.000000	28.249531
950.000000	28.194020
951.000000	28.140717
952.000000	28.088483
953.000000	28.038920
954.000000	27.990917
955.000000	27.945063
956.000000	27.900520
957.000000	27.857669
958.000000	27.817026
959.000000	27.778723
960.000000	27.741406
961.000000	27.705523
962.000000	27.671194
963.000000	27.638109
964.000000	27.606871
965.000000	27.576577
966.000000	27.547300
967.000000	27.520014
968.000000	27.494209
969.000000	27.469614
970.000000	27.446740
971.000000	27.424397
972.000000	27.402811
973.000000	27.382306
974.000000	27.362506
975.000000	27.343009
976.000000	27.324040
977.000000	27.304969
978.000000	27.286829
979.000000	27.268669
980.000000	27.251351
981.000000	27.234166
982.000000	27.217031
983.000000	27.199337
984.000000	27.181443
985.000000	27.162986
986.000000	27.143749
987.000000	27.124569
988.000000	27.104106
989.000000	27.083017
990.000000	27.061800
991.000000	27.040543
992.000000	27.019077
993.000000	26.997186
994.000000	26.975220
995.000000	26.952454
996.000000	26.930000
997.000000	26.908051
998.000000	26.886749
999.000000	26.864934
1000.000000	26.843354
1001.000000	26.821914
1002.000000	26.800303
1003.000000	26.778857
1004.000000	26.757446
1005.000000	26.736014
1006.000000	26.715109
1007.000000	26.693320
1008.000000	26.671109
1009.000000	26.649563
1010.000000	26.628703
1011.000000	26.608320
1012.000000	26.587611
1013.000000	26.566734
1014.000000	26.546437
1015.000000	26.526469
1016.000000	26.507420
1017.000000	26.489417
1018.000000	26.472309
1019.000000	26.456360
1020.000000	26.441380
1021.000000	26.427540
1022.000000	26.415097
1023.000000	26.404280
1024.000000	26.394771
1025.000000	26.386651
1026.000000	26.379991
1027.000000	26.374474
1028.000000	26.370423
1029.000000	26.368043
1030.000000	26.367511
1031.000000	26.367969
1032.000000	26.369543
1033.000000	26.372540
1034.000000	26.376783
1035.000000	26.382014
1036.000000	26.388306
1037.000000	26.395411
1038.000000	26.403289
1039.000000	26.411831
1040.000000	26.421274
1041.000000	26.431729
1042.000000	26.443263
1043.000000	26.455997
1044.000000	26.469683
1045.000000	26.483911
1046.000000	26.498471
1047.000000	26.514034
1048.000000	26.530557
1049.000000	26.547437
1050.000000	26.564257
1051.000000	26.581123
1052.000000	26.597343
1053.000000	26.613543
1054.000000	26.630191
1055.000000	26.647129
1056.000000	26.663654
1057.000000	26.679274
1058.000000	26.694400
1059.000000	26.709191
1060.000000	26.723449
1061.000000	26.737623
1062.000000	26.751923
1063.000000	26.765763
1064.000000	26.779034
1065.000000	26.792326
1066.000000	26.805400
1067.000000	26.817897
1068.000000	26.830046
1069.000000	26.842037
1070.000000	26.854217
1071.000000	26.866746
1072.000000	26.879669
1073.000000	26.892900
1074.000000	26.906657
1075.000000	26.920669
1076.000000	26.934794
1077.000000	26.948777
1078.000000	26.963197
1079.000000	26.977657
1080.000000	26.992509
1081.000000	27.007837
1082.000000	27.023657
1083.000000	27.040326
1084.000000	27.057260
1085.000000	27.074691
1086.000000	27.093163
1087.000000	27.112786
1088.000000	27.132217
1089.000000	27.151143
1090.000000	27.170423
1091.000000	27.190634
1092.000000	27.211294
1093.000000	27.231926
1094.000000	27.253214
1095.000000	27.274740
1096.000000	27.296094
1097.000000	27.317466
1098.000000	27.338383
1099.000000	27.359140
1100.000000	27.379943
1101.000000	27.400114
1102.000000	27.420563
1103.000000	27.441054
1104.000000	27.461469
1105.000000	27.480946
1106.000000	27.499871
1107.000000	27.518403
1108.000000	27.535931
1109.000000	27.552777
1110.000000	27.569266
1111.000000	27.584806
1112.000000	27.600271
1113.000000	27.615237
1114.000000	27.629909
1115.000000	27.643749
1116.000000	27.656937
1117.000000	27.669269
1118.000000	27.680223
1119.000000	27.690129
1120.000000	27.699106
1121.000000	27.706323
1122.000000	27.712034
1123.000000	27.716669
1124.000000	27.720054
1125.000000	27.721466
1126.000000	27.720326
1127.000000	27.716760
1128.000000	27.711543
1129.000000	27.703529
1130.000000	27.691923
1131.000000	27.675849
1132.000000	27.655749
1133.000000	27.631411
1134.000000	27.602491
1135.000000	27.569834
1136.000000	27.532011
1137.000000	27.488011
1138.000000	27.438237
1139.000000	27.382720
1140.000000	27.322949
1141.000000	27.258714
1142.000000	27.189109
1143.000000	27.115343
1144.000000	27.036917
1145.000000	26.955691
1146.000000	26.871414
1147.000000	26.785894
1148.000000	26.699531
1149.000000	26.612914
1150.000000	26.525997
1151.000000	26.440197
1152.000000	26.354391
1153.000000	26.268406
1154.000000	26.181994
1155.000000	26.094826
1156.000000	26.005957
1157.000000	25.913814
1158.000000	25.818503
1159.000000	25.719511
1160.000000	25.616403
1161.000000	25.509960
1162.000000	25.400554
1163.000000	25.286940
1164.000000	25.170526
1165.000000	25.050951
1166.000000	24.929820
1167.000000	24.806634
1168.000000	24.682689
1169.000000	24.559183
1170.000000	24.432634
1171.000000	24.306209
1172.000000	24.181069
1173.000000	24.056511
1174.000000	23.933271
1175.000000	23.809929
1176.000000	23.686563
1177.000000	23.564134
1178.000000	23.440874
1179.000000	23.316400
