PE UV       SUBTECH     SPECTRUM    ASCII       PEDS        4.00        
   -1
CICIMAUCR0006-1.Sample.ASC
24/03/08
11:34:28.00
24/03/08
11:34:28.00
Vinicio Soto Monge
C. kalinini
250,000000
1
Lambda 1050
1050L1511233
PerkinElmer UV WinLab 6.3.2.0749 / 2.02.05 Lambda 900 UV/VIS/NIR, Aug  7 2015 09:38:08

0
0
3350/servo 860,8/2
0
0
UV/VIS
1
1
1
DoubleDePol,CommonBeamDepol,RBeamAtt,SBeamAtt,60mm sphere, WB InGaAs Detector
0
0
0
0
Program
Program
3350/servo 860,8/2
3350/0,2 860,8/0,2
3350/0,2 860,8/0,2
0
15.00
 
 
 
0
 
860,8
319,2
860,8
Front
100
on
S:100 R:100
0
0
0
0
 
0
 
 
 
0
 
 
0
0
0
0
0
 
 
 
 
0
0


0
0
#HDR
-1
-1
#GR
nm
%R
1.0
0.0
2500,000000
-1,000000
2251
8
34,259900
1,836500
#DATA
250.000000	nan
251.000000	nan
252.000000	nan
253.000000	nan
254.000000	nan
255.000000	nan
256.000000	nan
257.000000	nan
258.000000	nan
259.000000	nan
260.000000	nan
261.000000	nan
262.000000	nan
263.000000	nan
264.000000	nan
265.000000	nan
266.000000	nan
267.000000	nan
268.000000	nan
269.000000	nan
270.000000	nan
271.000000	nan
272.000000	nan
273.000000	nan
274.000000	nan
275.000000	nan
276.000000	nan
277.000000	nan
278.000000	nan
279.000000	nan
280.000000	nan
281.000000	nan
282.000000	nan
283.000000	nan
284.000000	1.738551
285.000000	1.737076
286.000000	1.734725
287.000000	1.731880
288.000000	1.729383
289.000000	1.727956
290.000000	1.724281
291.000000	1.721830
292.000000	1.718222
293.000000	1.715214
294.000000	1.712220
295.000000	1.707733
296.000000	1.704599
297.000000	1.701276
298.000000	1.696362
299.000000	1.694289
300.000000	1.692670
301.000000	1.691737
302.000000	1.689974
303.000000	1.687223
304.000000	1.684218
305.000000	1.682138
306.000000	1.677843
307.000000	1.674371
308.000000	1.669743
309.000000	1.668395
310.000000	1.667652
311.000000	1.666791
312.000000	1.663414
313.000000	1.661309
314.000000	1.659096
315.000000	1.656850
316.000000	1.657370
317.000000	1.671450
318.000000	1.676084
319.000000	1.680268
320.000000	1.690937
321.000000	1.696270
322.000000	1.704560
323.000000	1.709955
324.000000	1.713700
325.000000	1.717222
326.000000	1.724616
327.000000	1.731741
328.000000	1.733707
329.000000	1.743712
330.000000	1.749351
331.000000	1.754759
332.000000	1.759817
333.000000	1.762887
334.000000	1.765600
335.000000	1.773492
336.000000	1.778140
337.000000	1.784961
338.000000	1.792141
339.000000	1.801931
340.000000	1.807437
341.000000	1.814682
342.000000	1.821017
343.000000	1.828565
344.000000	1.832326
345.000000	1.837128
346.000000	1.841502
347.000000	1.849193
348.000000	1.854195
349.000000	1.861283
350.000000	1.868209
351.000000	1.872723
352.000000	1.865956
353.000000	1.867339
354.000000	1.869428
355.000000	1.865139
356.000000	1.868032
357.000000	1.866107
358.000000	1.867767
359.000000	1.869965
360.000000	1.874150
361.000000	1.871689
362.000000	1.872196
363.000000	1.879669
364.000000	1.880573
365.000000	1.886676
366.000000	1.891133
367.000000	1.895837
368.000000	1.905136
369.000000	1.911590
370.000000	1.914234
371.000000	1.919657
372.000000	1.922777
373.000000	1.926452
374.000000	1.926406
375.000000	1.934049
376.000000	1.948800
377.000000	1.956386
378.000000	1.964966
379.000000	1.976430
380.000000	1.987696
381.000000	2.001483
382.000000	2.015283
383.000000	2.031737
384.000000	2.049171
385.000000	2.069425
386.000000	2.091040
387.000000	2.114081
388.000000	2.139163
389.000000	2.167478
390.000000	2.198322
391.000000	2.230524
392.000000	2.268264
393.000000	2.307322
394.000000	2.349690
395.000000	2.394811
396.000000	2.445770
397.000000	2.498326
398.000000	2.552108
399.000000	2.608162
400.000000	2.667701
401.000000	2.731496
402.000000	2.797582
403.000000	2.866027
404.000000	2.939573
405.000000	3.014733
406.000000	3.092868
407.000000	3.175681
408.000000	3.260956
409.000000	3.349887
410.000000	3.437974
411.000000	3.521943
412.000000	3.616161
413.000000	3.711839
414.000000	3.808710
415.000000	3.906802
416.000000	4.005856
417.000000	4.105486
418.000000	4.205186
419.000000	4.304799
420.000000	4.404428
421.000000	4.503745
422.000000	4.602331
423.000000	4.700371
424.000000	4.797622
425.000000	4.893556
426.000000	4.987505
427.000000	5.079855
428.000000	5.170777
429.000000	5.259570
430.000000	5.346049
431.000000	5.430225
432.000000	5.511754
433.000000	5.590634
434.000000	5.666820
435.000000	5.740391
436.000000	5.811064
437.000000	5.878561
438.000000	5.942461
439.000000	6.003041
440.000000	6.060672
441.000000	6.115079
442.000000	6.166141
443.000000	6.213608
444.000000	6.257394
445.000000	6.297684
446.000000	6.334566
447.000000	6.367914
448.000000	6.397507
449.000000	6.423671
450.000000	6.446580
451.000000	6.466310
452.000000	6.482977
453.000000	6.496903
454.000000	6.508173
455.000000	6.516760
456.000000	6.523096
457.000000	6.528012
458.000000	6.531486
459.000000	6.533936
460.000000	6.535972
461.000000	6.537908
462.000000	6.540174
463.000000	6.543383
464.000000	6.548004
465.000000	6.554085
466.000000	6.562803
467.000000	6.574525
468.000000	6.589411
469.000000	6.607935
470.000000	6.630308
471.000000	6.657157
472.000000	6.689144
473.000000	6.726364
474.000000	6.768673
475.000000	6.816447
476.000000	6.869903
477.000000	6.929106
478.000000	6.994160
479.000000	7.065399
480.000000	7.142717
481.000000	7.225912
482.000000	7.314994
483.000000	7.410348
484.000000	7.512365
485.000000	7.621220
486.000000	7.736721
487.000000	7.858819
488.000000	7.987629
489.000000	8.123235
490.000000	8.265423
491.000000	8.413956
492.000000	8.568330
493.000000	8.728332
494.000000	8.893742
495.000000	9.063425
496.000000	9.237450
497.000000	9.415405
498.000000	9.596879
499.000000	9.781361
500.000000	9.968401
501.000000	10.157736
502.000000	10.348827
503.000000	10.541367
504.000000	10.735194
505.000000	10.930417
506.000000	11.125941
507.000000	11.321505
508.000000	11.516693
509.000000	11.711523
510.000000	11.905529
511.000000	12.098663
512.000000	12.290141
513.000000	12.480472
514.000000	12.669171
515.000000	12.855995
516.000000	13.041390
517.000000	13.224917
518.000000	13.406264
519.000000	13.584846
520.000000	13.760108
521.000000	13.932518
522.000000	14.102042
523.000000	14.269082
524.000000	14.433412
525.000000	14.594518
526.000000	14.752206
527.000000	14.906831
528.000000	15.058272
529.000000	15.206565
530.000000	15.352046
531.000000	15.494626
532.000000	15.634297
533.000000	15.770627
534.000000	15.903908
535.000000	16.034173
536.000000	16.160942
537.000000	16.284207
538.000000	16.403725
539.000000	16.519362
540.000000	16.630795
541.000000	16.738794
542.000000	16.842960
543.000000	16.943702
544.000000	17.040849
545.000000	17.134376
546.000000	17.224072
547.000000	17.310514
548.000000	17.393561
549.000000	17.473446
550.000000	17.550017
551.000000	17.622921
552.000000	17.693033
553.000000	17.760364
554.000000	17.824303
555.000000	17.885424
556.000000	17.942311
557.000000	17.995604
558.000000	18.044764
559.000000	18.089654
560.000000	18.113898
561.000000	18.132244
562.000000	18.146440
563.000000	18.156628
564.000000	18.162403
565.000000	18.163598
566.000000	18.159781
567.000000	18.151354
568.000000	18.138609
569.000000	18.120887
570.000000	18.098219
571.000000	18.071053
572.000000	18.039418
573.000000	18.003786
574.000000	17.963217
575.000000	17.918008
576.000000	17.868022
577.000000	17.813663
578.000000	17.754239
579.000000	17.689771
580.000000	17.621016
581.000000	17.547408
582.000000	17.469524
583.000000	17.386587
584.000000	17.300033
585.000000	17.209247
586.000000	17.114480
587.000000	17.015892
588.000000	16.913387
589.000000	16.807877
590.000000	16.699380
591.000000	16.588661
592.000000	16.475803
593.000000	16.361521
594.000000	16.246109
595.000000	16.146620
596.000000	16.048738
597.000000	15.951004
598.000000	15.853399
599.000000	15.756609
600.000000	15.661707
601.000000	15.569153
602.000000	15.478645
603.000000	15.390494
604.000000	15.305612
605.000000	15.223981
606.000000	15.145311
607.000000	15.070536
608.000000	14.999629
609.000000	14.933135
610.000000	14.871299
611.000000	14.814188
612.000000	14.762156
613.000000	14.715829
614.000000	14.675362
615.000000	14.639988
616.000000	14.611368
617.000000	14.588599
618.000000	14.572247
619.000000	14.560937
620.000000	14.555718
621.000000	14.556686
622.000000	14.563948
623.000000	14.577119
624.000000	14.595879
625.000000	14.619161
626.000000	14.648273
627.000000	14.682192
628.000000	14.720271
629.000000	14.762455
630.000000	14.808369
631.000000	14.858389
632.000000	14.911963
633.000000	14.968185
634.000000	15.027375
635.000000	15.088597
636.000000	15.152001
637.000000	15.217551
638.000000	15.285369
639.000000	15.355015
640.000000	15.426838
641.000000	15.500210
642.000000	15.574922
643.000000	15.650712
644.000000	15.728329
645.000000	15.806593
646.000000	15.885637
647.000000	15.964638
648.000000	16.044169
649.000000	16.123702
650.000000	16.203319
651.000000	16.281710
652.000000	16.359995
653.000000	16.437488
654.000000	16.513493
655.000000	16.588986
656.000000	16.663425
657.000000	16.736371
658.000000	16.807656
659.000000	16.877912
660.000000	16.946846
661.000000	17.014688
662.000000	17.081849
663.000000	17.148111
664.000000	17.213763
665.000000	17.278962
666.000000	17.343157
667.000000	17.407158
668.000000	17.471678
669.000000	17.536033
670.000000	17.601223
671.000000	17.666856
672.000000	17.732768
673.000000	17.799454
674.000000	17.866499
675.000000	17.934480
676.000000	18.003989
677.000000	18.073968
678.000000	18.144996
679.000000	18.216875
680.000000	18.290479
681.000000	18.365297
682.000000	18.441475
683.000000	18.518358
684.000000	18.596604
685.000000	18.676470
686.000000	18.757839
687.000000	18.840169
688.000000	18.923880
689.000000	19.010143
690.000000	19.096893
691.000000	19.185653
692.000000	19.275801
693.000000	19.367887
694.000000	19.461015
695.000000	19.556107
696.000000	19.652543
697.000000	19.750190
698.000000	19.849130
699.000000	19.949610
700.000000	20.051500
701.000000	20.154501
702.000000	20.258078
703.000000	20.362648
704.000000	20.468163
705.000000	20.573889
706.000000	20.680074
707.000000	20.786790
708.000000	20.893609
709.000000	21.001033
710.000000	21.108140
711.000000	21.213689
712.000000	21.319702
713.000000	21.426178
714.000000	21.533038
715.000000	21.639271
716.000000	21.745334
717.000000	21.851377
718.000000	21.957475
719.000000	22.063837
720.000000	22.171034
721.000000	22.277981
722.000000	22.385331
723.000000	22.493041
724.000000	22.599604
725.000000	22.707052
726.000000	22.815230
727.000000	22.923205
728.000000	23.030487
729.000000	23.138785
730.000000	23.247478
731.000000	23.355418
732.000000	23.463135
733.000000	23.570019
734.000000	23.676184
735.000000	23.781159
736.000000	23.884235
737.000000	23.986063
738.000000	24.086703
739.000000	24.185759
740.000000	24.283598
741.000000	24.380045
742.000000	24.474134
743.000000	24.564937
744.000000	24.653602
745.000000	24.739522
746.000000	24.823890
747.000000	24.905670
748.000000	24.983934
749.000000	25.058556
750.000000	25.130354
751.000000	25.199383
752.000000	25.266077
753.000000	25.329362
754.000000	25.388971
755.000000	25.445005
756.000000	25.498654
757.000000	25.548968
758.000000	25.596879
759.000000	25.644240
760.000000	25.687895
761.000000	25.727304
762.000000	25.764804
763.000000	25.799407
764.000000	25.830354
765.000000	25.860027
766.000000	25.888709
767.000000	25.914954
768.000000	25.939585
769.000000	25.962122
770.000000	25.982859
771.000000	26.001988
772.000000	26.019813
773.000000	26.035892
774.000000	26.049884
775.000000	26.060929
776.000000	26.070215
777.000000	26.080124
778.000000	26.090257
779.000000	26.096934
780.000000	26.102419
781.000000	26.106668
782.000000	26.107894
783.000000	26.107809
784.000000	26.106116
785.000000	26.101809
786.000000	26.095615
787.000000	26.086340
788.000000	26.076103
789.000000	26.064014
790.000000	26.050452
791.000000	26.035022
792.000000	26.018048
793.000000	25.997876
794.000000	25.974050
795.000000	25.948137
796.000000	25.920910
797.000000	25.890356
798.000000	25.857974
799.000000	25.823476
800.000000	25.784501
801.000000	25.741504
802.000000	25.694611
803.000000	25.645903
804.000000	25.594301
805.000000	25.537996
806.000000	25.480161
807.000000	25.418386
808.000000	25.353813
809.000000	25.287680
810.000000	25.218610
811.000000	25.146483
812.000000	25.072655
813.000000	24.993939
814.000000	24.913190
815.000000	24.830006
816.000000	24.743848
817.000000	24.656272
818.000000	24.569375
819.000000	24.479830
820.000000	24.390023
821.000000	24.298960
822.000000	24.205045
823.000000	24.107515
824.000000	24.008662
825.000000	23.907129
826.000000	23.805816
827.000000	23.702956
828.000000	23.599723
829.000000	23.494333
830.000000	23.389140
831.000000	23.282286
832.000000	23.173973
833.000000	23.067934
834.000000	22.959658
835.000000	22.848909
836.000000	22.741203
837.000000	22.635090
838.000000	22.525780
839.000000	22.414441
840.000000	22.306473
841.000000	22.196361
842.000000	22.086724
843.000000	21.978275
844.000000	21.870786
845.000000	21.764052
846.000000	21.656895
847.000000	21.544089
848.000000	21.431419
849.000000	21.315627
850.000000	21.203311
851.000000	21.092994
852.000000	20.984209
853.000000	20.870966
854.000000	20.760851
855.000000	20.650232
856.000000	20.537588
857.000000	20.430706
858.000000	20.226444
859.000000	20.133380
860.000000	20.043472
861.000000	19.957763
862.000000	19.879761
863.000000	19.807935
864.000000	19.743802
865.000000	19.687507
866.000000	19.640062
867.000000	19.601011
868.000000	19.566781
869.000000	19.540876
870.000000	19.525525
871.000000	19.513893
872.000000	19.510254
873.000000	19.515021
874.000000	19.529980
875.000000	19.549551
876.000000	19.579359
877.000000	19.615239
878.000000	19.655747
879.000000	19.702566
880.000000	19.756166
881.000000	19.815223
882.000000	19.884653
883.000000	19.961240
884.000000	20.046330
885.000000	20.131465
886.000000	20.222882
887.000000	20.318222
888.000000	20.419391
889.000000	20.521668
890.000000	20.627776
891.000000	20.741746
892.000000	20.856291
893.000000	21.073371
894.000000	21.182706
895.000000	21.293351
896.000000	21.401417
897.000000	21.505623
898.000000	21.606929
899.000000	21.704817
900.000000	21.799763
901.000000	21.889483
902.000000	21.975486
903.000000	22.057791
904.000000	22.137326
905.000000	22.212026
906.000000	22.283814
907.000000	22.350671
908.000000	22.414091
909.000000	22.470937
910.000000	22.525537
911.000000	22.575877
912.000000	22.623951
913.000000	22.669740
914.000000	22.709231
915.000000	22.745371
916.000000	22.779909
917.000000	22.809820
918.000000	22.837249
919.000000	22.863489
920.000000	22.889300
921.000000	22.910229
922.000000	22.928949
923.000000	22.945700
924.000000	22.960254
925.000000	22.974069
926.000000	22.984383
927.000000	22.992431
928.000000	22.998551
929.000000	23.004103
930.000000	23.007949
931.000000	23.010491
932.000000	23.011311
933.000000	23.010620
934.000000	23.009409
935.000000	23.004566
936.000000	22.998963
937.000000	22.992146
938.000000	22.984306
939.000000	22.974911
940.000000	22.964537
941.000000	22.952234
942.000000	22.938966
943.000000	22.925100
944.000000	22.910769
945.000000	22.895131
946.000000	22.877783
947.000000	22.858566
948.000000	22.838083
949.000000	22.818446
950.000000	22.798466
951.000000	22.778109
952.000000	22.757694
953.000000	22.736320
954.000000	22.713589
955.000000	22.690440
956.000000	22.666717
957.000000	22.642914
958.000000	22.619469
959.000000	22.596900
960.000000	22.573080
961.000000	22.548391
962.000000	22.523829
963.000000	22.500031
964.000000	22.475514
965.000000	22.450906
966.000000	22.427009
967.000000	22.403400
968.000000	22.379440
969.000000	22.355546
970.000000	22.332189
971.000000	22.309017
972.000000	22.285783
973.000000	22.262040
974.000000	22.238311
975.000000	22.215163
976.000000	22.191969
977.000000	22.168169
978.000000	22.144957
979.000000	22.122860
980.000000	22.099837
981.000000	22.075974
982.000000	22.052986
983.000000	22.029749
984.000000	22.005771
985.000000	21.981763
986.000000	21.957197
987.000000	21.932263
988.000000	21.906866
989.000000	21.882286
990.000000	21.857626
991.000000	21.833009
992.000000	21.808489
993.000000	21.784017
994.000000	21.759534
995.000000	21.735429
996.000000	21.711949
997.000000	21.688629
998.000000	21.665557
999.000000	21.642840
1000.000000	21.620177
1001.000000	21.597717
1002.000000	21.575337
1003.000000	21.553877
1004.000000	21.532037
1005.000000	21.510266
1006.000000	21.488526
1007.000000	21.467260
1008.000000	21.446160
1009.000000	21.424680
1010.000000	21.403323
1011.000000	21.383331
1012.000000	21.363586
1013.000000	21.343371
1014.000000	21.323677
1015.000000	21.305197
1016.000000	21.287937
1017.000000	21.271689
1018.000000	21.256654
1019.000000	21.242949
1020.000000	21.229889
1021.000000	21.217831
1022.000000	21.206826
1023.000000	21.197880
1024.000000	21.189906
1025.000000	21.182760
1026.000000	21.177111
1027.000000	21.172271
1028.000000	21.167891
1029.000000	21.164540
1030.000000	21.162391
1031.000000	21.161014
1032.000000	21.160554
1033.000000	21.161409
1034.000000	21.163614
1035.000000	21.166483
1036.000000	21.169617
1037.000000	21.174003
1038.000000	21.179360
1039.000000	21.186131
1040.000000	21.193860
1041.000000	21.201711
1042.000000	21.210334
1043.000000	21.220054
1044.000000	21.231249
1045.000000	21.243154
1046.000000	21.255186
1047.000000	21.268414
1048.000000	21.282089
1049.000000	21.295994
1050.000000	21.310494
1051.000000	21.325311
1052.000000	21.339643
1053.000000	21.353520
1054.000000	21.367800
1055.000000	21.382740
1056.000000	21.397791
1057.000000	21.412840
1058.000000	21.427286
1059.000000	21.441966
1060.000000	21.456514
1061.000000	21.470911
1062.000000	21.484934
1063.000000	21.499229
1064.000000	21.514329
1065.000000	21.529431
1066.000000	21.544506
1067.000000	21.559871
1068.000000	21.574969
1069.000000	21.590091
1070.000000	21.606009
1071.000000	21.622557
1072.000000	21.639689
1073.000000	21.657097
1074.000000	21.674686
1075.000000	21.692994
1076.000000	21.712274
1077.000000	21.731709
1078.000000	21.751683
1079.000000	21.772297
1080.000000	21.793126
1081.000000	21.814397
1082.000000	21.836337
1083.000000	21.859071
1084.000000	21.882174
1085.000000	21.905540
1086.000000	21.929109
1087.000000	21.953614
1088.000000	21.978557
1089.000000	22.003731
1090.000000	22.028271
1091.000000	22.052586
1092.000000	22.076883
1093.000000	22.101740
1094.000000	22.125994
1095.000000	22.150289
1096.000000	22.174343
1097.000000	22.198674
1098.000000	22.223146
1099.000000	22.246329
1100.000000	22.268966
1101.000000	22.291503
1102.000000	22.313543
1103.000000	22.335114
1104.000000	22.356003
1105.000000	22.376031
1106.000000	22.395460
1107.000000	22.413831
1108.000000	22.431489
1109.000000	22.447823
1110.000000	22.463377
1111.000000	22.478534
1112.000000	22.493203
1113.000000	22.506846
1114.000000	22.519426
1115.000000	22.531309
1116.000000	22.542309
1117.000000	22.552634
1118.000000	22.562094
1119.000000	22.570926
1120.000000	22.578360
1121.000000	22.585023
1122.000000	22.590414
1123.000000	22.595143
1124.000000	22.597766
1125.000000	22.599060
1126.000000	22.599803
1127.000000	22.599134
1128.000000	22.596000
1129.000000	22.591171
1130.000000	22.584066
1131.000000	22.573923
1132.000000	22.560146
1133.000000	22.542251
1134.000000	22.520717
1135.000000	22.495520
1136.000000	22.467174
1137.000000	22.433557
1138.000000	22.396009
1139.000000	22.354409
1140.000000	22.309457
1141.000000	22.259783
1142.000000	22.206309
1143.000000	22.149326
1144.000000	22.089617
1145.000000	22.026274
1146.000000	21.960391
1147.000000	21.893529
1148.000000	21.825177
1149.000000	21.756060
1150.000000	21.685806
1151.000000	21.614746
1152.000000	21.543209
1153.000000	21.471097
1154.000000	21.397806
1155.000000	21.323014
1156.000000	21.246663
1157.000000	21.167223
1158.000000	21.085060
1159.000000	20.999397
1160.000000	20.911674
1161.000000	20.821014
1162.000000	20.727151
1163.000000	20.630606
1164.000000	20.531257
1165.000000	20.430283
1166.000000	20.328140
1167.000000	20.225237
1168.000000	20.122889
1169.000000	20.021494
1170.000000	19.919786
1171.000000	19.817666
1172.000000	19.717363
1173.000000	19.617494
1174.000000	19.518449
1175.000000	19.419220
1176.000000	19.321809
1177.000000	19.225026
1178.000000	19.128309
1179.000000	19.031120
