PE UV       SUBTECH     SPECTRUM    ASCII       PEDS        4.00        
   -1
CICIMAUCR0100-1.ASC
24/04/03
15:40:25.00
24/04/03
15:40:25.00
Vinicio Soto Monge
C. cupreomarginata
250,000000
1
Lambda 1050
1050L1511233
PerkinElmer UV WinLab 6.3.2.0749 / 2.02.05 Lambda 900 UV/VIS/NIR, Aug  7 2015 09:38:08

0
0
3350/servo 860,8/2
0
0
UV/VIS
1
1
1
DoubleDePol,CommonBeamDepol,RBeamAtt,SBeamAtt,60mm sphere, WB InGaAs Detector
0
0
0
0
Program
Program
3350/servo 860,8/2
3350/0,2 860,8/0,2
3350/0,2 860,8/0,2
0
15.00
 
 
 
0
 
860,8
319,2
860,8
Front
100
on
S:100 R:100
0
0
0
0
 
0
 
 
 
0
 
 
0
0
0
0
0
 
 
 
 
0
0


0
0
#HDR
-1
-1
#GR
nm
%R
1.0
0.0
2500,000000
-1,000000
2251
8
57,680700
4,945700
#DATA
250.000000	nan
251.000000	nan
252.000000	nan
253.000000	nan
254.000000	nan
255.000000	nan
256.000000	nan
257.000000	nan
258.000000	nan
259.000000	nan
260.000000	nan
261.000000	nan
262.000000	nan
263.000000	nan
264.000000	nan
265.000000	nan
266.000000	nan
267.000000	nan
268.000000	nan
269.000000	nan
270.000000	nan
271.000000	nan
272.000000	nan
273.000000	nan
274.000000	nan
275.000000	nan
276.000000	nan
277.000000	nan
278.000000	nan
279.000000	nan
280.000000	nan
281.000000	nan
282.000000	nan
283.000000	nan
284.000000	5.060026
285.000000	5.047250
286.000000	5.037943
287.000000	5.025713
288.000000	5.013720
289.000000	5.001980
290.000000	4.992426
291.000000	4.982219
292.000000	4.971509
293.000000	4.960005
294.000000	4.948135
295.000000	4.939004
296.000000	4.932423
297.000000	4.922678
298.000000	4.912806
299.000000	4.904148
300.000000	4.895093
301.000000	4.890038
302.000000	4.881160
303.000000	4.875337
304.000000	4.869039
305.000000	4.862782
306.000000	4.858267
307.000000	4.853241
308.000000	4.850150
309.000000	4.844847
310.000000	4.838929
311.000000	4.834993
312.000000	4.829622
313.000000	4.823576
314.000000	4.819227
315.000000	4.816664
316.000000	4.815993
317.000000	4.830701
318.000000	4.836760
319.000000	4.852686
320.000000	4.871138
321.000000	4.888850
322.000000	4.899508
323.000000	4.907815
324.000000	4.908587
325.000000	4.919721
326.000000	4.918231
327.000000	4.923154
328.000000	4.925304
329.000000	4.931083
330.000000	4.939964
331.000000	4.945868
332.000000	4.950103
333.000000	4.954335
334.000000	4.957138
335.000000	4.961786
336.000000	4.961481
337.000000	4.966255
338.000000	4.969117
339.000000	4.974181
340.000000	4.979810
341.000000	4.979044
342.000000	4.978503
343.000000	4.976962
344.000000	4.978190
345.000000	4.980069
346.000000	4.986505
347.000000	4.992252
348.000000	4.995758
349.000000	4.995313
350.000000	4.998194
351.000000	5.001766
352.000000	4.985141
353.000000	4.979465
354.000000	4.967040
355.000000	4.952867
356.000000	4.936925
357.000000	4.928854
358.000000	4.924279
359.000000	4.924703
360.000000	4.916453
361.000000	4.919764
362.000000	4.917987
363.000000	4.916831
364.000000	4.914833
365.000000	4.907782
366.000000	4.904221
367.000000	4.904591
368.000000	4.905333
369.000000	4.907655
370.000000	4.906730
371.000000	4.910737
372.000000	4.910438
373.000000	4.908470
374.000000	4.907951
375.000000	4.910897
376.000000	4.922314
377.000000	4.932393
378.000000	4.941972
379.000000	4.951590
380.000000	4.961484
381.000000	4.966181
382.000000	4.974882
383.000000	4.985309
384.000000	5.000178
385.000000	5.012125
386.000000	5.022218
387.000000	5.036374
388.000000	5.048666
389.000000	5.060863
390.000000	5.075697
391.000000	5.091927
392.000000	5.109685
393.000000	5.129050
394.000000	5.151054
395.000000	5.174684
396.000000	5.200687
397.000000	5.229204
398.000000	5.264169
399.000000	5.299098
400.000000	5.337866
401.000000	5.378599
402.000000	5.422955
403.000000	5.470891
404.000000	5.524131
405.000000	5.583859
406.000000	5.646944
407.000000	5.717409
408.000000	5.794743
409.000000	5.875619
410.000000	5.957634
411.000000	6.041326
412.000000	6.133605
413.000000	6.231834
414.000000	6.336248
415.000000	6.445951
416.000000	6.561199
417.000000	6.682221
418.000000	6.808698
419.000000	6.940734
420.000000	7.078220
421.000000	7.220694
422.000000	7.368599
423.000000	7.521202
424.000000	7.678583
425.000000	7.839943
426.000000	8.005675
427.000000	8.175435
428.000000	8.348940
429.000000	8.525871
430.000000	8.705093
431.000000	8.886577
432.000000	9.070281
433.000000	9.256084
434.000000	9.443238
435.000000	9.631827
436.000000	9.821447
437.000000	10.010808
438.000000	10.199696
439.000000	10.387777
440.000000	10.574980
441.000000	10.760897
442.000000	10.944525
443.000000	11.126093
444.000000	11.305408
445.000000	11.481281
446.000000	11.653191
447.000000	11.821190
448.000000	11.984415
449.000000	12.142590
450.000000	12.296187
451.000000	12.443559
452.000000	12.584848
453.000000	12.720184
454.000000	12.848600
455.000000	12.970236
456.000000	13.084834
457.000000	13.192792
458.000000	13.294593
459.000000	13.389898
460.000000	13.478904
461.000000	13.562161
462.000000	13.640158
463.000000	13.713054
464.000000	13.781589
465.000000	13.847188
466.000000	13.910192
467.000000	13.970376
468.000000	14.028683
469.000000	14.086706
470.000000	14.144635
471.000000	14.203099
472.000000	14.263093
473.000000	14.324607
474.000000	14.388584
475.000000	14.455725
476.000000	14.525657
477.000000	14.599297
478.000000	14.677229
479.000000	14.759559
480.000000	14.846967
481.000000	14.939643
482.000000	15.037310
483.000000	15.140454
484.000000	15.248697
485.000000	15.361738
486.000000	15.480713
487.000000	15.605105
488.000000	15.734975
489.000000	15.871200
490.000000	16.013168
491.000000	16.160815
492.000000	16.314222
493.000000	16.473169
494.000000	16.638623
495.000000	16.810489
496.000000	16.988165
497.000000	17.171897
498.000000	17.361570
499.000000	17.556971
500.000000	17.757738
501.000000	17.964725
502.000000	18.177797
503.000000	18.396461
504.000000	18.620317
505.000000	18.849196
506.000000	19.082198
507.000000	19.319338
508.000000	19.560580
509.000000	19.805496
510.000000	20.054181
511.000000	20.306393
512.000000	20.561547
513.000000	20.818946
514.000000	21.079003
515.000000	21.341343
516.000000	21.605081
517.000000	21.870950
518.000000	22.139073
519.000000	22.409864
520.000000	22.683486
521.000000	22.959738
522.000000	23.239756
523.000000	23.523861
524.000000	23.812194
525.000000	24.106539
526.000000	24.408090
527.000000	24.717568
528.000000	25.036269
529.000000	25.364445
530.000000	25.703919
531.000000	26.056190
532.000000	26.421566
533.000000	26.801696
534.000000	27.198354
535.000000	27.611782
536.000000	28.041942
537.000000	28.489675
538.000000	28.955672
539.000000	29.440080
540.000000	29.942031
541.000000	30.462788
542.000000	31.001481
543.000000	31.555683
544.000000	32.125650
545.000000	32.709546
546.000000	33.306975
547.000000	33.916376
548.000000	34.536539
549.000000	35.166144
550.000000	35.804644
551.000000	36.451614
552.000000	37.104566
553.000000	37.763232
554.000000	38.426506
555.000000	39.094034
556.000000	39.764780
557.000000	40.435741
558.000000	41.106960
559.000000	41.776761
560.000000	42.447540
561.000000	43.113956
562.000000	43.772973
563.000000	44.422873
564.000000	45.061313
565.000000	45.686534
566.000000	46.296000
567.000000	46.887947
568.000000	47.460526
569.000000	48.012420
570.000000	48.541434
571.000000	49.047022
572.000000	49.528483
573.000000	49.984189
574.000000	50.413422
575.000000	50.817761
576.000000	51.196717
577.000000	51.549486
578.000000	51.878130
579.000000	52.182655
580.000000	52.463626
581.000000	52.720474
582.000000	52.955262
583.000000	53.167685
584.000000	53.358979
585.000000	53.528499
586.000000	53.676959
587.000000	53.805002
588.000000	53.914466
589.000000	54.004801
590.000000	54.076443
591.000000	54.130077
592.000000	54.169331
593.000000	54.193630
594.000000	54.204481
595.000000	54.199248
596.000000	54.183094
597.000000	54.157773
598.000000	54.123504
599.000000	54.084166
600.000000	54.037445
601.000000	53.984433
602.000000	53.926374
603.000000	53.862254
604.000000	53.792341
605.000000	53.715827
606.000000	53.630956
607.000000	53.538266
608.000000	53.438148
609.000000	53.329923
610.000000	53.212231
611.000000	53.083378
612.000000	52.944897
613.000000	52.798079
614.000000	52.640717
615.000000	52.473980
616.000000	52.297463
617.000000	52.112182
618.000000	51.921426
619.000000	51.721632
620.000000	51.515184
621.000000	51.301873
622.000000	51.081287
623.000000	50.853009
624.000000	50.616127
625.000000	50.371746
626.000000	50.120246
627.000000	49.858729
628.000000	49.588130
629.000000	49.306460
630.000000	49.013074
631.000000	48.708394
632.000000	48.392085
633.000000	48.064289
634.000000	47.723114
635.000000	47.372958
636.000000	47.012584
637.000000	46.643392
638.000000	46.268853
639.000000	45.886966
640.000000	45.502000
641.000000	45.117096
642.000000	44.732698
643.000000	44.352060
644.000000	43.977812
645.000000	43.612909
646.000000	43.260483
647.000000	42.920827
648.000000	42.595798
649.000000	42.288468
650.000000	41.997928
651.000000	41.728134
652.000000	41.477648
653.000000	41.244648
654.000000	41.032823
655.000000	40.841662
656.000000	40.670872
657.000000	40.521007
658.000000	40.390811
659.000000	40.282715
660.000000	40.194527
661.000000	40.126429
662.000000	40.079657
663.000000	40.052254
664.000000	40.046532
665.000000	40.061825
666.000000	40.095985
667.000000	40.148920
668.000000	40.221660
669.000000	40.312425
670.000000	40.417700
671.000000	40.539584
672.000000	40.675298
673.000000	40.822018
674.000000	40.980095
675.000000	41.146275
676.000000	41.319291
677.000000	41.496578
678.000000	41.673968
679.000000	41.850942
680.000000	42.024776
681.000000	42.191288
682.000000	42.351295
683.000000	42.501796
684.000000	42.641405
685.000000	42.770921
686.000000	42.888790
687.000000	42.994092
688.000000	43.088200
689.000000	43.170006
690.000000	43.239351
691.000000	43.297796
692.000000	43.347573
693.000000	43.388670
694.000000	43.420577
695.000000	43.444435
696.000000	43.461407
697.000000	43.472006
698.000000	43.478494
699.000000	43.480353
700.000000	43.476091
701.000000	43.469760
702.000000	43.462862
703.000000	43.453321
704.000000	43.442461
705.000000	43.433472
706.000000	43.425257
707.000000	43.417817
708.000000	43.413490
709.000000	43.411533
710.000000	43.414444
711.000000	43.420473
712.000000	43.431414
713.000000	43.447922
714.000000	43.468388
715.000000	43.493537
716.000000	43.525294
717.000000	43.561942
718.000000	43.602786
719.000000	43.647409
720.000000	43.694018
721.000000	43.744624
722.000000	43.800870
723.000000	43.860802
724.000000	43.924488
725.000000	43.989486
726.000000	44.056276
727.000000	44.124200
728.000000	44.193339
729.000000	44.263146
730.000000	44.335073
731.000000	44.408202
732.000000	44.480720
733.000000	44.552373
734.000000	44.622074
735.000000	44.690620
736.000000	44.756752
737.000000	44.820068
738.000000	44.879326
739.000000	44.934713
740.000000	44.987132
741.000000	45.035707
742.000000	45.080667
743.000000	45.120687
744.000000	45.156786
745.000000	45.187882
746.000000	45.214758
747.000000	45.235949
748.000000	45.252332
749.000000	45.264515
750.000000	45.271697
751.000000	45.274290
752.000000	45.273423
753.000000	45.269894
754.000000	45.261778
755.000000	45.253090
756.000000	45.242649
757.000000	45.228759
758.000000	45.211653
759.000000	45.192191
760.000000	45.175900
761.000000	45.158136
762.000000	45.138350
763.000000	45.118926
764.000000	45.100684
765.000000	45.084113
766.000000	45.066325
767.000000	45.049371
768.000000	45.033657
769.000000	45.020996
770.000000	45.012395
771.000000	45.005844
772.000000	45.000910
773.000000	45.000774
774.000000	45.006116
775.000000	45.011982
776.000000	45.022610
777.000000	45.039985
778.000000	45.060329
779.000000	45.083860
780.000000	45.110491
781.000000	45.140381
782.000000	45.175536
783.000000	45.217112
784.000000	45.262827
785.000000	45.312919
786.000000	45.367808
787.000000	45.427150
788.000000	45.492258
789.000000	45.563544
790.000000	45.640413
791.000000	45.721561
792.000000	45.806112
793.000000	45.897885
794.000000	45.994715
795.000000	46.090644
796.000000	46.192888
797.000000	46.302151
798.000000	46.415366
799.000000	46.532308
800.000000	46.648513
801.000000	46.767667
802.000000	46.891010
803.000000	47.017566
804.000000	47.144883
805.000000	47.272317
806.000000	47.404451
807.000000	47.538839
808.000000	47.677113
809.000000	47.818853
810.000000	47.962812
811.000000	48.106066
812.000000	48.245398
813.000000	48.386073
814.000000	48.529169
815.000000	48.671660
816.000000	48.813726
817.000000	48.952677
818.000000	49.090960
819.000000	49.231510
820.000000	49.370744
821.000000	49.505335
822.000000	49.639980
823.000000	49.773172
824.000000	49.904112
825.000000	50.029880
826.000000	50.150810
827.000000	50.273443
828.000000	50.390907
829.000000	50.509322
830.000000	50.622023
831.000000	50.732017
832.000000	50.838433
833.000000	50.940427
834.000000	51.038771
835.000000	51.133083
836.000000	51.233729
837.000000	51.327875
838.000000	51.415169
839.000000	51.502805
840.000000	51.590186
841.000000	51.672223
842.000000	51.752373
843.000000	51.826222
844.000000	51.892857
845.000000	51.955227
846.000000	52.015494
847.000000	52.080378
848.000000	52.132185
849.000000	52.183522
850.000000	52.241434
851.000000	52.293959
852.000000	52.338095
853.000000	52.380193
854.000000	52.423193
855.000000	52.461202
856.000000	52.488645
857.000000	52.532094
858.000000	52.531835
859.000000	52.598978
860.000000	52.667811
861.000000	52.739280
862.000000	52.808082
863.000000	52.876816
864.000000	52.941918
865.000000	53.012244
866.000000	53.079778
867.000000	53.146075
868.000000	53.211606
869.000000	53.276624
870.000000	53.344157
871.000000	53.402947
872.000000	53.463786
873.000000	53.526943
874.000000	53.587415
875.000000	53.646826
876.000000	53.706047
877.000000	53.763313
878.000000	53.821479
879.000000	53.880219
880.000000	53.940596
881.000000	54.000632
882.000000	54.054394
883.000000	54.116654
884.000000	54.174742
885.000000	54.224790
886.000000	54.278599
887.000000	54.340218
888.000000	54.398555
889.000000	54.450390
890.000000	54.504852
891.000000	54.569977
892.000000	54.614604
893.000000	54.698174
894.000000	54.711606
895.000000	54.721440
896.000000	54.726337
897.000000	54.727369
898.000000	54.724763
899.000000	54.717974
900.000000	54.707377
901.000000	54.694903
902.000000	54.679374
903.000000	54.661003
904.000000	54.640494
905.000000	54.616903
906.000000	54.591046
907.000000	54.562957
908.000000	54.533386
909.000000	54.502186
910.000000	54.469954
911.000000	54.435831
912.000000	54.401111
913.000000	54.365446
914.000000	54.329457
915.000000	54.292726
916.000000	54.254920
917.000000	54.217049
918.000000	54.179674
919.000000	54.142543
920.000000	54.103794
921.000000	54.064271
922.000000	54.024363
923.000000	53.984329
924.000000	53.944151
925.000000	53.904531
926.000000	53.864374
927.000000	53.824143
928.000000	53.783754
929.000000	53.744951
930.000000	53.706517
931.000000	53.668874
932.000000	53.632660
933.000000	53.596926
934.000000	53.562566
935.000000	53.530069
936.000000	53.498620
937.000000	53.467169
938.000000	53.437251
939.000000	53.407643
940.000000	53.379049
941.000000	53.351023
942.000000	53.324149
943.000000	53.297200
944.000000	53.268860
945.000000	53.239877
946.000000	53.211440
947.000000	53.182026
948.000000	53.150889
949.000000	53.118620
950.000000	53.085383
951.000000	53.049663
952.000000	53.012737
953.000000	52.973420
954.000000	52.932574
955.000000	52.890766
956.000000	52.846514
957.000000	52.800557
958.000000	52.753140
959.000000	52.702411
960.000000	52.648506
961.000000	52.592571
962.000000	52.534160
963.000000	52.473363
964.000000	52.409060
965.000000	52.342969
966.000000	52.274611
967.000000	52.204009
968.000000	52.132323
969.000000	52.058397
970.000000	51.982180
971.000000	51.903903
972.000000	51.824926
973.000000	51.744377
974.000000	51.662471
975.000000	51.579323
976.000000	51.494506
977.000000	51.408206
978.000000	51.320249
979.000000	51.231783
980.000000	51.141529
981.000000	51.049426
982.000000	50.956454
983.000000	50.862591
984.000000	50.767517
985.000000	50.671471
986.000000	50.575437
987.000000	50.478294
988.000000	50.382057
989.000000	50.285911
990.000000	50.190771
991.000000	50.097406
992.000000	50.004697
993.000000	49.913069
994.000000	49.824720
995.000000	49.738431
996.000000	49.654477
997.000000	49.572386
998.000000	49.492243
999.000000	49.414523
1000.000000	49.338597
1001.000000	49.264249
1002.000000	49.190469
1003.000000	49.117629
1004.000000	49.046480
1005.000000	48.976260
1006.000000	48.906614
1007.000000	48.837340
1008.000000	48.768520
1009.000000	48.699866
1010.000000	48.632206
1011.000000	48.565449
1012.000000	48.498454
1013.000000	48.432269
1014.000000	48.367183
1015.000000	48.303114
1016.000000	48.240060
1017.000000	48.177900
1018.000000	48.116703
1019.000000	48.056880
1020.000000	47.997894
1021.000000	47.940346
1022.000000	47.884083
1023.000000	47.828931
1024.000000	47.774791
1025.000000	47.721343
1026.000000	47.668583
1027.000000	47.617206
1028.000000	47.567191
1029.000000	47.517797
1030.000000	47.469174
1031.000000	47.421474
1032.000000	47.374843
1033.000000	47.329577
1034.000000	47.285389
1035.000000	47.242314
1036.000000	47.200180
1037.000000	47.159900
1038.000000	47.121814
1039.000000	47.084786
1040.000000	47.049354
1041.000000	47.016323
1042.000000	46.985726
1043.000000	46.957514
1044.000000	46.932431
1045.000000	46.909531
1046.000000	46.888771
1047.000000	46.871303
1048.000000	46.856446
1049.000000	46.843897
1050.000000	46.833471
1051.000000	46.825266
1052.000000	46.819117
1053.000000	46.815689
1054.000000	46.814646
1055.000000	46.815957
1056.000000	46.819803
1057.000000	46.826006
1058.000000	46.834491
1059.000000	46.844791
1060.000000	46.856997
1061.000000	46.871394
1062.000000	46.887426
1063.000000	46.905120
1064.000000	46.924374
1065.000000	46.945669
1066.000000	46.968489
1067.000000	46.993163
1068.000000	47.019429
1069.000000	47.046931
1070.000000	47.075800
1071.000000	47.106786
1072.000000	47.138894
1073.000000	47.172103
1074.000000	47.206514
1075.000000	47.242523
1076.000000	47.279637
1077.000000	47.317440
1078.000000	47.356849
1079.000000	47.396854
1080.000000	47.437800
1081.000000	47.479611
1082.000000	47.522126
1083.000000	47.565351
1084.000000	47.609271
1085.000000	47.653780
1086.000000	47.698569
1087.000000	47.744209
1088.000000	47.789666
1089.000000	47.834863
1090.000000	47.879360
1091.000000	47.923291
1092.000000	47.966866
1093.000000	48.009997
1094.000000	48.052989
1095.000000	48.095303
1096.000000	48.136937
1097.000000	48.178257
1098.000000	48.219080
1099.000000	48.259143
1100.000000	48.298143
1101.000000	48.337151
1102.000000	48.375306
1103.000000	48.412343
1104.000000	48.448309
1105.000000	48.483771
1106.000000	48.518429
1107.000000	48.551991
1108.000000	48.584551
1109.000000	48.616614
1110.000000	48.647340
1111.000000	48.676803
1112.000000	48.705983
1113.000000	48.733620
1114.000000	48.760177
1115.000000	48.785683
1116.000000	48.810331
1117.000000	48.833140
1118.000000	48.854497
1119.000000	48.874111
1120.000000	48.890991
1121.000000	48.904743
1122.000000	48.915486
1123.000000	48.922191
1124.000000	48.925494
1125.000000	48.925731
1126.000000	48.921251
1127.000000	48.912197
1128.000000	48.897449
1129.000000	48.875743
1130.000000	48.846431
1131.000000	48.808340
1132.000000	48.760786
1133.000000	48.703237
1134.000000	48.633920
1135.000000	48.553080
1136.000000	48.458754
1137.000000	48.350800
1138.000000	48.229189
1139.000000	48.094677
1140.000000	47.947009
1141.000000	47.787731
1142.000000	47.616349
1143.000000	47.432909
1144.000000	47.239154
1145.000000	47.036606
1146.000000	46.827586
1147.000000	46.614111
1148.000000	46.399271
1149.000000	46.184697
1150.000000	45.970894
1151.000000	45.757300
1152.000000	45.544500
1153.000000	45.331643
1154.000000	45.117026
1155.000000	44.899426
1156.000000	44.678071
1157.000000	44.450231
1158.000000	44.215366
1159.000000	43.972171
1160.000000	43.719640
1161.000000	43.460597
1162.000000	43.193557
1163.000000	42.918751
1164.000000	42.637849
1165.000000	42.352069
1166.000000	42.062609
1167.000000	41.770977
1168.000000	41.476951
1169.000000	41.183757
1170.000000	40.890457
1171.000000	40.599711
1172.000000	40.311837
1173.000000	40.027491
1174.000000	39.747397
1175.000000	39.470149
1176.000000	39.195906
