PE UV       SUBTECH     SPECTRUM    ASCII       PEDS        4.00        
   -1
CICIMAUCR0070-1.ASC
24/04/03
14:43:34.00
24/04/03
14:43:34.00
Vinicio Soto Monge
C. resplendens
250,000000
1
Lambda 1050
1050L1511233
PerkinElmer UV WinLab 6.3.2.0749 / 2.02.05 Lambda 900 UV/VIS/NIR, Aug  7 2015 09:38:08

0
0
3350/servo 860,8/2
0
0
UV/VIS
1
1
1
DoubleDePol,CommonBeamDepol,RBeamAtt,SBeamAtt,60mm sphere, WB InGaAs Detector
0
0
0
0
Program
Program
3350/servo 860,8/2
3350/0,2 860,8/0,2
3350/0,2 860,8/0,2
0
15.00
 
 
 
0
 
860,8
319,2
860,8
Front
100
on
S:100 R:100
0
0
0
0
 
0
 
 
 
0
 
 
0
0
0
0
0
 
 
 
 
0
0


0
0
#HDR
-1
-1
#GR
nm
%R
1.0
0.0
2500,000000
-1,000000
2251
8
71,428400
5,238700
#DATA
250.000000	nan
251.000000	nan
252.000000	nan
253.000000	nan
254.000000	nan
255.000000	nan
256.000000	nan
257.000000	nan
258.000000	nan
259.000000	nan
260.000000	nan
261.000000	nan
262.000000	nan
263.000000	nan
264.000000	nan
265.000000	nan
266.000000	nan
267.000000	nan
268.000000	nan
269.000000	nan
270.000000	nan
271.000000	nan
272.000000	nan
273.000000	nan
274.000000	nan
275.000000	nan
276.000000	nan
277.000000	nan
278.000000	nan
279.000000	nan
280.000000	nan
281.000000	nan
282.000000	nan
283.000000	nan
284.000000	5.834066
285.000000	5.816756
286.000000	5.799508
287.000000	5.779897
288.000000	5.763476
289.000000	5.747015
290.000000	5.730209
291.000000	5.714745
292.000000	5.700405
293.000000	5.685708
294.000000	5.669485
295.000000	5.653984
296.000000	5.637217
297.000000	5.624983
298.000000	5.611800
299.000000	5.599141
300.000000	5.590496
301.000000	5.581866
302.000000	5.572570
303.000000	5.563590
304.000000	5.556367
305.000000	5.549159
306.000000	5.541075
307.000000	5.534109
308.000000	5.528563
309.000000	5.520094
310.000000	5.514427
311.000000	5.507755
312.000000	5.502187
313.000000	5.496641
314.000000	5.490702
315.000000	5.484081
316.000000	5.479365
317.000000	5.494176
318.000000	5.508816
319.000000	5.516405
320.000000	5.532136
321.000000	5.545134
322.000000	5.555866
323.000000	5.564256
324.000000	5.574444
325.000000	5.584569
326.000000	5.586400
327.000000	5.585679
328.000000	5.579114
329.000000	5.581942
330.000000	5.589828
331.000000	5.594043
332.000000	5.594392
333.000000	5.594372
334.000000	5.593336
335.000000	5.592529
336.000000	5.588382
337.000000	5.583270
338.000000	5.581149
339.000000	5.581735
340.000000	5.580595
341.000000	5.581809
342.000000	5.581413
343.000000	5.578845
344.000000	5.573495
345.000000	5.574441
346.000000	5.570928
347.000000	5.564140
348.000000	5.564672
349.000000	5.568009
350.000000	5.567633
351.000000	5.565017
352.000000	5.542972
353.000000	5.522183
354.000000	5.508465
355.000000	5.487365
356.000000	5.467091
357.000000	5.456793
358.000000	5.445176
359.000000	5.434003
360.000000	5.421715
361.000000	5.415983
362.000000	5.411340
363.000000	5.412037
364.000000	5.404923
365.000000	5.394215
366.000000	5.389145
367.000000	5.384383
368.000000	5.381768
369.000000	5.380384
370.000000	5.375362
371.000000	5.374799
372.000000	5.377001
373.000000	5.374731
374.000000	5.368690
375.000000	5.363750
376.000000	5.358397
377.000000	5.356345
378.000000	5.355136
379.000000	5.357109
380.000000	5.354381
381.000000	5.356260
382.000000	5.361109
383.000000	5.360169
384.000000	5.355838
385.000000	5.354324
386.000000	5.354729
387.000000	5.356597
388.000000	5.357933
389.000000	5.359043
390.000000	5.359946
391.000000	5.361398
392.000000	5.357526
393.000000	5.357401
394.000000	5.354021
395.000000	5.352855
396.000000	5.353905
397.000000	5.354570
398.000000	5.356382
399.000000	5.359442
400.000000	5.360747
401.000000	5.361806
402.000000	5.364232
403.000000	5.365981
404.000000	5.368645
405.000000	5.372395
406.000000	5.375288
407.000000	5.378003
408.000000	5.381287
409.000000	5.386071
410.000000	5.392697
411.000000	5.397057
412.000000	5.401390
413.000000	5.405826
414.000000	5.410930
415.000000	5.416407
416.000000	5.421947
417.000000	5.428090
418.000000	5.434682
419.000000	5.442535
420.000000	5.451471
421.000000	5.461104
422.000000	5.471884
423.000000	5.484158
424.000000	5.497391
425.000000	5.511805
426.000000	5.528648
427.000000	5.547634
428.000000	5.568714
429.000000	5.592688
430.000000	5.619625
431.000000	5.649732
432.000000	5.683593
433.000000	5.721358
434.000000	5.763403
435.000000	5.810061
436.000000	5.861665
437.000000	5.918945
438.000000	5.981824
439.000000	6.050593
440.000000	6.126326
441.000000	6.209074
442.000000	6.298983
443.000000	6.396739
444.000000	6.502860
445.000000	6.616972
446.000000	6.738735
447.000000	6.868787
448.000000	7.007905
449.000000	7.155224
450.000000	7.310594
451.000000	7.474286
452.000000	7.646213
453.000000	7.825966
454.000000	8.013178
455.000000	8.207932
456.000000	8.409955
457.000000	8.618397
458.000000	8.833025
459.000000	9.053550
460.000000	9.279908
461.000000	9.511738
462.000000	9.748650
463.000000	9.990356
464.000000	10.236017
465.000000	10.485234
466.000000	10.737720
467.000000	10.993336
468.000000	11.251243
469.000000	11.510761
470.000000	11.771824
471.000000	12.034308
472.000000	12.297463
473.000000	12.560343
474.000000	12.823076
475.000000	13.084824
476.000000	13.345259
477.000000	13.604272
478.000000	13.861494
479.000000	14.116111
480.000000	14.368317
481.000000	14.618720
482.000000	14.866702
483.000000	15.111372
484.000000	15.353501
485.000000	15.592461
486.000000	15.828158
487.000000	16.061344
488.000000	16.291858
489.000000	16.520238
490.000000	16.746158
491.000000	16.970297
492.000000	17.192958
493.000000	17.414238
494.000000	17.633509
495.000000	17.851177
496.000000	18.067177
497.000000	18.281831
498.000000	18.494557
499.000000	18.705405
500.000000	18.915000
501.000000	19.122829
502.000000	19.328135
503.000000	19.530837
504.000000	19.731815
505.000000	19.930371
506.000000	20.125851
507.000000	20.317904
508.000000	20.507084
509.000000	20.692825
510.000000	20.874557
511.000000	21.052510
512.000000	21.225654
513.000000	21.393034
514.000000	21.555732
515.000000	21.713335
516.000000	21.865453
517.000000	22.012627
518.000000	22.155576
519.000000	22.294309
520.000000	22.430472
521.000000	22.566104
522.000000	22.702788
523.000000	22.843166
524.000000	22.988908
525.000000	23.143069
526.000000	23.308267
527.000000	23.487576
528.000000	23.683833
529.000000	23.900569
530.000000	24.139867
531.000000	24.404313
532.000000	24.696341
533.000000	25.017240
534.000000	25.368303
535.000000	25.749416
536.000000	26.159786
537.000000	26.599679
538.000000	27.068577
539.000000	27.563669
540.000000	28.085048
541.000000	28.630992
542.000000	29.200419
543.000000	29.792113
544.000000	30.404431
545.000000	31.036528
546.000000	31.687409
547.000000	32.356042
548.000000	33.041806
549.000000	33.742500
550.000000	34.458125
551.000000	35.188575
552.000000	35.932182
553.000000	36.686792
554.000000	37.452400
555.000000	38.224272
556.000000	38.999387
557.000000	39.775865
558.000000	40.548192
559.000000	41.313503
560.000000	42.065942
561.000000	42.803168
562.000000	43.522615
563.000000	44.220022
564.000000	44.893521
565.000000	45.541439
566.000000	46.160534
567.000000	46.747942
568.000000	47.303368
569.000000	47.826896
570.000000	48.318744
571.000000	48.780454
572.000000	49.212929
573.000000	49.617611
574.000000	49.997825
575.000000	50.353037
576.000000	50.684874
577.000000	50.995169
578.000000	51.286373
579.000000	51.557706
580.000000	51.811585
581.000000	52.046863
582.000000	52.267011
583.000000	52.471975
584.000000	52.662584
585.000000	52.838572
586.000000	53.000037
587.000000	53.149017
588.000000	53.287623
589.000000	53.414604
590.000000	53.533276
591.000000	53.644424
592.000000	53.750248
593.000000	53.850769
594.000000	53.945839
595.000000	54.039782
596.000000	54.128435
597.000000	54.210840
598.000000	54.288464
599.000000	54.359271
600.000000	54.420709
601.000000	54.472044
602.000000	54.513044
603.000000	54.542059
604.000000	54.558106
605.000000	54.560504
606.000000	54.549187
607.000000	54.522572
608.000000	54.482583
609.000000	54.427353
610.000000	54.358204
611.000000	54.276750
612.000000	54.183291
613.000000	54.077530
614.000000	53.963387
615.000000	53.840038
616.000000	53.709432
617.000000	53.571066
618.000000	53.425400
619.000000	53.272745
620.000000	53.113863
621.000000	52.948498
622.000000	52.773033
623.000000	52.588252
624.000000	52.393034
625.000000	52.185449
626.000000	51.965536
627.000000	51.729259
628.000000	51.480011
629.000000	51.216061
630.000000	50.934365
631.000000	50.636828
632.000000	50.324453
633.000000	49.996069
634.000000	49.652457
635.000000	49.294190
636.000000	48.924071
637.000000	48.541745
638.000000	48.151369
639.000000	47.751731
640.000000	47.346316
641.000000	46.935497
642.000000	46.524077
643.000000	46.111276
644.000000	45.701634
645.000000	45.298631
646.000000	44.905042
647.000000	44.521686
648.000000	44.151516
649.000000	43.794868
650.000000	43.454774
651.000000	43.132715
652.000000	42.829330
653.000000	42.545058
654.000000	42.281206
655.000000	42.035698
656.000000	41.807616
657.000000	41.597698
658.000000	41.404493
659.000000	41.226894
660.000000	41.066095
661.000000	40.919939
662.000000	40.789845
663.000000	40.674474
664.000000	40.574660
665.000000	40.491369
666.000000	40.425532
667.000000	40.376600
668.000000	40.347296
669.000000	40.336780
670.000000	40.346682
671.000000	40.376509
672.000000	40.429775
673.000000	40.503297
674.000000	40.599400
675.000000	40.716380
676.000000	40.854816
677.000000	41.010808
678.000000	41.183745
679.000000	41.371263
680.000000	41.569977
681.000000	41.775838
682.000000	41.987947
683.000000	42.201312
684.000000	42.413073
685.000000	42.620250
686.000000	42.821146
687.000000	43.010666
688.000000	43.188845
689.000000	43.353803
690.000000	43.506797
691.000000	43.648642
692.000000	43.779826
693.000000	43.899891
694.000000	44.012400
695.000000	44.117856
696.000000	44.219671
697.000000	44.317659
698.000000	44.415645
699.000000	44.513956
700.000000	44.615321
701.000000	44.720754
702.000000	44.829756
703.000000	44.942433
704.000000	45.061589
705.000000	45.186580
706.000000	45.318432
707.000000	45.454083
708.000000	45.593844
709.000000	45.737989
710.000000	45.884737
711.000000	46.033485
712.000000	46.185045
713.000000	46.336885
714.000000	46.486397
715.000000	46.633654
716.000000	46.780240
717.000000	46.922631
718.000000	47.061749
719.000000	47.201012
720.000000	47.339273
721.000000	47.475719
722.000000	47.613734
723.000000	47.754605
724.000000	47.900013
725.000000	48.049062
726.000000	48.203534
727.000000	48.364673
728.000000	48.532260
729.000000	48.705992
730.000000	48.888214
731.000000	49.077739
732.000000	49.273336
733.000000	49.473581
734.000000	49.679618
735.000000	49.889448
736.000000	50.101921
737.000000	50.317566
738.000000	50.535491
739.000000	50.754334
740.000000	50.973270
741.000000	51.191689
742.000000	51.409943
743.000000	51.625219
744.000000	51.837214
745.000000	52.048587
746.000000	52.255419
747.000000	52.456451
748.000000	52.654836
749.000000	52.851163
750.000000	53.044434
751.000000	53.234870
752.000000	53.424475
753.000000	53.612865
754.000000	53.798395
755.000000	53.980841
756.000000	54.160914
757.000000	54.340855
758.000000	54.519702
759.000000	54.694394
760.000000	54.866791
761.000000	55.037794
762.000000	55.206392
763.000000	55.373447
764.000000	55.540312
765.000000	55.703002
766.000000	55.860942
767.000000	56.020560
768.000000	56.177872
769.000000	56.332231
770.000000	56.483397
771.000000	56.631806
772.000000	56.779504
773.000000	56.924887
774.000000	57.067120
775.000000	57.209230
776.000000	57.350056
777.000000	57.488056
778.000000	57.625068
779.000000	57.759406
780.000000	57.891564
781.000000	58.023670
782.000000	58.155460
783.000000	58.286154
784.000000	58.414661
785.000000	58.542063
786.000000	58.667359
787.000000	58.791783
788.000000	58.914670
789.000000	59.039485
790.000000	59.166570
791.000000	59.291388
792.000000	59.411982
793.000000	59.534855
794.000000	59.659780
795.000000	59.785923
796.000000	59.912878
797.000000	60.036773
798.000000	60.162474
799.000000	60.287453
800.000000	60.413751
801.000000	60.540259
802.000000	60.663565
803.000000	60.787479
804.000000	60.911904
805.000000	61.035317
806.000000	61.160772
807.000000	61.285618
808.000000	61.410755
809.000000	61.538911
810.000000	61.661048
811.000000	61.783100
812.000000	61.900991
813.000000	62.020685
814.000000	62.148684
815.000000	62.274903
816.000000	62.400298
817.000000	62.528213
818.000000	62.655221
819.000000	62.785013
820.000000	62.916502
821.000000	63.052102
822.000000	63.188084
823.000000	63.327995
824.000000	63.460371
825.000000	63.590751
826.000000	63.731463
827.000000	63.872105
828.000000	64.010878
829.000000	64.146070
830.000000	64.275417
831.000000	64.406853
832.000000	64.541315
833.000000	64.675324
834.000000	64.810341
835.000000	64.939543
836.000000	65.071843
837.000000	65.201784
838.000000	65.326808
839.000000	65.451436
840.000000	65.576370
841.000000	65.696010
842.000000	65.821519
843.000000	65.946464
844.000000	66.061838
845.000000	66.180652
846.000000	66.295163
847.000000	66.417722
848.000000	66.547499
849.000000	66.654220
850.000000	66.767868
851.000000	66.884502
852.000000	66.993671
853.000000	67.102003
854.000000	67.203215
855.000000	67.298593
856.000000	67.395772
857.000000	67.494887
858.000000	67.604285
859.000000	67.737702
860.000000	67.871658
861.000000	68.000081
862.000000	68.132137
863.000000	68.262648
864.000000	68.394822
865.000000	68.531120
866.000000	68.661281
867.000000	68.789435
868.000000	68.913919
869.000000	69.033900
870.000000	69.156716
871.000000	69.274306
872.000000	69.391092
873.000000	69.508762
874.000000	69.622474
875.000000	69.734051
876.000000	69.846571
877.000000	69.948804
878.000000	70.047199
879.000000	70.148729
880.000000	70.247232
881.000000	70.344513
882.000000	70.433333
883.000000	70.510355
884.000000	70.599194
885.000000	70.677925
886.000000	70.749646
887.000000	70.822244
888.000000	70.891989
889.000000	70.963642
890.000000	71.035689
891.000000	71.097650
892.000000	71.152685
893.000000	71.190443
894.000000	71.204394
895.000000	71.213537
896.000000	71.216677
897.000000	71.214646
898.000000	71.208023
899.000000	71.196991
900.000000	71.182320
901.000000	71.164400
902.000000	71.143569
903.000000	71.120266
904.000000	71.095623
905.000000	71.067249
906.000000	71.037271
907.000000	71.005349
908.000000	70.971263
909.000000	70.936743
910.000000	70.901560
911.000000	70.864049
912.000000	70.825434
913.000000	70.786114
914.000000	70.745569
915.000000	70.704251
916.000000	70.661937
917.000000	70.619340
918.000000	70.575497
919.000000	70.531257
920.000000	70.485129
921.000000	70.438423
922.000000	70.390977
923.000000	70.342257
924.000000	70.291537
925.000000	70.240957
926.000000	70.189311
927.000000	70.135791
928.000000	70.081843
929.000000	70.027886
930.000000	69.972449
931.000000	69.916280
932.000000	69.860057
933.000000	69.802271
934.000000	69.744351
935.000000	69.685300
936.000000	69.625603
937.000000	69.565417
938.000000	69.503594
939.000000	69.439723
940.000000	69.375960
941.000000	69.311477
942.000000	69.245777
943.000000	69.179900
944.000000	69.113223
945.000000	69.044997
946.000000	68.977091
947.000000	68.909631
948.000000	68.841231
949.000000	68.773140
950.000000	68.705429
951.000000	68.637371
952.000000	68.569789
953.000000	68.502557
954.000000	68.434789
955.000000	68.368114
956.000000	68.301717
957.000000	68.235889
958.000000	68.170826
959.000000	68.106309
960.000000	68.041674
961.000000	67.978003
962.000000	67.916114
963.000000	67.853900
964.000000	67.791609
965.000000	67.730214
966.000000	67.669471
967.000000	67.608566
968.000000	67.549409
969.000000	67.490557
970.000000	67.433317
971.000000	67.377343
972.000000	67.322451
973.000000	67.269400
974.000000	67.217846
975.000000	67.168060
976.000000	67.119457
977.000000	67.073009
978.000000	67.026951
979.000000	66.981074
980.000000	66.936277
981.000000	66.892626
982.000000	66.848880
983.000000	66.805880
984.000000	66.762969
985.000000	66.719723
986.000000	66.676843
987.000000	66.633786
988.000000	66.590129
989.000000	66.547189
990.000000	66.504243
991.000000	66.461394
992.000000	66.418023
993.000000	66.374823
994.000000	66.332869
995.000000	66.290991
996.000000	66.249289
997.000000	66.207266
998.000000	66.166057
999.000000	66.125609
1000.000000	66.085294
1001.000000	66.045057
1002.000000	66.004906
1003.000000	65.964417
1004.000000	65.924680
1005.000000	65.884737
1006.000000	65.844989
1007.000000	65.804969
1008.000000	65.765160
1009.000000	65.725534
1010.000000	65.685837
1011.000000	65.646300
1012.000000	65.606783
1013.000000	65.568131
1014.000000	65.530300
1015.000000	65.492689
1016.000000	65.455354
1017.000000	65.419386
1018.000000	65.384529
1019.000000	65.350777
1020.000000	65.318291
1021.000000	65.287286
1022.000000	65.257389
1023.000000	65.228857
1024.000000	65.201726
1025.000000	65.175917
1026.000000	65.151497
1027.000000	65.128906
1028.000000	65.107977
1029.000000	65.088297
1030.000000	65.070329
1031.000000	65.053840
1032.000000	65.039043
1033.000000	65.025851
1034.000000	65.013500
1035.000000	65.002660
1036.000000	64.993674
1037.000000	64.986817
1038.000000	64.981769
1039.000000	64.978200
1040.000000	64.976297
1041.000000	64.975900
1042.000000	64.977037
1043.000000	64.979157
1044.000000	64.983049
1045.000000	64.988923
1046.000000	64.996383
1047.000000	65.004751
1048.000000	65.014331
1049.000000	65.024994
1050.000000	65.036837
1051.000000	65.049860
1052.000000	65.063054
1053.000000	65.077249
1054.000000	65.092314
1055.000000	65.108166
1056.000000	65.124800
1057.000000	65.141763
1058.000000	65.159529
1059.000000	65.177471
1060.000000	65.195697
1061.000000	65.213786
1062.000000	65.232243
1063.000000	65.250689
1064.000000	65.269091
1065.000000	65.287491
1066.000000	65.305351
1067.000000	65.323111
1068.000000	65.340860
1069.000000	65.358746
1070.000000	65.376851
1071.000000	65.394477
1072.000000	65.411609
1073.000000	65.428620
1074.000000	65.445751
1075.000000	65.462517
1076.000000	65.478803
1077.000000	65.494886
1078.000000	65.511437
1079.000000	65.527357
1080.000000	65.541949
1081.000000	65.555949
1082.000000	65.570257
1083.000000	65.584269
1084.000000	65.597929
1085.000000	65.611129
1086.000000	65.623340
1087.000000	65.635457
1088.000000	65.647377
1089.000000	65.658783
1090.000000	65.669257
1091.000000	65.679317
1092.000000	65.689017
1093.000000	65.698286
1094.000000	65.706914
1095.000000	65.715146
1096.000000	65.723849
1097.000000	65.732029
1098.000000	65.739691
1099.000000	65.747249
1100.000000	65.754420
1101.000000	65.761623
1102.000000	65.768314
1103.000000	65.774411
1104.000000	65.780157
1105.000000	65.785731
1106.000000	65.791031
1107.000000	65.796017
1108.000000	65.801089
1109.000000	65.805394
1110.000000	65.809974
1111.000000	65.814240
1112.000000	65.818671
1113.000000	65.822771
1114.000000	65.827003
1115.000000	65.831360
1116.000000	65.835789
1117.000000	65.839869
1118.000000	65.843926
1119.000000	65.847629
1120.000000	65.851811
1121.000000	65.856031
1122.000000	65.860243
1123.000000	65.863829
1124.000000	65.867489
1125.000000	65.870217
1126.000000	65.872357
1127.000000	65.873711
1128.000000	65.874417
1129.000000	65.874666
1130.000000	65.873526
1131.000000	65.870269
1132.000000	65.865480
1133.000000	65.859811
1134.000000	65.853831
1135.000000	65.846609
1136.000000	65.837777
1137.000000	65.827140
1138.000000	65.813651
1139.000000	65.799094
1140.000000	65.782571
1141.000000	65.764351
1142.000000	65.744597
1143.000000	65.722786
1144.000000	65.700191
1145.000000	65.676446
1146.000000	65.652586
1147.000000	65.626891
1148.000000	65.599960
1149.000000	65.571491
1150.000000	65.541731
1151.000000	65.510411
1152.000000	65.477649
1153.000000	65.443663
1154.000000	65.408089
1155.000000	65.370406
1156.000000	65.331209
1157.000000	65.290151
1158.000000	65.247886
1159.000000	65.202640
1160.000000	65.156631
1161.000000	65.109066
1162.000000	65.059277
1163.000000	65.007989
1164.000000	64.955200
1165.000000	64.901503
1166.000000	64.847157
1167.000000	64.791940
1168.000000	64.735926
1169.000000	64.677383
1170.000000	64.618846
1171.000000	64.559889
1172.000000	64.501114
1173.000000	64.443454
1174.000000	64.386097
1175.000000	64.329446
1176.000000	64.272611
1177.000000	64.216831
1178.000000	64.161177
