PE UV       SUBTECH     SPECTRUM    ASCII       PEDS        4.00        
   -1
CICIMAUCR0015-1.Sample.ASC
24/03/08
11:15:04.00
24/03/08
11:15:04.00
Vinicio Soto Monge
C. resplendens
250,000000
1
Lambda 1050
1050L1511233
PerkinElmer UV WinLab 6.3.2.0749 / 2.02.05 Lambda 900 UV/VIS/NIR, Aug  7 2015 09:38:08

0
0
3350/servo 860,8/2
0
0
UV/VIS
1
1
1
DoubleDePol,CommonBeamDepol,RBeamAtt,SBeamAtt,60mm sphere, WB InGaAs Detector
0
0
0
0
Program
Program
3350/servo 860,8/2
3350/0,2 860,8/0,2
3350/0,2 860,8/0,2
0
15.00
 
 
 
0
 
860,8
319,2
860,8
Front
100
on
S:100 R:100
0
0
0
0
 
0
 
 
 
0
 
 
0
0
0
0
0
 
 
 
 
0
0


0
0
#HDR
-1
-1
#GR
nm
%R
1.0
0.0
2500,000000
-1,000000
2251
8
23,608200
1,584400
#DATA
250.000000	nan
251.000000	nan
252.000000	nan
253.000000	nan
254.000000	nan
255.000000	nan
256.000000	nan
257.000000	nan
258.000000	nan
259.000000	nan
260.000000	nan
261.000000	nan
262.000000	nan
263.000000	nan
264.000000	nan
265.000000	nan
266.000000	nan
267.000000	nan
268.000000	nan
269.000000	nan
270.000000	nan
271.000000	nan
272.000000	nan
273.000000	nan
274.000000	nan
275.000000	nan
276.000000	nan
277.000000	nan
278.000000	nan
279.000000	nan
280.000000	nan
281.000000	nan
282.000000	nan
283.000000	nan
284.000000	2.040997
285.000000	2.037464
286.000000	2.033878
287.000000	2.030464
288.000000	2.026966
289.000000	2.025881
290.000000	2.022278
291.000000	2.018622
292.000000	2.015929
293.000000	2.012915
294.000000	2.010089
295.000000	2.006024
296.000000	2.004259
297.000000	2.001556
298.000000	1.998688
299.000000	1.997091
300.000000	1.995967
301.000000	1.995092
302.000000	1.993117
303.000000	1.990337
304.000000	1.989276
305.000000	1.988334
306.000000	1.987311
307.000000	1.983673
308.000000	1.983638
309.000000	1.983260
310.000000	1.984472
311.000000	1.984510
312.000000	1.984804
313.000000	1.984409
314.000000	1.982063
315.000000	1.982963
316.000000	1.984997
317.000000	1.999227
318.000000	2.012719
319.000000	2.025916
320.000000	2.034705
321.000000	2.045727
322.000000	2.059051
323.000000	2.073663
324.000000	2.083372
325.000000	2.095904
326.000000	2.105940
327.000000	2.114763
328.000000	2.118272
329.000000	2.125996
330.000000	2.137128
331.000000	2.147748
332.000000	2.152979
333.000000	2.162542
334.000000	2.167574
335.000000	2.171649
336.000000	2.173428
337.000000	2.177819
338.000000	2.184678
339.000000	2.192046
340.000000	2.199875
341.000000	2.205849
342.000000	2.214669
343.000000	2.223185
344.000000	2.228759
345.000000	2.234064
346.000000	2.238851
347.000000	2.244243
348.000000	2.251988
349.000000	2.260322
350.000000	2.264527
351.000000	2.266758
352.000000	2.257153
353.000000	2.251207
354.000000	2.243588
355.000000	2.241589
356.000000	2.238220
357.000000	2.232488
358.000000	2.224988
359.000000	2.219252
360.000000	2.214368
361.000000	2.211668
362.000000	2.210828
363.000000	2.213111
364.000000	2.213965
365.000000	2.211059
366.000000	2.208223
367.000000	2.210285
368.000000	2.208937
369.000000	2.211469
370.000000	2.212925
371.000000	2.217771
372.000000	2.219953
373.000000	2.218633
374.000000	2.217978
375.000000	2.217057
376.000000	2.218465
377.000000	2.211682
378.000000	2.205726
379.000000	2.202151
380.000000	2.200645
381.000000	2.201349
382.000000	2.201734
383.000000	2.201727
384.000000	2.202085
385.000000	2.205887
386.000000	2.210187
387.000000	2.214918
388.000000	2.219375
389.000000	2.226851
390.000000	2.233927
391.000000	2.241382
392.000000	2.250360
393.000000	2.261344
394.000000	2.274535
395.000000	2.288366
396.000000	2.303503
397.000000	2.319358
398.000000	2.338441
399.000000	2.356873
400.000000	2.377935
401.000000	2.399140
402.000000	2.422124
403.000000	2.447377
404.000000	2.474241
405.000000	2.503979
406.000000	2.534733
407.000000	2.568512
408.000000	2.605215
409.000000	2.641852
410.000000	2.679763
411.000000	2.718507
412.000000	2.764412
413.000000	2.811483
414.000000	2.859709
415.000000	2.908153
416.000000	2.956943
417.000000	3.006514
418.000000	3.056891
419.000000	3.108160
420.000000	3.160462
421.000000	3.213041
422.000000	3.266047
423.000000	3.319726
424.000000	3.373362
425.000000	3.426949
426.000000	3.480603
427.000000	3.534478
428.000000	3.587753
429.000000	3.640479
430.000000	3.692554
431.000000	3.743995
432.000000	3.794956
433.000000	3.845091
434.000000	3.894102
435.000000	3.942003
436.000000	3.988867
437.000000	4.034846
438.000000	4.079641
439.000000	4.122951
440.000000	4.164388
441.000000	4.204113
442.000000	4.241975
443.000000	4.277988
444.000000	4.312412
445.000000	4.344979
446.000000	4.375866
447.000000	4.404876
448.000000	4.431915
449.000000	4.456867
450.000000	4.479847
451.000000	4.501228
452.000000	4.521207
453.000000	4.539443
454.000000	4.555330
455.000000	4.569283
456.000000	4.582029
457.000000	4.593451
458.000000	4.603717
459.000000	4.613427
460.000000	4.622177
461.000000	4.630508
462.000000	4.638880
463.000000	4.647343
464.000000	4.656079
465.000000	4.665187
466.000000	4.674581
467.000000	4.684396
468.000000	4.694890
469.000000	4.706053
470.000000	4.718658
471.000000	4.732791
472.000000	4.747774
473.000000	4.763590
474.000000	4.780712
475.000000	4.799323
476.000000	4.819173
477.000000	4.840252
478.000000	4.862981
479.000000	4.887204
480.000000	4.911459
481.000000	4.935224
482.000000	4.958975
483.000000	4.983433
484.000000	5.009509
485.000000	5.037514
486.000000	5.067186
487.000000	5.097926
488.000000	5.129783
489.000000	5.162781
490.000000	5.196659
491.000000	5.231289
492.000000	5.266584
493.000000	5.302261
494.000000	5.337588
495.000000	5.373177
496.000000	5.409096
497.000000	5.444640
498.000000	5.479554
499.000000	5.514124
500.000000	5.548488
501.000000	5.582789
502.000000	5.616530
503.000000	5.650040
504.000000	5.683041
505.000000	5.715217
506.000000	5.747284
507.000000	5.779634
508.000000	5.812535
509.000000	5.845845
510.000000	5.879340
511.000000	5.913610
512.000000	5.948758
513.000000	5.985241
514.000000	6.023250
515.000000	6.063909
516.000000	6.108291
517.000000	6.156202
518.000000	6.207307
519.000000	6.261385
520.000000	6.318894
521.000000	6.379838
522.000000	6.445064
523.000000	6.514317
524.000000	6.588140
525.000000	6.667029
526.000000	6.751458
527.000000	6.841332
528.000000	6.937095
529.000000	7.038587
530.000000	7.145513
531.000000	7.258143
532.000000	7.376712
533.000000	7.501184
534.000000	7.631906
535.000000	7.768742
536.000000	7.911916
537.000000	8.061193
538.000000	8.216482
539.000000	8.377594
540.000000	8.543906
541.000000	8.715092
542.000000	8.890963
543.000000	9.070469
544.000000	9.253378
545.000000	9.440048
546.000000	9.629904
547.000000	9.821816
548.000000	10.015699
549.000000	10.211147
550.000000	10.408003
551.000000	10.605181
552.000000	10.803090
553.000000	11.000419
554.000000	11.197635
555.000000	11.393437
556.000000	11.587096
557.000000	11.778268
558.000000	11.966808
559.000000	12.151930
560.000000	12.330578
561.000000	12.503595
562.000000	12.671770
563.000000	12.834696
564.000000	12.992520
565.000000	13.145505
566.000000	13.293252
567.000000	13.434931
568.000000	13.572282
569.000000	13.703078
570.000000	13.827497
571.000000	13.945208
572.000000	14.057593
573.000000	14.164607
574.000000	14.266550
575.000000	14.363199
576.000000	14.453997
577.000000	14.539536
578.000000	14.620302
579.000000	14.696656
580.000000	14.768028
581.000000	14.834298
582.000000	14.896954
583.000000	14.957012
584.000000	15.012974
585.000000	15.064873
586.000000	15.113180
587.000000	15.158417
588.000000	15.201181
589.000000	15.239347
590.000000	15.273417
591.000000	15.305386
592.000000	15.335755
593.000000	15.363897
594.000000	15.390319
595.000000	15.417361
596.000000	15.442971
597.000000	15.467724
598.000000	15.490435
599.000000	15.511846
600.000000	15.531045
601.000000	15.548837
602.000000	15.565672
603.000000	15.578726
604.000000	15.591394
605.000000	15.602070
606.000000	15.610425
607.000000	15.615870
608.000000	15.617904
609.000000	15.615754
610.000000	15.611262
611.000000	15.604794
612.000000	15.595417
613.000000	15.583327
614.000000	15.567566
615.000000	15.548882
616.000000	15.528426
617.000000	15.505018
618.000000	15.476611
619.000000	15.444652
620.000000	15.410015
621.000000	15.371736
622.000000	15.328349
623.000000	15.279517
624.000000	15.226896
625.000000	15.170021
626.000000	15.108604
627.000000	15.041287
628.000000	14.968476
629.000000	14.890060
630.000000	14.806814
631.000000	14.718863
632.000000	14.624928
633.000000	14.526619
634.000000	14.424227
635.000000	14.318359
636.000000	14.208477
637.000000	14.095343
638.000000	13.980269
639.000000	13.862712
640.000000	13.744147
641.000000	13.625368
642.000000	13.506747
643.000000	13.388749
644.000000	13.273055
645.000000	13.159242
646.000000	13.047900
647.000000	12.939987
648.000000	12.836097
649.000000	12.737560
650.000000	12.644357
651.000000	12.556164
652.000000	12.474253
653.000000	12.400300
654.000000	12.333572
655.000000	12.273013
656.000000	12.219828
657.000000	12.175338
658.000000	12.140067
659.000000	12.112615
660.000000	12.093819
661.000000	12.082442
662.000000	12.078990
663.000000	12.084736
664.000000	12.099341
665.000000	12.121351
666.000000	12.151622
667.000000	12.189740
668.000000	12.234930
669.000000	12.286826
670.000000	12.345358
671.000000	12.409677
672.000000	12.479701
673.000000	12.555558
674.000000	12.635515
675.000000	12.720063
676.000000	12.808921
677.000000	12.900262
678.000000	12.994205
679.000000	13.089891
680.000000	13.187422
681.000000	13.285234
682.000000	13.383112
683.000000	13.480006
684.000000	13.574813
685.000000	13.667968
686.000000	13.758136
687.000000	13.845555
688.000000	13.929301
689.000000	14.009300
690.000000	14.086425
691.000000	14.160524
692.000000	14.230008
693.000000	14.294801
694.000000	14.355731
695.000000	14.412749
696.000000	14.465825
697.000000	14.516493
698.000000	14.564169
699.000000	14.608719
700.000000	14.651375
701.000000	14.692136
702.000000	14.730807
703.000000	14.767629
704.000000	14.802298
705.000000	14.835460
706.000000	14.869009
707.000000	14.901615
708.000000	14.932918
709.000000	14.964299
710.000000	14.994430
711.000000	15.023846
712.000000	15.054162
713.000000	15.084632
714.000000	15.116122
715.000000	15.148164
716.000000	15.180844
717.000000	15.214658
718.000000	15.250888
719.000000	15.290389
720.000000	15.331767
721.000000	15.375469
722.000000	15.421049
723.000000	15.467997
724.000000	15.517575
725.000000	15.568487
726.000000	15.620965
727.000000	15.676072
728.000000	15.733577
729.000000	15.793751
730.000000	15.856074
731.000000	15.920811
732.000000	15.987077
733.000000	16.055549
734.000000	16.125471
735.000000	16.196069
736.000000	16.267500
737.000000	16.340104
738.000000	16.415005
739.000000	16.491185
740.000000	16.567822
741.000000	16.644782
742.000000	16.722334
743.000000	16.799210
744.000000	16.875687
745.000000	16.952952
746.000000	17.029768
747.000000	17.105926
748.000000	17.182014
749.000000	17.257339
750.000000	17.331673
751.000000	17.405867
752.000000	17.479122
753.000000	17.550918
754.000000	17.620808
755.000000	17.689165
756.000000	17.756170
757.000000	17.821400
758.000000	17.884588
759.000000	17.946009
760.000000	18.006648
761.000000	18.066254
762.000000	18.124033
763.000000	18.180296
764.000000	18.235749
765.000000	18.290205
766.000000	18.343120
767.000000	18.394354
768.000000	18.442861
769.000000	18.489428
770.000000	18.534405
771.000000	18.579886
772.000000	18.625735
773.000000	18.669315
774.000000	18.711943
775.000000	18.754325
776.000000	18.796476
777.000000	18.837917
778.000000	18.881056
779.000000	18.924387
780.000000	18.967050
781.000000	19.010094
782.000000	19.053460
783.000000	19.098245
784.000000	19.144962
785.000000	19.192271
786.000000	19.238782
787.000000	19.284407
788.000000	19.331373
789.000000	19.379858
790.000000	19.428442
791.000000	19.476094
792.000000	19.523001
793.000000	19.571322
794.000000	19.619611
795.000000	19.668815
796.000000	19.718242
797.000000	19.767337
798.000000	19.818046
799.000000	19.867733
800.000000	19.916653
801.000000	19.964459
802.000000	20.011054
803.000000	20.056329
804.000000	20.102675
805.000000	20.149305
806.000000	20.194933
807.000000	20.240638
808.000000	20.287020
809.000000	20.333716
810.000000	20.381256
811.000000	20.427095
812.000000	20.471007
813.000000	20.513733
814.000000	20.556546
815.000000	20.598368
816.000000	20.638793
817.000000	20.678889
818.000000	20.717196
819.000000	20.751808
820.000000	20.784695
821.000000	20.816244
822.000000	20.846392
823.000000	20.872159
824.000000	20.896915
825.000000	20.918621
826.000000	20.941920
827.000000	20.965647
828.000000	20.988998
829.000000	21.010746
830.000000	21.026682
831.000000	21.039259
832.000000	21.055345
833.000000	21.067856
834.000000	21.079208
835.000000	21.088718
836.000000	21.098848
837.000000	21.109146
838.000000	21.123674
839.000000	21.136360
840.000000	21.147274
841.000000	21.156767
842.000000	21.164729
843.000000	21.169540
844.000000	21.176176
845.000000	21.182205
846.000000	21.186775
847.000000	21.193183
848.000000	21.204570
849.000000	21.212000
850.000000	21.219773
851.000000	21.226244
852.000000	21.225502
853.000000	21.224857
854.000000	21.232032
855.000000	21.234777
856.000000	21.240796
857.000000	21.247596
858.000000	21.390840
859.000000	21.413041
860.000000	21.436092
861.000000	21.455922
862.000000	21.474536
863.000000	21.490525
864.000000	21.506097
865.000000	21.523988
866.000000	21.542005
867.000000	21.554145
868.000000	21.565808
869.000000	21.577062
870.000000	21.588758
871.000000	21.598707
872.000000	21.607506
873.000000	21.612024
874.000000	21.616145
875.000000	21.620483
876.000000	21.623877
877.000000	21.626164
878.000000	21.630095
879.000000	21.630543
880.000000	21.629382
881.000000	21.627595
882.000000	21.624200
883.000000	21.614578
884.000000	21.606916
885.000000	21.597509
886.000000	21.588052
887.000000	21.583077
888.000000	21.576203
889.000000	21.560416
890.000000	21.546468
891.000000	21.529129
892.000000	21.509980
893.000000	21.354486
894.000000	21.316311
895.000000	21.277377
896.000000	21.238703
897.000000	21.198420
898.000000	21.157851
899.000000	21.117283
900.000000	21.077089
901.000000	21.036289
902.000000	20.996929
903.000000	20.958609
904.000000	20.920663
905.000000	20.882983
906.000000	20.847014
907.000000	20.811654
908.000000	20.777163
909.000000	20.743429
910.000000	20.711194
911.000000	20.680846
912.000000	20.651554
913.000000	20.623091
914.000000	20.595446
915.000000	20.568746
916.000000	20.544086
917.000000	20.520580
918.000000	20.498086
919.000000	20.475546
920.000000	20.454583
921.000000	20.434886
922.000000	20.416623
923.000000	20.398957
924.000000	20.382174
925.000000	20.366906
926.000000	20.352226
927.000000	20.339151
928.000000	20.327274
929.000000	20.316706
930.000000	20.307634
931.000000	20.300406
932.000000	20.296271
933.000000	20.293583
934.000000	20.291789
935.000000	20.291643
936.000000	20.295160
937.000000	20.298891
938.000000	20.304063
939.000000	20.310449
940.000000	20.318463
941.000000	20.327014
942.000000	20.336440
943.000000	20.347077
944.000000	20.359229
945.000000	20.372480
946.000000	20.385949
947.000000	20.399643
948.000000	20.413923
949.000000	20.429477
950.000000	20.445223
951.000000	20.461111
952.000000	20.477657
953.000000	20.494697
954.000000	20.512620
955.000000	20.530423
956.000000	20.549163
957.000000	20.567231
958.000000	20.585077
959.000000	20.603480
960.000000	20.622263
961.000000	20.640529
962.000000	20.658551
963.000000	20.676394
964.000000	20.694540
965.000000	20.713043
966.000000	20.730754
967.000000	20.747266
968.000000	20.763891
969.000000	20.780843
970.000000	20.797311
971.000000	20.812723
972.000000	20.828774
973.000000	20.844189
974.000000	20.859066
975.000000	20.873391
976.000000	20.887263
977.000000	20.901560
978.000000	20.915089
979.000000	20.927137
980.000000	20.938577
981.000000	20.949034
982.000000	20.959026
983.000000	20.968029
984.000000	20.976054
985.000000	20.983149
986.000000	20.989446
987.000000	20.994889
988.000000	20.999134
989.000000	21.002551
990.000000	21.005429
991.000000	21.007426
992.000000	21.009911
993.000000	21.012483
994.000000	21.014609
995.000000	21.016846
996.000000	21.019129
997.000000	21.021003
998.000000	21.023286
999.000000	21.025414
1000.000000	21.026229
1001.000000	21.027257
1002.000000	21.028151
1003.000000	21.028774
1004.000000	21.029346
1005.000000	21.029477
1006.000000	21.028946
1007.000000	21.027523
1008.000000	21.025889
1009.000000	21.024257
1010.000000	21.022629
1011.000000	21.021091
1012.000000	21.019386
1013.000000	21.017720
1014.000000	21.016963
1015.000000	21.016100
1016.000000	21.016403
1017.000000	21.017323
1018.000000	21.019346
1019.000000	21.022031
1020.000000	21.025883
1021.000000	21.031246
1022.000000	21.037377
1023.000000	21.044849
1024.000000	21.053786
1025.000000	21.064234
1026.000000	21.075894
1027.000000	21.088629
1028.000000	21.102671
1029.000000	21.117963
1030.000000	21.133897
1031.000000	21.151166
1032.000000	21.169806
1033.000000	21.189109
1034.000000	21.209066
1035.000000	21.230626
1036.000000	21.252657
1037.000000	21.275280
1038.000000	21.298623
1039.000000	21.322971
1040.000000	21.348000
1041.000000	21.373549
1042.000000	21.400571
1043.000000	21.428260
1044.000000	21.456226
1045.000000	21.484471
1046.000000	21.513249
1047.000000	21.542683
1048.000000	21.572477
1049.000000	21.602869
1050.000000	21.633671
1051.000000	21.663997
1052.000000	21.694600
1053.000000	21.724860
1054.000000	21.754763
1055.000000	21.784769
1056.000000	21.814609
1057.000000	21.844700
1058.000000	21.874660
1059.000000	21.904349
1060.000000	21.933740
1061.000000	21.962409
1062.000000	21.990894
1063.000000	22.019217
1064.000000	22.047711
1065.000000	22.075763
1066.000000	22.103491
1067.000000	22.131254
1068.000000	22.158506
1069.000000	22.185646
1070.000000	22.212726
1071.000000	22.239817
1072.000000	22.267646
1073.000000	22.295980
1074.000000	22.323434
1075.000000	22.351194
1076.000000	22.379700
1077.000000	22.407886
1078.000000	22.436406
1079.000000	22.465437
1080.000000	22.494946
1081.000000	22.525171
1082.000000	22.555500
1083.000000	22.586051
1084.000000	22.616169
1085.000000	22.646274
1086.000000	22.676983
1087.000000	22.707849
1088.000000	22.739180
1089.000000	22.770520
1090.000000	22.801763
1091.000000	22.832611
1092.000000	22.862594
1093.000000	22.891934
1094.000000	22.921517
1095.000000	22.950526
1096.000000	22.979586
1097.000000	23.007969
1098.000000	23.036063
1099.000000	23.063014
1100.000000	23.089877
1101.000000	23.116403
1102.000000	23.142631
1103.000000	23.168009
1104.000000	23.193180
1105.000000	23.218154
1106.000000	23.242637
1107.000000	23.265954
1108.000000	23.288000
1109.000000	23.309909
1110.000000	23.330723
1111.000000	23.350594
1112.000000	23.370149
1113.000000	23.389037
1114.000000	23.406966
1115.000000	23.424169
1116.000000	23.439909
1117.000000	23.455109
1118.000000	23.468963
1119.000000	23.482800
1120.000000	23.495554
1121.000000	23.506123
1122.000000	23.514309
1123.000000	23.521057
1124.000000	23.525600
1125.000000	23.527940
1126.000000	23.527626
1127.000000	23.525437
1128.000000	23.520586
1129.000000	23.511926
1130.000000	23.499486
1131.000000	23.482271
1132.000000	23.460097
1133.000000	23.431351
1134.000000	23.396746
1135.000000	23.357474
1136.000000	23.311446
1137.000000	23.257746
1138.000000	23.197174
1139.000000	23.129506
1140.000000	23.055106
1141.000000	22.974949
1142.000000	22.888251
1143.000000	22.795760
1144.000000	22.697706
1145.000000	22.595600
1146.000000	22.490197
1147.000000	22.382914
1148.000000	22.274494
1149.000000	22.166031
1150.000000	22.057557
1151.000000	21.950654
1152.000000	21.843897
1153.000000	21.737894
1154.000000	21.630763
1155.000000	21.522651
1156.000000	21.413294
1157.000000	21.301760
1158.000000	21.186663
1159.000000	21.068991
1160.000000	20.947529
1161.000000	20.821943
1162.000000	20.690869
1163.000000	20.556569
1164.000000	20.418374
1165.000000	20.276874
1166.000000	20.133329
1167.000000	19.988546
1168.000000	19.843871
1169.000000	19.698383
1170.000000	19.551834
1171.000000	19.405209
1172.000000	19.260471
1173.000000	19.118020
1174.000000	18.976451
1175.000000	18.836477
1176.000000	18.697149
1177.000000	18.559591
1178.000000	18.421966
1179.000000	18.283763
1180.000000	18.142986
1181.000000	17.997577
