PE UV       SUBTECH     SPECTRUM    ASCII       PEDS        4.00        
   -1
CICIMAUCR0113-1.ASC
24/04/03
16:15:49.00
24/04/03
16:15:49.00
Vinicio Soto Monge
C. kalinini
250,000000
1
Lambda 1050
1050L1511233
PerkinElmer UV WinLab 6.3.2.0749 / 2.02.05 Lambda 900 UV/VIS/NIR, Aug  7 2015 09:38:08

0
0
3350/servo 860,8/2
0
0
UV/VIS
1
1
1
DoubleDePol,CommonBeamDepol,RBeamAtt,SBeamAtt,60mm sphere, WB InGaAs Detector
0
0
0
0
Program
Program
3350/servo 860,8/2
3350/0,2 860,8/0,2
3350/0,2 860,8/0,2
0
15.00
 
 
 
0
 
860,8
319,2
860,8
Front
100
on
S:100 R:100
0
0
0
0
 
0
 
 
 
0
 
 
0
0
0
0
0
 
 
 
 
0
0


0
0
#HDR
-1
-1
#GR
nm
%R
1.0
0.0
2500,000000
-1,000000
2251
8
83,958100
4,718900
#DATA
250.000000	nan
251.000000	nan
252.000000	nan
253.000000	nan
254.000000	nan
255.000000	nan
256.000000	nan
257.000000	nan
258.000000	nan
259.000000	nan
260.000000	nan
261.000000	nan
262.000000	nan
263.000000	nan
264.000000	nan
265.000000	nan
266.000000	nan
267.000000	nan
268.000000	nan
269.000000	nan
270.000000	nan
271.000000	nan
272.000000	nan
273.000000	nan
274.000000	nan
275.000000	nan
276.000000	nan
277.000000	nan
278.000000	nan
279.000000	nan
280.000000	nan
281.000000	nan
282.000000	nan
283.000000	nan
284.000000	5.031557
285.000000	5.018205
286.000000	5.008204
287.000000	4.996553
288.000000	4.986148
289.000000	4.974672
290.000000	4.965154
291.000000	4.955767
292.000000	4.942376
293.000000	4.931091
294.000000	4.919892
295.000000	4.910546
296.000000	4.900683
297.000000	4.891630
298.000000	4.882359
299.000000	4.871046
300.000000	4.861872
301.000000	4.853270
302.000000	4.844686
303.000000	4.836568
304.000000	4.827726
305.000000	4.817271
306.000000	4.810191
307.000000	4.802878
308.000000	4.795273
309.000000	4.787720
310.000000	4.781642
311.000000	4.774080
312.000000	4.765935
313.000000	4.757630
314.000000	4.749966
315.000000	4.743304
316.000000	4.737273
317.000000	4.738036
318.000000	4.738440
319.000000	4.743835
320.000000	4.741846
321.000000	4.740828
322.000000	4.742078
323.000000	4.737325
324.000000	4.736357
325.000000	4.736448
326.000000	4.737790
327.000000	4.737425
328.000000	4.739735
329.000000	4.743326
330.000000	4.746115
331.000000	4.751029
332.000000	4.749698
333.000000	4.749903
334.000000	4.751125
335.000000	4.751225
336.000000	4.752442
337.000000	4.752655
338.000000	4.752791
339.000000	4.755793
340.000000	4.759708
341.000000	4.764098
342.000000	4.766823
343.000000	4.771806
344.000000	4.775038
345.000000	4.779188
346.000000	4.782812
347.000000	4.786752
348.000000	4.790680
349.000000	4.799572
350.000000	4.806804
351.000000	4.811159
352.000000	4.811292
353.000000	4.813370
354.000000	4.809900
355.000000	4.814963
356.000000	4.817038
357.000000	4.817238
358.000000	4.824082
359.000000	4.829723
360.000000	4.833079
361.000000	4.835387
362.000000	4.841371
363.000000	4.846714
364.000000	4.851608
365.000000	4.856427
366.000000	4.862254
367.000000	4.873132
368.000000	4.880575
369.000000	4.889154
370.000000	4.898306
371.000000	4.907052
372.000000	4.917230
373.000000	4.924578
374.000000	4.930673
375.000000	4.938077
376.000000	4.947722
377.000000	4.959414
378.000000	4.969609
379.000000	4.982175
380.000000	4.994605
381.000000	5.008646
382.000000	5.022612
383.000000	5.037273
384.000000	5.048525
385.000000	5.060897
386.000000	5.076357
387.000000	5.090254
388.000000	5.105095
389.000000	5.119208
390.000000	5.133445
391.000000	5.149585
392.000000	5.166728
393.000000	5.184628
394.000000	5.201471
395.000000	5.218138
396.000000	5.235667
397.000000	5.253421
398.000000	5.270049
399.000000	5.288522
400.000000	5.307465
401.000000	5.325448
402.000000	5.346013
403.000000	5.368592
404.000000	5.391898
405.000000	5.416787
406.000000	5.443936
407.000000	5.473442
408.000000	5.506028
409.000000	5.540476
410.000000	5.576631
411.000000	5.613308
412.000000	5.651458
413.000000	5.693195
414.000000	5.738660
415.000000	5.788280
416.000000	5.842202
417.000000	5.901470
418.000000	5.966315
419.000000	6.037255
420.000000	6.114882
421.000000	6.199815
422.000000	6.293068
423.000000	6.394408
424.000000	6.505418
425.000000	6.626658
426.000000	6.758205
427.000000	6.900713
428.000000	7.054664
429.000000	7.220622
430.000000	7.398573
431.000000	7.589315
432.000000	7.793307
433.000000	8.010246
434.000000	8.240430
435.000000	8.483627
436.000000	8.739729
437.000000	9.008532
438.000000	9.289932
439.000000	9.583607
440.000000	9.889381
441.000000	10.205912
442.000000	10.533402
443.000000	10.871729
444.000000	11.219406
445.000000	11.576071
446.000000	11.940506
447.000000	12.312586
448.000000	12.691098
449.000000	13.074350
450.000000	13.462712
451.000000	13.855586
452.000000	14.251459
453.000000	14.649186
454.000000	15.047671
455.000000	15.446228
456.000000	15.844262
457.000000	16.240301
458.000000	16.633435
459.000000	17.023144
460.000000	17.408114
461.000000	17.787758
462.000000	18.161572
463.000000	18.529082
464.000000	18.889381
465.000000	19.241832
466.000000	19.585196
467.000000	19.919243
468.000000	20.243670
469.000000	20.558015
470.000000	20.862173
471.000000	21.156471
472.000000	21.440859
473.000000	21.715387
474.000000	21.980311
475.000000	22.234786
476.000000	22.479408
477.000000	22.714455
478.000000	22.939449
479.000000	23.155212
480.000000	23.362374
481.000000	23.560522
482.000000	23.749325
483.000000	23.928173
484.000000	24.097338
485.000000	24.257406
486.000000	24.406866
487.000000	24.545620
488.000000	24.674610
489.000000	24.793194
490.000000	24.900007
491.000000	24.994505
492.000000	25.076890
493.000000	25.146934
494.000000	25.203783
495.000000	25.247126
496.000000	25.276585
497.000000	25.291586
498.000000	25.291011
499.000000	25.275584
500.000000	25.245859
501.000000	25.202674
502.000000	25.147565
503.000000	25.081464
504.000000	25.005286
505.000000	24.921385
506.000000	24.832356
507.000000	24.739856
508.000000	24.647159
509.000000	24.556589
510.000000	24.470917
511.000000	24.393924
512.000000	24.327361
513.000000	24.274288
514.000000	24.236788
515.000000	24.215731
516.000000	24.213120
517.000000	24.229758
518.000000	24.267891
519.000000	24.328395
520.000000	24.411497
521.000000	24.518221
522.000000	24.648407
523.000000	24.802111
524.000000	24.980552
525.000000	25.183932
526.000000	25.411341
527.000000	25.663544
528.000000	25.940830
529.000000	26.244086
530.000000	26.573894
531.000000	26.930326
532.000000	27.313650
533.000000	27.725121
534.000000	28.164359
535.000000	28.632564
536.000000	29.128419
537.000000	29.650371
538.000000	30.198228
539.000000	30.771038
540.000000	31.367242
541.000000	31.984202
542.000000	32.620216
543.000000	33.271645
544.000000	33.936252
545.000000	34.611423
546.000000	35.293720
547.000000	35.981694
548.000000	36.671506
549.000000	37.362189
550.000000	38.053503
551.000000	38.742620
552.000000	39.431311
553.000000	40.117598
554.000000	40.801392
555.000000	41.482098
556.000000	42.159786
557.000000	42.835310
558.000000	43.508685
559.000000	44.179451
560.000000	44.852734
561.000000	45.524120
562.000000	46.192659
563.000000	46.858583
564.000000	47.520946
565.000000	48.179547
566.000000	48.832277
567.000000	49.480600
568.000000	50.122553
569.000000	50.758291
570.000000	51.385091
571.000000	52.003448
572.000000	52.611203
573.000000	53.208196
574.000000	53.795066
575.000000	54.370127
576.000000	54.933964
577.000000	55.486165
578.000000	56.027592
579.000000	56.557756
580.000000	57.077590
581.000000	57.585194
582.000000	58.078714
583.000000	58.560929
584.000000	59.031145
585.000000	59.487365
586.000000	59.930576
587.000000	60.359159
588.000000	60.772598
589.000000	61.171940
590.000000	61.555909
591.000000	61.922823
592.000000	62.274123
593.000000	62.607632
594.000000	62.922501
595.000000	63.214594
596.000000	63.490023
597.000000	63.748235
598.000000	63.991239
599.000000	64.217295
600.000000	64.429910
601.000000	64.629406
602.000000	64.814362
603.000000	64.986825
604.000000	65.145490
605.000000	65.291113
606.000000	65.421882
607.000000	65.541065
608.000000	65.647977
609.000000	65.742237
610.000000	65.824562
611.000000	65.893133
612.000000	65.947241
613.000000	65.987714
614.000000	66.013469
615.000000	66.024859
616.000000	66.020001
617.000000	65.999484
618.000000	65.963133
619.000000	65.908618
620.000000	65.836256
621.000000	65.747012
622.000000	65.637851
623.000000	65.512892
624.000000	65.367910
625.000000	65.202486
626.000000	65.019082
627.000000	64.815710
628.000000	64.594153
629.000000	64.355564
630.000000	64.098929
631.000000	63.824742
632.000000	63.534721
633.000000	63.227580
634.000000	62.906213
635.000000	62.571691
636.000000	62.225435
637.000000	61.869407
638.000000	61.505851
639.000000	61.135039
640.000000	60.761733
641.000000	60.387545
642.000000	60.013249
643.000000	59.639299
644.000000	59.266605
645.000000	58.897720
646.000000	58.532087
647.000000	58.171057
648.000000	57.811986
649.000000	57.458407
650.000000	57.106285
651.000000	56.760840
652.000000	56.421075
653.000000	56.086718
654.000000	55.758321
655.000000	55.437657
656.000000	55.123694
657.000000	54.819209
658.000000	54.522211
659.000000	54.237170
660.000000	53.966109
661.000000	53.709645
662.000000	53.470517
663.000000	53.249533
664.000000	53.049940
665.000000	52.871931
666.000000	52.717020
667.000000	52.585822
668.000000	52.479231
669.000000	52.398215
670.000000	52.342439
671.000000	52.311220
672.000000	52.304837
673.000000	52.320959
674.000000	52.361294
675.000000	52.422094
676.000000	52.504823
677.000000	52.609139
678.000000	52.734408
679.000000	52.880864
680.000000	53.047699
681.000000	53.234521
682.000000	53.441287
683.000000	53.671153
684.000000	53.920816
685.000000	54.193443
686.000000	54.484116
687.000000	54.795081
688.000000	55.125354
689.000000	55.473668
690.000000	55.836809
691.000000	56.214890
692.000000	56.605990
693.000000	57.008503
694.000000	57.418041
695.000000	57.832285
696.000000	58.248618
697.000000	58.665645
698.000000	59.080469
699.000000	59.488239
700.000000	59.889369
701.000000	60.280190
702.000000	60.660628
703.000000	61.029457
704.000000	61.383142
705.000000	61.720417
706.000000	62.042993
707.000000	62.349885
708.000000	62.640008
709.000000	62.913838
710.000000	63.173542
711.000000	63.418375
712.000000	63.648921
713.000000	63.866969
714.000000	64.070028
715.000000	64.258673
716.000000	64.438332
717.000000	64.608244
718.000000	64.767357
719.000000	64.918013
720.000000	65.062170
721.000000	65.204647
722.000000	65.346607
723.000000	65.485516
724.000000	65.624264
725.000000	65.768656
726.000000	65.918268
727.000000	66.074441
728.000000	66.237892
729.000000	66.410438
730.000000	66.594664
731.000000	66.790489
732.000000	66.998713
733.000000	67.221432
734.000000	67.459157
735.000000	67.709233
736.000000	67.974539
737.000000	68.254296
738.000000	68.547952
739.000000	68.858141
740.000000	69.178662
741.000000	69.509972
742.000000	69.851522
743.000000	70.204069
744.000000	70.563677
745.000000	70.927988
746.000000	71.298491
747.000000	71.671293
748.000000	72.044460
749.000000	72.421138
750.000000	72.798157
751.000000	73.170433
752.000000	73.541204
753.000000	73.907164
754.000000	74.265956
755.000000	74.618711
756.000000	74.961597
757.000000	75.292642
758.000000	75.614194
759.000000	75.924746
760.000000	76.223623
761.000000	76.509610
762.000000	76.781193
763.000000	77.040211
764.000000	77.286341
765.000000	77.516232
766.000000	77.733935
767.000000	77.939218
768.000000	78.130101
769.000000	78.307571
770.000000	78.475593
771.000000	78.633799
772.000000	78.780136
773.000000	78.913343
774.000000	79.036149
775.000000	79.151458
776.000000	79.255919
777.000000	79.353084
778.000000	79.445759
779.000000	79.532375
780.000000	79.613377
781.000000	79.687360
782.000000	79.758746
783.000000	79.826761
784.000000	79.890098
785.000000	79.949025
786.000000	80.002192
787.000000	80.052255
788.000000	80.097985
789.000000	80.141126
790.000000	80.182883
791.000000	80.223348
792.000000	80.260842
793.000000	80.298128
794.000000	80.333268
795.000000	80.363286
796.000000	80.391688
797.000000	80.425655
798.000000	80.459798
799.000000	80.493045
800.000000	80.528378
801.000000	80.563208
802.000000	80.596161
803.000000	80.627377
804.000000	80.658856
805.000000	80.688291
806.000000	80.714610
807.000000	80.736616
808.000000	80.761450
809.000000	80.779425
810.000000	80.790436
811.000000	80.802565
812.000000	80.812041
813.000000	80.810483
814.000000	80.799262
815.000000	80.784009
816.000000	80.759679
817.000000	80.727757
818.000000	80.685380
819.000000	80.634941
820.000000	80.577420
821.000000	80.514619
822.000000	80.436375
823.000000	80.349641
824.000000	80.253674
825.000000	80.146933
826.000000	80.026215
827.000000	79.898739
828.000000	79.758967
829.000000	79.608737
830.000000	79.448022
831.000000	79.280982
832.000000	79.097248
833.000000	78.900746
834.000000	78.694317
835.000000	78.481301
836.000000	78.258029
837.000000	78.025718
838.000000	77.784869
839.000000	77.538049
840.000000	77.284889
841.000000	77.028079
842.000000	76.776584
843.000000	76.506472
844.000000	76.232404
845.000000	75.953284
846.000000	75.666957
847.000000	75.377025
848.000000	75.087018
849.000000	74.797871
850.000000	74.500397
851.000000	74.215365
852.000000	73.925919
853.000000	73.628628
854.000000	73.326107
855.000000	73.028044
856.000000	72.731353
857.000000	72.447167
858.000000	72.154908
859.000000	71.927502
860.000000	71.704735
861.000000	71.493534
862.000000	71.287157
863.000000	71.088601
864.000000	70.896820
865.000000	70.712205
866.000000	70.529107
867.000000	70.350716
868.000000	70.178257
869.000000	70.010259
870.000000	69.843096
871.000000	69.680206
872.000000	69.521459
873.000000	69.367626
874.000000	69.214260
875.000000	69.062788
876.000000	68.911575
877.000000	68.754469
878.000000	68.610132
879.000000	68.470455
880.000000	68.337193
881.000000	68.206448
882.000000	68.075583
883.000000	67.946354
884.000000	67.820430
885.000000	67.701852
886.000000	67.574156
887.000000	67.449619
888.000000	67.335646
889.000000	67.226485
890.000000	67.113161
891.000000	66.999263
892.000000	66.880428
893.000000	66.772391
894.000000	66.602909
895.000000	66.428651
896.000000	66.248763
897.000000	66.064489
898.000000	65.875446
899.000000	65.684037
900.000000	65.490191
901.000000	65.294083
902.000000	65.098183
903.000000	64.900589
904.000000	64.702814
905.000000	64.503991
906.000000	64.305500
907.000000	64.105400
908.000000	63.905466
909.000000	63.706306
910.000000	63.509091
911.000000	63.310600
912.000000	63.112757
913.000000	62.915540
914.000000	62.718500
915.000000	62.522171
916.000000	62.327174
917.000000	62.133123
918.000000	61.939883
919.000000	61.747154
920.000000	61.554466
921.000000	61.361163
922.000000	61.169000
923.000000	60.977594
924.000000	60.787277
925.000000	60.597720
926.000000	60.408017
927.000000	60.218089
928.000000	60.028586
929.000000	59.839906
930.000000	59.651986
931.000000	59.464589
932.000000	59.278063
933.000000	59.092531
934.000000	58.907309
935.000000	58.723277
936.000000	58.539246
937.000000	58.355249
938.000000	58.171669
939.000000	57.988220
940.000000	57.805909
941.000000	57.624174
942.000000	57.442783
943.000000	57.261389
944.000000	57.079377
945.000000	56.896431
946.000000	56.714500
947.000000	56.532963
948.000000	56.350677
949.000000	56.168326
950.000000	55.985726
951.000000	55.803014
952.000000	55.619706
953.000000	55.436334
954.000000	55.253060
955.000000	55.069617
956.000000	54.887171
957.000000	54.704597
958.000000	54.522246
959.000000	54.340071
960.000000	54.157223
961.000000	53.975894
962.000000	53.794843
963.000000	53.614577
964.000000	53.434503
965.000000	53.256466
966.000000	53.080351
967.000000	52.905994
968.000000	52.733103
969.000000	52.563209
970.000000	52.395389
971.000000	52.230620
972.000000	52.068277
973.000000	51.909031
974.000000	51.753066
975.000000	51.599771
976.000000	51.448700
977.000000	51.301477
978.000000	51.157146
979.000000	51.016369
980.000000	50.878560
981.000000	50.744117
982.000000	50.612149
983.000000	50.483657
984.000000	50.358554
985.000000	50.236574
986.000000	50.117414
987.000000	50.001437
988.000000	49.889131
989.000000	49.780423
990.000000	49.675571
991.000000	49.574331
992.000000	49.476789
993.000000	49.384157
994.000000	49.295377
995.000000	49.211037
996.000000	49.131171
997.000000	49.055154
998.000000	48.983431
999.000000	48.916329
1000.000000	48.852860
1001.000000	48.792797
1002.000000	48.736354
1003.000000	48.684291
1004.000000	48.635486
1005.000000	48.589877
1006.000000	48.547637
1007.000000	48.508463
1008.000000	48.472020
1009.000000	48.438343
1010.000000	48.407957
1011.000000	48.380903
1012.000000	48.357091
1013.000000	48.336789
1014.000000	48.320029
1015.000000	48.307146
1016.000000	48.297780
1017.000000	48.292334
1018.000000	48.291029
1019.000000	48.293671
1020.000000	48.300494
1021.000000	48.312477
1022.000000	48.328931
1023.000000	48.348857
1024.000000	48.372623
1025.000000	48.399909
1026.000000	48.431383
1027.000000	48.466940
1028.000000	48.505040
1029.000000	48.546360
1030.000000	48.591243
1031.000000	48.639077
1032.000000	48.689640
1033.000000	48.743123
1034.000000	48.799251
1035.000000	48.857923
1036.000000	48.919234
1037.000000	48.982589
1038.000000	49.047206
1039.000000	49.113977
1040.000000	49.183211
1041.000000	49.254451
1042.000000	49.327566
1043.000000	49.402394
1044.000000	49.479266
1045.000000	49.557917
1046.000000	49.637857
1047.000000	49.718746
1048.000000	49.799740
1049.000000	49.880629
1050.000000	49.961457
1051.000000	50.042789
1052.000000	50.124414
1053.000000	50.206183
1054.000000	50.288329
1055.000000	50.370229
1056.000000	50.451531
1057.000000	50.532874
1058.000000	50.614354
1059.000000	50.695474
1060.000000	50.776163
1061.000000	50.855960
1062.000000	50.935069
1063.000000	51.013903
1064.000000	51.092363
1065.000000	51.170566
1066.000000	51.248466
1067.000000	51.326274
1068.000000	51.403743
1069.000000	51.481154
1070.000000	51.558394
1071.000000	51.635203
1072.000000	51.711857
1073.000000	51.789109
1074.000000	51.866663
1075.000000	51.944180
1076.000000	52.021734
1077.000000	52.099669
1078.000000	52.177940
1079.000000	52.256049
1080.000000	52.334600
1081.000000	52.413531
1082.000000	52.492797
1083.000000	52.573269
1084.000000	52.654111
1085.000000	52.735297
1086.000000	52.816397
1087.000000	52.897620
1088.000000	52.978880
1089.000000	53.059574
1090.000000	53.139877
1091.000000	53.219394
1092.000000	53.297503
1093.000000	53.374329
1094.000000	53.450449
1095.000000	53.525309
1096.000000	53.599237
1097.000000	53.671349
1098.000000	53.742314
1099.000000	53.812006
1100.000000	53.879546
1101.000000	53.945320
1102.000000	54.009769
1103.000000	54.072134
1104.000000	54.132809
1105.000000	54.191720
1106.000000	54.248300
1107.000000	54.303029
1108.000000	54.356086
1109.000000	54.406989
1110.000000	54.456249
1111.000000	54.503680
1112.000000	54.549669
1113.000000	54.594011
1114.000000	54.636651
1115.000000	54.677429
1116.000000	54.716023
1117.000000	54.752937
1118.000000	54.786897
1119.000000	54.818563
1120.000000	54.847137
1121.000000	54.872094
1122.000000	54.892514
1123.000000	54.908069
1124.000000	54.918857
1125.000000	54.924646
1126.000000	54.924863
1127.000000	54.918746
1128.000000	54.905249
1129.000000	54.882606
1130.000000	54.849969
1131.000000	54.805229
1132.000000	54.747789
1133.000000	54.675434
1134.000000	54.589340
1135.000000	54.487577
1136.000000	54.369509
1137.000000	54.235109
1138.000000	54.085729
1139.000000	53.922029
1140.000000	53.744380
1141.000000	53.553900
1142.000000	53.350369
1143.000000	53.134794
1144.000000	52.907466
1145.000000	52.670020
1146.000000	52.425323
1147.000000	52.175234
1148.000000	51.921589
1149.000000	51.666309
1150.000000	51.408669
1151.000000	51.149223
1152.000000	50.887383
1153.000000	50.623357
1154.000000	50.354971
1155.000000	50.081606
1156.000000	49.801474
1157.000000	49.514720
1158.000000	49.220340
1159.000000	48.918263
1160.000000	48.607517
1161.000000	48.290411
1162.000000	47.966349
1163.000000	47.636720
1164.000000	47.302989
1165.000000	46.967797
1166.000000	46.631771
1167.000000	46.297717
1168.000000	45.967023
1169.000000	45.639066
1170.000000	45.316680
1171.000000	45.000354
1172.000000	44.689386
1173.000000	44.384277
1174.000000	44.084366
1175.000000	43.789197
1176.000000	43.498063
1177.000000	43.210557
