PE UV       SUBTECH     SPECTRUM    ASCII       PEDS        4.00        
   -1
CICIMAUCR0012-3.Sample.ASC
24/04/04
15:58:33.00
24/04/04
15:58:33.00
Vinicio Soto Monge
C. cupreomarginata
250,000000
1
Lambda 1050
1050L1511233
PerkinElmer UV WinLab 6.3.2.0749 / 2.02.05 Lambda 900 UV/VIS/NIR, Aug  7 2015 09:38:08

0
0
3350/servo 860,8/2
0
0
UV/VIS
1
1
1
DoubleDePol,CommonBeamDepol,RBeamAtt,SBeamAtt,60mm sphere, WB InGaAs Detector
0
0
0
0
Program
Program
3350/servo 860,8/2
3350/0,2 860,8/0,2
3350/0,2 860,8/0,2
0
15.00
 
 
 
0
 
860,8
319,2
860,8
Front
100
on
S:100 R:100
0
0
0
0
 
0
 
 
 
0
 
 
0
0
0
0
0
 
 
 
 
0
0


0
0
#HDR
-1
-1
#GR
nm
%R
1.0
0.0
2500,000000
-1,000000
2251
8
59,015000
5,370900
#DATA
250.000000	nan
251.000000	nan
252.000000	nan
253.000000	nan
254.000000	nan
255.000000	nan
256.000000	nan
257.000000	nan
258.000000	nan
259.000000	nan
260.000000	nan
261.000000	nan
262.000000	nan
263.000000	nan
264.000000	nan
265.000000	nan
266.000000	nan
267.000000	nan
268.000000	nan
269.000000	nan
270.000000	nan
271.000000	nan
272.000000	nan
273.000000	nan
274.000000	nan
275.000000	nan
276.000000	nan
277.000000	nan
278.000000	nan
279.000000	nan
280.000000	nan
281.000000	nan
282.000000	nan
283.000000	nan
284.000000	4.665490
285.000000	4.652611
286.000000	4.640343
287.000000	4.628052
288.000000	4.615924
289.000000	4.602911
290.000000	4.590732
291.000000	4.578851
292.000000	4.568401
293.000000	4.556918
294.000000	4.546307
295.000000	4.535729
296.000000	4.525790
297.000000	4.516026
298.000000	4.506791
299.000000	4.498686
300.000000	4.490238
301.000000	4.481152
302.000000	4.472635
303.000000	4.464468
304.000000	4.457378
305.000000	4.451266
306.000000	4.445379
307.000000	4.439104
308.000000	4.433042
309.000000	4.428047
310.000000	4.421883
311.000000	4.416358
312.000000	4.411234
313.000000	4.405267
314.000000	4.400057
315.000000	4.395249
316.000000	4.392005
317.000000	4.395948
318.000000	4.401038
319.000000	4.399450
320.000000	4.399246
321.000000	4.394171
322.000000	4.394990
323.000000	4.394165
324.000000	4.396042
325.000000	4.398980
326.000000	4.399381
327.000000	4.398451
328.000000	4.396836
329.000000	4.395351
330.000000	4.394029
331.000000	4.393480
332.000000	4.392818
333.000000	4.392799
334.000000	4.393230
335.000000	4.392487
336.000000	4.392078
337.000000	4.391625
338.000000	4.393221
339.000000	4.392945
340.000000	4.393695
341.000000	4.394849
342.000000	4.396178
343.000000	4.398101
344.000000	4.398613
345.000000	4.399750
346.000000	4.401513
347.000000	4.404061
348.000000	4.406102
349.000000	4.407486
350.000000	4.409433
351.000000	4.409131
352.000000	4.401835
353.000000	4.394248
354.000000	4.393450
355.000000	4.392433
356.000000	4.396167
357.000000	4.393550
358.000000	4.393280
359.000000	4.392110
360.000000	4.388744
361.000000	4.387399
362.000000	4.388151
363.000000	4.390065
364.000000	4.391244
365.000000	4.393184
366.000000	4.395664
367.000000	4.397688
368.000000	4.401680
369.000000	4.403651
370.000000	4.407261
371.000000	4.410328
372.000000	4.413882
373.000000	4.416112
374.000000	4.419633
375.000000	4.422649
376.000000	4.426370
377.000000	4.427843
378.000000	4.429223
379.000000	4.431967
380.000000	4.435767
381.000000	4.440714
382.000000	4.445966
383.000000	4.452158
384.000000	4.459716
385.000000	4.467914
386.000000	4.478802
387.000000	4.490080
388.000000	4.502849
389.000000	4.516004
390.000000	4.530673
391.000000	4.546647
392.000000	4.565092
393.000000	4.585196
394.000000	4.607205
395.000000	4.632821
396.000000	4.661782
397.000000	4.692470
398.000000	4.726957
399.000000	4.765400
400.000000	4.807070
401.000000	4.851692
402.000000	4.900629
403.000000	4.952140
404.000000	5.009513
405.000000	5.071681
406.000000	5.139400
407.000000	5.211905
408.000000	5.289670
409.000000	5.373342
410.000000	5.461847
411.000000	5.554679
412.000000	5.655650
413.000000	5.762028
414.000000	5.873566
415.000000	5.989882
416.000000	6.110787
417.000000	6.236406
418.000000	6.366825
419.000000	6.501538
420.000000	6.640309
421.000000	6.782906
422.000000	6.929219
423.000000	7.079122
424.000000	7.232220
425.000000	7.388286
426.000000	7.547265
427.000000	7.708710
428.000000	7.872105
429.000000	8.037001
430.000000	8.202987
431.000000	8.370158
432.000000	8.538236
433.000000	8.706690
434.000000	8.874827
435.000000	9.042433
436.000000	9.209079
437.000000	9.374445
438.000000	9.538212
439.000000	9.699566
440.000000	9.858610
441.000000	10.014812
442.000000	10.167634
443.000000	10.316944
444.000000	10.462080
445.000000	10.602685
446.000000	10.738357
447.000000	10.868377
448.000000	10.992301
449.000000	11.110042
450.000000	11.221434
451.000000	11.326028
452.000000	11.423801
453.000000	11.514269
454.000000	11.597668
455.000000	11.674089
456.000000	11.743328
457.000000	11.805508
458.000000	11.861064
459.000000	11.910313
460.000000	11.953579
461.000000	11.991327
462.000000	12.024162
463.000000	12.052785
464.000000	12.078134
465.000000	12.100941
466.000000	12.121768
467.000000	12.141286
468.000000	12.160163
469.000000	12.179621
470.000000	12.200404
471.000000	12.222998
472.000000	12.248155
473.000000	12.276296
474.000000	12.308362
475.000000	12.344781
476.000000	12.385955
477.000000	12.432671
478.000000	12.485199
479.000000	12.543659
480.000000	12.608367
481.000000	12.679974
482.000000	12.758898
483.000000	12.845404
484.000000	12.939355
485.000000	13.040612
486.000000	13.149334
487.000000	13.264952
488.000000	13.387885
489.000000	13.518115
490.000000	13.655308
491.000000	13.799535
492.000000	13.950673
493.000000	14.108191
494.000000	14.271373
495.000000	14.440145
496.000000	14.614852
497.000000	14.795341
498.000000	14.981094
499.000000	15.171744
500.000000	15.366939
501.000000	15.566464
502.000000	15.770221
503.000000	15.978411
504.000000	16.190912
505.000000	16.407798
506.000000	16.629108
507.000000	16.854536
508.000000	17.083895
509.000000	17.316877
510.000000	17.553725
511.000000	17.793885
512.000000	18.037479
513.000000	18.284667
514.000000	18.535778
515.000000	18.790839
516.000000	19.049617
517.000000	19.312115
518.000000	19.578762
519.000000	19.850462
520.000000	20.128131
521.000000	20.412673
522.000000	20.705505
523.000000	21.007678
524.000000	21.319835
525.000000	21.643364
526.000000	21.978779
527.000000	22.326941
528.000000	22.688690
529.000000	23.065561
530.000000	23.457525
531.000000	23.864358
532.000000	24.285758
533.000000	24.721541
534.000000	25.171189
535.000000	25.633577
536.000000	26.106929
537.000000	26.590147
538.000000	27.081855
539.000000	27.580969
540.000000	28.085870
541.000000	28.595149
542.000000	29.107814
543.000000	29.623105
544.000000	30.140487
545.000000	30.658587
546.000000	31.176200
547.000000	31.691768
548.000000	32.203791
549.000000	32.711206
550.000000	33.212831
551.000000	33.707521
552.000000	34.195424
553.000000	34.675374
554.000000	35.146203
555.000000	35.607343
556.000000	36.058104
557.000000	36.497522
558.000000	36.925371
559.000000	37.341149
560.000000	37.739130
561.000000	38.123547
562.000000	38.493997
563.000000	38.850405
564.000000	39.191728
565.000000	39.517313
566.000000	39.825758
567.000000	40.117248
568.000000	40.390487
569.000000	40.645009
570.000000	40.881092
571.000000	41.099418
572.000000	41.299263
573.000000	41.481325
574.000000	41.645941
575.000000	41.793242
576.000000	41.923889
577.000000	42.038883
578.000000	42.139176
579.000000	42.224399
580.000000	42.295739
581.000000	42.355008
582.000000	42.403672
583.000000	42.443254
584.000000	42.474413
585.000000	42.498293
586.000000	42.516506
587.000000	42.528884
588.000000	42.535479
589.000000	42.536139
590.000000	42.530716
591.000000	42.518935
592.000000	42.499538
593.000000	42.471161
594.000000	42.433128
595.000000	42.388910
596.000000	42.333878
597.000000	42.267453
598.000000	42.188732
599.000000	42.097732
600.000000	41.994136
601.000000	41.879659
602.000000	41.753566
603.000000	41.618029
604.000000	41.473238
605.000000	41.319585
606.000000	41.158654
607.000000	40.991225
608.000000	40.816831
609.000000	40.635682
610.000000	40.447820
611.000000	40.253622
612.000000	40.051740
613.000000	39.841832
614.000000	39.624246
615.000000	39.397181
616.000000	39.160353
617.000000	38.912673
618.000000	38.654052
619.000000	38.384043
620.000000	38.103116
621.000000	37.811635
622.000000	37.510090
623.000000	37.200264
624.000000	36.883829
625.000000	36.560551
626.000000	36.233322
627.000000	35.902969
628.000000	35.570852
629.000000	35.238394
630.000000	34.907706
631.000000	34.578704
632.000000	34.253351
633.000000	33.932758
634.000000	33.617429
635.000000	33.309932
636.000000	33.009408
637.000000	32.718259
638.000000	32.436401
639.000000	32.165242
640.000000	31.905622
641.000000	31.657534
642.000000	31.422699
643.000000	31.201829
644.000000	30.995146
645.000000	30.804690
646.000000	30.629615
647.000000	30.471023
648.000000	30.329875
649.000000	30.205711
650.000000	30.100533
651.000000	30.014339
652.000000	29.947866
653.000000	29.900716
654.000000	29.872963
655.000000	29.863990
656.000000	29.873069
657.000000	29.899714
658.000000	29.942324
659.000000	29.999748
660.000000	30.072329
661.000000	30.157590
662.000000	30.254723
663.000000	30.364246
664.000000	30.484485
665.000000	30.613662
666.000000	30.752116
667.000000	30.897968
668.000000	31.050651
669.000000	31.208724
670.000000	31.370919
671.000000	31.536973
672.000000	31.704514
673.000000	31.873535
674.000000	32.042705
675.000000	32.210675
676.000000	32.376694
677.000000	32.539818
678.000000	32.699954
679.000000	32.856582
680.000000	33.008076
681.000000	33.154660
682.000000	33.296195
683.000000	33.432193
684.000000	33.563333
685.000000	33.688615
686.000000	33.808517
687.000000	33.922274
688.000000	34.030500
689.000000	34.134497
690.000000	34.233807
691.000000	34.328751
692.000000	34.419192
693.000000	34.506449
694.000000	34.590797
695.000000	34.672485
696.000000	34.751728
697.000000	34.830053
698.000000	34.906199
699.000000	34.981148
700.000000	35.055367
701.000000	35.129068
702.000000	35.201930
703.000000	35.274541
704.000000	35.347456
705.000000	35.420328
706.000000	35.494032
707.000000	35.568164
708.000000	35.642342
709.000000	35.716817
710.000000	35.792108
711.000000	35.868917
712.000000	35.946668
713.000000	36.024773
714.000000	36.104511
715.000000	36.185129
716.000000	36.266653
717.000000	36.349289
718.000000	36.432288
719.000000	36.515980
720.000000	36.600921
721.000000	36.685695
722.000000	36.771194
723.000000	36.856471
724.000000	36.940858
725.000000	37.024792
726.000000	37.107727
727.000000	37.189742
728.000000	37.271048
729.000000	37.351382
730.000000	37.430320
731.000000	37.507446
732.000000	37.582939
733.000000	37.656940
734.000000	37.728844
735.000000	37.800096
736.000000	37.869902
737.000000	37.938925
738.000000	38.007382
739.000000	38.073750
740.000000	38.137868
741.000000	38.200239
742.000000	38.262057
743.000000	38.322585
744.000000	38.381367
745.000000	38.439599
746.000000	38.495931
747.000000	38.550035
748.000000	38.602967
749.000000	38.654077
750.000000	38.704485
751.000000	38.754215
752.000000	38.802588
753.000000	38.850715
754.000000	38.897670
755.000000	38.943267
756.000000	38.990249
757.000000	39.037030
758.000000	39.082955
759.000000	39.128613
760.000000	39.174813
761.000000	39.220975
762.000000	39.267217
763.000000	39.314276
764.000000	39.361373
765.000000	39.407358
766.000000	39.453761
767.000000	39.499991
768.000000	39.545145
769.000000	39.591182
770.000000	39.638106
771.000000	39.686077
772.000000	39.733553
773.000000	39.779819
774.000000	39.826773
775.000000	39.875328
776.000000	39.925036
777.000000	39.974792
778.000000	40.025801
779.000000	40.079551
780.000000	40.134801
781.000000	40.191388
782.000000	40.250230
783.000000	40.310906
784.000000	40.373934
785.000000	40.438890
786.000000	40.504628
787.000000	40.573215
788.000000	40.644029
789.000000	40.716923
790.000000	40.791281
791.000000	40.865715
792.000000	40.944201
793.000000	41.026429
794.000000	41.110780
795.000000	41.196687
796.000000	41.284928
797.000000	41.375250
798.000000	41.467403
799.000000	41.559970
800.000000	41.655498
801.000000	41.754084
802.000000	41.854321
803.000000	41.957967
804.000000	42.062833
805.000000	42.167340
806.000000	42.273159
807.000000	42.379644
808.000000	42.487626
809.000000	42.598053
810.000000	42.707796
811.000000	42.817312
812.000000	42.926151
813.000000	43.034530
814.000000	43.141460
815.000000	43.246484
816.000000	43.351561
817.000000	43.455281
818.000000	43.558325
819.000000	43.658153
820.000000	43.757001
821.000000	43.856190
822.000000	43.953745
823.000000	44.048899
824.000000	44.141533
825.000000	44.234614
826.000000	44.326828
827.000000	44.415854
828.000000	44.501829
829.000000	44.585550
830.000000	44.666260
831.000000	44.743329
832.000000	44.819675
833.000000	44.893531
834.000000	44.968088
835.000000	45.041173
836.000000	45.107863
837.000000	45.171182
838.000000	45.229525
839.000000	45.286375
840.000000	45.342706
841.000000	45.396447
842.000000	45.447949
843.000000	45.495825
844.000000	45.540421
845.000000	45.580755
846.000000	45.620272
847.000000	45.659308
848.000000	45.691711
849.000000	45.719246
850.000000	45.743675
851.000000	45.767273
852.000000	45.786784
853.000000	45.804883
854.000000	45.819925
855.000000	45.831045
856.000000	45.834619
857.000000	45.834153
858.000000	45.824102
859.000000	45.847031
860.000000	45.868763
861.000000	45.890419
862.000000	45.911749
863.000000	45.933452
864.000000	45.955254
865.000000	45.977413
866.000000	46.000738
867.000000	46.021983
868.000000	46.041442
869.000000	46.058063
870.000000	46.072841
871.000000	46.089319
872.000000	46.105579
873.000000	46.122915
874.000000	46.137762
875.000000	46.150211
876.000000	46.160786
877.000000	46.170520
878.000000	46.180144
879.000000	46.187317
880.000000	46.195550
881.000000	46.200411
882.000000	46.203178
883.000000	46.208645
884.000000	46.214718
885.000000	46.220590
886.000000	46.221939
887.000000	46.223152
888.000000	46.220807
889.000000	46.217840
890.000000	46.213124
891.000000	46.210572
892.000000	46.206711
893.000000	46.208237
894.000000	46.172966
895.000000	46.132695
896.000000	46.087134
897.000000	46.036409
898.000000	45.980775
899.000000	45.921250
900.000000	45.857837
901.000000	45.790225
902.000000	45.719130
903.000000	45.644956
904.000000	45.567980
905.000000	45.488530
906.000000	45.406509
907.000000	45.322452
908.000000	45.236183
909.000000	45.148810
910.000000	45.060086
911.000000	44.970050
912.000000	44.879677
913.000000	44.788617
914.000000	44.698122
915.000000	44.608052
916.000000	44.518405
917.000000	44.428510
918.000000	44.338919
919.000000	44.250108
920.000000	44.162079
921.000000	44.075459
922.000000	43.990356
923.000000	43.906742
924.000000	43.824825
925.000000	43.744155
926.000000	43.665382
927.000000	43.588980
928.000000	43.514470
929.000000	43.442141
930.000000	43.372447
931.000000	43.305366
932.000000	43.240730
933.000000	43.179044
934.000000	43.119700
935.000000	43.063188
936.000000	43.009352
937.000000	42.958343
938.000000	42.909848
939.000000	42.863734
940.000000	42.819895
941.000000	42.778616
942.000000	42.739891
943.000000	42.703599
944.000000	42.669440
945.000000	42.636564
946.000000	42.605531
947.000000	42.576121
948.000000	42.548344
949.000000	42.521837
950.000000	42.496483
951.000000	42.472208
952.000000	42.449394
953.000000	42.427987
954.000000	42.407667
955.000000	42.388153
956.000000	42.369711
957.000000	42.352150
958.000000	42.335011
959.000000	42.318717
960.000000	42.303629
961.000000	42.288950
962.000000	42.275072
963.000000	42.261227
964.000000	42.248254
965.000000	42.235800
966.000000	42.223949
967.000000	42.213154
968.000000	42.202923
969.000000	42.193431
970.000000	42.184672
971.000000	42.176909
972.000000	42.169561
973.000000	42.162874
974.000000	42.157015
975.000000	42.151891
976.000000	42.147241
977.000000	42.143168
978.000000	42.139052
979.000000	42.135001
980.000000	42.131529
981.000000	42.128143
982.000000	42.125036
983.000000	42.121979
984.000000	42.118743
985.000000	42.115500
986.000000	42.112641
987.000000	42.109937
988.000000	42.107304
989.000000	42.105027
990.000000	42.103136
991.000000	42.101781
992.000000	42.100883
993.000000	42.100677
994.000000	42.101122
995.000000	42.102188
996.000000	42.104508
997.000000	42.107556
998.000000	42.111855
999.000000	42.116837
1000.000000	42.122492
1001.000000	42.128785
1002.000000	42.135249
1003.000000	42.142202
1004.000000	42.149735
1005.000000	42.157993
1006.000000	42.166620
1007.000000	42.175607
1008.000000	42.184948
1009.000000	42.194787
1010.000000	42.205048
1011.000000	42.215926
1012.000000	42.227428
1013.000000	42.239910
1014.000000	42.253265
1015.000000	42.267634
1016.000000	42.283063
1017.000000	42.299299
1018.000000	42.316649
1019.000000	42.335716
1020.000000	42.356299
1021.000000	42.377972
1022.000000	42.400908
1023.000000	42.425279
1024.000000	42.450829
1025.000000	42.477472
1026.000000	42.505138
1027.000000	42.533856
1028.000000	42.563754
1029.000000	42.594451
1030.000000	42.626116
1031.000000	42.658255
1032.000000	42.690834
1033.000000	42.724003
1034.000000	42.757821
1035.000000	42.792272
1036.000000	42.827197
1037.000000	42.862652
1038.000000	42.898725
1039.000000	42.934930
1040.000000	42.970931
1041.000000	43.007388
1042.000000	43.044412
1043.000000	43.081466
1044.000000	43.118710
1045.000000	43.156090
1046.000000	43.193624
1047.000000	43.231198
1048.000000	43.268470
1049.000000	43.305568
1050.000000	43.342471
1051.000000	43.378985
1052.000000	43.414989
1053.000000	43.450650
1054.000000	43.485957
1055.000000	43.520512
1056.000000	43.554485
1057.000000	43.588126
1058.000000	43.621220
1059.000000	43.654083
1060.000000	43.686146
1061.000000	43.717581
1062.000000	43.748986
1063.000000	43.780092
1064.000000	43.810924
1065.000000	43.841173
1066.000000	43.870901
1067.000000	43.900602
1068.000000	43.930164
1069.000000	43.959577
1070.000000	43.988968
1071.000000	44.018612
1072.000000	44.048028
1073.000000	44.077178
1074.000000	44.106438
1075.000000	44.135953
1076.000000	44.165395
1077.000000	44.194974
1078.000000	44.225230
1079.000000	44.255618
1080.000000	44.285900
1081.000000	44.316464
1082.000000	44.347503
1083.000000	44.378656
1084.000000	44.410087
1085.000000	44.441839
1086.000000	44.473761
1087.000000	44.506062
1088.000000	44.538447
1089.000000	44.570634
1090.000000	44.602824
1091.000000	44.635029
1092.000000	44.666831
1093.000000	44.698169
1094.000000	44.729350
1095.000000	44.761141
1096.000000	44.792618
1097.000000	44.823112
1098.000000	44.853395
1099.000000	44.883446
1100.000000	44.913249
1101.000000	44.942783
1102.000000	44.971604
1103.000000	44.999878
1104.000000	45.027760
1105.000000	45.054877
1106.000000	45.081281
1107.000000	45.107293
1108.000000	45.132664
1109.000000	45.156964
1110.000000	45.180878
1111.000000	45.204237
1112.000000	45.226727
1113.000000	45.248471
1114.000000	45.269575
1115.000000	45.290420
1116.000000	45.310304
1117.000000	45.329352
1118.000000	45.347535
1119.000000	45.364375
1120.000000	45.379630
1121.000000	45.393234
1122.000000	45.405340
1123.000000	45.415438
1124.000000	45.423599
1125.000000	45.429703
1126.000000	45.432905
1127.000000	45.433345
1128.000000	45.430729
1129.000000	45.424195
1130.000000	45.413044
1131.000000	45.396664
1132.000000	45.374768
1133.000000	45.347034
1134.000000	45.313742
1135.000000	45.274310
1136.000000	45.227972
1137.000000	45.173794
1138.000000	45.112343
1139.000000	45.043877
1140.000000	44.968912
1141.000000	44.887535
1142.000000	44.799782
1143.000000	44.706022
1144.000000	44.607216
1145.000000	44.503799
1146.000000	44.397018
1147.000000	44.288580
1148.000000	44.178732
1149.000000	44.068460
1150.000000	43.957549
1151.000000	43.846813
1152.000000	43.735326
1153.000000	43.623368
1154.000000	43.509941
1155.000000	43.394280
1156.000000	43.275669
1157.000000	43.153094
1158.000000	43.026346
1159.000000	42.893980
1160.000000	42.756607
1161.000000	42.614722
1162.000000	42.468072
1163.000000	42.316997
1164.000000	42.161335
1165.000000	42.002252
1166.000000	41.840955
1167.000000	41.677706
1168.000000	41.512488
1169.000000	41.345358
1170.000000	41.177200
1171.000000	41.008693
1172.000000	40.841412
1173.000000	40.674528
1174.000000	40.508150
1175.000000	40.342630
1176.000000	40.177111
