PE UV       SUBTECH     SPECTRUM    ASCII       PEDS        4.00        
   -1
CICIMAUCR0116-1.ASC
24/04/03
16:59:00.00
24/04/03
16:59:00.00
Vinicio Soto Monge
C. kalinini
250,000000
1
Lambda 1050
1050L1511233
PerkinElmer UV WinLab 6.3.2.0749 / 2.02.05 Lambda 900 UV/VIS/NIR, Aug  7 2015 09:38:08

0
0
3350/servo 860,8/2
0
0
UV/VIS
1
1
1
DoubleDePol,CommonBeamDepol,RBeamAtt,SBeamAtt,60mm sphere, WB InGaAs Detector
0
0
0
0
Program
Program
3350/servo 860,8/2
3350/0,2 860,8/0,2
3350/0,2 860,8/0,2
0
15.00
 
 
 
0
 
860,8
319,2
860,8
Front
100
on
S:100 R:100
0
0
0
0
 
0
 
 
 
0
 
 
0
0
0
0
0
 
 
 
 
0
0


0
0
#HDR
-1
-1
#GR
nm
%R
1.0
0.0
2500,000000
-1,000000
2251
8
74,972100
3,970100
#DATA
250.000000	nan
251.000000	nan
252.000000	nan
253.000000	nan
254.000000	nan
255.000000	nan
256.000000	nan
257.000000	nan
258.000000	nan
259.000000	nan
260.000000	nan
261.000000	nan
262.000000	nan
263.000000	nan
264.000000	nan
265.000000	nan
266.000000	nan
267.000000	nan
268.000000	nan
269.000000	nan
270.000000	nan
271.000000	nan
272.000000	nan
273.000000	nan
274.000000	nan
275.000000	nan
276.000000	nan
277.000000	nan
278.000000	nan
279.000000	nan
280.000000	nan
281.000000	nan
282.000000	nan
283.000000	nan
284.000000	5.424345
285.000000	5.410896
286.000000	5.397020
287.000000	5.383049
288.000000	5.370210
289.000000	5.357842
290.000000	5.347525
291.000000	5.335941
292.000000	5.324954
293.000000	5.314119
294.000000	5.302262
295.000000	5.292717
296.000000	5.283049
297.000000	5.272581
298.000000	5.265138
299.000000	5.259107
300.000000	5.252332
301.000000	5.244724
302.000000	5.237093
303.000000	5.230447
304.000000	5.224962
305.000000	5.218322
306.000000	5.211737
307.000000	5.208474
308.000000	5.204393
309.000000	5.197378
310.000000	5.192632
311.000000	5.188832
312.000000	5.184599
313.000000	5.178968
314.000000	5.174702
315.000000	5.171734
316.000000	5.169542
317.000000	5.177600
318.000000	5.182018
319.000000	5.192328
320.000000	5.190197
321.000000	5.191465
322.000000	5.191341
323.000000	5.193274
324.000000	5.192290
325.000000	5.192855
326.000000	5.198370
327.000000	5.193818
328.000000	5.191504
329.000000	5.190580
330.000000	5.186581
331.000000	5.187381
332.000000	5.183162
333.000000	5.179674
334.000000	5.179936
335.000000	5.179230
336.000000	5.182076
337.000000	5.178538
338.000000	5.179610
339.000000	5.181320
340.000000	5.177178
341.000000	5.180377
342.000000	5.179820
343.000000	5.179072
344.000000	5.183118
345.000000	5.185983
346.000000	5.189874
347.000000	5.189392
348.000000	5.193310
349.000000	5.192717
350.000000	5.194413
351.000000	5.198274
352.000000	5.189077
353.000000	5.182922
354.000000	5.172013
355.000000	5.173921
356.000000	5.175876
357.000000	5.178016
358.000000	5.179963
359.000000	5.183079
360.000000	5.184927
361.000000	5.185046
362.000000	5.194416
363.000000	5.202637
364.000000	5.209238
365.000000	5.217500
366.000000	5.223906
367.000000	5.233677
368.000000	5.241966
369.000000	5.247175
370.000000	5.254000
371.000000	5.256016
372.000000	5.265808
373.000000	5.273899
374.000000	5.279688
375.000000	5.291413
376.000000	5.297918
377.000000	5.306409
378.000000	5.314701
379.000000	5.322208
380.000000	5.329344
381.000000	5.336851
382.000000	5.349533
383.000000	5.360109
384.000000	5.373927
385.000000	5.386847
386.000000	5.396920
387.000000	5.407876
388.000000	5.421345
389.000000	5.434187
390.000000	5.447879
391.000000	5.458953
392.000000	5.472824
393.000000	5.484770
394.000000	5.497262
395.000000	5.509959
396.000000	5.521949
397.000000	5.534540
398.000000	5.547675
399.000000	5.562969
400.000000	5.578591
401.000000	5.593374
402.000000	5.611448
403.000000	5.629541
404.000000	5.648078
405.000000	5.668021
406.000000	5.690780
407.000000	5.713706
408.000000	5.736622
409.000000	5.761314
410.000000	5.789191
411.000000	5.816655
412.000000	5.845778
413.000000	5.877609
414.000000	5.911335
415.000000	5.947529
416.000000	5.986208
417.000000	6.028176
418.000000	6.072958
419.000000	6.120940
420.000000	6.172690
421.000000	6.229191
422.000000	6.290359
423.000000	6.356352
424.000000	6.428370
425.000000	6.506419
426.000000	6.590944
427.000000	6.682643
428.000000	6.781822
429.000000	6.889372
430.000000	7.005775
431.000000	7.131256
432.000000	7.267066
433.000000	7.413497
434.000000	7.570373
435.000000	7.738068
436.000000	7.917353
437.000000	8.108253
438.000000	8.311427
439.000000	8.527179
440.000000	8.754966
441.000000	8.994684
442.000000	9.246484
443.000000	9.510403
444.000000	9.785707
445.000000	10.071751
446.000000	10.368235
447.000000	10.674846
448.000000	10.990283
449.000000	11.314102
450.000000	11.645809
451.000000	11.984560
452.000000	12.330497
453.000000	12.682261
454.000000	13.038956
455.000000	13.400386
456.000000	13.764578
457.000000	14.131297
458.000000	14.499797
459.000000	14.868860
460.000000	15.237870
461.000000	15.605858
462.000000	15.972488
463.000000	16.336943
464.000000	16.697848
465.000000	17.054267
466.000000	17.405929
467.000000	17.751511
468.000000	18.090383
469.000000	18.422739
470.000000	18.747530
471.000000	19.064165
472.000000	19.372041
473.000000	19.670533
474.000000	19.960069
475.000000	20.239696
476.000000	20.508990
477.000000	20.768867
478.000000	21.018358
479.000000	21.257581
480.000000	21.487179
481.000000	21.707354
482.000000	21.917712
483.000000	22.118305
484.000000	22.309566
485.000000	22.490379
486.000000	22.661165
487.000000	22.822131
488.000000	22.973244
489.000000	23.115389
490.000000	23.248255
491.000000	23.372547
492.000000	23.488120
493.000000	23.594923
494.000000	23.693511
495.000000	23.783871
496.000000	23.866997
497.000000	23.941762
498.000000	24.008182
499.000000	24.066694
500.000000	24.118063
501.000000	24.162224
502.000000	24.198134
503.000000	24.226471
504.000000	24.248083
505.000000	24.263663
506.000000	24.273326
507.000000	24.277758
508.000000	24.277752
509.000000	24.274537
510.000000	24.270370
511.000000	24.267306
512.000000	24.266137
513.000000	24.269168
514.000000	24.278806
515.000000	24.297144
516.000000	24.326138
517.000000	24.368147
518.000000	24.425181
519.000000	24.497690
520.000000	24.588339
521.000000	24.698154
522.000000	24.826894
523.000000	24.975131
524.000000	25.142516
525.000000	25.328696
526.000000	25.533400
527.000000	25.756341
528.000000	25.997185
529.000000	26.255912
530.000000	26.531789
531.000000	26.823483
532.000000	27.132501
533.000000	27.459058
534.000000	27.802866
535.000000	28.162136
536.000000	28.537671
537.000000	28.930516
538.000000	29.339683
539.000000	29.764215
540.000000	30.204053
541.000000	30.658663
542.000000	31.128440
543.000000	31.613183
544.000000	32.110597
545.000000	32.619064
546.000000	33.137599
547.000000	33.665151
548.000000	34.200207
549.000000	34.740930
550.000000	35.285235
551.000000	35.831401
552.000000	36.377319
553.000000	36.921310
554.000000	37.463081
555.000000	38.000869
556.000000	38.533885
557.000000	39.060306
558.000000	39.580747
559.000000	40.095283
560.000000	40.603929
561.000000	41.106635
562.000000	41.604030
563.000000	42.095082
564.000000	42.580366
565.000000	43.059535
566.000000	43.533049
567.000000	44.000490
568.000000	44.460908
569.000000	44.914330
570.000000	45.361447
571.000000	45.800554
572.000000	46.231779
573.000000	46.655407
574.000000	47.071102
575.000000	47.479196
576.000000	47.879070
577.000000	48.269805
578.000000	48.650488
579.000000	49.021818
580.000000	49.381452
581.000000	49.730599
582.000000	50.066992
583.000000	50.393099
584.000000	50.707241
585.000000	51.009023
586.000000	51.299692
587.000000	51.577849
588.000000	51.842993
589.000000	52.094194
590.000000	52.332675
591.000000	52.556840
592.000000	52.768869
593.000000	52.968806
594.000000	53.156645
595.000000	53.331143
596.000000	53.495344
597.000000	53.646881
598.000000	53.786619
599.000000	53.914049
600.000000	54.026883
601.000000	54.126842
602.000000	54.212216
603.000000	54.283790
604.000000	54.341273
605.000000	54.384723
606.000000	54.414960
607.000000	54.430833
608.000000	54.432981
609.000000	54.420713
610.000000	54.393486
611.000000	54.351965
612.000000	54.295935
613.000000	54.225502
614.000000	54.139809
615.000000	54.043120
616.000000	53.932374
617.000000	53.810260
618.000000	53.674154
619.000000	53.525799
620.000000	53.364425
621.000000	53.189287
622.000000	53.002187
623.000000	52.803351
624.000000	52.592866
625.000000	52.370578
626.000000	52.137831
627.000000	51.892650
628.000000	51.636639
629.000000	51.368266
630.000000	51.089546
631.000000	50.797402
632.000000	50.497150
633.000000	50.189900
634.000000	49.876178
635.000000	49.561804
636.000000	49.244867
637.000000	48.929558
638.000000	48.615960
639.000000	48.306887
640.000000	48.003641
641.000000	47.709034
642.000000	47.423288
643.000000	47.148365
644.000000	46.885254
645.000000	46.634210
646.000000	46.395892
647.000000	46.171183
648.000000	45.960141
649.000000	45.762656
650.000000	45.577952
651.000000	45.406692
652.000000	45.248238
653.000000	45.103567
654.000000	44.973942
655.000000	44.861937
656.000000	44.765823
657.000000	44.687401
658.000000	44.627467
659.000000	44.587828
660.000000	44.567951
661.000000	44.567085
662.000000	44.587561
663.000000	44.627083
664.000000	44.685656
665.000000	44.761959
666.000000	44.855818
667.000000	44.963057
668.000000	45.080568
669.000000	45.206926
670.000000	45.339869
671.000000	45.478374
672.000000	45.619650
673.000000	45.763458
674.000000	45.907818
675.000000	46.051962
676.000000	46.194733
677.000000	46.336832
678.000000	46.475993
679.000000	46.613555
680.000000	46.749617
681.000000	46.884134
682.000000	47.017116
683.000000	47.149286
684.000000	47.283525
685.000000	47.418862
686.000000	47.555773
687.000000	47.693936
688.000000	47.832852
689.000000	47.972656
690.000000	48.111260
691.000000	48.248646
692.000000	48.386105
693.000000	48.523353
694.000000	48.660261
695.000000	48.796891
696.000000	48.935137
697.000000	49.074398
698.000000	49.217282
699.000000	49.365808
700.000000	49.521620
701.000000	49.684980
702.000000	49.857370
703.000000	50.043053
704.000000	50.240707
705.000000	50.451313
706.000000	50.676637
707.000000	50.915340
708.000000	51.166465
709.000000	51.430999
710.000000	51.708260
711.000000	51.995986
712.000000	52.294997
713.000000	52.604166
714.000000	52.921184
715.000000	53.245744
716.000000	53.577678
717.000000	53.916945
718.000000	54.264934
719.000000	54.617153
720.000000	54.973850
721.000000	55.335305
722.000000	55.701295
723.000000	56.071665
724.000000	56.444561
725.000000	56.818924
726.000000	57.196742
727.000000	57.575465
728.000000	57.954394
729.000000	58.333252
730.000000	58.709091
731.000000	59.079311
732.000000	59.445788
733.000000	59.807788
734.000000	60.163283
735.000000	60.510982
736.000000	60.853277
737.000000	61.189091
738.000000	61.515336
739.000000	61.836506
740.000000	62.149567
741.000000	62.455488
742.000000	62.756002
743.000000	63.050594
744.000000	63.338875
745.000000	63.620854
746.000000	63.898656
747.000000	64.172911
748.000000	64.442856
749.000000	64.706982
750.000000	64.965596
751.000000	65.218416
752.000000	65.464855
753.000000	65.703708
754.000000	65.936224
755.000000	66.162810
756.000000	66.384601
757.000000	66.598754
758.000000	66.804217
759.000000	67.005505
760.000000	67.203832
761.000000	67.395035
762.000000	67.577301
763.000000	67.753724
764.000000	67.924992
765.000000	68.091970
766.000000	68.255627
767.000000	68.415123
768.000000	68.569154
769.000000	68.718491
770.000000	68.863510
771.000000	69.003802
772.000000	69.136375
773.000000	69.262630
774.000000	69.383136
775.000000	69.501701
776.000000	69.616821
777.000000	69.728017
778.000000	69.835689
779.000000	69.940055
780.000000	70.042203
781.000000	70.137979
782.000000	70.224825
783.000000	70.309153
784.000000	70.394593
785.000000	70.475844
786.000000	70.555774
787.000000	70.633633
788.000000	70.711611
789.000000	70.787915
790.000000	70.861329
791.000000	70.933198
792.000000	71.003714
793.000000	71.075498
794.000000	71.142817
795.000000	71.206030
796.000000	71.269401
797.000000	71.333869
798.000000	71.397518
799.000000	71.454664
800.000000	71.510584
801.000000	71.564399
802.000000	71.615396
803.000000	71.663619
804.000000	71.708019
805.000000	71.750705
806.000000	71.787674
807.000000	71.823148
808.000000	71.856322
809.000000	71.891264
810.000000	71.923156
811.000000	71.946436
812.000000	71.965580
813.000000	71.982443
814.000000	71.993515
815.000000	71.997453
816.000000	71.996369
817.000000	71.993898
818.000000	71.985573
819.000000	71.971203
820.000000	71.952997
821.000000	71.926033
822.000000	71.892596
823.000000	71.850498
824.000000	71.808494
825.000000	71.760194
826.000000	71.706939
827.000000	71.649340
828.000000	71.583611
829.000000	71.516311
830.000000	71.445600
831.000000	71.366958
832.000000	71.277205
833.000000	71.183525
834.000000	71.086561
835.000000	70.981793
836.000000	70.868394
837.000000	70.757597
838.000000	70.637615
839.000000	70.513985
840.000000	70.385148
841.000000	70.249930
842.000000	70.113030
843.000000	69.965472
844.000000	69.812815
845.000000	69.653707
846.000000	69.494162
847.000000	69.322204
848.000000	69.148823
849.000000	68.961819
850.000000	68.779164
851.000000	68.579137
852.000000	68.390230
853.000000	68.196807
854.000000	67.994104
855.000000	67.786884
856.000000	67.580453
857.000000	67.366585
858.000000	67.140028
859.000000	66.968186
860.000000	66.796822
861.000000	66.621409
862.000000	66.444413
863.000000	66.266871
864.000000	66.083630
865.000000	65.896990
866.000000	65.709914
867.000000	65.526399
868.000000	65.339201
869.000000	65.151013
870.000000	64.964757
871.000000	64.781622
872.000000	64.590438
873.000000	64.402841
874.000000	64.215576
875.000000	64.028706
876.000000	63.846049
877.000000	63.662845
878.000000	63.488770
879.000000	63.311168
880.000000	63.134898
881.000000	62.960373
882.000000	62.795370
883.000000	62.627323
884.000000	62.472237
885.000000	62.312622
886.000000	62.170869
887.000000	62.016019
888.000000	61.863817
889.000000	61.717588
890.000000	61.575259
891.000000	61.434919
892.000000	61.301962
893.000000	61.180949
894.000000	60.998514
895.000000	60.816631
896.000000	60.634880
897.000000	60.453223
898.000000	60.272240
899.000000	60.092811
900.000000	59.913203
901.000000	59.734060
902.000000	59.555631
903.000000	59.377766
904.000000	59.201331
905.000000	59.024600
906.000000	58.849640
907.000000	58.674440
908.000000	58.500491
909.000000	58.326929
910.000000	58.153957
911.000000	57.982237
912.000000	57.812083
913.000000	57.643594
914.000000	57.476457
915.000000	57.311129
916.000000	57.146720
917.000000	56.983426
918.000000	56.822674
919.000000	56.661471
920.000000	56.501777
921.000000	56.342903
922.000000	56.185063
923.000000	56.027949
924.000000	55.871500
925.000000	55.716106
926.000000	55.560769
927.000000	55.406120
928.000000	55.253063
929.000000	55.100686
930.000000	54.949249
931.000000	54.799646
932.000000	54.651623
933.000000	54.504986
934.000000	54.359714
935.000000	54.216074
936.000000	54.074457
937.000000	53.933983
938.000000	53.795163
939.000000	53.657220
940.000000	53.519729
941.000000	53.382446
942.000000	53.246726
943.000000	53.111166
944.000000	52.975883
945.000000	52.839983
946.000000	52.703429
947.000000	52.565726
948.000000	52.427280
949.000000	52.288809
950.000000	52.148829
951.000000	52.008343
952.000000	51.867980
953.000000	51.727586
954.000000	51.588200
955.000000	51.447826
956.000000	51.308200
957.000000	51.168837
958.000000	51.029563
959.000000	50.891026
960.000000	50.752483
961.000000	50.613620
962.000000	50.475260
963.000000	50.336463
964.000000	50.198623
965.000000	50.060229
966.000000	49.921026
967.000000	49.781440
968.000000	49.642414
969.000000	49.502983
970.000000	49.364160
971.000000	49.224994
972.000000	49.086629
973.000000	48.948771
974.000000	48.811294
975.000000	48.674463
976.000000	48.538077
977.000000	48.401811
978.000000	48.265591
979.000000	48.129363
980.000000	47.993494
981.000000	47.857620
982.000000	47.721323
983.000000	47.583723
984.000000	47.444789
985.000000	47.305200
986.000000	47.164269
987.000000	47.021266
988.000000	46.876357
989.000000	46.729974
990.000000	46.583129
991.000000	46.435494
992.000000	46.287174
993.000000	46.138214
994.000000	45.988706
995.000000	45.839920
996.000000	45.692363
997.000000	45.545634
998.000000	45.399977
999.000000	45.255240
1000.000000	45.112186
1001.000000	44.971089
1002.000000	44.831377
1003.000000	44.692217
1004.000000	44.554651
1005.000000	44.418106
1006.000000	44.282046
1007.000000	44.146289
1008.000000	44.010420
1009.000000	43.874726
1010.000000	43.740031
1011.000000	43.606251
1012.000000	43.473229
1013.000000	43.341277
1014.000000	43.211274
1015.000000	43.083769
1016.000000	42.958386
1017.000000	42.835466
1018.000000	42.716217
1019.000000	42.600446
1020.000000	42.487960
1021.000000	42.379003
1022.000000	42.273377
1023.000000	42.170911
1024.000000	42.072623
1025.000000	41.978323
1026.000000	41.886614
1027.000000	41.797931
1028.000000	41.712214
1029.000000	41.629720
1030.000000	41.549857
1031.000000	41.471854
1032.000000	41.395849
1033.000000	41.322197
1034.000000	41.250791
1035.000000	41.181249
1036.000000	41.113289
1037.000000	41.047531
1038.000000	40.984677
1039.000000	40.923811
1040.000000	40.864794
1041.000000	40.808671
1042.000000	40.755586
1043.000000	40.705394
1044.000000	40.658506
1045.000000	40.614409
1046.000000	40.572669
1047.000000	40.533603
1048.000000	40.496914
1049.000000	40.462414
1050.000000	40.429754
1051.000000	40.398960
1052.000000	40.370197
1053.000000	40.342734
1054.000000	40.316871
1055.000000	40.293037
1056.000000	40.271263
1057.000000	40.251826
1058.000000	40.234654
1059.000000	40.218946
1060.000000	40.204403
1061.000000	40.191343
1062.000000	40.179949
1063.000000	40.170320
1064.000000	40.162023
1065.000000	40.154923
1066.000000	40.149500
1067.000000	40.145837
1068.000000	40.143300
1069.000000	40.141551
1070.000000	40.141371
1071.000000	40.142654
1072.000000	40.145466
1073.000000	40.149526
1074.000000	40.154400
1075.000000	40.160783
1076.000000	40.168686
1077.000000	40.177551
1078.000000	40.187917
1079.000000	40.199769
1080.000000	40.212154
1081.000000	40.226031
1082.000000	40.241349
1083.000000	40.257820
1084.000000	40.275603
1085.000000	40.293986
1086.000000	40.313729
1087.000000	40.334666
1088.000000	40.356751
1089.000000	40.379469
1090.000000	40.402666
1091.000000	40.425577
1092.000000	40.448663
1093.000000	40.471777
1094.000000	40.494806
1095.000000	40.517789
1096.000000	40.541163
1097.000000	40.564143
1098.000000	40.586797
1099.000000	40.609697
1100.000000	40.632886
1101.000000	40.656000
1102.000000	40.678591
1103.000000	40.700777
1104.000000	40.722871
1105.000000	40.744514
1106.000000	40.765729
1107.000000	40.786229
1108.000000	40.805789
1109.000000	40.824929
1110.000000	40.843431
1111.000000	40.860194
1112.000000	40.875763
1113.000000	40.890017
1114.000000	40.902451
1115.000000	40.914157
1116.000000	40.923431
1117.000000	40.930837
1118.000000	40.936543
1119.000000	40.939577
1120.000000	40.940351
1121.000000	40.937794
1122.000000	40.932054
1123.000000	40.922489
1124.000000	40.908231
1125.000000	40.889829
1126.000000	40.866931
1127.000000	40.838914
1128.000000	40.804997
1129.000000	40.763294
1130.000000	40.713803
1131.000000	40.654214
1132.000000	40.583191
1133.000000	40.501423
1134.000000	40.408591
1135.000000	40.302609
1136.000000	40.183746
1137.000000	40.052169
1138.000000	39.908360
1139.000000	39.752931
1140.000000	39.586574
1141.000000	39.410151
1142.000000	39.223860
1143.000000	39.028217
1144.000000	38.824157
1145.000000	38.612823
1146.000000	38.397377
1147.000000	38.178469
1148.000000	37.958237
1149.000000	37.738026
1150.000000	37.517517
1151.000000	37.296834
1152.000000	37.075880
1153.000000	36.853089
1154.000000	36.628914
1155.000000	36.400640
1156.000000	36.167880
1157.000000	35.928891
1158.000000	35.684397
1159.000000	35.434643
1160.000000	35.177834
1161.000000	34.915323
1162.000000	34.646871
1163.000000	34.372886
1164.000000	34.095683
1165.000000	33.814560
1166.000000	33.532897
1167.000000	33.253174
1168.000000	32.974957
1169.000000	32.697731
1170.000000	32.423234
1171.000000	32.152369
1172.000000	31.884983
1173.000000	31.620966
1174.000000	31.360726
1175.000000	31.103229
1176.000000	30.847483
1177.000000	30.592931
