PE UV       SUBTECH     SPECTRUM    ASCII       PEDS        4.00        
   -1
CICIMAUCR0141-3.Sample.ASC
24/04/04
11:43:11.00
24/04/04
11:43:11.00
Vinicio Soto Monge
C. kalinini
250,000000
1
Lambda 1050
1050L1511233
PerkinElmer UV WinLab 6.3.2.0749 / 2.02.05 Lambda 900 UV/VIS/NIR, Aug  7 2015 09:38:08

0
0
3350/servo 860,8/2
0
0
UV/VIS
1
1
1
DoubleDePol,CommonBeamDepol,RBeamAtt,SBeamAtt,60mm sphere, WB InGaAs Detector
0
0
0
0
Program
Program
3350/servo 860,8/2
3350/0,2 860,8/0,2
3350/0,2 860,8/0,2
0
15.00
 
 
 
0
 
860,8
319,2
860,8
Front
100
on
S:100 R:100
0
0
0
0
 
0
 
 
 
0
 
 
0
0
0
0
0
 
 
 
 
0
0


0
0
#HDR
-1
-1
#GR
nm
%R
1.0
0.0
2500,000000
-1,000000
2251
8
77,545500
5,529700
#DATA
250.000000	nan
251.000000	nan
252.000000	nan
253.000000	nan
254.000000	nan
255.000000	nan
256.000000	nan
257.000000	nan
258.000000	nan
259.000000	nan
260.000000	nan
261.000000	nan
262.000000	nan
263.000000	nan
264.000000	nan
265.000000	nan
266.000000	nan
267.000000	nan
268.000000	nan
269.000000	nan
270.000000	nan
271.000000	nan
272.000000	nan
273.000000	nan
274.000000	nan
275.000000	nan
276.000000	nan
277.000000	nan
278.000000	nan
279.000000	nan
280.000000	nan
281.000000	nan
282.000000	nan
283.000000	nan
284.000000	5.805291
285.000000	5.792104
286.000000	5.780395
287.000000	5.768017
288.000000	5.757009
289.000000	5.745398
290.000000	5.734030
291.000000	5.723015
292.000000	5.712305
293.000000	5.701975
294.000000	5.692410
295.000000	5.683138
296.000000	5.673317
297.000000	5.664475
298.000000	5.656515
299.000000	5.647597
300.000000	5.639826
301.000000	5.631304
302.000000	5.623930
303.000000	5.617442
304.000000	5.612292
305.000000	5.606328
306.000000	5.601587
307.000000	5.595721
308.000000	5.588978
309.000000	5.583621
310.000000	5.578384
311.000000	5.572912
312.000000	5.566117
313.000000	5.560798
314.000000	5.555734
315.000000	5.550283
316.000000	5.546308
317.000000	5.550281
318.000000	5.555064
319.000000	5.558109
320.000000	5.561463
321.000000	5.567475
322.000000	5.571674
323.000000	5.571579
324.000000	5.576386
325.000000	5.581729
326.000000	5.583110
327.000000	5.584215
328.000000	5.581030
329.000000	5.581535
330.000000	5.578679
331.000000	5.577679
332.000000	5.575611
333.000000	5.573442
334.000000	5.572146
335.000000	5.571681
336.000000	5.571945
337.000000	5.572856
338.000000	5.571232
339.000000	5.570056
340.000000	5.571187
341.000000	5.569814
342.000000	5.571821
343.000000	5.572616
344.000000	5.571686
345.000000	5.572556
346.000000	5.573253
347.000000	5.575992
348.000000	5.578149
349.000000	5.577578
350.000000	5.578721
351.000000	5.578291
352.000000	5.573002
353.000000	5.567523
354.000000	5.562247
355.000000	5.556737
356.000000	5.548738
357.000000	5.541941
358.000000	5.539926
359.000000	5.534186
360.000000	5.528004
361.000000	5.525157
362.000000	5.522431
363.000000	5.525431
364.000000	5.524978
365.000000	5.527892
366.000000	5.529172
367.000000	5.531424
368.000000	5.534834
369.000000	5.537182
370.000000	5.536856
371.000000	5.538793
372.000000	5.539134
373.000000	5.540641
374.000000	5.540749
375.000000	5.542323
376.000000	5.549265
377.000000	5.551714
378.000000	5.555684
379.000000	5.561018
380.000000	5.565912
381.000000	5.571797
382.000000	5.577253
383.000000	5.583362
384.000000	5.592073
385.000000	5.600509
386.000000	5.610222
387.000000	5.618299
388.000000	5.625599
389.000000	5.635580
390.000000	5.647001
391.000000	5.658661
392.000000	5.671933
393.000000	5.685575
394.000000	5.700891
395.000000	5.717028
396.000000	5.734415
397.000000	5.753813
398.000000	5.773234
399.000000	5.793859
400.000000	5.816467
401.000000	5.841866
402.000000	5.869929
403.000000	5.898735
404.000000	5.931315
405.000000	5.967666
406.000000	6.005612
407.000000	6.047445
408.000000	6.093919
409.000000	6.145163
410.000000	6.197743
411.000000	6.250820
412.000000	6.311719
413.000000	6.377712
414.000000	6.449175
415.000000	6.526423
416.000000	6.609258
417.000000	6.698590
418.000000	6.795056
419.000000	6.898854
420.000000	7.010398
421.000000	7.129926
422.000000	7.258244
423.000000	7.395736
424.000000	7.542603
425.000000	7.699096
426.000000	7.865544
427.000000	8.042108
428.000000	8.228624
429.000000	8.425392
430.000000	8.632659
431.000000	8.850462
432.000000	9.078805
433.000000	9.317432
434.000000	9.566271
435.000000	9.825116
436.000000	10.093498
437.000000	10.371125
438.000000	10.657299
439.000000	10.951699
440.000000	11.253951
441.000000	11.563283
442.000000	11.879403
443.000000	12.201911
444.000000	12.530387
445.000000	12.864171
446.000000	13.202023
447.000000	13.543209
448.000000	13.886790
449.000000	14.232223
450.000000	14.578894
451.000000	14.926372
452.000000	15.273847
453.000000	15.620453
454.000000	15.965690
455.000000	16.308625
456.000000	16.648337
457.000000	16.983946
458.000000	17.314722
459.000000	17.639963
460.000000	17.959130
461.000000	18.271403
462.000000	18.576514
463.000000	18.874257
464.000000	19.163642
465.000000	19.444127
466.000000	19.715338
467.000000	19.976759
468.000000	20.228184
469.000000	20.469134
470.000000	20.699020
471.000000	20.917709
472.000000	21.125534
473.000000	21.322195
474.000000	21.507250
475.000000	21.680556
476.000000	21.841846
477.000000	21.990899
478.000000	22.127204
479.000000	22.250878
480.000000	22.362101
481.000000	22.461207
482.000000	22.548106
483.000000	22.622848
484.000000	22.684766
485.000000	22.733977
486.000000	22.770632
487.000000	22.794675
488.000000	22.806617
489.000000	22.806850
490.000000	22.796554
491.000000	22.776469
492.000000	22.747208
493.000000	22.710172
494.000000	22.666797
495.000000	22.617976
496.000000	22.565225
497.000000	22.509905
498.000000	22.453136
499.000000	22.396654
500.000000	22.341821
501.000000	22.290158
502.000000	22.243677
503.000000	22.203076
504.000000	22.170169
505.000000	22.146559
506.000000	22.133366
507.000000	22.131303
508.000000	22.141396
509.000000	22.164878
510.000000	22.203046
511.000000	22.255854
512.000000	22.323427
513.000000	22.406769
514.000000	22.506279
515.000000	22.622122
516.000000	22.754584
517.000000	22.904193
518.000000	23.071174
519.000000	23.256295
520.000000	23.460371
521.000000	23.683455
522.000000	23.926691
523.000000	24.189760
524.000000	24.473069
525.000000	24.776489
526.000000	25.100062
527.000000	25.443845
528.000000	25.807004
529.000000	26.189480
530.000000	26.591302
531.000000	27.011986
532.000000	27.451117
533.000000	27.908637
534.000000	28.383568
535.000000	28.875553
536.000000	29.383261
537.000000	29.905144
538.000000	30.440711
539.000000	30.989166
540.000000	31.549753
541.000000	32.121741
542.000000	32.703562
543.000000	33.295661
544.000000	33.896182
545.000000	34.504967
546.000000	35.121308
547.000000	35.745511
548.000000	36.376710
549.000000	37.014431
550.000000	37.659083
551.000000	38.310185
552.000000	38.967157
553.000000	39.629307
554.000000	40.296897
555.000000	40.968200
556.000000	41.642648
557.000000	42.319319
558.000000	42.996201
559.000000	43.672233
560.000000	44.346789
561.000000	45.018906
562.000000	45.686569
563.000000	46.349740
564.000000	47.006300
565.000000	47.655417
566.000000	48.295850
567.000000	48.925779
568.000000	49.542723
569.000000	50.145520
570.000000	50.732723
571.000000	51.305322
572.000000	51.862132
573.000000	52.402844
574.000000	52.927909
575.000000	53.436501
576.000000	53.927829
577.000000	54.402734
578.000000	54.860251
579.000000	55.300026
580.000000	55.720901
581.000000	56.124057
582.000000	56.509668
583.000000	56.877314
584.000000	57.227540
585.000000	57.560959
586.000000	57.876638
587.000000	58.174762
588.000000	58.455092
589.000000	58.716131
590.000000	58.958355
591.000000	59.181095
592.000000	59.383222
593.000000	59.566631
594.000000	59.731079
595.000000	59.875933
596.000000	60.002084
597.000000	60.111658
598.000000	60.203383
599.000000	60.277662
600.000000	60.333771
601.000000	60.372344
602.000000	60.393186
603.000000	60.396573
604.000000	60.382102
605.000000	60.351477
606.000000	60.303135
607.000000	60.238319
608.000000	60.157833
609.000000	60.060439
610.000000	59.946159
611.000000	59.815396
612.000000	59.669891
613.000000	59.507607
614.000000	59.329996
615.000000	59.136374
616.000000	58.927337
617.000000	58.701738
618.000000	58.459726
619.000000	58.201008
620.000000	57.924050
621.000000	57.630326
622.000000	57.319781
623.000000	56.994108
624.000000	56.655088
625.000000	56.303373
626.000000	55.941343
627.000000	55.569700
628.000000	55.190267
629.000000	54.804320
630.000000	54.413552
631.000000	54.018310
632.000000	53.620318
633.000000	53.220597
634.000000	52.821271
635.000000	52.424289
636.000000	52.030153
637.000000	51.639555
638.000000	51.255299
639.000000	50.879423
640.000000	50.511357
641.000000	50.152089
642.000000	49.802037
643.000000	49.460587
644.000000	49.128866
645.000000	48.808642
646.000000	48.500807
647.000000	48.205132
648.000000	47.924478
649.000000	47.659557
650.000000	47.412980
651.000000	47.185631
652.000000	46.979574
653.000000	46.795201
654.000000	46.632415
655.000000	46.491874
656.000000	46.373023
657.000000	46.275627
658.000000	46.197579
659.000000	46.137197
660.000000	46.093501
661.000000	46.063300
662.000000	46.046706
663.000000	46.041148
664.000000	46.045168
665.000000	46.057947
666.000000	46.078131
667.000000	46.104222
668.000000	46.136627
669.000000	46.174599
670.000000	46.217507
671.000000	46.266024
672.000000	46.321568
673.000000	46.383159
674.000000	46.451562
675.000000	46.525986
676.000000	46.607796
677.000000	46.696772
678.000000	46.793241
679.000000	46.897224
680.000000	47.008066
681.000000	47.126207
682.000000	47.249533
683.000000	47.377379
684.000000	47.509432
685.000000	47.645386
686.000000	47.783989
687.000000	47.924379
688.000000	48.068083
689.000000	48.215110
690.000000	48.366308
691.000000	48.523159
692.000000	48.686731
693.000000	48.857602
694.000000	49.037699
695.000000	49.228738
696.000000	49.431495
697.000000	49.646644
698.000000	49.875142
699.000000	50.117092
700.000000	50.372314
701.000000	50.640954
702.000000	50.921326
703.000000	51.212419
704.000000	51.512558
705.000000	51.820873
706.000000	52.135031
707.000000	52.452753
708.000000	52.774378
709.000000	53.098077
710.000000	53.424023
711.000000	53.750301
712.000000	54.075645
713.000000	54.400050
714.000000	54.722657
715.000000	55.042545
716.000000	55.358713
717.000000	55.672432
718.000000	55.983255
719.000000	56.290887
720.000000	56.594080
721.000000	56.894308
722.000000	57.190981
723.000000	57.482076
724.000000	57.768788
725.000000	58.050538
726.000000	58.327888
727.000000	58.600295
728.000000	58.868501
729.000000	59.132296
730.000000	59.390731
731.000000	59.646029
732.000000	59.899453
733.000000	60.151310
734.000000	60.400896
735.000000	60.648403
736.000000	60.895967
737.000000	61.143710
738.000000	61.392655
739.000000	61.645226
740.000000	61.900803
741.000000	62.159298
742.000000	62.422913
743.000000	62.690387
744.000000	62.963111
745.000000	63.240775
746.000000	63.521925
747.000000	63.807102
748.000000	64.095568
749.000000	64.387944
750.000000	64.684007
751.000000	64.982872
752.000000	65.284679
753.000000	65.590241
754.000000	65.898879
755.000000	66.209023
756.000000	66.519352
757.000000	66.829798
758.000000	67.142111
759.000000	67.455869
760.000000	67.769415
761.000000	68.081240
762.000000	68.390874
763.000000	68.699045
764.000000	69.005562
765.000000	69.308516
766.000000	69.606370
767.000000	69.897614
768.000000	70.180708
769.000000	70.457749
770.000000	70.728315
771.000000	70.990940
772.000000	71.245139
773.000000	71.488784
774.000000	71.720098
775.000000	71.942771
776.000000	72.158199
777.000000	72.363666
778.000000	72.559255
779.000000	72.743897
780.000000	72.919580
781.000000	73.086265
782.000000	73.243370
783.000000	73.389519
784.000000	73.527299
785.000000	73.657058
786.000000	73.776087
787.000000	73.885445
788.000000	73.985128
789.000000	74.076077
790.000000	74.157663
791.000000	74.228293
792.000000	74.291816
793.000000	74.346320
794.000000	74.390221
795.000000	74.426068
796.000000	74.453671
797.000000	74.473196
798.000000	74.483782
799.000000	74.485765
800.000000	74.482801
801.000000	74.474812
802.000000	74.462108
803.000000	74.444381
804.000000	74.421808
805.000000	74.393926
806.000000	74.363290
807.000000	74.329161
808.000000	74.290918
809.000000	74.250025
810.000000	74.206315
811.000000	74.161644
812.000000	74.114686
813.000000	74.066237
814.000000	74.015228
815.000000	73.960871
816.000000	73.904324
817.000000	73.846228
818.000000	73.791090
819.000000	73.736971
820.000000	73.678595
821.000000	73.623459
822.000000	73.568161
823.000000	73.509618
824.000000	73.451125
825.000000	73.391146
826.000000	73.332934
827.000000	73.269842
828.000000	73.207170
829.000000	73.140448
830.000000	73.065891
831.000000	72.991876
832.000000	72.912384
833.000000	72.829044
834.000000	72.741046
835.000000	72.646174
836.000000	72.543133
837.000000	72.433122
838.000000	72.315065
839.000000	72.195297
840.000000	72.064252
841.000000	71.928634
842.000000	71.784921
843.000000	71.636274
844.000000	71.485185
845.000000	71.319610
846.000000	71.143371
847.000000	70.958551
848.000000	70.769500
849.000000	70.569958
850.000000	70.361061
851.000000	70.144151
852.000000	69.916098
853.000000	69.687935
854.000000	69.446105
855.000000	69.198980
856.000000	68.940354
857.000000	68.679973
858.000000	68.411461
859.000000	68.195357
860.000000	67.977842
861.000000	67.757926
862.000000	67.538354
863.000000	67.314866
864.000000	67.092391
865.000000	66.873955
866.000000	66.650900
867.000000	66.429701
868.000000	66.209077
869.000000	65.988909
870.000000	65.770224
871.000000	65.555353
872.000000	65.342571
873.000000	65.135007
874.000000	64.925231
875.000000	64.724292
876.000000	64.522706
877.000000	64.325992
878.000000	64.133802
879.000000	63.942571
880.000000	63.762400
881.000000	63.587050
882.000000	63.417645
883.000000	63.249745
884.000000	63.090611
885.000000	62.938984
886.000000	62.794103
887.000000	62.659203
888.000000	62.520755
889.000000	62.390908
890.000000	62.267121
891.000000	62.151805
892.000000	62.036831
893.000000	61.931589
894.000000	61.771924
895.000000	61.615364
896.000000	61.461092
897.000000	61.309569
898.000000	61.160885
899.000000	61.015271
900.000000	60.872990
901.000000	60.733980
902.000000	60.598211
903.000000	60.465387
904.000000	60.335996
905.000000	60.209305
906.000000	60.085135
907.000000	59.963847
908.000000	59.844387
909.000000	59.727238
910.000000	59.610976
911.000000	59.497003
912.000000	59.384336
913.000000	59.273036
914.000000	59.163043
915.000000	59.053614
916.000000	58.945415
917.000000	58.837559
918.000000	58.731006
919.000000	58.624880
920.000000	58.518984
921.000000	58.412869
922.000000	58.306965
923.000000	58.200779
924.000000	58.094809
925.000000	57.989267
926.000000	57.882866
927.000000	57.775895
928.000000	57.668630
929.000000	57.560425
930.000000	57.451514
931.000000	57.342048
932.000000	57.231987
933.000000	57.121008
934.000000	57.009503
935.000000	56.896751
936.000000	56.783362
937.000000	56.668747
938.000000	56.553748
939.000000	56.437801
940.000000	56.321330
941.000000	56.204611
942.000000	56.087618
943.000000	55.970406
944.000000	55.852668
945.000000	55.735732
946.000000	55.618122
947.000000	55.500999
948.000000	55.383879
949.000000	55.267047
950.000000	55.150793
951.000000	55.034219
952.000000	54.918670
953.000000	54.803122
954.000000	54.688500
955.000000	54.574230
956.000000	54.460670
957.000000	54.347952
958.000000	54.236664
959.000000	54.126013
960.000000	54.015682
961.000000	53.906678
962.000000	53.798626
963.000000	53.691037
964.000000	53.584268
965.000000	53.478316
966.000000	53.373164
967.000000	53.268197
968.000000	53.164259
969.000000	53.060894
970.000000	52.958324
971.000000	52.856540
972.000000	52.755964
973.000000	52.656156
974.000000	52.557627
975.000000	52.460220
976.000000	52.363290
977.000000	52.267059
978.000000	52.171810
979.000000	52.077911
980.000000	51.984539
981.000000	51.892214
982.000000	51.800821
983.000000	51.710323
984.000000	51.620643
985.000000	51.531829
986.000000	51.444477
987.000000	51.358475
988.000000	51.273511
989.000000	51.189676
990.000000	51.107484
991.000000	51.027056
992.000000	50.947858
993.000000	50.869999
994.000000	50.793980
995.000000	50.719726
996.000000	50.647376
997.000000	50.576917
998.000000	50.508410
999.000000	50.442196
1000.000000	50.378309
1001.000000	50.316424
1002.000000	50.256859
1003.000000	50.199285
1004.000000	50.144108
1005.000000	50.091370
1006.000000	50.041186
1007.000000	49.993241
1008.000000	49.947450
1009.000000	49.903917
1010.000000	49.862696
1011.000000	49.823883
1012.000000	49.787488
1013.000000	49.753730
1014.000000	49.722179
1015.000000	49.693038
1016.000000	49.665893
1017.000000	49.640712
1018.000000	49.617848
1019.000000	49.597297
1020.000000	49.578718
1021.000000	49.562016
1022.000000	49.547343
1023.000000	49.534805
1024.000000	49.524354
1025.000000	49.515799
1026.000000	49.509027
1027.000000	49.504486
1028.000000	49.501879
1029.000000	49.500950
1030.000000	49.501898
1031.000000	49.504864
1032.000000	49.509745
1033.000000	49.516246
1034.000000	49.524329
1035.000000	49.534044
1036.000000	49.545549
1037.000000	49.558831
1038.000000	49.573734
1039.000000	49.590131
1040.000000	49.607912
1041.000000	49.627027
1042.000000	49.647773
1043.000000	49.670166
1044.000000	49.693777
1045.000000	49.718918
1046.000000	49.745723
1047.000000	49.773549
1048.000000	49.802256
1049.000000	49.832381
1050.000000	49.863986
1051.000000	49.897179
1052.000000	49.931930
1053.000000	49.967840
1054.000000	50.004832
1055.000000	50.043347
1056.000000	50.083420
1057.000000	50.124511
1058.000000	50.166645
1059.000000	50.209724
1060.000000	50.253469
1061.000000	50.298121
1062.000000	50.343637
1063.000000	50.390119
1064.000000	50.437812
1065.000000	50.486389
1066.000000	50.535540
1067.000000	50.585443
1068.000000	50.636279
1069.000000	50.688112
1070.000000	50.740781
1071.000000	50.794199
1072.000000	50.848213
1073.000000	50.903041
1074.000000	50.958912
1075.000000	51.015368
1076.000000	51.072250
1077.000000	51.129648
1078.000000	51.187691
1079.000000	51.246150
1080.000000	51.305075
1081.000000	51.364345
1082.000000	51.423655
1083.000000	51.483552
1084.000000	51.543658
1085.000000	51.603835
1086.000000	51.664212
1087.000000	51.724387
1088.000000	51.784737
1089.000000	51.845034
1090.000000	51.905121
1091.000000	51.965111
1092.000000	52.024820
1093.000000	52.084103
1094.000000	52.143237
1095.000000	52.202566
1096.000000	52.261601
1097.000000	52.320308
1098.000000	52.378789
1099.000000	52.436841
1100.000000	52.494319
1101.000000	52.551652
1102.000000	52.608697
1103.000000	52.665293
1104.000000	52.721246
1105.000000	52.776682
1106.000000	52.831681
1107.000000	52.886279
1108.000000	52.940458
1109.000000	52.993814
1110.000000	53.046956
1111.000000	53.099869
1112.000000	53.152330
1113.000000	53.204470
1114.000000	53.256516
1115.000000	53.308024
1116.000000	53.359123
1117.000000	53.410063
1118.000000	53.460469
1119.000000	53.510354
1120.000000	53.559709
1121.000000	53.608547
1122.000000	53.656771
1123.000000	53.704133
1124.000000	53.750410
1125.000000	53.794902
1126.000000	53.837899
1127.000000	53.879231
1128.000000	53.918650
1129.000000	53.956067
1130.000000	53.990503
1131.000000	54.022282
1132.000000	54.051055
1133.000000	54.076840
1134.000000	54.100596
1135.000000	54.121404
1136.000000	54.137986
1137.000000	54.150361
1138.000000	54.158896
1139.000000	54.163848
1140.000000	54.165368
1141.000000	54.163903
1142.000000	54.159492
1143.000000	54.152179
1144.000000	54.142659
1145.000000	54.130652
1146.000000	54.115974
1147.000000	54.099121
1148.000000	54.079104
1149.000000	54.056552
1150.000000	54.031510
1151.000000	54.003965
1152.000000	53.974327
1153.000000	53.941820
1154.000000	53.906656
1155.000000	53.868559
1156.000000	53.826989
1157.000000	53.782034
1158.000000	53.733644
1159.000000	53.682287
1160.000000	53.627857
1161.000000	53.570198
1162.000000	53.509541
1163.000000	53.446108
1164.000000	53.379950
1165.000000	53.311908
1166.000000	53.242086
1167.000000	53.170532
1168.000000	53.097412
1169.000000	53.021977
1170.000000	52.946091
1171.000000	52.870410
1172.000000	52.795541
1173.000000	52.721523
1174.000000	52.648343
1175.000000	52.575743
1176.000000	52.503359
