PE UV       SUBTECH     SPECTRUM    ASCII       PEDS        4.00        
   -1
CICIMAUCR0014-3.Sample.ASC
24/04/04
11:17:51.00
24/04/04
11:17:51.00
Vinicio Soto Monge
C. cupreomarginata
250,000000
1
Lambda 1050
1050L1511233
PerkinElmer UV WinLab 6.3.2.0749 / 2.02.05 Lambda 900 UV/VIS/NIR, Aug  7 2015 09:38:08

0
0
3350/servo 860,8/2
0
0
UV/VIS
1
1
1
DoubleDePol,CommonBeamDepol,RBeamAtt,SBeamAtt,60mm sphere, WB InGaAs Detector
0
0
0
0
Program
Program
3350/servo 860,8/2
3350/0,2 860,8/0,2
3350/0,2 860,8/0,2
0
15.00
 
 
 
0
 
860,8
319,2
860,8
Front
100
on
S:100 R:100
0
0
0
0
 
0
 
 
 
0
 
 
0
0
0
0
0
 
 
 
 
0
0


0
0
#HDR
-1
-1
#GR
nm
%R
1.0
0.0
2500,000000
-1,000000
2251
8
67,923300
5,031600
#DATA
250.000000	nan
251.000000	nan
252.000000	nan
253.000000	nan
254.000000	nan
255.000000	nan
256.000000	nan
257.000000	nan
258.000000	nan
259.000000	nan
260.000000	nan
261.000000	nan
262.000000	nan
263.000000	nan
264.000000	nan
265.000000	nan
266.000000	nan
267.000000	nan
268.000000	nan
269.000000	nan
270.000000	nan
271.000000	nan
272.000000	nan
273.000000	nan
274.000000	nan
275.000000	nan
276.000000	nan
277.000000	nan
278.000000	nan
279.000000	nan
280.000000	nan
281.000000	nan
282.000000	nan
283.000000	nan
284.000000	5.286924
285.000000	5.275077
286.000000	5.263839
287.000000	5.251991
288.000000	5.239580
289.000000	5.227525
290.000000	5.215011
291.000000	5.202211
292.000000	5.189785
293.000000	5.178109
294.000000	5.165604
295.000000	5.153709
296.000000	5.142288
297.000000	5.131745
298.000000	5.122414
299.000000	5.112344
300.000000	5.102750
301.000000	5.094104
302.000000	5.085807
303.000000	5.076323
304.000000	5.068343
305.000000	5.060528
306.000000	5.051701
307.000000	5.043470
308.000000	5.035469
309.000000	5.027643
310.000000	5.020124
311.000000	5.013158
312.000000	5.007457
313.000000	5.001082
314.000000	4.995051
315.000000	4.989333
316.000000	4.984106
317.000000	4.982583
318.000000	4.983076
319.000000	4.986424
320.000000	4.988012
321.000000	4.983305
322.000000	4.979378
323.000000	4.975809
324.000000	4.977174
325.000000	4.975933
326.000000	4.976132
327.000000	4.979156
328.000000	4.977278
329.000000	4.975899
330.000000	4.974933
331.000000	4.973774
332.000000	4.974595
333.000000	4.974007
334.000000	4.974882
335.000000	4.974821
336.000000	4.974667
337.000000	4.975435
338.000000	4.975676
339.000000	4.977213
340.000000	4.978040
341.000000	4.978571
342.000000	4.978638
343.000000	4.978524
344.000000	4.979170
345.000000	4.979818
346.000000	4.981207
347.000000	4.981298
348.000000	4.982814
349.000000	4.983368
350.000000	4.983983
351.000000	4.985421
352.000000	4.984102
353.000000	4.980268
354.000000	4.972307
355.000000	4.966357
356.000000	4.966748
357.000000	4.966919
358.000000	4.968613
359.000000	4.963769
360.000000	4.962040
361.000000	4.960464
362.000000	4.957037
363.000000	4.956306
364.000000	4.957211
365.000000	4.957196
366.000000	4.957927
367.000000	4.957423
368.000000	4.956569
369.000000	4.955287
370.000000	4.954959
371.000000	4.954726
372.000000	4.953299
373.000000	4.950940
374.000000	4.947209
375.000000	4.945837
376.000000	4.947737
377.000000	4.947233
378.000000	4.947285
379.000000	4.947282
380.000000	4.947162
381.000000	4.947254
382.000000	4.947722
383.000000	4.947475
384.000000	4.948659
385.000000	4.950431
386.000000	4.951678
387.000000	4.953078
388.000000	4.955556
389.000000	4.960020
390.000000	4.964892
391.000000	4.969747
392.000000	4.975324
393.000000	4.980410
394.000000	4.987338
395.000000	4.995553
396.000000	5.004204
397.000000	5.012589
398.000000	5.023207
399.000000	5.034369
400.000000	5.046949
401.000000	5.060370
402.000000	5.075069
403.000000	5.092877
404.000000	5.112399
405.000000	5.133546
406.000000	5.156358
407.000000	5.181832
408.000000	5.212158
409.000000	5.244660
410.000000	5.278561
411.000000	5.313168
412.000000	5.353628
413.000000	5.396852
414.000000	5.443136
415.000000	5.493099
416.000000	5.546435
417.000000	5.603576
418.000000	5.664389
419.000000	5.728988
420.000000	5.797437
421.000000	5.870213
422.000000	5.947171
423.000000	6.028298
424.000000	6.113727
425.000000	6.203408
426.000000	6.297311
427.000000	6.395930
428.000000	6.499310
429.000000	6.607264
430.000000	6.719659
431.000000	6.836620
432.000000	6.958194
433.000000	7.083945
434.000000	7.213989
435.000000	7.348623
436.000000	7.487152
437.000000	7.629633
438.000000	7.775477
439.000000	7.925148
440.000000	8.078754
441.000000	8.235836
442.000000	8.395968
443.000000	8.558977
444.000000	8.724989
445.000000	8.893434
446.000000	9.064000
447.000000	9.236398
448.000000	9.410581
449.000000	9.585799
450.000000	9.761521
451.000000	9.937956
452.000000	10.114695
453.000000	10.291304
454.000000	10.467888
455.000000	10.644195
456.000000	10.819469
457.000000	10.993220
458.000000	11.165762
459.000000	11.336868
460.000000	11.506146
461.000000	11.673549
462.000000	11.838647
463.000000	12.001366
464.000000	12.161773
465.000000	12.319457
466.000000	12.474159
467.000000	12.625708
468.000000	12.773909
469.000000	12.918507
470.000000	13.059501
471.000000	13.196965
472.000000	13.330626
473.000000	13.460360
474.000000	13.585703
475.000000	13.706462
476.000000	13.822646
477.000000	13.934662
478.000000	14.042354
479.000000	14.145553
480.000000	14.244604
481.000000	14.339469
482.000000	14.430266
483.000000	14.517315
484.000000	14.601656
485.000000	14.683582
486.000000	14.763289
487.000000	14.841352
488.000000	14.918564
489.000000	14.995281
490.000000	15.072203
491.000000	15.150430
492.000000	15.230658
493.000000	15.313573
494.000000	15.399895
495.000000	15.490230
496.000000	15.584726
497.000000	15.684431
498.000000	15.789480
499.000000	15.900392
500.000000	16.017693
501.000000	16.141808
502.000000	16.273796
503.000000	16.413684
504.000000	16.561740
505.000000	16.718050
506.000000	16.882624
507.000000	17.055728
508.000000	17.237592
509.000000	17.428726
510.000000	17.629408
511.000000	17.839809
512.000000	18.059723
513.000000	18.289466
514.000000	18.529397
515.000000	18.779483
516.000000	19.039608
517.000000	19.310025
518.000000	19.590856
519.000000	19.881990
520.000000	20.184036
521.000000	20.496980
522.000000	20.820378
523.000000	21.154568
524.000000	21.499891
525.000000	21.855943
526.000000	22.222927
527.000000	22.600970
528.000000	22.989634
529.000000	23.389708
530.000000	23.801505
531.000000	24.226166
532.000000	24.663171
533.000000	25.112753
534.000000	25.574815
535.000000	26.049499
536.000000	26.536452
537.000000	27.035379
538.000000	27.546537
539.000000	28.069625
540.000000	28.604842
541.000000	29.152315
542.000000	29.711304
543.000000	30.281139
544.000000	30.861084
545.000000	31.449943
546.000000	32.047000
547.000000	32.650715
548.000000	33.260219
549.000000	33.873832
550.000000	34.491380
551.000000	35.111811
552.000000	35.734237
553.000000	36.356977
554.000000	36.979385
555.000000	37.600193
556.000000	38.217238
557.000000	38.831575
558.000000	39.441202
559.000000	40.044924
560.000000	40.645408
561.000000	41.238423
562.000000	41.822613
563.000000	42.396658
564.000000	42.958767
565.000000	43.507427
566.000000	44.041345
567.000000	44.559285
568.000000	45.059852
569.000000	45.542391
570.000000	46.005819
571.000000	46.449924
572.000000	46.874137
573.000000	47.277577
574.000000	47.660313
575.000000	48.022646
576.000000	48.363840
577.000000	48.684440
578.000000	48.985598
579.000000	49.267228
580.000000	49.530182
581.000000	49.775448
582.000000	50.004604
583.000000	50.218035
584.000000	50.417927
585.000000	50.602217
586.000000	50.771774
587.000000	50.926674
588.000000	51.068610
589.000000	51.196268
590.000000	51.309825
591.000000	51.410777
592.000000	51.496553
593.000000	51.568952
594.000000	51.627502
595.000000	51.668755
596.000000	51.696572
597.000000	51.711536
598.000000	51.714139
599.000000	51.704592
600.000000	51.683870
601.000000	51.652605
602.000000	51.611184
603.000000	51.560768
604.000000	51.501681
605.000000	51.434673
606.000000	51.360322
607.000000	51.277726
608.000000	51.188921
609.000000	51.092691
610.000000	50.988446
611.000000	50.876390
612.000000	50.755818
613.000000	50.626336
614.000000	50.487657
615.000000	50.338570
616.000000	50.179526
617.000000	50.009001
618.000000	49.827623
619.000000	49.632445
620.000000	49.425833
621.000000	49.207860
622.000000	48.978106
623.000000	48.736292
624.000000	48.483906
625.000000	48.221122
626.000000	47.948583
627.000000	47.667922
628.000000	47.377880
629.000000	47.080199
630.000000	46.774983
631.000000	46.462240
632.000000	46.142543
633.000000	45.816682
634.000000	45.484649
635.000000	45.146677
636.000000	44.803536
637.000000	44.455725
638.000000	44.103853
639.000000	43.748223
640.000000	43.389606
641.000000	43.028005
642.000000	42.666152
643.000000	42.302958
644.000000	41.940225
645.000000	41.579558
646.000000	41.222607
647.000000	40.870721
648.000000	40.524612
649.000000	40.186595
650.000000	39.858312
651.000000	39.539567
652.000000	39.233259
653.000000	38.939830
654.000000	38.661610
655.000000	38.399110
656.000000	38.152977
657.000000	37.924836
658.000000	37.715188
659.000000	37.524460
660.000000	37.352838
661.000000	37.200142
662.000000	37.066343
663.000000	36.952215
664.000000	36.857397
665.000000	36.781333
666.000000	36.723751
667.000000	36.684133
668.000000	36.661527
669.000000	36.656030
670.000000	36.667348
671.000000	36.694136
672.000000	36.735328
673.000000	36.789270
674.000000	36.855828
675.000000	36.933797
676.000000	37.022609
677.000000	37.119437
678.000000	37.224708
679.000000	37.337135
680.000000	37.455290
681.000000	37.578329
682.000000	37.705306
683.000000	37.835182
684.000000	37.966804
685.000000	38.099708
686.000000	38.233710
687.000000	38.366557
688.000000	38.498509
689.000000	38.629610
690.000000	38.758879
691.000000	38.886334
692.000000	39.011166
693.000000	39.132735
694.000000	39.251794
695.000000	39.368495
696.000000	39.482437
697.000000	39.593613
698.000000	39.701812
699.000000	39.806920
700.000000	39.910177
701.000000	40.011105
702.000000	40.109748
703.000000	40.207238
704.000000	40.304213
705.000000	40.399403
706.000000	40.493583
707.000000	40.588259
708.000000	40.684704
709.000000	40.782428
710.000000	40.881919
711.000000	40.983356
712.000000	41.088592
713.000000	41.196635
714.000000	41.308088
715.000000	41.423474
716.000000	41.542203
717.000000	41.664657
718.000000	41.790559
719.000000	41.920124
720.000000	42.053249
721.000000	42.188567
722.000000	42.328329
723.000000	42.471822
724.000000	42.618446
725.000000	42.767729
726.000000	42.919694
727.000000	43.073723
728.000000	43.229866
729.000000	43.387660
730.000000	43.546941
731.000000	43.708023
732.000000	43.870562
733.000000	44.034763
734.000000	44.200460
735.000000	44.366944
736.000000	44.535032
737.000000	44.704610
738.000000	44.875047
739.000000	45.046564
740.000000	45.219523
741.000000	45.393284
742.000000	45.568267
743.000000	45.743463
744.000000	45.918446
745.000000	46.093516
746.000000	46.268739
747.000000	46.443393
748.000000	46.617963
749.000000	46.792232
750.000000	46.965389
751.000000	47.137728
752.000000	47.309389
753.000000	47.480751
754.000000	47.651191
755.000000	47.821049
756.000000	47.991093
757.000000	48.159679
758.000000	48.326550
759.000000	48.492902
760.000000	48.659123
761.000000	48.824660
762.000000	48.990567
763.000000	49.157108
764.000000	49.322254
765.000000	49.486085
766.000000	49.649375
767.000000	49.811952
768.000000	49.974253
769.000000	50.136624
770.000000	50.298281
771.000000	50.459094
772.000000	50.620165
773.000000	50.781662
774.000000	50.941086
775.000000	51.099102
776.000000	51.256996
777.000000	51.414195
778.000000	51.569520
779.000000	51.723739
780.000000	51.878274
781.000000	52.032417
782.000000	52.184867
783.000000	52.335495
784.000000	52.485868
785.000000	52.636187
786.000000	52.786362
787.000000	52.935480
788.000000	53.082407
789.000000	53.228990
790.000000	53.375046
791.000000	53.520262
792.000000	53.665052
793.000000	53.808632
794.000000	53.950777
795.000000	54.091046
796.000000	54.230061
797.000000	54.369196
798.000000	54.506467
799.000000	54.642876
800.000000	54.780609
801.000000	54.916887
802.000000	55.052978
803.000000	55.188229
804.000000	55.322524
805.000000	55.454459
806.000000	55.587733
807.000000	55.718668
808.000000	55.848252
809.000000	55.978454
810.000000	56.106542
811.000000	56.233261
812.000000	56.360200
813.000000	56.487401
814.000000	56.613706
815.000000	56.738369
816.000000	56.861166
817.000000	56.986306
818.000000	57.112122
819.000000	57.238453
820.000000	57.361911
821.000000	57.484370
822.000000	57.608068
823.000000	57.735491
824.000000	57.861690
825.000000	57.988954
826.000000	58.114742
827.000000	58.240657
828.000000	58.370026
829.000000	58.499750
830.000000	58.630244
831.000000	58.761010
832.000000	58.893158
833.000000	59.023714
834.000000	59.155482
835.000000	59.286645
836.000000	59.418730
837.000000	59.552894
838.000000	59.683833
839.000000	59.812719
840.000000	59.942023
841.000000	60.066173
842.000000	60.196650
843.000000	60.325434
844.000000	60.449661
845.000000	60.578155
846.000000	60.707782
847.000000	60.833268
848.000000	60.957258
849.000000	61.081565
850.000000	61.208877
851.000000	61.335730
852.000000	61.452851
853.000000	61.573705
854.000000	61.691408
855.000000	61.812617
856.000000	61.926629
857.000000	62.039462
858.000000	62.150920
859.000000	62.290686
860.000000	62.428646
861.000000	62.569059
862.000000	62.711359
863.000000	62.852124
864.000000	62.993867
865.000000	63.135527
866.000000	63.276915
867.000000	63.414241
868.000000	63.552847
869.000000	63.689202
870.000000	63.823540
871.000000	63.955766
872.000000	64.084177
873.000000	64.213816
874.000000	64.344041
875.000000	64.473624
876.000000	64.604969
877.000000	64.728573
878.000000	64.851800
879.000000	64.976986
880.000000	65.098370
881.000000	65.216291
882.000000	65.334692
883.000000	65.452216
884.000000	65.568870
885.000000	65.679609
886.000000	65.789517
887.000000	65.904525
888.000000	66.012823
889.000000	66.120392
890.000000	66.222983
891.000000	66.330245
892.000000	66.434361
893.000000	66.534298
894.000000	66.603713
895.000000	66.670060
896.000000	66.732506
897.000000	66.789348
898.000000	66.841077
899.000000	66.888532
900.000000	66.932489
901.000000	66.973855
902.000000	67.012649
903.000000	67.048491
904.000000	67.083425
905.000000	67.116130
906.000000	67.145982
907.000000	67.174169
908.000000	67.200514
909.000000	67.225011
910.000000	67.247772
911.000000	67.268767
912.000000	67.288349
913.000000	67.306202
914.000000	67.323368
915.000000	67.338615
916.000000	67.353400
917.000000	67.366569
918.000000	67.378369
919.000000	67.388060
920.000000	67.397041
921.000000	67.404530
922.000000	67.411343
923.000000	67.417195
924.000000	67.421790
925.000000	67.425858
926.000000	67.429119
927.000000	67.431250
928.000000	67.432547
929.000000	67.432828
930.000000	67.432889
931.000000	67.431888
932.000000	67.430430
933.000000	67.428770
934.000000	67.426352
935.000000	67.423350
936.000000	67.418815
937.000000	67.413898
938.000000	67.407825
939.000000	67.400098
940.000000	67.391526
941.000000	67.382580
942.000000	67.372099
943.000000	67.360808
944.000000	67.347556
945.000000	67.334234
946.000000	67.319643
947.000000	67.303863
948.000000	67.287294
949.000000	67.268902
950.000000	67.249566
951.000000	67.228753
952.000000	67.206950
953.000000	67.184906
954.000000	67.161873
955.000000	67.137337
956.000000	67.111681
957.000000	67.084824
958.000000	67.056931
959.000000	67.028272
960.000000	66.999284
961.000000	66.969172
962.000000	66.938566
963.000000	66.907495
964.000000	66.876220
965.000000	66.844382
966.000000	66.812178
967.000000	66.779738
968.000000	66.746938
969.000000	66.713647
970.000000	66.680745
971.000000	66.648072
972.000000	66.615750
973.000000	66.584408
974.000000	66.553558
975.000000	66.522628
976.000000	66.492410
977.000000	66.463179
978.000000	66.434109
979.000000	66.405278
980.000000	66.376729
981.000000	66.348629
982.000000	66.320898
983.000000	66.293473
984.000000	66.266557
985.000000	66.240433
986.000000	66.214828
987.000000	66.189731
988.000000	66.164695
989.000000	66.140498
990.000000	66.117557
991.000000	66.095125
992.000000	66.073371
993.000000	66.052399
994.000000	66.031870
995.000000	66.011992
996.000000	65.992922
997.000000	65.974361
998.000000	65.956350
999.000000	65.938542
1000.000000	65.920709
1001.000000	65.903419
1002.000000	65.886483
1003.000000	65.869737
1004.000000	65.853333
1005.000000	65.836766
1006.000000	65.820398
1007.000000	65.803998
1008.000000	65.787342
1009.000000	65.770210
1010.000000	65.753281
1011.000000	65.736602
1012.000000	65.719544
1013.000000	65.702896
1014.000000	65.686746
1015.000000	65.670492
1016.000000	65.654234
1017.000000	65.638467
1018.000000	65.623127
1019.000000	65.608181
1020.000000	65.593490
1021.000000	65.579354
1022.000000	65.565730
1023.000000	65.552417
1024.000000	65.539684
1025.000000	65.527520
1026.000000	65.516282
1027.000000	65.505790
1028.000000	65.496072
1029.000000	65.487056
1030.000000	65.478539
1031.000000	65.470722
1032.000000	65.463658
1033.000000	65.457486
1034.000000	65.452488
1035.000000	65.448586
1036.000000	65.445509
1037.000000	65.443238
1038.000000	65.442358
1039.000000	65.442616
1040.000000	65.443845
1041.000000	65.446177
1042.000000	65.449726
1043.000000	65.454530
1044.000000	65.460888
1045.000000	65.468771
1046.000000	65.477593
1047.000000	65.487432
1048.000000	65.498690
1049.000000	65.511318
1050.000000	65.525189
1051.000000	65.540143
1052.000000	65.556209
1053.000000	65.573370
1054.000000	65.591407
1055.000000	65.610504
1056.000000	65.630267
1057.000000	65.650869
1058.000000	65.672664
1059.000000	65.695490
1060.000000	65.718774
1061.000000	65.742852
1062.000000	65.767840
1063.000000	65.793343
1064.000000	65.819427
1065.000000	65.845999
1066.000000	65.873001
1067.000000	65.900782
1068.000000	65.929105
1069.000000	65.957877
1070.000000	65.987370
1071.000000	66.017229
1072.000000	66.047649
1073.000000	66.078370
1074.000000	66.109089
1075.000000	66.139908
1076.000000	66.171213
1077.000000	66.202718
1078.000000	66.234457
1079.000000	66.266327
1080.000000	66.297998
1081.000000	66.330119
1082.000000	66.362598
1083.000000	66.394847
1084.000000	66.426807
1085.000000	66.458592
1086.000000	66.490339
1087.000000	66.522218
1088.000000	66.553851
1089.000000	66.584902
1090.000000	66.615396
1091.000000	66.645804
1092.000000	66.675975
1093.000000	66.705273
1094.000000	66.733973
1095.000000	66.762551
1096.000000	66.790349
1097.000000	66.817069
1098.000000	66.843031
1099.000000	66.868764
1100.000000	66.893893
1101.000000	66.918311
1102.000000	66.942210
1103.000000	66.964897
1104.000000	66.986796
1105.000000	67.007853
1106.000000	67.028273
1107.000000	67.047770
1108.000000	67.066473
1109.000000	67.084556
1110.000000	67.102511
1111.000000	67.119641
1112.000000	67.135714
1113.000000	67.150952
1114.000000	67.165860
1115.000000	67.180370
1116.000000	67.193849
1117.000000	67.206804
1118.000000	67.218986
1119.000000	67.230450
1120.000000	67.241055
1121.000000	67.250763
1122.000000	67.259433
1123.000000	67.266759
1124.000000	67.273525
1125.000000	67.278126
1126.000000	67.280861
1127.000000	67.281061
1128.000000	67.279512
1129.000000	67.275411
1130.000000	67.268113
1131.000000	67.257369
1132.000000	67.242626
1133.000000	67.224248
1134.000000	67.203172
1135.000000	67.178561
1136.000000	67.149750
1137.000000	67.115309
1138.000000	67.076334
1139.000000	67.032650
1140.000000	66.985128
1141.000000	66.934150
1142.000000	66.879606
1143.000000	66.821195
1144.000000	66.760349
1145.000000	66.697104
1146.000000	66.631951
1147.000000	66.565430
1148.000000	66.497491
1149.000000	66.428044
1150.000000	66.357019
1151.000000	66.285230
1152.000000	66.211769
1153.000000	66.137239
1154.000000	66.060762
1155.000000	65.982482
1156.000000	65.901883
1157.000000	65.818035
1158.000000	65.730881
1159.000000	65.640230
1160.000000	65.546629
1161.000000	65.449716
1162.000000	65.349522
1163.000000	65.245787
1164.000000	65.138775
1165.000000	65.029186
1166.000000	64.917417
1167.000000	64.804484
1168.000000	64.689935
1169.000000	64.572811
1170.000000	64.454506
1171.000000	64.335262
1172.000000	64.216754
1173.000000	64.098853
1174.000000	63.981450
1175.000000	63.864012
1176.000000	63.745645
