PE UV       SUBTECH     SPECTRUM    ASCII       PEDS        4.00        
   -1
CICIMAUCR0112-2.Sample.ASC
24/04/04
15:29:38.00
24/04/04
15:29:38.00
Vinicio Soto Monge
C. resplendens
250,000000
1
Lambda 1050
1050L1511233
PerkinElmer UV WinLab 6.3.2.0749 / 2.02.05 Lambda 900 UV/VIS/NIR, Aug  7 2015 09:38:08

0
0
3350/servo 860,8/2
0
0
UV/VIS
1
1
1
DoubleDePol,CommonBeamDepol,RBeamAtt,SBeamAtt,60mm sphere, WB InGaAs Detector
0
0
0
0
Program
Program
3350/servo 860,8/2
3350/0,2 860,8/0,2
3350/0,2 860,8/0,2
0
15.00
 
 
 
0
 
860,8
319,2
860,8
Front
100
on
S:100 R:100
0
0
0
0
 
0
 
 
 
0
 
 
0
0
0
0
0
 
 
 
 
0
0


0
0
#HDR
-1
-1
#GR
nm
%R
1.0
0.0
2500,000000
-1,000000
2251
8
62,626100
4,604700
#DATA
250.000000	nan
251.000000	nan
252.000000	nan
253.000000	nan
254.000000	nan
255.000000	nan
256.000000	nan
257.000000	nan
258.000000	nan
259.000000	nan
260.000000	nan
261.000000	nan
262.000000	nan
263.000000	nan
264.000000	nan
265.000000	nan
266.000000	nan
267.000000	nan
268.000000	nan
269.000000	nan
270.000000	nan
271.000000	nan
272.000000	nan
273.000000	nan
274.000000	nan
275.000000	nan
276.000000	nan
277.000000	nan
278.000000	nan
279.000000	nan
280.000000	nan
281.000000	nan
282.000000	nan
283.000000	nan
284.000000	5.439359
285.000000	5.424784
286.000000	5.411250
287.000000	5.397621
288.000000	5.384052
289.000000	5.370785
290.000000	5.356788
291.000000	5.342480
292.000000	5.327130
293.000000	5.313981
294.000000	5.300834
295.000000	5.288344
296.000000	5.276787
297.000000	5.265238
298.000000	5.254646
299.000000	5.244320
300.000000	5.233853
301.000000	5.224307
302.000000	5.215202
303.000000	5.207089
304.000000	5.199108
305.000000	5.192034
306.000000	5.185672
307.000000	5.179480
308.000000	5.172998
309.000000	5.167299
310.000000	5.162167
311.000000	5.157954
312.000000	5.153183
313.000000	5.148558
314.000000	5.144239
315.000000	5.139601
316.000000	5.136813
317.000000	5.144738
318.000000	5.158729
319.000000	5.166602
320.000000	5.175111
321.000000	5.182552
322.000000	5.191595
323.000000	5.198992
324.000000	5.205246
325.000000	5.213984
326.000000	5.222324
327.000000	5.227780
328.000000	5.232544
329.000000	5.239426
330.000000	5.245380
331.000000	5.251735
332.000000	5.255655
333.000000	5.261960
334.000000	5.269011
335.000000	5.274338
336.000000	5.279507
337.000000	5.284986
338.000000	5.291678
339.000000	5.298039
340.000000	5.303052
341.000000	5.307754
342.000000	5.312944
343.000000	5.319294
344.000000	5.324908
345.000000	5.329682
346.000000	5.333690
347.000000	5.340341
348.000000	5.344909
349.000000	5.349738
350.000000	5.357393
351.000000	5.363453
352.000000	5.358626
353.000000	5.348855
354.000000	5.346440
355.000000	5.344469
356.000000	5.343534
357.000000	5.341365
358.000000	5.341731
359.000000	5.342500
360.000000	5.340006
361.000000	5.340928
362.000000	5.344773
363.000000	5.350401
364.000000	5.352586
365.000000	5.355439
366.000000	5.357105
367.000000	5.361548
368.000000	5.363982
369.000000	5.367930
370.000000	5.373478
371.000000	5.378032
372.000000	5.383160
373.000000	5.387709
374.000000	5.392604
375.000000	5.398978
376.000000	5.407944
377.000000	5.412199
378.000000	5.415769
379.000000	5.419919
380.000000	5.425392
381.000000	5.432392
382.000000	5.437446
383.000000	5.444974
384.000000	5.453299
385.000000	5.459920
386.000000	5.466937
387.000000	5.474825
388.000000	5.482816
389.000000	5.490830
390.000000	5.498233
391.000000	5.506310
392.000000	5.514404
393.000000	5.522470
394.000000	5.532401
395.000000	5.543470
396.000000	5.552844
397.000000	5.562971
398.000000	5.572531
399.000000	5.583594
400.000000	5.595788
401.000000	5.608890
402.000000	5.622070
403.000000	5.636020
404.000000	5.648903
405.000000	5.663468
406.000000	5.679987
407.000000	5.696771
408.000000	5.713924
409.000000	5.733139
410.000000	5.753186
411.000000	5.772743
412.000000	5.798758
413.000000	5.826302
414.000000	5.855892
415.000000	5.887506
416.000000	5.921316
417.000000	5.958126
418.000000	5.998198
419.000000	6.041378
420.000000	6.088448
421.000000	6.140110
422.000000	6.196342
423.000000	6.257624
424.000000	6.324335
425.000000	6.397312
426.000000	6.476959
427.000000	6.563555
428.000000	6.657384
429.000000	6.758864
430.000000	6.868788
431.000000	6.987268
432.000000	7.114601
433.000000	7.251134
434.000000	7.396986
435.000000	7.552197
436.000000	7.717089
437.000000	7.891696
438.000000	8.075760
439.000000	8.269257
440.000000	8.471911
441.000000	8.683918
442.000000	8.905038
443.000000	9.134868
444.000000	9.372971
445.000000	9.618759
446.000000	9.871261
447.000000	10.130258
448.000000	10.395606
449.000000	10.666324
450.000000	10.941971
451.000000	11.222040
452.000000	11.505504
453.000000	11.791636
454.000000	12.080345
455.000000	12.370855
456.000000	12.661905
457.000000	12.953055
458.000000	13.244087
459.000000	13.533853
460.000000	13.821581
461.000000	14.107154
462.000000	14.390000
463.000000	14.669518
464.000000	14.945130
465.000000	15.216268
466.000000	15.482943
467.000000	15.744519
468.000000	16.000192
469.000000	16.250249
470.000000	16.494891
471.000000	16.733736
472.000000	16.966481
473.000000	17.192930
474.000000	17.413138
475.000000	17.627190
476.000000	17.834866
477.000000	18.035951
478.000000	18.230362
479.000000	18.418772
480.000000	18.602049
481.000000	18.780883
482.000000	18.954819
483.000000	19.123671
484.000000	19.287303
485.000000	19.445357
486.000000	19.597646
487.000000	19.743947
488.000000	19.884930
489.000000	20.019974
490.000000	20.148838
491.000000	20.271268
492.000000	20.387373
493.000000	20.496361
494.000000	20.598037
495.000000	20.692566
496.000000	20.779871
497.000000	20.859770
498.000000	20.932583
499.000000	20.998277
500.000000	21.057498
501.000000	21.110881
502.000000	21.159848
503.000000	21.205742
504.000000	21.249955
505.000000	21.293757
506.000000	21.339142
507.000000	21.388950
508.000000	21.445476
509.000000	21.510757
510.000000	21.587432
511.000000	21.677726
512.000000	21.784131
513.000000	21.908409
514.000000	22.051604
515.000000	22.214208
516.000000	22.397323
517.000000	22.601774
518.000000	22.828234
519.000000	23.078184
520.000000	23.352827
521.000000	23.651941
522.000000	23.976899
523.000000	24.327678
524.000000	24.704706
525.000000	25.108353
526.000000	25.539270
527.000000	25.997381
528.000000	26.482267
529.000000	26.994642
530.000000	27.535223
531.000000	28.103316
532.000000	28.698541
533.000000	29.320549
534.000000	29.968991
535.000000	30.642064
536.000000	31.339258
537.000000	32.059019
538.000000	32.799729
539.000000	33.559063
540.000000	34.335370
541.000000	35.125938
542.000000	35.927700
543.000000	36.737703
544.000000	37.553560
545.000000	38.371527
546.000000	39.188769
547.000000	40.002404
548.000000	40.810464
549.000000	41.610887
550.000000	42.402164
551.000000	43.183296
552.000000	43.952517
553.000000	44.709516
554.000000	45.452429
555.000000	46.180647
556.000000	46.893428
557.000000	47.590689
558.000000	48.270685
559.000000	48.934032
560.000000	49.581206
561.000000	50.210474
562.000000	50.821917
563.000000	51.416285
564.000000	51.992725
565.000000	52.550000
566.000000	53.088431
567.000000	53.608296
568.000000	54.109454
569.000000	54.591684
570.000000	55.055256
571.000000	55.500666
572.000000	55.927412
573.000000	56.335241
574.000000	56.724232
575.000000	57.095810
576.000000	57.449971
577.000000	57.786472
578.000000	58.106265
579.000000	58.409643
580.000000	58.696970
581.000000	58.969236
582.000000	59.227243
583.000000	59.471809
584.000000	59.702117
585.000000	59.919777
586.000000	60.123706
587.000000	60.314654
588.000000	60.492505
589.000000	60.658970
590.000000	60.812723
591.000000	60.954535
592.000000	61.083398
593.000000	61.200650
594.000000	61.305222
595.000000	61.394635
596.000000	61.471513
597.000000	61.534329
598.000000	61.583757
599.000000	61.618506
600.000000	61.639975
601.000000	61.646955
602.000000	61.639694
603.000000	61.618456
604.000000	61.583623
605.000000	61.535513
606.000000	61.473863
607.000000	61.398601
608.000000	61.311775
609.000000	61.213058
610.000000	61.100416
611.000000	60.974257
612.000000	60.833584
613.000000	60.677889
614.000000	60.506109
615.000000	60.317302
616.000000	60.109107
617.000000	59.879960
618.000000	59.628385
619.000000	59.354474
620.000000	59.056546
621.000000	58.735444
622.000000	58.391651
623.000000	58.026446
624.000000	57.640659
625.000000	57.237488
626.000000	56.819939
627.000000	56.389755
628.000000	55.948672
629.000000	55.497724
630.000000	55.038177
631.000000	54.568205
632.000000	54.087848
633.000000	53.594011
634.000000	53.086840
635.000000	52.565023
636.000000	52.028406
637.000000	51.475614
638.000000	50.907618
639.000000	50.325290
640.000000	49.730067
641.000000	49.123957
642.000000	48.512070
643.000000	47.896780
644.000000	47.282712
645.000000	46.674669
646.000000	46.077215
647.000000	45.494805
648.000000	44.929582
649.000000	44.384344
650.000000	43.860910
651.000000	43.361041
652.000000	42.886526
653.000000	42.438404
654.000000	42.016415
655.000000	41.621635
656.000000	41.253963
657.000000	40.914017
658.000000	40.601422
659.000000	40.316151
660.000000	40.058997
661.000000	39.829229
662.000000	39.628800
663.000000	39.458050
664.000000	39.318535
665.000000	39.213120
666.000000	39.143184
667.000000	39.109374
668.000000	39.112983
669.000000	39.154430
670.000000	39.232910
671.000000	39.346012
672.000000	39.493809
673.000000	39.672883
674.000000	39.879575
675.000000	40.111818
676.000000	40.366045
677.000000	40.638080
678.000000	40.924406
679.000000	41.221346
680.000000	41.526083
681.000000	41.835085
682.000000	42.147244
683.000000	42.463225
684.000000	42.781416
685.000000	43.103061
686.000000	43.427636
687.000000	43.753401
688.000000	44.079701
689.000000	44.406660
690.000000	44.732522
691.000000	45.056411
692.000000	45.375042
693.000000	45.685714
694.000000	45.987110
695.000000	46.275820
696.000000	46.549389
697.000000	46.803485
698.000000	47.037539
699.000000	47.251636
700.000000	47.443041
701.000000	47.613102
702.000000	47.764979
703.000000	47.901212
704.000000	48.023849
705.000000	48.134017
706.000000	48.236283
707.000000	48.331415
708.000000	48.423557
709.000000	48.514692
710.000000	48.603507
711.000000	48.691637
712.000000	48.778875
713.000000	48.864068
714.000000	48.945771
715.000000	49.022130
716.000000	49.093163
717.000000	49.157765
718.000000	49.213361
719.000000	49.259568
720.000000	49.296401
721.000000	49.325600
722.000000	49.349279
723.000000	49.368823
724.000000	49.388648
725.000000	49.411317
726.000000	49.438537
727.000000	49.473402
728.000000	49.518638
729.000000	49.575243
730.000000	49.643325
731.000000	49.724205
732.000000	49.817683
733.000000	49.922578
734.000000	50.036159
735.000000	50.158187
736.000000	50.287565
737.000000	50.420610
738.000000	50.555547
739.000000	50.692741
740.000000	50.833563
741.000000	50.977504
742.000000	51.125289
743.000000	51.275339
744.000000	51.430128
745.000000	51.592786
746.000000	51.763164
747.000000	51.942817
748.000000	52.133354
749.000000	52.335559
750.000000	52.550139
751.000000	52.776979
752.000000	53.013949
753.000000	53.259818
754.000000	53.514522
755.000000	53.776793
756.000000	54.044309
757.000000	54.314833
758.000000	54.588242
759.000000	54.862177
760.000000	55.134016
761.000000	55.402537
762.000000	55.667914
763.000000	55.928876
764.000000	56.184351
765.000000	56.436211
766.000000	56.682856
767.000000	56.925415
768.000000	57.164850
769.000000	57.403323
770.000000	57.639696
771.000000	57.872257
772.000000	58.101633
773.000000	58.329348
774.000000	58.553647
775.000000	58.770545
776.000000	58.980008
777.000000	59.182527
778.000000	59.376623
779.000000	59.561841
780.000000	59.735249
781.000000	59.897796
782.000000	60.048842
783.000000	60.186415
784.000000	60.312227
785.000000	60.425925
786.000000	60.528806
787.000000	60.625192
788.000000	60.715476
789.000000	60.798896
790.000000	60.877537
791.000000	60.952818
792.000000	61.024926
793.000000	61.095010
794.000000	61.162142
795.000000	61.226536
796.000000	61.289969
797.000000	61.351624
798.000000	61.410774
799.000000	61.467425
800.000000	61.520935
801.000000	61.570694
802.000000	61.619136
803.000000	61.661922
804.000000	61.698017
805.000000	61.730875
806.000000	61.763903
807.000000	61.796828
808.000000	61.826424
809.000000	61.856109
810.000000	61.886103
811.000000	61.919486
812.000000	61.952778
813.000000	61.987279
814.000000	62.022140
815.000000	62.059234
816.000000	62.097626
817.000000	62.132569
818.000000	62.168265
819.000000	62.204246
820.000000	62.237812
821.000000	62.270533
822.000000	62.296528
823.000000	62.318531
824.000000	62.336008
825.000000	62.349886
826.000000	62.360844
827.000000	62.372372
828.000000	62.383330
829.000000	62.390183
830.000000	62.396608
831.000000	62.402672
832.000000	62.405771
833.000000	62.410479
834.000000	62.415234
835.000000	62.419691
836.000000	62.427437
837.000000	62.433398
838.000000	62.437262
839.000000	62.445613
840.000000	62.450302
841.000000	62.450773
842.000000	62.448876
843.000000	62.444698
844.000000	62.432919
845.000000	62.420038
846.000000	62.409989
847.000000	62.393757
848.000000	62.370860
849.000000	62.344311
850.000000	62.320089
851.000000	62.290952
852.000000	62.259758
853.000000	62.223017
854.000000	62.181848
855.000000	62.139275
856.000000	62.091177
857.000000	62.042657
858.000000	62.073875
859.000000	62.071830
860.000000	62.063272
861.000000	62.047450
862.000000	62.022083
863.000000	61.986315
864.000000	61.944480
865.000000	61.894151
866.000000	61.834675
867.000000	61.768921
868.000000	61.693710
869.000000	61.611410
870.000000	61.521968
871.000000	61.423206
872.000000	61.318707
873.000000	61.212342
874.000000	61.098286
875.000000	60.982747
876.000000	60.865305
877.000000	60.743496
878.000000	60.621229
879.000000	60.500817
880.000000	60.378927
881.000000	60.248083
882.000000	60.120586
883.000000	59.997088
884.000000	59.874982
885.000000	59.747776
886.000000	59.622953
887.000000	59.501254
888.000000	59.383889
889.000000	59.268907
890.000000	59.156556
891.000000	59.046803
892.000000	58.937822
893.000000	58.747961
894.000000	58.591293
895.000000	58.438249
896.000000	58.288033
897.000000	58.140923
898.000000	57.997036
899.000000	57.856097
900.000000	57.717936
901.000000	57.582133
902.000000	57.448221
903.000000	57.316379
904.000000	57.185763
905.000000	57.057174
906.000000	56.930399
907.000000	56.805873
908.000000	56.683256
909.000000	56.562201
910.000000	56.444191
911.000000	56.327773
912.000000	56.216126
913.000000	56.106610
914.000000	56.000744
915.000000	55.898350
916.000000	55.798509
917.000000	55.701339
918.000000	55.606323
919.000000	55.513389
920.000000	55.423579
921.000000	55.334820
922.000000	55.248143
923.000000	55.163314
924.000000	55.079814
925.000000	54.997716
926.000000	54.917671
927.000000	54.839280
928.000000	54.762903
929.000000	54.689737
930.000000	54.618994
931.000000	54.551284
932.000000	54.486946
933.000000	54.426221
934.000000	54.369019
935.000000	54.315906
936.000000	54.266681
937.000000	54.222009
938.000000	54.181329
939.000000	54.144940
940.000000	54.111574
941.000000	54.082280
942.000000	54.055164
943.000000	54.030934
944.000000	54.008170
945.000000	53.986339
946.000000	53.965913
947.000000	53.945450
948.000000	53.924960
949.000000	53.904309
950.000000	53.883550
951.000000	53.863096
952.000000	53.843201
953.000000	53.823999
954.000000	53.804443
955.000000	53.784686
956.000000	53.765166
957.000000	53.745364
958.000000	53.725064
959.000000	53.704527
960.000000	53.683120
961.000000	53.660506
962.000000	53.636809
963.000000	53.611696
964.000000	53.585071
965.000000	53.556781
966.000000	53.527139
967.000000	53.496180
968.000000	53.463783
969.000000	53.429649
970.000000	53.394093
971.000000	53.356466
972.000000	53.316401
973.000000	53.274753
974.000000	53.230644
975.000000	53.184454
976.000000	53.135500
977.000000	53.084671
978.000000	53.031194
979.000000	52.975603
980.000000	52.917249
981.000000	52.856199
982.000000	52.791943
983.000000	52.724880
984.000000	52.654140
985.000000	52.579817
986.000000	52.502714
987.000000	52.421846
988.000000	52.337647
989.000000	52.250890
990.000000	52.161630
991.000000	52.070960
992.000000	51.978340
993.000000	51.884139
994.000000	51.789084
995.000000	51.693311
996.000000	51.597449
997.000000	51.501367
998.000000	51.404817
999.000000	51.307664
1000.000000	51.210436
1001.000000	51.112851
1002.000000	51.014333
1003.000000	50.915101
1004.000000	50.815480
1005.000000	50.714750
1006.000000	50.613364
1007.000000	50.511360
1008.000000	50.408377
1009.000000	50.304739
1010.000000	50.200326
1011.000000	50.095981
1012.000000	49.991860
1013.000000	49.888593
1014.000000	49.786176
1015.000000	49.685360
1016.000000	49.586683
1017.000000	49.490750
1018.000000	49.398476
1019.000000	49.309813
1020.000000	49.224356
1021.000000	49.142580
1022.000000	49.064966
1023.000000	48.991649
1024.000000	48.922596
1025.000000	48.857347
1026.000000	48.795729
1027.000000	48.738283
1028.000000	48.684489
1029.000000	48.633381
1030.000000	48.585324
1031.000000	48.540093
1032.000000	48.497640
1033.000000	48.458069
1034.000000	48.421146
1035.000000	48.386746
1036.000000	48.354579
1037.000000	48.325057
1038.000000	48.298107
1039.000000	48.273587
1040.000000	48.251606
1041.000000	48.232181
1042.000000	48.215426
1043.000000	48.201226
1044.000000	48.190067
1045.000000	48.181711
1046.000000	48.175367
1047.000000	48.170844
1048.000000	48.167979
1049.000000	48.166654
1050.000000	48.166550
1051.000000	48.166959
1052.000000	48.167731
1053.000000	48.169256
1054.000000	48.171586
1055.000000	48.174830
1056.000000	48.178497
1057.000000	48.182630
1058.000000	48.187079
1059.000000	48.191560
1060.000000	48.196204
1061.000000	48.200933
1062.000000	48.205966
1063.000000	48.211473
1064.000000	48.217867
1065.000000	48.224837
1066.000000	48.232507
1067.000000	48.241281
1068.000000	48.250886
1069.000000	48.261186
1070.000000	48.272569
1071.000000	48.285387
1072.000000	48.299447
1073.000000	48.314829
1074.000000	48.331194
1075.000000	48.348874
1076.000000	48.368333
1077.000000	48.389200
1078.000000	48.411370
1079.000000	48.434800
1080.000000	48.459866
1081.000000	48.486417
1082.000000	48.514169
1083.000000	48.543716
1084.000000	48.574704
1085.000000	48.607544
1086.000000	48.642097
1087.000000	48.678189
1088.000000	48.714763
1089.000000	48.752027
1090.000000	48.789857
1091.000000	48.827966
1092.000000	48.866017
1093.000000	48.904513
1094.000000	48.942900
1095.000000	48.981431
1096.000000	49.019854
1097.000000	49.057884
1098.000000	49.095379
1099.000000	49.132299
1100.000000	49.168903
1101.000000	49.204901
1102.000000	49.239924
1103.000000	49.274091
1104.000000	49.307537
1105.000000	49.339776
1106.000000	49.371174
1107.000000	49.401343
1108.000000	49.429883
1109.000000	49.457516
1110.000000	49.483979
1111.000000	49.508791
1112.000000	49.532443
1113.000000	49.554844
1114.000000	49.575984
1115.000000	49.595743
1116.000000	49.613901
1117.000000	49.630474
1118.000000	49.644173
1119.000000	49.654980
1120.000000	49.661386
1121.000000	49.663099
1122.000000	49.660054
1123.000000	49.651890
1124.000000	49.638303
1125.000000	49.618741
1126.000000	49.593540
1127.000000	49.561876
1128.000000	49.521413
1129.000000	49.471230
1130.000000	49.409590
1131.000000	49.335050
1132.000000	49.245061
1133.000000	49.140426
1134.000000	49.020010
1135.000000	48.881339
1136.000000	48.723290
1137.000000	48.545451
1138.000000	48.348660
1139.000000	48.133389
1140.000000	47.900326
1141.000000	47.650680
1142.000000	47.384383
1143.000000	47.102520
1144.000000	46.806430
1145.000000	46.499024
1146.000000	46.183487
1147.000000	45.864073
1148.000000	45.543879
1149.000000	45.224583
1150.000000	44.907061
1151.000000	44.591496
1152.000000	44.276999
1153.000000	43.962840
1154.000000	43.647013
1155.000000	43.327464
1156.000000	43.001834
1157.000000	42.667717
1158.000000	42.324070
1159.000000	41.969574
1160.000000	41.604619
1161.000000	41.228527
1162.000000	40.842491
1163.000000	40.447217
1164.000000	40.044860
1165.000000	39.637377
1166.000000	39.226844
1167.000000	38.816437
1168.000000	38.405896
1169.000000	37.996067
1170.000000	37.589777
1171.000000	37.189539
1172.000000	36.795399
1173.000000	36.407611
1174.000000	36.026569
1175.000000	35.652114
1176.000000	35.282770
