PE UV       SUBTECH     SPECTRUM    ASCII       PEDS        4.00        
   -1
CICIMAUCR0044-1.ASC
24/04/03
11:33:37.00
24/04/03
11:33:37.00
Vinicio Soto Monge
C optima #8 17
250,000000
1
Lambda 1050
1050L1511233
PerkinElmer UV WinLab 6.3.2.0749 / 2.02.05 Lambda 900 UV/VIS/NIR, Aug  7 2015 09:38:08

0
0
3350/servo 860,8/2
0
0
UV/VIS
1
1
1
DoubleDePol,CommonBeamDepol,RBeamAtt,SBeamAtt,60mm sphere, WB InGaAs Detector
0
0
0
0
Program
Program
3350/servo 860,8/2
3350/0,2 860,8/0,2
3350/0,2 860,8/0,2
0
15.00
 
 
 
0
 
860,8
319,2
860,8
Front
100
on
S:100 R:100
0
0
0
0
 
0
 
 
 
0
 
 
0
0
0
0
0
 
 
 
 
0
0


0
0
#HDR
-1
-1
#GR
nm
%R
1.0
0.0
2000,000000
-1,000000
1751
8
60,646000
5,166000
#DATA
250.000000	nan
251.000000	nan
252.000000	nan
253.000000	nan
254.000000	nan
255.000000	nan
256.000000	nan
257.000000	nan
258.000000	nan
259.000000	nan
260.000000	nan
261.000000	nan
262.000000	nan
263.000000	nan
264.000000	nan
265.000000	nan
266.000000	nan
267.000000	nan
268.000000	nan
269.000000	nan
270.000000	nan
271.000000	nan
272.000000	nan
273.000000	nan
274.000000	nan
275.000000	nan
276.000000	nan
277.000000	nan
278.000000	nan
279.000000	nan
280.000000	nan
281.000000	nan
282.000000	nan
283.000000	nan
284.000000	5.076012
285.000000	5.067780
286.000000	5.058999
287.000000	5.049993
288.000000	5.041772
289.000000	5.035185
290.000000	5.027697
291.000000	5.020534
292.000000	5.012680
293.000000	5.006657
294.000000	4.999561
295.000000	4.993069
296.000000	4.987927
297.000000	4.981342
298.000000	4.976143
299.000000	4.972026
300.000000	4.969773
301.000000	4.968243
302.000000	4.965650
303.000000	4.963395
304.000000	4.960846
305.000000	4.959821
306.000000	4.958345
307.000000	4.956552
308.000000	4.957400
309.000000	4.957919
310.000000	4.959359
311.000000	4.960302
312.000000	4.961865
313.000000	4.964474
314.000000	4.964922
315.000000	4.968501
316.000000	4.970814
317.000000	4.977024
318.000000	4.981837
319.000000	4.986220
320.000000	4.992452
321.000000	4.999132
322.000000	5.009723
323.000000	5.018109
324.000000	5.025053
325.000000	5.032084
326.000000	5.039503
327.000000	5.047515
328.000000	5.055390
329.000000	5.063060
330.000000	5.071685
331.000000	5.080923
332.000000	5.093525
333.000000	5.105529
334.000000	5.117459
335.000000	5.128558
336.000000	5.142894
337.000000	5.153675
338.000000	5.164711
339.000000	5.178267
340.000000	5.191920
341.000000	5.210020
342.000000	5.228003
343.000000	5.247537
344.000000	5.265387
345.000000	5.286329
346.000000	5.309851
347.000000	5.333405
348.000000	5.360829
349.000000	5.391381
350.000000	5.423077
351.000000	5.459504
352.000000	5.494858
353.000000	5.535322
354.000000	5.581658
355.000000	5.627820
356.000000	5.681393
357.000000	5.739443
358.000000	5.801732
359.000000	5.871728
360.000000	5.948159
361.000000	6.034521
362.000000	6.128348
363.000000	6.230584
364.000000	6.342865
365.000000	6.465996
366.000000	6.595493
367.000000	6.733037
368.000000	6.884272
369.000000	7.047427
370.000000	7.221455
371.000000	7.403514
372.000000	7.603007
373.000000	7.818616
374.000000	8.045332
375.000000	8.279801
376.000000	8.527991
377.000000	8.797459
378.000000	9.078571
379.000000	9.376221
380.000000	9.685686
381.000000	10.008170
382.000000	10.345106
383.000000	10.691597
384.000000	11.050046
385.000000	11.420937
386.000000	11.801053
387.000000	12.191063
388.000000	12.588168
389.000000	12.994290
390.000000	13.409555
391.000000	13.829686
392.000000	14.252707
393.000000	14.682824
394.000000	15.115924
395.000000	15.552726
396.000000	15.988914
397.000000	16.424966
398.000000	16.858838
399.000000	17.288965
400.000000	17.713263
401.000000	18.136455
402.000000	18.555666
403.000000	18.965718
404.000000	19.367788
405.000000	19.762042
406.000000	20.148475
407.000000	20.525249
408.000000	20.887927
409.000000	21.238715
410.000000	21.581953
411.000000	21.909065
412.000000	22.215473
413.000000	22.507723
414.000000	22.784606
415.000000	23.046445
416.000000	23.291924
417.000000	23.521346
418.000000	23.735098
419.000000	23.932909
420.000000	24.113251
421.000000	24.278003
422.000000	24.427532
423.000000	24.561168
424.000000	24.678109
425.000000	24.779073
426.000000	24.863410
427.000000	24.932825
428.000000	24.986939
429.000000	25.024777
430.000000	25.047804
431.000000	25.055424
432.000000	25.050913
433.000000	25.034571
434.000000	25.006400
435.000000	24.967546
436.000000	24.919582
437.000000	24.863959
438.000000	24.802105
439.000000	24.736275
440.000000	24.668304
441.000000	24.598085
442.000000	24.527833
443.000000	24.460636
444.000000	24.397320
445.000000	24.339722
446.000000	24.287893
447.000000	24.244215
448.000000	24.208429
449.000000	24.180671
450.000000	24.160649
451.000000	24.149404
452.000000	24.146496
453.000000	24.151407
454.000000	24.163870
455.000000	24.182567
456.000000	24.207442
457.000000	24.238638
458.000000	24.275071
459.000000	24.315018
460.000000	24.360112
461.000000	24.409465
462.000000	24.462734
463.000000	24.519664
464.000000	24.580181
465.000000	24.643029
466.000000	24.709123
467.000000	24.777187
468.000000	24.847237
469.000000	24.919307
470.000000	24.992426
471.000000	25.065447
472.000000	25.138074
473.000000	25.210067
474.000000	25.280675
475.000000	25.349244
476.000000	25.415422
477.000000	25.478377
478.000000	25.536695
479.000000	25.589673
480.000000	25.636039
481.000000	25.675546
482.000000	25.707158
483.000000	25.732198
484.000000	25.751567
485.000000	25.765286
486.000000	25.774882
487.000000	25.780875
488.000000	25.784204
489.000000	25.785761
490.000000	25.786196
491.000000	25.786185
492.000000	25.785302
493.000000	25.785473
494.000000	25.788359
495.000000	25.793509
496.000000	25.800950
497.000000	25.809918
498.000000	25.821327
499.000000	25.836231
500.000000	25.854018
501.000000	25.874272
502.000000	25.896636
503.000000	25.921087
504.000000	25.947954
505.000000	25.976794
506.000000	26.006995
507.000000	26.038139
508.000000	26.069648
509.000000	26.101553
510.000000	26.134024
511.000000	26.167832
512.000000	26.203382
513.000000	26.241606
514.000000	26.283289
515.000000	26.329476
516.000000	26.381038
517.000000	26.439245
518.000000	26.503868
519.000000	26.575066
520.000000	26.653413
521.000000	26.738615
522.000000	26.831355
523.000000	26.931465
524.000000	27.039876
525.000000	27.156518
526.000000	27.281449
527.000000	27.415509
528.000000	27.558039
529.000000	27.708261
530.000000	27.867182
531.000000	28.034516
532.000000	28.210393
533.000000	28.394370
534.000000	28.585770
535.000000	28.785423
536.000000	28.992096
537.000000	29.205392
538.000000	29.424637
539.000000	29.649798
540.000000	29.880688
541.000000	30.116038
542.000000	30.355537
543.000000	30.599227
544.000000	30.846130
545.000000	31.095644
546.000000	31.345672
547.000000	31.596461
548.000000	31.846643
549.000000	32.094418
550.000000	32.339427
551.000000	32.580994
552.000000	32.817746
553.000000	33.049291
554.000000	33.275007
555.000000	33.494099
556.000000	33.706085
557.000000	33.909513
558.000000	34.104343
559.000000	34.289831
560.000000	34.469129
561.000000	34.639418
562.000000	34.798907
563.000000	34.948618
564.000000	35.088496
565.000000	35.217482
566.000000	35.336711
567.000000	35.445591
568.000000	35.545683
569.000000	35.637317
570.000000	35.720084
571.000000	35.796333
572.000000	35.866941
573.000000	35.932752
574.000000	35.994383
575.000000	36.052000
576.000000	36.107593
577.000000	36.161454
578.000000	36.213924
579.000000	36.264339
580.000000	36.314581
581.000000	36.364412
582.000000	36.413811
583.000000	36.462666
584.000000	36.511323
585.000000	36.559051
586.000000	36.605037
587.000000	36.648995
588.000000	36.689428
589.000000	36.726606
590.000000	36.760297
591.000000	36.790082
592.000000	36.816210
593.000000	36.839136
594.000000	36.857864
595.000000	36.869658
596.000000	36.877393
597.000000	36.881795
598.000000	36.882877
599.000000	36.880200
600.000000	36.874254
601.000000	36.865584
602.000000	36.854431
603.000000	36.839547
604.000000	36.822042
605.000000	36.800445
606.000000	36.774393
607.000000	36.743238
608.000000	36.705832
609.000000	36.661322
610.000000	36.608798
611.000000	36.546846
612.000000	36.475975
613.000000	36.396573
614.000000	36.307083
615.000000	36.208032
616.000000	36.101010
617.000000	35.984966
618.000000	35.861641
619.000000	35.730935
620.000000	35.593253
621.000000	35.450763
622.000000	35.304001
623.000000	35.154174
624.000000	35.001960
625.000000	34.847347
626.000000	34.692021
627.000000	34.537245
628.000000	34.382971
629.000000	34.229891
630.000000	34.079117
631.000000	33.930265
632.000000	33.783615
633.000000	33.639595
634.000000	33.498651
635.000000	33.361110
636.000000	33.226317
637.000000	33.094255
638.000000	32.966277
639.000000	32.841145
640.000000	32.719891
641.000000	32.602733
642.000000	32.489140
643.000000	32.380876
644.000000	32.277442
645.000000	32.180033
646.000000	32.088727
647.000000	32.003705
648.000000	31.924613
649.000000	31.854614
650.000000	31.791097
651.000000	31.734923
652.000000	31.687799
653.000000	31.647237
654.000000	31.614658
655.000000	31.589927
656.000000	31.572154
657.000000	31.562618
658.000000	31.560636
659.000000	31.565525
660.000000	31.576758
661.000000	31.593664
662.000000	31.613987
663.000000	31.639935
664.000000	31.670906
665.000000	31.703754
666.000000	31.739622
667.000000	31.779398
668.000000	31.820543
669.000000	31.865398
670.000000	31.914430
671.000000	31.965962
672.000000	32.023074
673.000000	32.084548
674.000000	32.152478
675.000000	32.228443
676.000000	32.312263
677.000000	32.405463
678.000000	32.507354
679.000000	32.619756
680.000000	32.742054
681.000000	32.875483
682.000000	33.020057
683.000000	33.174282
684.000000	33.337956
685.000000	33.509824
686.000000	33.688255
687.000000	33.873817
688.000000	34.066608
689.000000	34.264495
690.000000	34.467181
691.000000	34.673835
692.000000	34.882084
693.000000	35.093803
694.000000	35.308007
695.000000	35.525317
696.000000	35.743567
697.000000	35.963581
698.000000	36.186579
699.000000	36.411017
700.000000	36.639312
701.000000	36.869155
702.000000	37.101651
703.000000	37.338061
704.000000	37.574775
705.000000	37.811350
706.000000	38.049763
707.000000	38.287985
708.000000	38.525264
709.000000	38.759541
710.000000	38.991403
711.000000	39.219975
712.000000	39.444547
713.000000	39.665949
714.000000	39.882789
715.000000	40.095406
716.000000	40.304247
717.000000	40.506547
718.000000	40.705431
719.000000	40.899774
720.000000	41.090095
721.000000	41.278932
722.000000	41.462777
723.000000	41.642167
724.000000	41.818350
725.000000	41.991620
726.000000	42.161004
727.000000	42.328198
728.000000	42.491260
729.000000	42.649882
730.000000	42.805477
731.000000	42.958342
732.000000	43.108686
733.000000	43.253880
734.000000	43.397166
735.000000	43.536055
736.000000	43.671555
737.000000	43.802253
738.000000	43.929559
739.000000	44.056140
740.000000	44.180829
741.000000	44.304828
742.000000	44.427753
743.000000	44.549141
744.000000	44.669223
745.000000	44.787784
746.000000	44.904375
747.000000	45.019533
748.000000	45.133650
749.000000	45.245971
750.000000	45.356461
751.000000	45.464689
752.000000	45.574461
753.000000	45.681703
754.000000	45.785882
755.000000	45.890476
756.000000	45.992948
757.000000	46.093986
758.000000	46.194007
759.000000	46.292644
760.000000	46.388143
761.000000	46.483514
762.000000	46.578551
763.000000	46.672533
764.000000	46.769964
765.000000	46.867232
766.000000	46.964541
767.000000	47.062064
768.000000	47.158362
769.000000	47.254219
770.000000	47.351318
771.000000	47.450250
772.000000	47.550444
773.000000	47.650498
774.000000	47.751894
775.000000	47.855461
776.000000	47.957898
777.000000	48.057984
778.000000	48.157421
779.000000	48.259388
780.000000	48.361409
781.000000	48.461204
782.000000	48.560600
783.000000	48.658235
784.000000	48.755927
785.000000	48.856929
786.000000	48.956803
787.000000	49.052647
788.000000	49.148822
789.000000	49.248305
790.000000	49.348799
791.000000	49.449233
792.000000	49.550920
793.000000	49.653522
794.000000	49.753521
795.000000	49.854869
796.000000	49.959534
797.000000	50.066387
798.000000	50.171936
799.000000	50.272688
800.000000	50.374285
801.000000	50.476936
802.000000	50.580648
803.000000	50.686188
804.000000	50.793520
805.000000	50.899318
806.000000	51.001712
807.000000	51.103005
808.000000	51.206423
809.000000	51.310707
810.000000	51.413490
811.000000	51.516905
812.000000	51.619660
813.000000	51.723561
814.000000	51.828075
815.000000	51.934286
816.000000	52.044276
817.000000	52.152507
818.000000	52.261512
819.000000	52.372776
820.000000	52.479963
821.000000	52.587822
822.000000	52.700744
823.000000	52.816929
824.000000	52.931571
825.000000	53.042196
826.000000	53.153170
827.000000	53.265197
828.000000	53.377420
829.000000	53.494889
830.000000	53.615045
831.000000	53.733293
832.000000	53.844793
833.000000	53.954128
834.000000	54.066530
835.000000	54.178794
836.000000	54.293547
837.000000	54.406081
838.000000	54.519986
839.000000	54.627937
840.000000	54.736570
841.000000	54.848168
842.000000	54.956329
843.000000	55.063008
844.000000	55.173927
845.000000	55.283647
846.000000	55.385364
847.000000	55.494021
848.000000	55.596415
849.000000	55.696721
850.000000	55.792372
851.000000	55.894556
852.000000	55.995884
853.000000	56.092978
854.000000	56.181047
855.000000	56.270395
856.000000	56.354760
857.000000	56.442057
858.000000	56.486273
859.000000	56.594803
860.000000	56.703901
861.000000	56.811383
862.000000	56.917202
863.000000	57.023028
864.000000	57.127289
865.000000	57.229522
866.000000	57.329203
867.000000	57.431183
868.000000	57.535111
869.000000	57.635321
870.000000	57.731151
871.000000	57.820854
872.000000	57.909355
873.000000	57.992342
874.000000	58.075766
875.000000	58.156314
876.000000	58.232802
877.000000	58.310871
878.000000	58.385037
879.000000	58.448684
880.000000	58.509117
881.000000	58.573582
882.000000	58.629739
883.000000	58.688467
884.000000	58.743434
885.000000	58.797037
886.000000	58.839242
887.000000	58.881002
888.000000	58.923693
889.000000	58.969988
890.000000	59.012543
891.000000	59.057158
892.000000	59.092672
893.000000	59.164891
894.000000	59.169057
895.000000	59.170626
896.000000	59.169783
897.000000	59.165129
898.000000	59.155371
899.000000	59.141054
900.000000	59.122980
901.000000	59.102166
902.000000	59.078406
903.000000	59.053863
904.000000	59.027751
905.000000	59.000480
906.000000	58.972657
907.000000	58.943749
908.000000	58.913774
909.000000	58.883557
910.000000	58.852674
911.000000	58.821614
912.000000	58.789680
913.000000	58.756674
914.000000	58.722817
915.000000	58.688563
916.000000	58.652674
917.000000	58.616220
918.000000	58.579591
919.000000	58.540994
920.000000	58.501460
921.000000	58.461089
922.000000	58.419494
923.000000	58.376691
924.000000	58.332506
925.000000	58.287600
926.000000	58.240426
927.000000	58.191551
928.000000	58.141737
929.000000	58.090560
930.000000	58.038060
931.000000	57.984611
932.000000	57.929557
933.000000	57.874503
934.000000	57.818043
935.000000	57.760143
936.000000	57.701157
937.000000	57.642169
938.000000	57.581100
939.000000	57.518791
940.000000	57.455943
941.000000	57.391623
942.000000	57.326009
943.000000	57.260083
944.000000	57.192794
945.000000	57.124691
946.000000	57.056369
947.000000	56.987469
948.000000	56.918383
949.000000	56.848517
950.000000	56.778894
951.000000	56.709631
952.000000	56.640129
953.000000	56.570797
954.000000	56.502137
955.000000	56.433680
956.000000	56.365791
957.000000	56.298763
958.000000	56.232134
959.000000	56.166394
960.000000	56.100306
961.000000	56.035971
962.000000	55.973457
963.000000	55.912006
964.000000	55.851369
965.000000	55.791803
966.000000	55.732931
967.000000	55.676243
968.000000	55.619406
969.000000	55.564006
970.000000	55.510509
971.000000	55.458271
972.000000	55.406609
973.000000	55.357131
974.000000	55.310249
975.000000	55.264909
976.000000	55.221380
977.000000	55.179960
978.000000	55.140580
979.000000	55.102843
980.000000	55.066771
981.000000	55.031291
982.000000	54.997531
983.000000	54.965589
984.000000	54.935717
985.000000	54.906871
986.000000	54.878891
987.000000	54.851580
988.000000	54.825571
989.000000	54.801109
990.000000	54.778471
991.000000	54.756397
992.000000	54.736211
993.000000	54.717017
994.000000	54.699269
995.000000	54.683954
996.000000	54.669697
997.000000	54.656543
998.000000	54.644189
999.000000	54.633754
1000.000000	54.624720
1001.000000	54.616303
1002.000000	54.608594
1003.000000	54.601977
1004.000000	54.596469
1005.000000	54.591391
1006.000000	54.587414
1007.000000	54.584840
1008.000000	54.582329
1009.000000	54.579931
1010.000000	54.577874
1011.000000	54.576374
1012.000000	54.575274
1013.000000	54.574406
1014.000000	54.574206
1015.000000	54.574623
1016.000000	54.576597
1017.000000	54.578680
1018.000000	54.580849
1019.000000	54.584066
1020.000000	54.587874
1021.000000	54.592746
1022.000000	54.599306
1023.000000	54.605631
1024.000000	54.612700
1025.000000	54.620571
1026.000000	54.629180
1027.000000	54.637483
1028.000000	54.646974
1029.000000	54.656797
1030.000000	54.667006
1031.000000	54.678003
1032.000000	54.688917
1033.000000	54.699917
1034.000000	54.711317
1035.000000	54.723726
1036.000000	54.736680
1037.000000	54.749817
1038.000000	54.764377
1039.000000	54.779574
1040.000000	54.795460
1041.000000	54.811800
1042.000000	54.828726
1043.000000	54.846697
1044.000000	54.865091
1045.000000	54.884320
1046.000000	54.904403
1047.000000	54.925114
1048.000000	54.945923
1049.000000	54.967471
1050.000000	54.989357
1051.000000	55.011029
1052.000000	55.032991
1053.000000	55.055763
1054.000000	55.078549
1055.000000	55.101731
1056.000000	55.125077
1057.000000	55.148289
1058.000000	55.171751
1059.000000	55.195540
1060.000000	55.219140
1061.000000	55.243403
1062.000000	55.268206
1063.000000	55.292883
1064.000000	55.317200
1065.000000	55.341357
1066.000000	55.365486
1067.000000	55.390097
1068.000000	55.414926
1069.000000	55.439560
1070.000000	55.464246
1071.000000	55.489074
1072.000000	55.513891
1073.000000	55.538491
1074.000000	55.562943
1075.000000	55.587126
1076.000000	55.611389
1077.000000	55.635700
1078.000000	55.659866
1079.000000	55.684446
1080.000000	55.708843
1081.000000	55.732597
1082.000000	55.756626
1083.000000	55.780700
1084.000000	55.804143
1085.000000	55.827646
1086.000000	55.851437
1087.000000	55.875323
1088.000000	55.898803
1089.000000	55.921726
1090.000000	55.944709
1091.000000	55.967646
1092.000000	55.990020
1093.000000	56.012449
1094.000000	56.034743
1095.000000	56.056334
1096.000000	56.077903
1097.000000	56.098883
1098.000000	56.119529
1099.000000	56.140123
1100.000000	56.160489
1101.000000	56.180720
1102.000000	56.200431
1103.000000	56.219554
1104.000000	56.238529
1105.000000	56.257286
1106.000000	56.275966
1107.000000	56.294171
1108.000000	56.311946
1109.000000	56.328851
1110.000000	56.345597
1111.000000	56.362423
1112.000000	56.378254
1113.000000	56.393443
1114.000000	56.408054
1115.000000	56.422394
1116.000000	56.436446
1117.000000	56.450074
1118.000000	56.463380
1119.000000	56.476034
1120.000000	56.487966
1121.000000	56.498863
1122.000000	56.509569
1123.000000	56.520457
1124.000000	56.530920
1125.000000	56.540014
1126.000000	56.547886
1127.000000	56.555117
1128.000000	56.560723
1129.000000	56.565171
1130.000000	56.568934
1131.000000	56.570666
1132.000000	56.570186
1133.000000	56.567120
1134.000000	56.562769
1135.000000	56.558260
1136.000000	56.552114
1137.000000	56.544149
1138.000000	56.533680
1139.000000	56.520789
1140.000000	56.505731
1141.000000	56.489129
1142.000000	56.470723
1143.000000	56.450503
1144.000000	56.429180
1145.000000	56.406366
1146.000000	56.381543
1147.000000	56.357237
1148.000000	56.330837
1149.000000	56.302771
1150.000000	56.272960
1151.000000	56.241997
1152.000000	56.209386
1153.000000	56.175057
1154.000000	56.140006
1155.000000	56.102951
1156.000000	56.064411
1157.000000	56.023394
1158.000000	55.979834
1159.000000	55.934337
1160.000000	55.887186
1161.000000	55.838766
1162.000000	55.788454
1163.000000	55.735857
1164.000000	55.681474
1165.000000	55.624640
1166.000000	55.566617
1167.000000	55.507223
1168.000000	55.448000
1169.000000	55.387409
1170.000000	55.325540
1171.000000	55.263171
1172.000000	55.201523
1173.000000	55.140734
1174.000000	55.080566
