PE UV       SUBTECH     SPECTRUM    ASCII       PEDS        4.00        
   -1
CICIMAUCR0098-2.Sample.ASC
24/04/18
13:18:25.00
24/04/18
13:18:25.00
Vinicio Soto Monge
C. cupreomarginata
250,000000
1
Lambda 1050
1050L1511233
PerkinElmer UV WinLab 6.3.2.0749 / 2.02.05 Lambda 900 UV/VIS/NIR, Aug  7 2015 09:38:08

0
0
3350/servo 860,8/2
0
0
UV/VIS
1
1
1
DoubleDePol,CommonBeamDepol,RBeamAtt,SBeamAtt,60mm sphere, WB InGaAs Detector
0
0
0
0
Program
Program
3350/servo 860,8/2
3350/0,2 860,8/0,2
3350/0,2 860,8/0,2
0
15.00
 
 
 
0
 
860,8
319,2
860,8
Front
100
on
S:100 R:100
0
0
0
0
 
0
 
 
 
0
 
 
0
0
0
0
0
 
 
 
 
0
0


0
0
#HDR
-1
-1
#GR
nm
%R
1.0
0.0
2500,000000
-1,000000
2251
8
74,574200
5,346500
#DATA
2482.000000	16.029467
2481.000000	16.075127
2480.000000	16.073825
2479.000000	16.067860
2478.000000	16.144863
2477.000000	16.127944
2476.000000	16.185534
2475.000000	16.181630
2474.000000	16.194102
2473.000000	16.234556
2472.000000	16.284554
2471.000000	16.323272
2470.000000	16.354290
2469.000000	16.368498
2468.000000	16.419689
2467.000000	16.430968
2466.000000	16.508948
2465.000000	16.598640
2464.000000	16.647228
2463.000000	16.710457
2462.000000	16.781712
2461.000000	16.855245
2460.000000	16.961748
2459.000000	17.025194
2458.000000	17.150569
2457.000000	17.245684
2456.000000	17.352187
2455.000000	17.471705
2454.000000	17.573327
2453.000000	17.684928
2452.000000	17.831559
2451.000000	17.942617
2450.000000	18.050747
2449.000000	18.196945
2448.000000	18.336201
2447.000000	18.469167
2446.000000	18.612545
2445.000000	18.755055
2444.000000	18.870669
2443.000000	19.006129
2442.000000	19.134432
2441.000000	19.270435
2440.000000	19.419561
2439.000000	19.527148
2438.000000	19.676166
2437.000000	19.798720
2436.000000	19.921166
2435.000000	20.052831
2434.000000	20.174409
2433.000000	20.285142
2432.000000	20.376353
2431.000000	20.495654
2430.000000	20.616907
2429.000000	20.719397
2428.000000	20.833492
2427.000000	20.927522
2426.000000	21.036737
2425.000000	21.121766
2424.000000	21.212976
2423.000000	21.295945
2422.000000	21.393338
2421.000000	21.487694
2420.000000	21.556997
2419.000000	21.616972
2418.000000	21.692782
2417.000000	21.748528
2416.000000	21.827592
2415.000000	21.882579
2414.000000	21.946351
2413.000000	22.006327
2412.000000	22.060012
2411.000000	22.115216
2410.000000	22.162068
2409.000000	22.200678
2408.000000	22.233866
2407.000000	22.288093
2406.000000	22.307181
2405.000000	22.367699
2404.000000	22.408912
2403.000000	22.425614
2402.000000	22.454680
2401.000000	22.477022
2400.000000	22.523007
2399.000000	22.541770
2398.000000	22.555544
2397.000000	22.591659
2396.000000	22.623220
2395.000000	22.651310
2394.000000	22.667144
2393.000000	22.678424
2392.000000	22.693065
2391.000000	22.696102
2390.000000	22.722348
2389.000000	22.732109
2388.000000	22.735580
2387.000000	22.729181
2386.000000	22.726578
2385.000000	22.724951
2384.000000	22.724626
2383.000000	22.701525
2382.000000	22.678098
2381.000000	22.664216
2380.000000	22.646321
2379.000000	22.623762
2378.000000	22.605216
2377.000000	22.571270
2376.000000	22.528213
2375.000000	22.521706
2374.000000	22.496653
2373.000000	22.444811
2372.000000	22.397633
2371.000000	22.363903
2370.000000	22.341779
2369.000000	22.306856
2368.000000	22.268463
2367.000000	22.239831
2366.000000	22.193086
2365.000000	22.140594
2364.000000	22.090922
2363.000000	22.051010
2362.000000	22.024764
2361.000000	21.989516
2360.000000	21.957739
2359.000000	21.910561
2358.000000	21.865443
2357.000000	21.829545
2356.000000	21.798852
2355.000000	21.773365
2354.000000	21.741045
2353.000000	21.720330
2352.000000	21.700049
2351.000000	21.672393
2350.000000	21.666862
2349.000000	21.662849
2348.000000	21.678249
2347.000000	21.683238
2346.000000	21.679551
2345.000000	21.684757
2344.000000	21.694084
2343.000000	21.720005
2342.000000	21.725753
2341.000000	21.724885
2340.000000	21.716643
2339.000000	21.723367
2338.000000	21.734212
2337.000000	21.731609
2336.000000	21.725861
2335.000000	21.727705
2334.000000	21.713389
2333.000000	21.696795
2332.000000	21.671959
2331.000000	21.667295
2330.000000	21.670766
2329.000000	21.665343
2328.000000	21.630746
2327.000000	21.606235
2326.000000	21.597016
2325.000000	21.589967
2324.000000	21.547236
2323.000000	21.500708
2322.000000	21.453422
2321.000000	21.403858
2320.000000	21.337700
2319.000000	21.269156
2318.000000	21.204951
2317.000000	21.116343
2316.000000	21.042810
2315.000000	20.960276
2314.000000	20.847699
2313.000000	20.756163
2312.000000	20.681437
2311.000000	20.579489
2310.000000	20.501293
2309.000000	20.420169
2308.000000	20.359108
2307.000000	20.299241
2306.000000	20.283732
2305.000000	20.267138
2304.000000	20.257269
2303.000000	20.279068
2302.000000	20.293059
2301.000000	20.325270
2300.000000	20.371906
2299.000000	20.420277
2298.000000	20.464093
2297.000000	20.514308
2296.000000	20.573958
2295.000000	20.645322
2294.000000	20.690114
2293.000000	20.744016
2292.000000	20.802365
2291.000000	20.845530
2290.000000	20.884249
2289.000000	20.908326
2288.000000	20.970145
2287.000000	20.988691
2286.000000	21.006803
2285.000000	21.007237
2284.000000	21.049751
2283.000000	21.059187
2282.000000	21.078058
2281.000000	21.072527
2280.000000	21.093567
2279.000000	21.091724
2278.000000	21.076974
2277.000000	21.081095
2276.000000	21.088036
2275.000000	21.082722
2274.000000	21.094435
2273.000000	21.097797
2272.000000	21.141613
2271.000000	21.163629
2270.000000	21.220135
2269.000000	21.280869
2268.000000	21.376202
2267.000000	21.474137
2266.000000	21.574566
2265.000000	21.712521
2264.000000	21.860780
2263.000000	22.055023
2262.000000	22.235601
2261.000000	22.457392
2260.000000	22.658143
2259.000000	22.915941
2258.000000	23.176233
2257.000000	23.413425
2256.000000	23.679249
2255.000000	23.930865
2254.000000	24.224128
2253.000000	24.483661
2252.000000	24.726275
2251.000000	24.979844
2250.000000	25.230809
2249.000000	25.450106
2248.000000	25.661376
2247.000000	25.865706
2246.000000	26.047043
2245.000000	26.218728
2244.000000	26.386400
2243.000000	26.547347
2242.000000	26.673806
2241.000000	26.769138
2240.000000	26.876726
2239.000000	26.968696
2238.000000	27.036372
2237.000000	27.109254
2236.000000	27.145586
2235.000000	27.187884
2234.000000	27.225084
2233.000000	27.257078
2232.000000	27.246341
2231.000000	27.255777
2230.000000	27.235387
2229.000000	27.211744
2228.000000	27.175520
2227.000000	27.128125
2226.000000	27.072271
2225.000000	27.028129
2224.000000	26.950150
2223.000000	26.878027
2222.000000	26.783671
2221.000000	26.695497
2220.000000	26.630316
2219.000000	26.522945
2218.000000	26.451798
2217.000000	26.339981
2216.000000	26.261134
2215.000000	26.169815
2214.000000	26.086738
2213.000000	25.999865
2212.000000	25.904208
2211.000000	25.832844
2210.000000	25.774278
2209.000000	25.683393
2208.000000	25.631985
2207.000000	25.583723
2206.000000	25.512901
2205.000000	25.470495
2204.000000	25.417027
2203.000000	25.384165
2202.000000	25.349568
2201.000000	25.318766
2200.000000	25.303908
2199.000000	25.246969
2198.000000	25.232870
2197.000000	25.203153
2196.000000	25.169207
2195.000000	25.151854
2194.000000	25.148383
2193.000000	25.135152
2192.000000	25.129729
2191.000000	25.097735
2190.000000	25.078213
2189.000000	25.071380
2188.000000	25.065198
2187.000000	25.044808
2186.000000	25.024636
2185.000000	24.985483
2184.000000	24.980603
2183.000000	24.964335
2182.000000	24.955658
2181.000000	24.930714
2180.000000	24.912168
2179.000000	24.906636
2178.000000	24.872907
2177.000000	24.859133
2176.000000	24.865423
2175.000000	24.868569
2174.000000	24.871497
2173.000000	24.884403
2172.000000	24.867809
2171.000000	24.904901
2170.000000	24.909239
2169.000000	24.954791
2168.000000	24.977024
2167.000000	24.995678
2166.000000	25.035264
2165.000000	25.081466
2164.000000	25.136670
2163.000000	25.189705
2162.000000	25.255429
2161.000000	25.309331
2160.000000	25.382972
2159.000000	25.442514
2158.000000	25.541642
2157.000000	25.632202
2156.000000	25.729053
2155.000000	25.829699
2154.000000	25.916789
2153.000000	26.033812
2152.000000	26.168513
2151.000000	26.283693
2150.000000	26.413730
2149.000000	26.534333
2148.000000	26.666540
2147.000000	26.791914
2146.000000	26.907527
2145.000000	27.029431
2144.000000	27.153721
2143.000000	27.274214
2142.000000	27.373342
2141.000000	27.505549
2140.000000	27.628646
2139.000000	27.732221
2138.000000	27.844255
2137.000000	27.943058
2136.000000	28.054767
2135.000000	28.172332
2134.000000	28.278618
2133.000000	28.363647
2132.000000	28.444663
2131.000000	28.548238
2130.000000	28.637063
2129.000000	28.721007
2128.000000	28.797251
2127.000000	28.862541
2126.000000	28.922300
2125.000000	28.989325
2124.000000	29.048650
2123.000000	29.090297
2122.000000	29.142139
2121.000000	29.183135
2120.000000	29.215021
2119.000000	29.254065
2118.000000	29.271092
2117.000000	29.302002
2116.000000	29.334647
2115.000000	29.346468
2114.000000	29.366750
2113.000000	29.392020
2112.000000	29.395599
2111.000000	29.395707
2110.000000	29.395382
2109.000000	29.401455
2108.000000	29.405360
2107.000000	29.405902
2106.000000	29.408179
2105.000000	29.390284
2104.000000	29.380632
2103.000000	29.380415
2102.000000	29.382367
2101.000000	29.374016
2100.000000	29.360025
2099.000000	29.360134
2098.000000	29.371088
2097.000000	29.356663
2096.000000	29.350156
2095.000000	29.362086
2094.000000	29.347445
2093.000000	29.350590
2092.000000	29.374450
2091.000000	29.367943
2090.000000	29.354169
2089.000000	29.359158
2088.000000	29.363604
2087.000000	29.350590
2086.000000	29.337141
2085.000000	29.314366
2084.000000	29.280528
2083.000000	29.250052
2082.000000	29.188775
2081.000000	29.126847
2080.000000	29.066220
2079.000000	28.981734
2078.000000	28.905056
2077.000000	28.831198
2076.000000	28.740421
2075.000000	28.633701
2074.000000	28.537284
2073.000000	28.433492
2072.000000	28.312348
2071.000000	28.181768
2070.000000	28.060623
2069.000000	27.929067
2068.000000	27.797836
2067.000000	27.670293
2066.000000	27.550558
2065.000000	27.416508
2064.000000	27.288422
2063.000000	27.162505
2062.000000	27.041144
2061.000000	26.936268
2060.000000	26.851890
2059.000000	26.776296
2058.000000	26.721960
2057.000000	26.678578
2056.000000	26.642788
2055.000000	26.634437
2054.000000	26.663503
2053.000000	26.714694
2052.000000	26.783671
2051.000000	26.859807
2050.000000	26.961429
2049.000000	27.120967
2048.000000	27.269442
2047.000000	27.430498
2046.000000	27.605545
2045.000000	27.809875
2044.000000	28.022772
2043.000000	28.205628
2042.000000	28.412669
2041.000000	28.631315
2040.000000	28.816122
2039.000000	29.012643
2038.000000	29.231940
2037.000000	29.402323
2036.000000	29.584962
2035.000000	29.737016
2034.000000	29.891348
2033.000000	30.049584
2032.000000	30.193612
2031.000000	30.331242
2030.000000	30.456399
2029.000000	30.575700
2028.000000	30.691964
2027.000000	30.800745
2026.000000	30.906272
2025.000000	31.019607
2024.000000	31.116892
2023.000000	31.201812
2022.000000	31.274369
2021.000000	31.341503
2020.000000	31.420783
2019.000000	31.494750
2018.000000	31.513946
2017.000000	31.602337
2016.000000	31.642357
2015.000000	31.697127
2014.000000	31.729338
2013.000000	31.755693
2012.000000	31.775215
2011.000000	31.803522
2010.000000	31.801027
2009.000000	31.819248
2008.000000	31.807643
2007.000000	31.808402
2006.000000	31.809487
2005.000000	31.799075
2004.000000	31.767406
2003.000000	31.750379
2002.000000	31.698646
2001.000000	31.658843
2000.000000	31.601795
1999.000000	31.562968
1998.000000	31.505921
1997.000000	31.436726
1996.000000	31.363410
1995.000000	31.308641
1994.000000	31.221551
1993.000000	31.135438
1992.000000	31.090103
1991.000000	30.998350
1990.000000	30.883062
1989.000000	30.794020
1988.000000	30.704762
1987.000000	30.611057
1986.000000	30.509434
1985.000000	30.412692
1984.000000	30.335472
1983.000000	30.230596
1982.000000	30.122032
1981.000000	30.030279
1980.000000	29.951540
1979.000000	29.828552
1978.000000	29.720314
1977.000000	29.633549
1976.000000	29.531276
1975.000000	29.444620
1974.000000	29.376511
1973.000000	29.274671
1972.000000	29.180315
1971.000000	29.106132
1970.000000	28.997243
1969.000000	28.930760
1968.000000	28.852997
1967.000000	28.787599
1966.000000	28.698557
1965.000000	28.615372
1964.000000	28.525029
1963.000000	28.440108
1962.000000	28.368311
1961.000000	28.259964
1960.000000	28.179707
1959.000000	28.086436
1958.000000	27.986874
1957.000000	27.913233
1956.000000	27.833626
1955.000000	27.744151
1954.000000	27.636238
1953.000000	27.541231
1952.000000	27.454250
1951.000000	27.370631
1950.000000	27.292218
1949.000000	27.221830
1948.000000	27.153612
1947.000000	27.079537
1946.000000	27.018694
1945.000000	26.983880
1944.000000	26.908178
1943.000000	26.859048
1942.000000	26.862193
1941.000000	26.842020
1940.000000	26.828572
1939.000000	26.828789
1938.000000	26.804928
1937.000000	26.803952
1936.000000	26.828572
1935.000000	26.853733
1934.000000	26.901454
1933.000000	26.969130
1932.000000	27.063486
1931.000000	27.143092
1930.000000	27.225084
1929.000000	27.341457
1928.000000	27.453599
1927.000000	27.570080
1926.000000	27.693394
1925.000000	27.848268
1924.000000	28.059756
1923.000000	28.233826
1922.000000	28.441410
1921.000000	28.647583
1920.000000	28.873495
1919.000000	29.070016
1918.000000	29.341154
1917.000000	29.614244
1916.000000	29.912496
1915.000000	30.213677
1914.000000	30.566264
1913.000000	30.899005
1912.000000	31.210055
1911.000000	31.547242
1910.000000	31.935837
1909.000000	32.313587
1908.000000	32.737430
1907.000000	33.175155
1906.000000	33.690101
1905.000000	34.171750
1904.000000	34.654918
1903.000000	35.150993
1902.000000	35.686870
1901.000000	36.192597
1900.000000	36.782919
1899.000000	37.335607
1898.000000	37.914974
1897.000000	38.509851
1896.000000	39.076638
1895.000000	39.630736
1894.000000	40.237218
1893.000000	40.865282
1892.000000	41.496817
1891.000000	42.127050
1890.000000	42.718348
1889.000000	43.260191
1888.000000	43.873071
1887.000000	44.439533
1886.000000	44.984846
1885.000000	45.532545
1884.000000	46.106815
1883.000000	46.608421
1882.000000	47.062197
1881.000000	47.506322
1880.000000	47.955109
1879.000000	48.372120
1878.000000	48.766029
1877.000000	49.116231
1876.000000	49.484111
1875.000000	49.802319
1874.000000	50.107729
1873.000000	50.389713
1872.000000	50.648487
1871.000000	50.854552
1870.000000	51.025911
1869.000000	51.181653
1868.000000	51.311907
1867.000000	51.424918
1866.000000	51.493570
1865.000000	51.588902
1864.000000	51.713951
1863.000000	51.826311
1862.000000	51.948540
1861.000000	52.057754
1860.000000	52.146037
1859.000000	52.211110
1858.000000	52.239417
1857.000000	52.286269
1856.000000	52.346353
1855.000000	52.376504
1854.000000	52.394291
1853.000000	52.365225
1852.000000	52.354596
1851.000000	52.405245
1850.000000	52.474222
1849.000000	52.558709
1848.000000	52.528667
1847.000000	52.416090
1846.000000	52.309153
1845.000000	52.262409
1844.000000	52.278352
1843.000000	52.327808
1842.000000	52.357090
1841.000000	52.313817
1840.000000	52.252106
1839.000000	52.195492
1838.000000	52.165450
1837.000000	52.106342
1836.000000	52.011010
1835.000000	51.905700
1834.000000	51.811127
1833.000000	51.769805
1832.000000	51.747897
1831.000000	51.724471
1830.000000	51.672846
1829.000000	51.611569
1828.000000	51.531529
1827.000000	51.447910
1826.000000	51.398672
1825.000000	51.363424
1824.000000	51.339889
1823.000000	51.378607
1822.000000	51.437173
1821.000000	51.449537
1820.000000	51.388368
1819.000000	51.288481
1818.000000	51.265814
1817.000000	51.276443
1816.000000	51.270369
1815.000000	51.247160
1814.000000	51.218744
1813.000000	51.211369
1812.000000	51.195643
1811.000000	51.149008
1810.000000	51.086863
1809.000000	51.042721
1808.000000	51.017126
1807.000000	50.995110
1806.000000	50.938713
1805.000000	50.879605
1804.000000	50.852166
1803.000000	50.839910
1802.000000	50.824835
1801.000000	50.769197
1800.000000	50.709222
1799.000000	50.656838
1798.000000	50.616384
1797.000000	50.592307
1796.000000	50.560313
1795.000000	50.527234
1794.000000	50.481899
1793.000000	50.451640
1792.000000	50.423442
1791.000000	50.390363
1790.000000	50.355766
1789.000000	50.339389
1788.000000	50.318024
1787.000000	50.309239
1786.000000	50.289825
1785.000000	50.262386
1784.000000	50.218570
1783.000000	50.180177
1782.000000	50.148291
1781.000000	50.126817
1780.000000	50.050139
1779.000000	49.988103
1778.000000	49.920318
1777.000000	49.847219
1776.000000	49.772494
1775.000000	49.687356
1774.000000	49.603087
1773.000000	49.502006
1772.000000	49.404614
1771.000000	49.325658
1770.000000	49.238460
1769.000000	49.136838
1768.000000	49.043241
1767.000000	48.961791
1766.000000	48.892813
1765.000000	48.808110
1764.000000	48.747809
1763.000000	48.693798
1762.000000	48.663214
1761.000000	48.636967
1760.000000	48.622977
1759.000000	48.604431
1758.000000	48.577317
1757.000000	48.547383
1756.000000	48.545865
1755.000000	48.527428
1754.000000	48.461921
1753.000000	48.434048
1752.000000	48.389256
1751.000000	48.336221
1750.000000	48.254446
1749.000000	48.172887
1748.000000	48.088401
1747.000000	47.997407
1746.000000	47.896760
1745.000000	47.789064
1744.000000	47.666402
1743.000000	47.537665
1742.000000	47.414785
1741.000000	47.273360
1740.000000	47.148962
1739.000000	47.011440
1738.000000	46.891489
1737.000000	46.804833
1736.000000	46.741278
1735.000000	46.692474
1734.000000	46.667420
1733.000000	46.656575
1732.000000	46.654080
1731.000000	46.649308
1730.000000	46.690088
1729.000000	46.689654
1728.000000	46.689220
1727.000000	46.698764
1726.000000	46.727613
1725.000000	46.728264
1724.000000	46.758523
1723.000000	46.793337
1722.000000	46.863941
1721.000000	47.002330
1720.000000	47.129006
1719.000000	47.310343
1718.000000	47.527362
1717.000000	47.725293
1716.000000	47.925284
1715.000000	48.151413
1714.000000	48.316048
1713.000000	48.474718
1712.000000	48.626773
1711.000000	48.732408
1710.000000	48.838152
1709.000000	48.940425
1708.000000	48.998883
1707.000000	49.040096
1706.000000	49.070246
1705.000000	49.090202
1704.000000	49.062763
1703.000000	49.042048
1702.000000	48.996388
1701.000000	48.938039
1700.000000	48.871231
1699.000000	48.828066
1698.000000	48.783707
1697.000000	48.726768
1696.000000	48.711910
1695.000000	48.711042
1694.000000	48.679265
1693.000000	48.690219
1692.000000	48.702366
1691.000000	48.688484
1690.000000	48.727744
1689.000000	48.745314
1688.000000	48.830777
1687.000000	48.960815
1686.000000	49.107880
1685.000000	49.311667
1684.000000	49.569682
1683.000000	49.853401
1682.000000	50.185491
1681.000000	50.561289
1680.000000	50.906936
1679.000000	51.270911
1678.000000	51.612545
1677.000000	51.943768
1676.000000	52.241152
1675.000000	52.546453
1674.000000	52.832884
1673.000000	53.077776
1672.000000	53.346202
1671.000000	53.599771
1670.000000	53.849977
1669.000000	54.109185
1668.000000	54.342147
1667.000000	54.579989
1666.000000	54.780848
1665.000000	54.964246
1664.000000	55.130074
1663.000000	55.300566
1662.000000	55.455440
1661.000000	55.600444
1660.000000	55.733627
1659.000000	55.865075
1658.000000	55.985569
1657.000000	56.049015
1656.000000	56.128621
1655.000000	56.185886
1654.000000	56.235016
1653.000000	56.252803
1652.000000	56.287400
1651.000000	56.292714
1650.000000	56.312128
1649.000000	56.317008
1648.000000	56.300631
1647.000000	56.290220
1646.000000	56.258768
1645.000000	56.242391
1644.000000	56.224604
1643.000000	56.195321
1642.000000	56.171678
1641.000000	56.162026
1640.000000	56.147601
1639.000000	56.109967
1638.000000	56.078840
1637.000000	56.063982
1636.000000	56.031229
1635.000000	56.009104
1634.000000	55.977869
1633.000000	55.942187
1632.000000	55.871149
1631.000000	55.818331
1630.000000	55.756078
1629.000000	55.694583
1628.000000	55.628860
1627.000000	55.564979
1626.000000	55.507498
1625.000000	55.436785
1624.000000	55.377569
1623.000000	55.330065
1622.000000	55.292106
1621.000000	55.237878
1620.000000	55.184735
1619.000000	55.134087
1618.000000	55.096887
1617.000000	55.038321
1616.000000	54.992227
1615.000000	54.945158
1614.000000	54.890171
1613.000000	54.822712
1612.000000	54.770545
1611.000000	54.702543
1610.000000	54.624239
1609.000000	54.547452
1608.000000	54.473594
1607.000000	54.394097
