PE UV       SUBTECH     SPECTRUM    ASCII       PEDS        4.00        
   -1
CICIMAUCR0240-1.ASC
24/06/20
15:47:24.00
24/06/20
15:47:24.00
Vinicio Soto Monge
C. resplendens. Sex M. Ventral 
250,000000
1
Lambda 1050
1050L1511233
PerkinElmer UV WinLab 6.3.2.0749 / 2.02.05 Lambda 900 UV/VIS/NIR, Aug  7 2015 09:38:08

0
0
3350/servo 860,8/2
0
0
UV/VIS
1
1
1
DoubleDePol,CommonBeamDepol,RBeamAtt,SBeamAtt,60mm sphere, WB InGaAs Detector
0
0
0
0
Program
Program
3350/servo 860,8/2
3350/0,2 860,8/0,2
3350/0,2 860,8/0,2
0
15.00
 
 
 
0
 
860,8
319,2
860,8
Front
100
on
S:100 R:100
0
0
0
0
 
0
 
 
 
0
 
 
0
0
0
0
0
 
 
 
 
0
0


0
0
#HDR
-1
-1
#GR
nm
%R
1.0
0.0
2500,000000
-1,000000
2251
8
61,039600
4,365700
#DATA
2482.000000	6.409548
2481.000000	6.437950
2480.000000	6.448086
2479.000000	6.389500
2478.000000	6.437393
2477.000000	6.347733
2476.000000	6.366110
2475.000000	6.454100
2474.000000	6.358759
2473.000000	6.350072
2472.000000	6.379476
2471.000000	6.426701
2470.000000	6.364774
2469.000000	6.324455
2468.000000	6.348067
2467.000000	6.373239
2466.000000	6.378362
2465.000000	6.387941
2464.000000	6.375800
2463.000000	6.378251
2462.000000	6.400304
2461.000000	6.370788
2460.000000	6.380033
2459.000000	6.459001
2458.000000	6.469582
2457.000000	6.447417
2456.000000	6.503664
2455.000000	6.485955
2454.000000	6.509344
2453.000000	6.515582
2452.000000	6.535518
2451.000000	6.580182
2450.000000	6.596554
2449.000000	6.612816
2448.000000	6.645561
2447.000000	6.662825
2446.000000	6.690447
2445.000000	6.704035
2444.000000	6.750481
2443.000000	6.765851
2442.000000	6.799822
2441.000000	6.863419
2440.000000	6.868097
2439.000000	6.879681
2438.000000	6.890373
2437.000000	6.953080
2436.000000	6.989946
2435.000000	7.011999
2434.000000	7.031379
2433.000000	7.054769
2432.000000	7.076599
2431.000000	7.097650
2430.000000	7.114580
2429.000000	7.152894
2428.000000	7.178846
2427.000000	7.188981
2426.000000	7.214487
2425.000000	7.251576
2424.000000	7.263605
2423.000000	7.271291
2422.000000	7.322414
2421.000000	7.313281
2420.000000	7.347585
2419.000000	7.357275
2418.000000	7.371086
2417.000000	7.404055
2416.000000	7.437357
2415.000000	7.438248
2414.000000	7.466984
2413.000000	7.470214
2412.000000	7.476117
2411.000000	7.492490
2410.000000	7.506301
2409.000000	7.530136
2408.000000	7.545618
2407.000000	7.561322
2406.000000	7.584935
2405.000000	7.607211
2404.000000	7.617458
2403.000000	7.621690
2402.000000	7.633274
2401.000000	7.649424
2400.000000	7.648867
2399.000000	7.673593
2398.000000	7.704445
2397.000000	7.727389
2396.000000	7.745544
2395.000000	7.773277
2394.000000	7.810144
2393.000000	7.823398
2392.000000	7.825292
2391.000000	7.830638
2390.000000	7.843224
2389.000000	7.866836
2388.000000	7.881093
2387.000000	7.896463
2386.000000	7.922860
2385.000000	7.941237
2384.000000	7.931213
2383.000000	7.930100
2382.000000	7.934221
2381.000000	7.938453
2380.000000	7.952598
2379.000000	7.949702
2378.000000	7.946806
2377.000000	7.957944
2376.000000	7.974651
2375.000000	7.972535
2374.000000	7.957610
2373.000000	7.969973
2372.000000	7.984898
2371.000000	7.973983
2370.000000	7.960840
2369.000000	7.958390
2368.000000	7.955271
2367.000000	7.955717
2366.000000	7.955383
2365.000000	7.940124
2364.000000	7.919964
2363.000000	7.910051
2362.000000	7.920521
2361.000000	7.901921
2360.000000	7.871180
2359.000000	7.866613
2358.000000	7.861044
2357.000000	7.847790
2356.000000	7.833534
2355.000000	7.835427
2354.000000	7.834202
2353.000000	7.817606
2352.000000	7.814376
2351.000000	7.815824
2350.000000	7.817829
2349.000000	7.821505
2348.000000	7.832865
2347.000000	7.853471
2346.000000	7.860710
2345.000000	7.868284
2344.000000	7.877974
2343.000000	7.904928
2342.000000	7.934443
2341.000000	7.942797
2340.000000	7.960729
2339.000000	7.975876
2338.000000	7.973203
2337.000000	7.986123
2336.000000	8.002273
2335.000000	8.014080
2334.000000	8.016307
2333.000000	8.013077
2332.000000	8.011629
2331.000000	8.017421
2330.000000	8.005726
2329.000000	8.003944
2328.000000	7.991915
2327.000000	7.973872
2326.000000	7.968637
2325.000000	7.958167
2324.000000	7.934443
2323.000000	7.926535
2322.000000	7.897688
2321.000000	7.871514
2320.000000	7.831863
2319.000000	7.799117
2318.000000	7.772386
2317.000000	7.752227
2316.000000	7.699656
2315.000000	7.655215
2314.000000	7.618126
2313.000000	7.593734
2312.000000	7.565555
2311.000000	7.521114
2310.000000	7.495052
2309.000000	7.468321
2308.000000	7.435909
2307.000000	7.424883
2306.000000	7.406394
2305.000000	7.395033
2304.000000	7.402161
2303.000000	7.392471
2302.000000	7.399711
2301.000000	7.427333
2300.000000	7.440364
2299.000000	7.459188
2298.000000	7.510533
2297.000000	7.522674
2296.000000	7.543836
2295.000000	7.571347
2294.000000	7.611109
2293.000000	7.650649
2292.000000	7.673481
2291.000000	7.698765
2290.000000	7.729505
2289.000000	7.741200
2288.000000	7.758687
2287.000000	7.759689
2286.000000	7.748997
2285.000000	7.754009
2284.000000	7.766260
2283.000000	7.748328
2282.000000	7.741534
2281.000000	7.728837
2280.000000	7.731622
2279.000000	7.713133
2278.000000	7.665239
2277.000000	7.659782
2276.000000	7.644968
2275.000000	7.661341
2274.000000	7.628930
2273.000000	7.603424
2272.000000	7.611443
2271.000000	7.605874
2270.000000	7.601976
2269.000000	7.631269
2268.000000	7.644189
2267.000000	7.639622
2266.000000	7.684619
2265.000000	7.711907
2264.000000	7.772386
2263.000000	7.819945
2262.000000	7.881872
2261.000000	7.945470
2260.000000	8.031789
2259.000000	8.108084
2258.000000	8.210664
2257.000000	8.311351
2256.000000	8.405021
2255.000000	8.520856
2254.000000	8.632903
2253.000000	8.733924
2252.000000	8.855105
2251.000000	8.993438
2250.000000	9.087665
2249.000000	9.170754
2248.000000	9.267766
2247.000000	9.388390
2246.000000	9.466801
2245.000000	9.540757
2244.000000	9.623177
2243.000000	9.697690
2242.000000	9.767748
2241.000000	9.851394
2240.000000	9.924347
2239.000000	9.959654
2238.000000	9.976027
2237.000000	10.058114
2236.000000	10.096317
2235.000000	10.146883
2234.000000	10.155571
2233.000000	10.191769
2232.000000	10.213933
2231.000000	10.229972
2230.000000	10.243115
2229.000000	10.253362
2228.000000	10.284102
2227.000000	10.262606
2226.000000	10.295909
2225.000000	10.285885
2224.000000	10.273967
2223.000000	10.265613
2222.000000	10.247236
2221.000000	10.237880
2220.000000	10.218834
2219.000000	10.200568
2218.000000	10.207808
2217.000000	10.176621
2216.000000	10.175953
2215.000000	10.136191
2214.000000	10.111464
2213.000000	10.089077
2212.000000	10.078830
2211.000000	10.059450
2210.000000	10.043523
2209.000000	10.010555
2208.000000	10.019799
2207.000000	9.985606
2206.000000	9.983935
2205.000000	9.966783
2204.000000	9.943950
2203.000000	9.945843
2202.000000	9.946846
2201.000000	9.936376
2200.000000	9.922899
2199.000000	9.910202
2198.000000	9.923790
2197.000000	9.917107
2196.000000	9.910759
2195.000000	9.890154
2194.000000	9.881912
2193.000000	9.879461
2192.000000	9.899398
2191.000000	9.865539
2190.000000	9.855292
2189.000000	9.868435
2188.000000	9.847718
2187.000000	9.856406
2186.000000	9.837694
2185.000000	9.833016
2184.000000	9.825442
2183.000000	9.835689
2182.000000	9.815529
2181.000000	9.815975
2180.000000	9.799491
2179.000000	9.789912
2178.000000	9.794033
2177.000000	9.792474
2176.000000	9.787016
2175.000000	9.764852
2174.000000	9.772871
2173.000000	9.771535
2172.000000	9.792474
2171.000000	9.793254
2170.000000	9.765186
2169.000000	9.777215
2168.000000	9.778217
2167.000000	9.811743
2166.000000	9.823883
2165.000000	9.807956
2164.000000	9.814304
2163.000000	9.842260
2162.000000	9.847273
2161.000000	9.833350
2160.000000	9.875117
2159.000000	9.891602
2158.000000	9.923122
2157.000000	9.937490
2156.000000	9.936710
2155.000000	9.963664
2154.000000	9.983712
2153.000000	10.020022
2152.000000	10.060675
2151.000000	10.074041
2150.000000	10.101663
2149.000000	10.122268
2148.000000	10.152563
2147.000000	10.195444
2146.000000	10.209256
2145.000000	10.227188
2144.000000	10.244674
2143.000000	10.290117
2142.000000	10.320746
2141.000000	10.339569
2140.000000	10.363739
2139.000000	10.399491
2138.000000	10.433685
2137.000000	10.438029
2136.000000	10.446939
2135.000000	10.470997
2134.000000	10.493384
2133.000000	10.506193
2132.000000	10.528357
2131.000000	10.544842
2130.000000	10.562551
2129.000000	10.558318
2128.000000	10.551302
2127.000000	10.587166
2126.000000	10.588614
2125.000000	10.605432
2124.000000	10.593292
2123.000000	10.586163
2122.000000	10.595742
2121.000000	10.589727
2120.000000	10.593069
2119.000000	10.602759
2118.000000	10.584938
2117.000000	10.573577
2116.000000	10.573466
2115.000000	10.549185
2114.000000	10.561660
2113.000000	10.551970
2112.000000	10.540721
2111.000000	10.536822
2110.000000	10.534706
2109.000000	10.529805
2108.000000	10.508086
2107.000000	10.490377
2106.000000	10.489040
2105.000000	10.472445
2104.000000	10.448387
2103.000000	10.435578
2102.000000	10.440368
2101.000000	10.443264
2100.000000	10.410184
2099.000000	10.382896
2098.000000	10.384455
2097.000000	10.366969
2096.000000	10.349371
2095.000000	10.345918
2094.000000	10.325647
2093.000000	10.320858
2092.000000	10.324088
2091.000000	10.318407
2090.000000	10.325536
2089.000000	10.316180
2088.000000	10.290006
2087.000000	10.276863
2086.000000	10.281875
2085.000000	10.277642
2084.000000	10.276751
2083.000000	10.262495
2082.000000	10.242112
2081.000000	10.225071
2080.000000	10.200011
2079.000000	10.186423
2078.000000	10.170050
2077.000000	10.144990
2076.000000	10.127726
2075.000000	10.095092
2074.000000	10.057111
2073.000000	10.044971
2072.000000	10.028041
2071.000000	9.989838
2070.000000	9.941277
2069.000000	9.920560
2068.000000	9.897171
2067.000000	9.863200
2066.000000	9.830343
2065.000000	9.800048
2064.000000	9.765743
2063.000000	9.738566
2062.000000	9.705264
2061.000000	9.671961
2060.000000	9.659041
2059.000000	9.642780
2058.000000	9.602015
2057.000000	9.592659
2056.000000	9.593216
2055.000000	9.574839
2054.000000	9.572054
2053.000000	9.576732
2052.000000	9.587870
2051.000000	9.610257
2050.000000	9.623289
2049.000000	9.636654
2048.000000	9.668620
2047.000000	9.709942
2046.000000	9.760508
2045.000000	9.795481
2044.000000	9.835132
2043.000000	9.880909
2042.000000	9.937935
2041.000000	9.978255
2040.000000	10.023586
2039.000000	10.069140
2038.000000	10.094758
2037.000000	10.135188
2036.000000	10.203798
2035.000000	10.234093
2034.000000	10.249909
2033.000000	10.308829
2032.000000	10.340460
2031.000000	10.355608
2030.000000	10.367414
2029.000000	10.393588
2028.000000	10.426891
2027.000000	10.442150
2026.000000	10.464871
2025.000000	10.475118
2024.000000	10.487370
2023.000000	10.487927
2022.000000	10.488706
2021.000000	10.503186
2020.000000	10.510759
2019.000000	10.522120
2018.000000	10.521118
2017.000000	10.519558
2016.000000	10.519781
2015.000000	10.513433
2014.000000	10.519336
2013.000000	10.508643
2012.000000	10.495278
2011.000000	10.492827
2010.000000	10.476343
2009.000000	10.452842
2008.000000	10.449501
2007.000000	10.444266
2006.000000	10.404726
2005.000000	10.401496
2004.000000	10.360843
2003.000000	10.342799
2002.000000	10.298025
2001.000000	10.277086
2000.000000	10.265836
1999.000000	10.237323
1998.000000	10.183972
1997.000000	10.156907
1996.000000	10.125275
1995.000000	10.085624
1994.000000	10.052099
1993.000000	10.019911
1992.000000	9.989950
1991.000000	9.948182
1990.000000	9.901960
1989.000000	9.855849
1988.000000	9.810072
1987.000000	9.784120
1986.000000	9.728097
1985.000000	9.694906
1984.000000	9.638436
1983.000000	9.593550
1982.000000	9.544098
1981.000000	9.489522
1980.000000	9.470810
1979.000000	9.432273
1978.000000	9.383823
1977.000000	9.356090
1976.000000	9.304744
1975.000000	9.249722
1974.000000	9.237582
1973.000000	9.183563
1972.000000	9.147253
1971.000000	9.110498
1970.000000	9.043670
1969.000000	9.022620
1968.000000	8.984305
1967.000000	8.947550
1966.000000	8.928950
1965.000000	8.880611
1964.000000	8.848311
1963.000000	8.834500
1962.000000	8.782152
1961.000000	8.738714
1960.000000	8.692269
1959.000000	8.680685
1958.000000	8.644153
1957.000000	8.598376
1956.000000	8.580110
1955.000000	8.527873
1954.000000	8.487219
1953.000000	8.467059
1952.000000	8.458706
1951.000000	8.423510
1950.000000	8.389428
1949.000000	8.380406
1948.000000	8.362920
1947.000000	8.336634
1946.000000	8.301104
1945.000000	8.274707
1944.000000	8.268916
1943.000000	8.254436
1942.000000	8.241850
1941.000000	8.205095
1940.000000	8.190839
1939.000000	8.195739
1938.000000	8.173686
1937.000000	8.188945
1936.000000	8.184713
1935.000000	8.181928
1934.000000	8.178030
1933.000000	8.205429
1932.000000	8.217458
1931.000000	8.208325
1930.000000	8.241962
1929.000000	8.275041
1928.000000	8.282281
1927.000000	8.321821
1926.000000	8.362920
1925.000000	8.399898
1924.000000	8.430416
1923.000000	8.475636
1922.000000	8.506376
1921.000000	8.562289
1920.000000	8.639141
1919.000000	8.690041
1918.000000	8.745508
1917.000000	8.821803
1916.000000	8.898432
1915.000000	8.991322
1914.000000	9.056368
1913.000000	9.121525
1912.000000	9.249165
1911.000000	9.352748
1910.000000	9.459115
1909.000000	9.573725
1908.000000	9.654475
1907.000000	9.772314
1906.000000	9.894275
1905.000000	10.033053
1904.000000	10.188984
1903.000000	10.334446
1902.000000	10.488818
1901.000000	10.686627
1900.000000	10.837435
1899.000000	11.017536
1898.000000	11.232275
1897.000000	11.429194
1896.000000	11.619318
1895.000000	11.846644
1894.000000	12.055034
1893.000000	12.286481
1892.000000	12.524944
1891.000000	12.796821
1890.000000	13.084180
1889.000000	13.376773
1888.000000	13.665023
1887.000000	14.005398
1886.000000	14.302336
1885.000000	14.617428
1884.000000	14.991440
1883.000000	15.398977
1882.000000	15.825226
1881.000000	16.181751
1880.000000	16.595414
1879.000000	16.977000
1878.000000	17.339317
1877.000000	17.742176
1876.000000	18.128551
1875.000000	18.472491
1874.000000	18.839709
1873.000000	19.199909
1872.000000	19.554653
1871.000000	19.916079
1870.000000	20.252667
1869.000000	20.558292
1868.000000	20.869041
1867.000000	21.148826
1866.000000	21.381274
1865.000000	21.574406
1864.000000	21.763528
1863.000000	21.949532
1862.000000	22.095105
1861.000000	22.248140
1860.000000	22.418105
1859.000000	22.589740
1858.000000	22.716824
1857.000000	22.837559
1856.000000	22.950387
1855.000000	23.030803
1854.000000	23.100415
1853.000000	23.176487
1852.000000	23.237077
1851.000000	23.269600
1850.000000	23.295663
1849.000000	23.317493
1848.000000	23.336985
1847.000000	23.374408
1846.000000	23.408045
1845.000000	23.404592
1844.000000	23.364495
1843.000000	23.333309
1842.000000	23.340549
1841.000000	23.365498
1840.000000	23.370510
1839.000000	23.363716
1838.000000	23.354360
1837.000000	23.314486
1836.000000	23.305019
1835.000000	23.283411
1834.000000	23.246322
1833.000000	23.209344
1832.000000	23.142293
1831.000000	23.095069
1830.000000	23.061878
1829.000000	23.026793
1828.000000	23.007079
1827.000000	22.952726
1826.000000	22.878102
1825.000000	22.856383
1824.000000	22.817845
1823.000000	22.763492
1822.000000	22.745672
1821.000000	22.720166
1820.000000	22.706243
1819.000000	22.687309
1818.000000	22.646989
1817.000000	22.617251
1816.000000	22.612685
1815.000000	22.618142
1814.000000	22.614801
1813.000000	22.578825
1812.000000	22.548864
1811.000000	22.518903
1810.000000	22.496627
1809.000000	22.471456
1808.000000	22.431025
1807.000000	22.393601
1806.000000	22.366648
1805.000000	22.344594
1804.000000	22.291689
1803.000000	22.246915
1802.000000	22.209157
1801.000000	22.169283
1800.000000	22.135758
1799.000000	22.085303
1798.000000	22.030059
1797.000000	21.985841
1796.000000	21.942626
1795.000000	21.908767
1794.000000	21.880477
1793.000000	21.836705
1792.000000	21.794492
1791.000000	21.750720
1790.000000	21.711291
1789.000000	21.680773
1788.000000	21.630764
1787.000000	21.586212
1786.000000	21.556920
1785.000000	21.514595
1784.000000	21.475501
1783.000000	21.415690
1782.000000	21.357885
1781.000000	21.324805
1780.000000	21.262878
1779.000000	21.200394
1778.000000	21.151721
1777.000000	21.097480
1776.000000	21.031432
1775.000000	20.963490
1774.000000	20.893433
1773.000000	20.827385
1772.000000	20.755545
1771.000000	20.680587
1770.000000	20.601619
1769.000000	20.510733
1768.000000	20.433324
1767.000000	20.359257
1766.000000	20.285413
1765.000000	20.227941
1764.000000	20.169467
1763.000000	20.129370
1762.000000	20.125695
1761.000000	20.125695
1760.000000	20.128256
1759.000000	20.169801
1758.000000	20.215466
1757.000000	20.257011
1756.000000	20.307689
1755.000000	20.357030
1754.000000	20.398574
1753.000000	20.433547
1752.000000	20.462506
1751.000000	20.488457
1750.000000	20.498593
1749.000000	20.489237
1748.000000	20.464622
1747.000000	20.437780
1746.000000	20.392114
1745.000000	20.337650
1744.000000	20.268372
1743.000000	20.186619
1742.000000	20.099855
1741.000000	19.979454
1740.000000	19.850699
1739.000000	19.711698
1738.000000	19.570580
1737.000000	19.435143
1736.000000	19.301042
1735.000000	19.205367
1734.000000	19.126845
1733.000000	19.061465
1732.000000	19.026826
1731.000000	19.025601
1730.000000	19.040191
1729.000000	19.074719
1728.000000	19.129183
1727.000000	19.190665
1726.000000	19.258272
1725.000000	19.310955
1724.000000	19.360630
1723.000000	19.432358
1722.000000	19.459646
1721.000000	19.527810
1720.000000	19.586619
1719.000000	19.619810
1718.000000	19.694100
1717.000000	19.761484
1716.000000	19.850699
1715.000000	19.935570
1714.000000	20.021889
1713.000000	20.107874
1712.000000	20.185283
1711.000000	20.258125
1710.000000	20.318047
1709.000000	20.362710
1708.000000	20.407150
1707.000000	20.425751
1706.000000	20.419291
1705.000000	20.419625
1704.000000	20.385877
1703.000000	20.350792
1702.000000	20.297776
1701.000000	20.233510
1700.000000	20.144184
1699.000000	20.060315
1698.000000	19.953168
1697.000000	19.862505
1696.000000	19.784985
1695.000000	19.714482
1694.000000	19.680511
1693.000000	19.652555
1692.000000	19.692540
1691.000000	19.759591
1690.000000	19.862171
1689.000000	19.948490
1688.000000	20.032582
1687.000000	20.122019
1686.000000	20.216357
1685.000000	20.270376
1684.000000	20.354022
1683.000000	20.476651
1682.000000	20.606074
1681.000000	20.807002
1680.000000	21.090463
1679.000000	21.412015
1678.000000	21.784913
1677.000000	22.157588
1676.000000	22.532714
1675.000000	22.916193
1674.000000	23.226051
1673.000000	23.507284
1672.000000	23.804889
1671.000000	24.050481
1670.000000	24.251966
1669.000000	24.431175
1668.000000	24.577973
1667.000000	24.791042
1666.000000	24.904538
1665.000000	25.027723
1664.000000	25.136764
1663.000000	25.220521
1662.000000	25.326666
1661.000000	25.397057
1660.000000	25.458205
1659.000000	25.519575
1658.000000	25.545526
1657.000000	25.611574
1656.000000	25.662474
1655.000000	25.646770
1654.000000	25.655569
1653.000000	25.673390
1652.000000	25.680518
1651.000000	25.675951
1650.000000	25.663700
1649.000000	25.623380
1648.000000	25.602998
1647.000000	25.571589
1646.000000	25.526257
1645.000000	25.497744
1644.000000	25.425236
1643.000000	25.411759
1642.000000	25.336578
1641.000000	25.302051
1640.000000	25.265518
1639.000000	25.221746
1638.000000	25.151020
1637.000000	25.100565
1636.000000	25.035854
1635.000000	24.995757
1634.000000	24.905429
1633.000000	24.860877
1632.000000	24.812093
1631.000000	24.744263
1630.000000	24.662510
1629.000000	24.600695
1628.000000	24.535427
1627.000000	24.437970
1626.000000	24.375709
1625.000000	24.302755
1624.000000	24.249182
1623.000000	24.166427
1622.000000	24.093139
1621.000000	24.019072
1620.000000	23.950239
1619.000000	23.880961
1618.000000	23.827054
1617.000000	23.740178
1616.000000	23.689500
1615.000000	23.627796
1614.000000	23.568654
1613.000000	23.481221
1612.000000	23.443463
1611.000000	23.370955
1610.000000	23.293769
1609.000000	23.242423
1608.000000	23.175039
1607.000000	23.086158
1606.000000	23.022895
1605.000000	22.952949
1604.000000	22.884005
1603.000000	22.819071
1602.000000	22.753245
1601.000000	22.685193
1600.000000	22.613019
1599.000000	22.534273
1598.000000	22.477804
1597.000000	22.394492
1596.000000	22.303941
1595.000000	22.245467
1594.000000	22.188663
1593.000000	22.125623
1592.000000	22.069822
1591.000000	21.997982
1590.000000	21.943851
1589.000000	21.895736
1588.000000	21.845058
