Time1=100ms:Average1=5:Objective=10X:Aperture=1: (11/21/2018 10:07:07 AM)
11/21/2018 10:07:07 AM
Reflectance
10X
Ap#: 1
Avg1: 5.000000
Avg2: 0.000000
Int.Time1:100.000000

350.166136	79.602036
350.601937	79.644495
351.037728	79.733152
351.473509	79.782864
351.909281	79.842131
352.345042	79.593456
352.780794	79.401565
353.216536	79.428968
353.652267	79.520827
354.087989	79.321326
354.523701	78.912784
354.959403	78.731010
355.395095	78.928003
355.830777	78.609146
356.266449	78.622138
356.702110	78.970559
357.137762	78.652695
357.573404	78.664267
358.009035	78.698992
358.444656	78.915723
358.880268	79.185066
359.315869	79.082864
359.751459	79.440193
360.187040	79.363481
360.622610	79.699020
361.058170	80.528724
361.493720	80.150345
361.929260	80.144002
362.364789	80.237998
362.800308	79.744396
363.235816	79.109451
363.671314	79.278278
364.106802	79.372107
364.542279	79.453994
364.977746	78.954802
365.413203	78.971728
365.848649	78.955314
366.284084	78.688855
366.719509	78.420893
367.154924	78.481268
367.590328	78.737139
368.025721	78.809620
368.461104	78.402427
368.896477	78.350308
369.331838	78.582248
369.767189	78.316532
370.202530	77.968829
370.637859	78.140048
371.073178	77.854154
371.508486	77.795432
371.943784	77.440047
372.379071	77.342436
372.814347	77.045455
373.249612	76.426042
373.684866	76.236654
374.120110	76.057994
374.555343	76.005074
374.990565	76.124061
375.425776	76.202135
375.860976	76.295501
376.296165	76.409857
376.731343	76.551858
377.166511	76.357115
377.601667	76.206226
378.036812	76.501356
378.471946	76.926801
378.907070	76.698186
379.342182	76.563402
379.777283	76.913486
380.212373	77.018991
380.647452	76.939203
381.082520	76.555387
381.517576	76.843504
381.952622	77.086293
382.387656	77.228004
382.822679	77.256386
383.257691	76.954305
383.692692	77.041297
384.127681	76.844784
384.562659	76.901249
384.997626	76.753185
385.432581	76.987804
385.867525	77.359736
386.302458	77.370954
386.737379	77.503765
387.172289	78.107852
387.607188	78.150704
388.042075	77.909941
388.476951	77.674462
388.911815	77.678989
389.346668	77.333333
389.781509	76.960193
390.216338	77.350269
390.651157	77.432445
391.085963	77.800295
391.520758	77.759382
391.955541	77.565042
392.390313	77.900907
392.825073	78.124428
393.259821	78.183315
393.694558	78.345810
394.129283	78.408987
394.563996	78.357248
394.998698	78.036057
395.433388	77.945205
395.868066	77.811245
396.302732	77.790952
396.737386	78.258498
397.172029	78.363900
397.606659	78.166848
398.041278	77.872839
398.475885	77.564045
398.910480	77.114938
399.345063	76.013900
399.779634	75.466190
400.214194	74.584231
400.648741	73.382539
401.083276	72.033479
401.517799	70.792516
401.952310	69.045763
402.386809	67.343021
402.821296	65.333865
403.255771	63.400767
403.690234	60.787250
404.124684	58.229167
404.559123	55.532080
404.993549	52.649673
405.427963	49.845501
405.862365	47.064431
406.296754	44.770152
406.731131	42.244203
407.165496	39.776326
407.599849	38.021083
408.034190	36.323705
408.468518	34.659254
408.902833	33.035160
409.337137	31.490978
409.771428	30.133133
410.205706	28.686464
410.639973	27.464960
411.074226	26.508425
411.508467	25.665913
411.942696	24.891783
412.376912	24.121896
412.811116	23.446990
413.245307	22.872776
413.679486	22.294856
414.113652	21.798021
414.547805	21.375068
414.981946	20.935287
415.416074	20.592673
415.850190	20.259307
416.284293	19.936512
416.718383	19.710850
417.152460	19.461576
417.586525	19.261400
418.020577	19.077418
418.454616	18.933444
418.888643	18.819896
419.322656	18.742181
419.756657	18.637665
420.190645	18.595703
420.624620	18.556746
421.058582	18.466142
421.492531	18.417137
421.926468	18.356994
422.360391	18.318311
422.794301	18.276983
423.228199	18.253488
423.662083	18.255890
424.095955	18.297315
424.529813	18.288411
424.963658	18.276623
425.397491	18.297933
425.831310	18.338010
426.265116	18.316279
426.698909	18.349590
427.132689	18.396447
427.566455	18.417709
428.000209	18.435680
428.433949	18.458051
428.867676	18.503961
429.301389	18.520955
429.735090	18.540993
430.168777	18.538148
430.602451	18.577077
431.036111	18.570420
431.469759	18.597819
431.903392	18.619244
432.337013	18.627583
432.770620	18.623333
433.204213	18.603078
433.637794	18.606062
434.071360	18.611074
434.504914	18.623715
434.938453	18.633403
435.371979	18.668630
435.805492	18.674902
436.238991	18.683555
436.672477	18.680337
437.105949	18.700308
437.539407	18.699113
437.972852	18.716338
438.406283	18.713341
438.839700	18.681851
439.273104	18.668495
439.706494	18.659739
440.139871	18.630033
440.573233	18.587614
441.006582	18.554146
441.439917	18.509903
441.873238	18.476444
442.306546	18.416152
442.739839	18.371333
443.173119	18.347029
443.606385	18.294890
444.039636	18.230414
444.472874	18.194550
444.906099	18.150636
445.339309	18.110540
445.772505	18.091139
446.205687	18.043087
446.638855	18.019440
447.072009	17.967406
447.505149	17.923910
447.938275	17.874355
448.371387	17.841460
448.804485	17.773117
449.237569	17.711200
449.670638	17.665970
450.103694	17.602455
450.536735	17.516070
450.969762	17.422064
451.402774	17.328398
451.835773	17.243357
452.268757	17.170037
452.701727	17.074820
453.134683	16.989820
453.567624	16.893956
454.000551	16.807302
454.433464	16.731576
454.866362	16.645285
455.299246	16.553022
455.732116	16.469437
456.164971	16.386768
456.597811	16.287440
457.030638	16.202096
457.463449	16.116856
457.896246	16.015644
458.329029	15.915050
458.761797	15.813785
459.194551	15.695068
459.627290	15.595078
460.060014	15.481449
460.492724	15.385861
460.925419	15.279586
461.358099	15.158472
461.790765	15.034572
462.223416	14.915629
462.656052	14.803209
463.088674	14.684459
463.521281	14.592961
463.953873	14.503661
464.386450	14.407968
464.819012	14.322411
465.251560	14.241906
465.684093	14.163147
466.116611	14.105247
466.549114	14.057236
466.981602	14.012127
467.414075	13.958090
467.846533	13.902435
468.278977	13.861451
468.711405	13.819659
469.143818	13.784113
469.576216	13.734452
470.008600	13.692890
470.440968	13.665550
470.873321	13.630006
471.305659	13.610754
471.737982	13.585856
472.170289	13.558711
472.602582	13.539720
473.034859	13.515794
473.467122	13.513356
473.899369	13.504633
474.331600	13.509353
474.763817	13.525439
475.196018	13.533519
475.628204	13.558262
476.060375	13.593669
476.492530	13.631772
476.924670	13.668430
477.356795	13.709357
477.788904	13.768916
478.220998	13.827657
478.653076	13.885458
479.085139	13.950254
479.517186	14.019353
479.949219	14.087132
480.381235	14.155308
480.813236	14.236278
481.245221	14.316373
481.677191	14.396097
482.109146	14.483632
482.541084	14.559388
482.973008	14.645837
483.404915	14.730466
483.836807	14.814854
484.268683	14.905119
484.700544	14.992141
485.132388	15.082536
485.564217	15.179315
485.996031	15.275744
486.427828	15.372609
486.859610	15.456420
487.291376	15.545820
487.723126	15.620824
488.154860	15.692860
488.586579	15.765206
489.018281	15.828195
489.449968	15.893252
489.881639	15.943302
490.313293	15.978215
490.744932	16.017056
491.176555	16.051668
491.608162	16.078926
492.039753	16.105650
492.471328	16.115839
492.902886	16.113784
493.334429	16.105136
493.765956	16.088295
494.197466	16.066766
494.628960	16.026569
495.060439	15.983926
495.491901	15.936063
495.923347	15.890102
496.354776	15.837945
496.786190	15.787227
497.217587	15.729037
497.648968	15.660135
498.080332	15.598970
498.511681	15.535397
498.943013	15.466042
499.374328	15.391037
499.805628	15.315121
500.236911	15.234697
500.668177	15.150320
501.099427	15.068610
501.530661	14.992554
501.961878	14.915813
502.393079	14.845655
502.824264	14.764686
503.255431	14.695149
503.686583	14.635302
504.117717	14.578466
504.548835	14.512636
504.979937	14.452871
505.411022	14.396838
505.842090	14.340907
506.273142	14.281739
506.704177	14.235263
507.135195	14.195711
507.566197	14.158922
507.997182	14.131619
508.428150	14.108484
508.859102	14.095348
509.290036	14.088325
509.720954	14.095694
510.151855	14.113705
510.582739	14.141341
511.013607	14.188531
511.444457	14.234741
511.875291	14.293518
512.306107	14.375722
512.736907	14.468429
513.167690	14.583118
513.598456	14.719218
514.029205	14.871761
514.459936	15.054695
514.890651	15.258856
515.321349	15.489532
515.752030	15.741394
516.182693	16.021929
516.613340	16.342390
517.043969	16.689629
517.474582	17.051397
517.905177	17.446485
518.335755	17.876620
518.766315	18.329766
519.196859	18.814575
519.627385	19.334640
520.057894	19.877974
520.488386	20.435920
520.918860	21.031096
521.349318	21.651646
521.779757	22.308214
522.210180	22.991233
522.640585	23.700643
523.070973	24.424871
523.501343	25.176769
523.931696	25.959318
524.362031	26.760070
524.792349	27.591874
525.222650	28.443500
525.652933	29.296999
526.083198	30.197124
526.513446	31.097986
526.943677	32.001326
527.373890	32.924603
527.804085	33.859734
528.234262	34.806663
528.664422	35.772556
529.094565	36.723252
529.524689	37.698661
529.954796	38.662158
530.384885	39.623149
530.814957	40.601292
531.245011	41.578221
531.675047	42.535050
532.105065	43.501644
532.535065	44.489126
532.965048	45.471261
533.395013	46.416332
533.824959	47.361396
534.254888	48.289994
534.684799	49.236527
535.114693	50.162052
535.544568	51.066926
535.974425	51.952929
536.404264	52.839684
536.834086	53.691554
537.263889	54.535831
537.693674	55.366827
538.123441	56.173469
538.553190	56.965323
538.982921	57.740110
539.412634	58.496298
539.842329	59.239313
540.272006	59.970919
540.701664	60.694610
541.131304	61.395256
541.560926	62.071385
541.990530	62.736728
542.420116	63.404995
542.849683	64.054518
543.279232	64.699944
543.708763	65.319762
544.138275	65.923690
544.567769	66.532343
544.997245	67.134983
545.426702	67.719340
545.856141	68.287320
546.285562	68.841988
546.714964	69.399689
547.144347	69.958964
547.573713	70.510749
548.003059	71.036812
548.432387	71.570379
548.861697	72.102593
549.290988	72.625880
549.720260	73.138564
550.149514	73.659876
550.578750	74.141059
551.007966	74.611124
551.437164	75.073684
551.866344	75.520477
552.295504	75.961475
552.724646	76.382186
553.153769	76.793481
553.582874	77.193812
554.011960	77.569293
554.441027	77.924786
554.870075	78.263148
555.299104	78.567670
555.728115	78.853061
556.157106	79.114792
556.586079	79.346072
557.015033	79.592294
557.443968	79.804187
557.872884	79.991653
558.301781	80.184289
558.730659	80.372295
559.159518	80.545255
559.588358	80.721990
560.017180	80.912259
560.445982	81.074427
560.874765	81.233332
561.303528	81.416521
561.732273	81.592353
562.160999	81.773332
562.589705	81.967302
563.018393	82.136599
563.447061	82.321768
563.875710	82.531936
564.304340	82.739067
564.732950	82.932915
565.161542	83.147253
565.590114	83.354640
566.018666	83.566804
566.447200	83.783289
566.875714	84.013046
567.304208	84.228418
567.732684	84.452689
568.161140	84.678779
568.589576	84.903537
569.017993	85.125590
569.446391	85.336342
569.874769	85.548578
570.303128	85.738078
570.731467	85.940231
571.159787	86.122050
571.588087	86.279630
572.016368	86.425519
572.444629	86.559982
572.872870	86.690424
573.301092	86.790166
573.729294	86.873687
574.157476	86.972282
574.585639	87.035480
575.013782	87.073378
575.441906	87.098951
575.870009	87.114397
576.298093	87.138149
576.726157	87.128678
577.154202	87.126220
577.582226	87.121870
578.010231	87.138074
578.438216	87.125482
578.866181	87.144421
579.294126	87.143393
579.722051	87.170856
580.149957	87.181720
580.577842	87.203181
581.005707	87.224628
581.433553	87.255683
581.861378	87.302446
582.289184	87.340262
582.716969	87.384628
583.144734	87.444667
583.572479	87.513164
584.000205	87.572937
584.427910	87.636286
584.855594	87.703352
585.283259	87.766783
585.710904	87.841717
586.138528	87.889498
586.566132	87.949393
586.993716	88.023236
587.421280	88.060569
587.848823	88.098700
588.276346	88.150237
588.703849	88.188187
589.131332	88.219330
589.558794	88.237982
589.986236	88.249941
590.413657	88.263128
590.841058	88.259998
591.268438	88.238024
591.695799	88.215132
592.123138	88.170403
592.550458	88.120122
592.977756	88.055408
593.405034	87.988899
593.832292	87.925200
594.259529	87.852414
594.686746	87.794483
595.113942	87.717891
595.541117	87.644448
595.968272	87.571128
596.395406	87.490359
596.822519	87.409294
597.249612	87.335414
597.676684	87.275242
598.103735	87.216249
598.530766	87.171958
598.957775	87.117021
599.384764	87.071019
599.811733	87.015458
600.238680	86.979455
600.665606	86.953426
601.092512	86.922999
601.519397	86.887612
601.946261	86.844826
602.373104	86.801317
602.799926	86.779187
603.226727	86.733124
603.653507	86.654394
604.080266	86.579060
604.507004	86.496285
604.933721	86.419623
605.360417	86.329944
605.787092	86.230198
606.213746	86.104726
606.640379	85.974800
607.066991	85.831824
607.493581	85.687656
607.920150	85.516657
608.346699	85.332874
608.773226	85.147924
609.199731	84.957511
609.626216	84.738008
610.052679	84.518642
610.479121	84.267014
610.905542	84.013809
611.331941	83.750739
611.758319	83.464674
612.184676	83.164829
612.611011	82.867253
613.037325	82.584765
613.463617	82.261818
613.889888	81.939125
614.316138	81.619548
614.742366	81.290763
615.168573	80.972971
615.594758	80.653983
616.020921	80.307601
616.447063	79.983294
616.873184	79.664293
617.299283	79.339248
617.725360	79.024000
618.151416	78.705560
618.577450	78.380314
619.003462	78.062025
619.429453	77.745447
619.855422	77.425595
620.281369	77.101079
620.707295	76.768330
621.133199	76.417987
621.559081	76.067272
621.984941	75.699655
622.410779	75.316007
622.836596	74.923186
623.262391	74.508276
623.688163	74.089659
624.113914	73.644498
624.539644	73.166483
624.965351	72.661131
625.391036	72.131330
625.816699	71.579181
626.242340	70.981359
626.667960	70.356177
627.093557	69.703746
627.519132	69.006808
627.944685	68.274187
628.370216	67.499433
628.795725	66.689873
629.221212	65.838720
629.646677	64.957941
630.072119	64.032201
630.497540	63.087187
630.922938	62.103860
631.348314	61.098600
631.773668	60.080083
632.198999	59.038486
632.624308	57.991505
633.049595	56.932646
633.474860	55.864034
633.900102	54.797343
634.325322	53.738944
634.750520	52.685325
635.175695	51.641900
635.600848	50.592565
636.025978	49.565570
636.451086	48.532032
636.876171	47.518260
637.301234	46.501577
637.726275	45.492247
638.151293	44.495421
638.576288	43.507479
639.001261	42.520457
639.426211	41.529961
639.851139	40.555372
640.276044	39.575138
640.700927	38.609120
641.125787	37.656961
641.550624	36.709031
641.975438	35.778076
642.400230	34.873734
642.824999	33.979129
643.249745	33.109612
643.674469	32.263457
644.099169	31.444206
644.523847	30.655524
644.948502	29.901196
645.373135	29.175541
645.797744	28.484647
646.222330	27.841371
646.646894	27.237506
647.071435	26.673779
647.495953	26.154564
647.920447	25.678511
648.344919	25.245356
648.769368	24.873732
649.193794	24.546226
649.618197	24.276134
650.042576	24.043020
650.466933	23.873010
650.891267	23.764524
651.315577	23.711612
651.739864	23.714673
652.164129	23.782847
652.588370	23.902540
653.012587	24.080518
653.436782	24.315669
653.860953	24.606659
654.285102	24.951971
654.709226	25.367073
655.133328	25.828322
655.557406	26.343749
655.981461	26.918127
656.405493	27.540129
656.829501	28.208400
657.253486	28.924099
657.677448	29.667696
658.101386	30.451201
658.525301	31.270546
658.949192	32.103377
659.373060	32.957153
659.796904	33.832798
660.220725	34.711244
660.644522	35.604588
661.068296	36.499231
661.492046	37.400723
661.915772	38.287440
662.339475	39.162149
662.763154	40.027739
663.186810	40.886152
663.610442	41.729965
664.034050	42.551280
664.457635	43.346632
664.881196	44.122715
665.304733	44.875243
665.728247	45.616871
666.151736	46.329669
666.575202	47.024050
666.998644	47.694377
667.422062	48.345133
667.845457	48.959786
668.268827	49.554487
668.692174	50.122809
669.115496	50.667957
669.538795	51.187739
669.962070	51.669229
670.385321	52.125280
670.808547	52.562589
671.231750	52.953737
671.654929	53.312477
672.078084	53.650023
672.501214	53.967915
672.924321	54.248447
673.347404	54.508623
673.770462	54.737248
674.193496	54.941193
674.616506	55.134041
675.039492	55.311848
675.462454	55.477436
675.885391	55.625805
676.308305	55.771699
676.731194	55.909261
677.154058	56.044637
677.576899	56.182891
677.999715	56.325898
678.422507	56.455337
678.845274	56.591193
679.268017	56.747256
679.690736	56.906165
680.113430	57.094713
680.536100	57.279078
680.958746	57.483453
681.381367	57.704294
681.803963	57.960903
682.226535	58.226240
682.649083	58.523226
683.071605	58.857206
683.494104	59.210087
683.916578	59.587059
684.339027	59.990292
684.761451	60.432742
685.183851	60.898268
685.606227	61.383882
686.028577	61.901082
686.450903	62.455728
686.873204	63.037775
687.295481	63.654953
687.717733	64.280665
688.139959	64.929470
688.562162	65.602193
688.984339	66.281258
689.406492	66.978019
689.828619	67.684442
690.250722	68.403304
690.672800	69.131875
691.094853	69.856523
691.516881	70.596410
691.938884	71.339634
692.360863	72.044211
692.782816	72.766822
693.204744	73.459234
693.626647	74.156661
694.048526	74.845888
694.470379	75.514020
694.892207	76.142519
695.314010	76.764540
695.735788	77.360910
696.157540	77.931730
696.579268	78.489329
697.000970	79.020492
697.422648	79.525674
697.844300	79.992528
698.265926	80.447073
698.687528	80.869963
699.109104	81.272789
699.530655	81.631170
699.952181	81.971603
700.373681	82.272887
700.795156	82.555228
701.216606	82.818380
701.638030	83.028668
702.059429	83.235040
702.480803	83.401683
702.902151	83.543468
703.323473	83.675274
703.744770	83.762931
704.166042	83.827201
704.587288	83.864795
705.008509	83.870518
705.429704	83.884675
705.850873	83.856796
706.272017	83.815122
706.693135	83.747923
707.114228	83.660023
707.535295	83.571511
707.956336	83.470656
708.377352	83.366795
708.798342	83.252488
709.219306	83.137411
709.640245	83.011728
710.061157	82.883316
710.482044	82.764932
710.902905	82.644736
711.323741	82.526357
711.744550	82.411738
712.165334	82.313165
712.586092	82.229571
713.006823	82.145316
713.427529	82.069060
713.848209	82.010229
714.268863	81.956159
714.689492	81.930049
715.110094	81.914808
715.530670	81.910811
715.951220	81.913666
716.371744	81.905788
716.792242	81.927307
717.212714	81.962454
717.633159	82.007989
718.053579	82.063634
718.473973	82.108692
718.894340	82.164860
719.314681	82.239130
719.734996	82.317704
720.155285	82.405933
720.575547	82.495900
720.995784	82.594749
721.415994	82.694125
721.836177	82.799249
722.256335	82.910255
722.676466	83.021791
723.096570	83.126171
723.516649	83.236815
723.936701	83.368967
724.356726	83.485126
724.776725	83.603247
725.196698	83.700782
725.616644	83.804965
726.036564	83.902683
726.456457	84.008708
726.876324	84.095946
727.296164	84.165237
727.715977	84.242116
728.135764	84.298551
728.555525	84.354666
728.975258	84.409036
729.394966	84.464653
729.814646	84.518835
730.234300	84.556473
730.653927	84.584498
731.073527	84.616222
731.493101	84.657044
731.912648	84.686939
732.332168	84.708069
732.751661	84.738473
733.171128	84.769790
733.590568	84.790955
734.009980	84.822737
734.429366	84.851010
734.848726	84.887603
735.268058	84.927442
735.687363	84.959594
736.106641	85.025142
736.525893	85.081057
736.945117	85.124899
737.364314	85.179906
737.783485	85.252678
738.202628	85.327497
738.621744	85.402042
739.040834	85.492740
739.459896	85.576570
739.878931	85.675864
740.297939	85.796385
740.716919	85.907529
741.135873	86.045215
741.554799	86.192610
741.973698	86.342387
742.392570	86.491883
742.811415	86.662270
743.230232	86.841930
743.649022	87.045981
744.067785	87.257263
744.486521	87.485216
744.905229	87.724053
745.323909	87.976069
745.742563	88.228414
746.161189	88.482665
746.579787	88.747237
746.998358	89.027528
747.416902	89.303395
747.835418	89.587962
748.253907	89.857392
748.672368	90.136805
749.090802	90.403704
749.509208	90.682035
749.927586	90.958741
750.345937	91.228019
750.764261	91.486611
751.182556	91.755846
751.600824	92.021386
752.019065	92.269463
752.437277	92.534528
752.855462	92.784861
753.273620	93.038699
753.691749	93.287852
754.109851	93.521676
