Time1=100ms:Average1=5:Objective=10X:Aperture=1: (11/21/2018 11:58:40 AM)
11/21/2018 11:58:40 AM
Reflectance
10X
Ap#: 1
Avg1: 5.000000
Avg2: 0.000000
Int.Time1:100.000000

350.166136	91.433802
350.601937	92.156082
351.037728	92.740214
351.473509	93.025371
351.909281	93.034826
352.345042	93.048183
352.780794	92.881980
353.216536	92.577846
353.652267	92.378517
354.087989	92.142638
354.523701	91.794244
354.959403	91.580983
355.395095	92.014704
355.830777	91.958006
356.266449	92.128637
356.702110	92.054322
357.137762	91.974743
357.573404	91.985241
358.009035	91.604382
358.444656	91.700904
358.880268	91.532922
359.315869	91.653787
359.751459	91.835268
360.187040	92.070031
360.622610	91.994223
361.058170	92.083290
361.493720	92.183789
361.929260	92.260798
362.364789	92.041949
362.800308	92.245275
363.235816	92.584200
363.671314	92.858609
364.106802	92.906272
364.542279	92.866660
364.977746	93.194473
365.413203	93.342981
365.848649	92.893296
366.284084	92.715910
366.719509	92.411813
367.154924	92.832940
367.590328	92.476200
368.025721	92.588043
368.461104	92.474111
368.896477	92.248618
369.331838	92.383292
369.767189	91.713155
370.202530	91.657306
370.637859	91.811565
371.073178	92.464297
371.508486	92.334212
371.943784	92.224140
372.379071	92.183698
372.814347	92.270924
373.249612	92.072054
373.684866	91.859408
374.120110	91.925529
374.555343	91.886697
374.990565	91.946038
375.425776	92.224122
375.860976	92.019347
376.296165	91.006144
376.731343	90.910913
377.166511	90.864322
377.601667	90.961866
378.036812	90.774168
378.471946	90.718353
378.907070	90.618146
379.342182	90.804140
379.777283	91.083690
380.212373	90.636481
380.647452	90.763449
381.082520	90.981825
381.517576	91.073190
381.952622	92.024235
382.387656	92.397486
382.822679	92.125984
383.257691	92.453208
383.692692	92.427262
384.127681	92.513262
384.562659	91.666667
384.997626	91.848473
385.432581	91.669953
385.867525	91.941356
386.302458	92.175105
386.737379	92.789969
387.172289	92.562145
387.607188	92.191142
388.042075	92.159533
388.476951	92.428224
388.911815	92.413927
389.346668	92.563029
389.781509	93.043478
390.216338	93.045094
390.651157	93.030066
391.085963	93.222832
391.520758	93.188491
391.955541	93.460143
392.390313	93.102442
392.825073	93.190661
393.259821	93.120658
393.694558	94.118804
394.129283	93.498876
394.563996	93.677597
394.998698	93.703740
395.433388	93.166667
395.868066	92.802182
396.302732	93.103112
396.737386	93.383283
397.172029	93.273804
397.606659	92.859907
398.041278	92.656837
398.475885	92.284866
398.910480	91.996759
399.345063	91.238014
399.779634	89.998596
400.214194	88.268054
400.648741	86.954944
401.083276	85.408431
401.517799	83.661595
401.952310	81.199548
402.386809	78.512297
402.821296	75.545057
403.255771	73.118598
403.690234	70.266662
404.124684	66.845540
404.559123	62.922326
404.993549	59.963245
405.427963	56.584861
405.862365	53.450860
406.296754	50.538372
406.731131	47.918817
407.165496	45.103749
407.599849	42.574838
408.034190	40.300367
408.468518	38.169871
408.902833	36.324831
409.337137	34.584581
409.771428	32.895945
410.205706	31.407375
410.639973	30.052252
411.074226	28.954006
411.508467	27.952102
411.942696	26.981484
412.376912	26.178378
412.811116	25.446874
413.245307	24.808483
413.679486	24.286022
414.113652	23.746591
414.547805	23.264027
414.981946	22.831490
415.416074	22.455658
415.850190	22.190817
416.284293	21.949149
416.718383	21.625493
417.152460	21.297896
417.586525	21.060295
418.020577	20.957755
418.454616	20.778456
418.888643	20.632284
419.322656	20.563678
419.756657	20.480045
420.190645	20.405369
420.624620	20.375671
421.058582	20.300533
421.492531	20.290615
421.926468	20.262120
422.360391	20.246240
422.794301	20.256461
423.228199	20.296426
423.662083	20.312214
424.095955	20.345607
424.529813	20.385842
424.963658	20.444306
425.397491	20.500465
425.831310	20.545610
426.265116	20.578570
426.698909	20.638330
427.132689	20.642349
427.566455	20.723879
428.000209	20.774395
428.433949	20.847421
428.867676	20.929937
429.301389	20.992990
429.735090	21.046179
430.168777	21.135249
430.602451	21.237526
431.036111	21.298404
431.469759	21.356694
431.903392	21.412629
432.337013	21.449910
432.770620	21.478026
433.204213	21.509197
433.637794	21.536191
434.071360	21.593646
434.504914	21.654937
434.938453	21.698034
435.371979	21.749275
435.805492	21.804047
436.238991	21.859747
436.672477	21.921108
437.105949	21.971714
437.539407	22.008735
437.972852	22.043465
438.406283	22.070167
438.839700	22.125032
439.273104	22.171815
439.706494	22.210294
440.139871	22.244260
440.573233	22.290412
441.006582	22.287024
441.439917	22.301728
441.873238	22.300512
442.306546	22.295858
442.739839	22.308238
443.173119	22.309902
443.606385	22.320410
444.039636	22.319707
444.472874	22.335350
444.906099	22.350954
445.339309	22.379894
445.772505	22.417546
446.205687	22.435585
446.638855	22.440852
447.072009	22.461049
447.505149	22.452319
447.938275	22.482557
448.371387	22.494216
448.804485	22.504448
449.237569	22.505214
449.670638	22.487357
450.103694	22.460438
450.536735	22.438307
450.969762	22.432450
451.402774	22.413966
451.835773	22.372383
452.268757	22.334510
452.701727	22.273261
453.134683	22.242210
453.567624	22.199491
454.000551	22.160067
454.433464	22.126872
454.866362	22.095930
455.299246	22.067205
455.732116	22.017155
456.164971	21.968044
456.597811	21.924622
457.030638	21.866268
457.463449	21.811946
457.896246	21.774004
458.329029	21.715793
458.761797	21.654073
459.194551	21.577027
459.627290	21.505683
460.060014	21.446064
460.492724	21.362629
460.925419	21.276427
461.358099	21.186791
461.790765	21.084718
462.223416	20.983027
462.656052	20.864767
463.088674	20.776249
463.521281	20.665409
463.953873	20.542317
464.386450	20.413107
464.819012	20.290239
465.251560	20.158928
465.684093	20.030315
466.116611	19.930593
466.549114	19.818100
466.981602	19.696639
467.414075	19.578687
467.846533	19.460048
468.278977	19.330141
468.711405	19.171712
469.143818	19.036871
469.576216	18.884891
470.008600	18.733414
470.440968	18.579823
470.873321	18.423666
471.305659	18.248914
471.737982	18.085782
472.170289	17.919278
472.602582	17.766937
473.034859	17.607205
473.467122	17.454373
473.899369	17.317706
474.331600	17.184796
474.763817	17.048570
475.196018	16.921416
475.628204	16.807111
476.060375	16.698024
476.492530	16.584774
476.924670	16.481729
477.356795	16.413313
477.788904	16.344261
478.220998	16.281282
478.653076	16.246013
479.085139	16.224728
479.517186	16.202014
479.949219	16.181238
480.381235	16.180098
480.813236	16.178531
481.245221	16.194168
481.677191	16.212940
482.109146	16.246918
482.541084	16.289883
482.973008	16.353576
483.404915	16.433921
483.836807	16.537584
484.268683	16.657659
484.700544	16.794922
485.132388	16.959210
485.564217	17.134681
485.996031	17.321405
486.427828	17.535369
486.859610	17.750708
487.291376	17.977343
487.723126	18.223044
488.154860	18.484067
488.586579	18.761424
489.018281	19.054157
489.449968	19.359575
489.881639	19.674311
490.313293	19.997631
490.744932	20.338357
491.176555	20.694085
491.608162	21.057522
492.039753	21.432789
492.471328	21.812781
492.902886	22.207077
493.334429	22.612273
493.765956	23.022786
494.197466	23.465136
494.628960	23.898748
495.060439	24.355617
495.491901	24.816404
495.923347	25.300116
496.354776	25.792161
496.786190	26.291473
497.217587	26.784813
497.648968	27.292653
498.080332	27.806234
498.511681	28.337848
498.943013	28.882736
499.374328	29.443805
499.805628	30.014120
500.236911	30.600876
500.668177	31.186275
501.099427	31.774744
501.530661	32.369071
501.961878	32.966887
502.393079	33.560132
502.824264	34.162127
503.255431	34.739968
503.686583	35.330495
504.117717	35.903233
504.548835	36.481827
504.979937	37.067670
505.411022	37.639970
505.842090	38.204118
506.273142	38.769881
506.704177	39.351960
507.135195	39.924919
507.566197	40.491183
507.997182	41.070705
508.428150	41.637391
508.859102	42.187353
509.290036	42.733242
509.720954	43.269556
510.151855	43.800136
510.582739	44.340118
511.013607	44.863718
511.444457	45.391056
511.875291	45.891458
512.306107	46.404712
512.736907	46.914206
513.167690	47.423777
513.598456	47.937939
514.029205	48.460948
514.459936	48.976439
514.890651	49.505036
515.321349	50.021956
515.752030	50.536446
516.182693	51.038399
516.613340	51.567730
517.043969	52.097584
517.474582	52.638301
517.905177	53.161551
518.335755	53.671661
518.766315	54.201979
519.196859	54.709474
519.627385	55.222570
520.057894	55.697877
520.488386	56.176150
520.918860	56.647526
521.349318	57.126415
521.779757	57.598767
522.210180	58.083856
522.640585	58.533639
523.070973	58.990377
523.501343	59.444852
523.931696	59.894555
524.362031	60.336959
524.792349	60.766993
525.222650	61.207865
525.652933	61.637754
526.083198	62.052825
526.513446	62.443150
526.943677	62.830233
527.373890	63.230763
527.804085	63.630023
528.234262	64.003254
528.664422	64.388847
529.094565	64.761902
529.524689	65.137701
529.954796	65.484389
530.384885	65.817411
530.814957	66.131533
531.245011	66.463230
531.675047	66.795855
532.105065	67.117149
532.535065	67.451192
532.965048	67.780045
533.395013	68.105680
533.824959	68.447695
534.254888	68.772279
534.684799	69.085066
535.114693	69.400941
535.544568	69.711656
535.974425	70.048247
536.404264	70.365986
536.834086	70.664365
537.263889	70.961210
537.693674	71.255701
538.123441	71.551617
538.553190	71.836606
538.982921	72.110271
539.412634	72.382786
539.842329	72.681190
540.272006	72.949582
540.701664	73.189702
541.131304	73.435297
541.560926	73.663514
541.990530	73.879132
542.420116	74.100642
542.849683	74.303321
543.279232	74.521202
543.708763	74.716828
544.138275	74.925925
544.567769	75.107106
544.997245	75.292110
545.426702	75.452937
545.856141	75.612137
546.285562	75.773078
546.714964	75.935444
547.144347	76.073109
547.573713	76.233327
548.003059	76.386209
548.432387	76.545194
548.861697	76.722210
549.290988	76.876798
549.720260	77.035032
550.149514	77.198641
550.578750	77.355544
551.007966	77.510081
551.437164	77.683706
551.866344	77.830011
552.295504	77.974209
552.724646	78.130432
553.153769	78.259416
553.582874	78.402801
554.011960	78.531584
554.441027	78.656036
554.870075	78.774816
555.299104	78.881606
555.728115	78.967685
556.157106	79.075729
556.586079	79.158448
557.015033	79.230957
557.443968	79.288010
557.872884	79.339126
558.301781	79.370701
558.730659	79.437307
559.159518	79.480579
559.588358	79.518513
560.017180	79.561742
560.445982	79.603164
560.874765	79.643230
561.303528	79.666658
561.732273	79.712069
562.160999	79.735299
562.589705	79.766499
563.018393	79.806140
563.447061	79.851653
563.875710	79.898694
564.304340	79.946657
564.732950	79.984723
565.161542	80.040697
565.590114	80.094751
566.018666	80.135635
566.447200	80.182754
566.875714	80.224775
567.304208	80.279678
567.732684	80.323131
568.161140	80.368251
568.589576	80.419789
569.017993	80.462180
569.446391	80.488597
569.874769	80.532178
570.303128	80.565131
570.731467	80.594660
571.159787	80.628127
571.588087	80.649570
572.016368	80.641659
572.444629	80.640903
572.872870	80.622604
573.301092	80.603612
573.729294	80.570434
574.157476	80.514744
574.585639	80.467943
575.013782	80.383071
575.441906	80.301394
575.870009	80.221907
576.298093	80.130200
576.726157	80.036903
577.154202	79.936815
577.582226	79.855077
578.010231	79.746573
578.438216	79.654739
578.866181	79.550658
579.294126	79.464947
579.722051	79.385461
580.149957	79.311840
580.577842	79.222969
581.005707	79.147445
581.433553	79.079722
581.861378	79.022970
582.289184	78.975072
582.716969	78.926659
583.144734	78.844759
583.572479	78.804517
584.000205	78.747812
584.427910	78.685368
584.855594	78.629360
585.283259	78.560993
585.710904	78.498325
586.138528	78.420177
586.566132	78.339219
586.993716	78.256511
587.421280	78.167614
587.848823	78.066714
588.276346	77.971559
588.703849	77.850140
589.131332	77.708642
589.558794	77.559549
589.986236	77.387753
590.413657	77.212631
590.841058	77.005719
591.268438	76.805345
591.695799	76.576471
592.123138	76.338463
592.550458	76.082126
592.977756	75.805514
593.405034	75.514617
593.832292	75.230384
594.259529	74.918262
594.686746	74.597447
595.113942	74.263307
595.541117	73.912178
595.968272	73.560756
596.395406	73.215765
596.822519	72.856348
597.249612	72.509952
597.676684	72.161987
598.103735	71.819076
598.530766	71.484290
598.957775	71.157631
599.384764	70.829656
599.811733	70.484030
600.238680	70.152835
600.665606	69.828712
601.092512	69.514585
601.519397	69.197164
601.946261	68.884146
602.373104	68.571186
602.799926	68.247547
603.226727	67.936088
603.653507	67.605797
604.080266	67.266288
604.507004	66.923110
604.933721	66.568371
605.360417	66.217414
605.787092	65.858593
606.213746	65.489798
606.640379	65.103519
607.066991	64.711631
607.493581	64.311935
607.920150	63.899154
608.346699	63.482562
608.773226	63.055983
609.199731	62.612084
609.626216	62.166485
610.052679	61.694799
610.479121	61.203266
610.905542	60.693596
611.331941	60.174814
611.758319	59.639777
612.184676	59.083879
612.611011	58.516685
613.037325	57.940517
613.463617	57.334429
613.889888	56.708591
614.316138	56.062683
614.742366	55.401760
615.168573	54.721973
615.594758	54.028747
616.020921	53.329962
616.447063	52.612930
616.873184	51.894092
617.299283	51.178236
617.725360	50.462616
618.151416	49.746389
618.577450	49.022056
619.003462	48.291903
619.429453	47.572280
619.855422	46.868492
620.281369	46.162086
620.707295	45.467788
621.133199	44.783381
621.559081	44.098984
621.984941	43.429246
622.410779	42.760384
622.836596	42.095946
623.262391	41.450657
623.688163	40.812262
624.113914	40.193618
624.539644	39.568585
624.965351	38.952729
625.391036	38.343440
625.816699	37.748814
626.242340	37.163066
626.667960	36.592030
627.093557	36.027109
627.519132	35.471031
627.944685	34.913647
628.370216	34.377468
628.795725	33.854633
629.221212	33.340776
629.646677	32.833574
630.072119	32.350003
630.497540	31.873167
630.922938	31.408077
631.348314	30.964661
631.773668	30.540369
632.198999	30.140602
632.624308	29.762637
633.049595	29.405692
633.474860	29.069188
633.900102	28.759109
634.325322	28.475521
634.750520	28.219735
635.175695	27.982426
635.600848	27.776403
636.025978	27.601362
636.451086	27.442280
636.876171	27.309390
637.301234	27.190048
637.726275	27.102209
638.151293	27.035168
638.576288	26.985136
639.001261	26.961975
639.426211	26.965589
639.851139	26.979298
640.276044	27.019996
640.700927	27.092635
641.125787	27.190106
641.550624	27.315787
641.975438	27.470946
642.400230	27.654227
642.824999	27.865664
643.249745	28.097485
643.674469	28.364527
644.099169	28.661114
644.523847	28.981038
644.948502	29.328354
645.373135	29.695327
645.797744	30.082015
646.222330	30.490793
646.646894	30.924072
647.071435	31.373809
647.495953	31.833459
647.920447	32.299726
648.344919	32.788330
648.769368	33.286660
649.193794	33.790522
649.618197	34.309256
650.042576	34.833289
650.466933	35.368802
650.891267	35.908853
651.315577	36.466058
651.739864	37.024520
652.164129	37.582531
652.588370	38.146213
653.012587	38.721125
653.436782	39.306898
653.860953	39.894690
654.285102	40.500043
654.709226	41.095639
655.133328	41.701553
655.557406	42.315702
655.981461	42.939426
656.405493	43.567747
656.829501	44.192172
657.253486	44.809512
657.677448	45.431621
658.101386	46.051711
658.525301	46.667753
658.949192	47.276820
659.373060	47.875484
659.796904	48.468945
660.220725	49.052790
660.644522	49.633609
661.068296	50.211988
661.492046	50.796006
661.915772	51.372510
662.339475	51.943735
662.763154	52.519007
663.186810	53.086450
663.610442	53.656249
664.034050	54.227890
664.457635	54.786850
664.881196	55.353516
665.304733	55.925391
665.728247	56.489893
666.151736	57.056151
666.575202	57.618278
666.998644	58.178238
667.422062	58.737577
667.845457	59.300212
668.268827	59.853806
668.692174	60.404404
669.115496	60.954929
669.538795	61.502485
669.962070	62.049217
670.385321	62.601872
670.808547	63.142728
671.231750	63.682072
671.654929	64.220359
672.078084	64.754601
672.501214	65.285177
672.924321	65.810244
673.347404	66.331399
673.770462	66.841247
674.193496	67.328281
674.616506	67.799235
675.039492	68.250531
675.462454	68.694335
675.885391	69.101651
676.308305	69.503238
676.731194	69.890559
677.154058	70.250813
677.576899	70.588095
677.999715	70.909963
678.422507	71.218730
678.845274	71.508372
679.268017	71.782736
679.690736	72.040977
680.113430	72.279675
680.536100	72.502502
680.958746	72.721628
681.381367	72.926122
681.803963	73.111668
682.226535	73.293614
682.649083	73.475432
683.071605	73.646389
683.494104	73.807674
683.916578	73.960153
684.339027	74.108378
684.761451	74.236992
685.183851	74.359756
685.606227	74.493827
686.028577	74.614143
686.450903	74.729993
686.873204	74.843097
687.295481	74.970794
687.717733	75.083734
688.139959	75.195365
688.562162	75.289710
688.984339	75.397290
689.406492	75.498268
689.828619	75.593418
690.250722	75.688751
690.672800	75.800537
691.094853	75.907396
691.516881	76.004040
691.938884	76.099492
692.360863	76.189749
692.782816	76.280978
693.204744	76.376553
693.626647	76.470323
694.048526	76.553829
694.470379	76.642380
694.892207	76.728090
695.314010	76.809854
695.735788	76.886666
696.157540	76.960358
696.579268	77.038690
697.000970	77.114572
697.422648	77.175044
697.844300	77.232740
698.265926	77.294751
698.687528	77.328610
699.109104	77.364628
699.530655	77.385458
699.952181	77.405397
700.373681	77.403148
700.795156	77.394101
701.216606	77.387715
701.638030	77.372597
702.059429	77.352305
702.480803	77.315432
702.902151	77.266665
703.323473	77.216787
703.744770	77.150131
704.166042	77.081493
704.587288	76.998911
705.008509	76.916797
705.429704	76.833368
705.850873	76.739071
706.272017	76.632470
706.693135	76.514260
707.114228	76.408583
707.535295	76.291844
707.956336	76.168685
708.377352	76.039229
708.798342	75.904909
709.219306	75.779004
709.640245	75.653187
710.061157	75.528778
710.482044	75.404373
710.902905	75.297118
711.323741	75.190249
711.744550	75.103550
712.165334	75.030648
712.586092	74.968164
713.006823	74.908053
713.427529	74.871164
713.848209	74.846588
714.268863	74.824522
714.689492	74.822667
715.110094	74.829055
715.530670	74.855559
715.951220	74.894437
716.371744	74.934028
716.792242	74.993965
717.212714	75.058738
717.633159	75.138470
718.053579	75.239906
718.473973	75.361373
718.894340	75.504435
719.314681	75.659180
719.734996	75.827393
720.155285	76.001891
720.575547	76.190013
720.995784	76.401900
721.415994	76.624941
721.836177	76.860673
722.256335	77.108276
722.676466	77.355642
723.096570	77.626552
723.516649	77.895822
723.936701	78.162940
724.356726	78.419881
724.776725	78.681405
725.196698	78.939709
725.616644	79.200445
726.036564	79.451743
726.456457	79.706446
726.876324	79.953175
727.296164	80.200324
727.715977	80.444992
728.135764	80.681726
728.555525	80.909563
728.975258	81.124305
729.394966	81.340764
729.814646	81.539202
730.234300	81.732482
730.653927	81.919859
731.073527	82.095001
731.493101	82.256137
731.912648	82.406052
732.332168	82.547570
732.751661	82.695106
733.171128	82.830186
733.590568	82.956076
734.009980	83.071984
734.429366	83.177410
734.848726	83.282567
735.268058	83.371782
735.687363	83.453163
736.106641	83.508295
736.525893	83.579521
736.945117	83.648707
737.364314	83.716674
737.783485	83.780639
738.202628	83.836709
738.621744	83.909545
739.040834	83.983123
739.459896	84.053070
739.878931	84.119048
740.297939	84.191533
740.716919	84.276392
741.135873	84.356053
741.554799	84.447933
741.973698	84.556245
742.392570	84.671410
742.811415	84.813640
743.230232	84.963043
743.649022	85.136449
744.067785	85.304590
744.486521	85.490291
744.905229	85.690514
745.323909	85.892127
745.742563	86.102818
746.161189	86.320658
746.579787	86.554873
746.998358	86.803495
747.416902	87.062319
747.835418	87.315760
748.253907	87.586924
748.672368	87.878334
749.090802	88.180752
749.509208	88.481613
749.927586	88.785145
750.345937	89.094273
750.764261	89.407118
751.182556	89.718676
751.600824	90.021820
752.019065	90.322578
752.437277	90.620207
752.855462	90.935853
753.273620	91.228202
753.691749	91.517187
754.109851	91.815230
