Time1=100ms:Average1=5:Objective=10X:Aperture=1: (11/28/2018 9:46:52 AM)
11/28/2018 9:46:52 AM
Reflectance
10X
Ap#: 1
Avg1: 5.000000
Avg2: 0.000000
Int.Time1:100.000000

350.166136	76.015816
350.601937	76.515480
351.037728	76.612975
351.473509	76.338730
351.909281	76.101695
352.345042	76.615578
352.780794	76.932747
353.216536	76.945893
353.652267	77.089532
354.087989	76.946000
354.523701	76.938298
354.959403	77.139254
355.395095	76.905104
355.830777	76.419410
356.266449	76.404796
356.702110	75.985310
357.137762	76.323820
357.573404	76.164923
358.009035	75.872846
358.444656	75.629577
358.880268	76.092591
359.315869	75.970376
359.751459	75.688399
360.187040	75.785911
360.622610	75.316512
361.058170	75.631514
361.493720	75.446824
361.929260	75.616221
362.364789	75.502079
362.800308	75.570148
363.235816	76.201516
363.671314	76.397183
364.106802	76.223466
364.542279	76.329999
364.977746	76.507037
365.413203	76.766063
365.848649	76.599716
366.284084	76.594614
366.719509	76.555024
367.154924	76.254092
367.590328	76.516894
368.025721	76.380531
368.461104	76.026794
368.896477	76.169875
369.331838	76.361069
369.767189	76.584242
370.202530	76.731449
370.637859	76.477833
371.073178	76.474201
371.508486	76.527303
371.943784	76.477811
372.379071	76.316020
372.814347	76.535627
373.249612	76.887952
373.684866	76.474701
374.120110	76.552388
374.555343	76.394475
374.990565	76.328207
375.425776	76.279596
375.860976	76.194212
376.296165	75.879441
376.731343	75.736568
377.166511	75.477239
377.601667	75.731095
378.036812	75.800589
378.471946	75.724794
378.907070	75.728491
379.342182	76.062543
379.777283	76.360014
380.212373	76.411011
380.647452	76.510763
381.082520	76.338708
381.517576	76.266805
381.952622	76.535637
382.387656	76.511568
382.822679	76.451335
383.257691	76.343994
383.692692	76.071368
384.127681	76.422277
384.562659	76.273504
384.997626	76.285763
385.432581	76.611873
385.867525	76.663535
386.302458	76.639100
386.737379	76.398096
387.172289	76.310877
387.607188	76.438727
388.042075	76.345813
388.476951	76.718591
388.911815	76.656767
389.346668	76.692554
389.781509	76.815878
390.216338	76.762226
390.651157	76.720869
391.085963	76.600590
391.520758	76.773378
391.955541	76.348235
392.390313	76.253984
392.825073	75.939409
393.259821	75.658060
393.694558	75.462731
394.129283	75.463849
394.563996	75.710357
394.998698	75.789561
395.433388	75.753181
395.868066	75.609857
396.302732	75.750196
396.737386	75.368750
397.172029	75.410776
397.606659	74.903286
398.041278	74.339363
398.475885	74.165826
398.910480	73.471507
399.345063	72.430219
399.779634	71.716427
400.214194	70.536634
400.648741	69.372501
401.083276	67.786092
401.517799	66.287380
401.952310	64.189631
402.386809	62.058463
402.821296	59.975225
403.255771	57.681712
403.690234	55.186090
404.124684	52.564694
404.559123	50.059972
404.993549	47.311570
405.427963	44.616799
405.862365	41.946610
406.296754	39.376908
406.731131	37.012928
407.165496	34.841317
407.599849	32.871653
408.034190	30.797128
408.468518	28.988471
408.902833	27.325581
409.337137	25.821041
409.771428	24.405466
410.205706	23.101082
410.639973	21.899864
411.074226	20.846877
411.508467	20.002603
411.942696	19.049728
412.376912	18.273689
412.811116	17.569964
413.245307	16.879880
413.679486	16.314765
414.113652	15.813991
414.547805	15.309612
414.981946	14.832881
415.416074	14.391278
415.850190	14.031228
416.284293	13.637380
416.718383	13.299581
417.152460	12.974385
417.586525	12.702223
418.020577	12.414663
418.454616	12.140655
418.888643	11.954702
419.322656	11.783533
419.756657	11.593008
420.190645	11.438292
420.624620	11.268363
421.058582	11.094484
421.492531	10.941448
421.926468	10.780560
422.360391	10.638321
422.794301	10.522001
423.228199	10.398693
423.662083	10.312129
424.095955	10.225478
424.529813	10.137227
424.963658	10.035047
425.397491	9.991442
425.831310	9.920834
426.265116	9.851034
426.698909	9.792033
427.132689	9.729642
427.566455	9.637732
428.000209	9.576524
428.433949	9.528828
428.867676	9.471316
429.301389	9.429588
429.735090	9.372174
430.168777	9.307475
430.602451	9.266426
431.036111	9.215895
431.469759	9.152333
431.903392	9.112124
432.337013	9.057057
432.770620	9.001000
433.204213	8.957264
433.637794	8.890483
434.071360	8.843465
434.504914	8.796024
434.938453	8.763332
435.371979	8.730805
435.805492	8.683125
436.238991	8.637101
436.672477	8.603356
437.105949	8.565213
437.539407	8.517362
437.972852	8.475248
438.406283	8.424057
438.839700	8.369516
439.273104	8.322854
439.706494	8.290618
440.139871	8.242564
440.573233	8.199852
441.006582	8.172016
441.439917	8.129887
441.873238	8.083467
442.306546	8.056066
442.739839	8.006633
443.173119	7.978057
443.606385	7.947524
444.039636	7.905156
444.472874	7.872947
444.906099	7.852097
445.339309	7.824749
445.772505	7.796231
446.205687	7.765719
446.638855	7.727802
447.072009	7.702833
447.505149	7.686493
447.938275	7.673020
448.371387	7.651226
448.804485	7.645158
449.237569	7.630144
449.670638	7.601616
450.103694	7.583097
450.536735	7.550378
450.969762	7.528571
451.402774	7.510318
451.835773	7.500032
452.268757	7.487108
452.701727	7.468269
453.134683	7.443867
453.567624	7.432087
454.000551	7.416234
454.433464	7.394633
454.866362	7.381120
455.299246	7.375847
455.732116	7.349165
456.164971	7.330436
456.597811	7.298932
457.030638	7.281335
457.463449	7.268010
457.896246	7.247734
458.329029	7.230897
458.761797	7.214087
459.194551	7.192323
459.627290	7.181436
460.060014	7.168954
460.492724	7.166640
460.925419	7.157031
461.358099	7.156412
461.790765	7.155323
462.223416	7.133590
462.656052	7.129398
463.088674	7.135038
463.521281	7.135875
463.953873	7.143612
464.386450	7.146818
464.819012	7.145556
465.251560	7.148000
465.684093	7.150976
466.116611	7.157493
466.549114	7.168829
466.981602	7.173519
467.414075	7.186208
467.846533	7.197765
468.278977	7.207621
468.711405	7.220053
469.143818	7.240880
469.576216	7.254686
470.008600	7.281304
470.440968	7.296591
470.873321	7.317093
471.305659	7.331230
471.737982	7.342662
472.170289	7.358455
472.602582	7.382574
473.034859	7.404999
473.467122	7.422428
473.899369	7.441238
474.331600	7.464029
474.763817	7.479469
475.196018	7.506039
475.628204	7.552155
476.060375	7.594611
476.492530	7.636673
476.924670	7.669292
477.356795	7.709840
477.788904	7.755233
478.220998	7.795860
478.653076	7.838730
479.085139	7.880173
479.517186	7.916678
479.949219	7.959170
480.381235	7.996090
480.813236	8.031301
481.245221	8.078710
481.677191	8.122662
482.109146	8.170053
482.541084	8.222496
482.973008	8.281561
483.404915	8.344733
483.836807	8.413820
484.268683	8.481447
484.700544	8.554374
485.132388	8.633517
485.564217	8.698831
485.996031	8.756202
486.427828	8.816097
486.859610	8.882510
487.291376	8.945621
487.723126	8.997334
488.154860	9.059203
488.586579	9.107581
489.018281	9.153222
489.449968	9.202633
489.881639	9.248078
490.313293	9.307943
490.744932	9.368547
491.176555	9.432723
491.608162	9.510625
492.039753	9.590075
492.471328	9.674837
492.902886	9.767609
493.334429	9.859051
493.765956	9.960441
494.197466	10.054510
494.628960	10.137338
495.060439	10.238072
495.491901	10.325740
495.923347	10.406228
496.354776	10.490828
496.786190	10.571643
497.217587	10.654394
497.648968	10.744290
498.080332	10.843027
498.511681	10.939046
498.943013	11.052244
499.374328	11.183019
499.805628	11.316617
500.236911	11.448869
500.668177	11.595797
501.099427	11.747696
501.530661	11.893344
501.961878	12.048894
502.393079	12.200395
502.824264	12.349318
503.255431	12.499582
503.686583	12.645769
504.117717	12.774761
504.548835	12.899915
504.979937	13.019880
505.411022	13.132309
505.842090	13.241812
506.273142	13.354821
506.704177	13.471083
507.135195	13.586253
507.566197	13.707376
507.997182	13.845026
508.428150	13.980184
508.859102	14.129313
509.290036	14.290497
509.720954	14.458721
510.151855	14.639200
510.582739	14.825487
511.013607	15.010931
511.444457	15.193193
511.875291	15.384610
512.306107	15.580828
512.736907	15.770540
513.167690	15.965356
513.598456	16.165711
514.029205	16.356384
514.459936	16.554392
514.890651	16.763293
515.321349	16.973021
515.752030	17.189042
516.182693	17.418423
516.613340	17.659093
517.043969	17.914852
517.474582	18.194601
517.905177	18.487837
518.335755	18.792461
518.766315	19.124538
519.196859	19.476806
519.627385	19.843093
520.057894	20.224362
520.488386	20.624978
520.918860	21.039610
521.349318	21.462187
521.779757	21.901607
522.210180	22.344771
522.640585	22.809924
523.070973	23.286231
523.501343	23.778309
523.931696	24.290058
524.362031	24.819371
524.792349	25.381069
525.222650	25.964502
525.652933	26.561731
526.083198	27.183227
526.513446	27.838136
526.943677	28.520939
527.373890	29.231603
527.804085	29.970590
528.234262	30.716182
528.664422	31.495748
529.094565	32.301622
529.524689	33.124481
529.954796	33.971054
530.384885	34.827794
530.814957	35.689490
531.245011	36.567196
531.675047	37.466516
532.105065	38.372283
532.535065	39.278987
532.965048	40.200792
533.395013	41.123672
533.824959	42.052967
534.254888	43.008298
534.684799	43.990934
535.114693	44.970373
535.544568	45.952708
535.974425	46.921761
536.404264	47.906853
536.834086	48.883185
537.263889	49.853357
537.693674	50.819617
538.123441	51.771719
538.553190	52.726614
538.982921	53.651441
539.412634	54.578557
539.842329	55.491340
540.272006	56.396708
540.701664	57.278237
541.131304	58.142367
541.560926	59.027133
541.990530	59.893397
542.420116	60.721067
542.849683	61.553651
543.279232	62.372334
543.708763	63.179833
544.138275	63.980380
544.567769	64.765901
544.997245	65.543865
545.426702	66.298408
545.856141	67.067753
546.285562	67.826869
546.714964	68.571941
547.144347	69.328268
547.573713	70.059666
548.003059	70.766219
548.432387	71.465622
548.861697	72.174526
549.290988	72.872805
549.720260	73.546801
550.149514	74.225679
550.578750	74.876076
551.007966	75.518189
551.437164	76.141569
551.866344	76.758110
552.295504	77.372676
552.724646	77.973191
553.153769	78.556657
553.582874	79.138194
554.011960	79.713090
554.441027	80.270563
554.870075	80.792259
555.299104	81.297025
555.728115	81.789315
556.157106	82.254043
556.586079	82.680963
557.015033	83.098807
557.443968	83.488204
557.872884	83.850343
558.301781	84.198965
558.730659	84.517530
559.159518	84.804097
559.588358	85.078474
560.017180	85.341094
560.445982	85.572338
560.874765	85.789325
561.303528	86.008433
561.732273	86.207893
562.160999	86.393440
562.589705	86.566804
563.018393	86.730328
563.447061	86.885650
563.875710	87.037493
564.304340	87.184600
564.732950	87.312457
565.161542	87.431862
565.590114	87.575447
566.018666	87.712422
566.447200	87.830103
566.875714	87.938532
567.304208	88.031280
567.732684	88.124432
568.161140	88.216062
568.589576	88.289194
569.017993	88.368632
569.446391	88.421851
569.874769	88.486679
570.303128	88.525170
570.731467	88.577572
571.159787	88.631712
571.588087	88.656596
572.016368	88.711077
572.444629	88.748595
572.872870	88.803417
573.301092	88.846354
573.729294	88.890642
574.157476	88.931565
574.585639	88.971217
575.013782	89.030283
575.441906	89.084873
575.870009	89.147281
576.298093	89.210028
576.726157	89.277630
577.154202	89.337719
577.582226	89.388839
578.010231	89.470439
578.438216	89.551019
578.866181	89.610545
579.294126	89.660366
579.722051	89.734396
580.149957	89.803645
580.577842	89.879941
581.005707	89.953083
581.433553	90.001467
581.861378	90.081676
582.289184	90.143455
582.716969	90.206269
583.144734	90.248197
583.572479	90.314885
584.000205	90.350262
584.427910	90.401003
584.855594	90.438082
585.283259	90.462668
585.710904	90.481339
586.138528	90.485080
586.566132	90.480693
586.993716	90.469248
587.421280	90.465744
587.848823	90.441474
588.276346	90.404960
588.703849	90.357315
589.131332	90.301622
589.558794	90.244853
589.986236	90.153769
590.413657	90.078356
590.841058	89.992472
591.268438	89.875732
591.695799	89.747973
592.123138	89.622860
592.550458	89.499628
592.977756	89.357056
593.405034	89.210530
593.832292	89.069093
594.259529	88.916269
594.686746	88.770948
595.113942	88.611232
595.541117	88.462537
595.968272	88.323036
596.395406	88.199695
596.822519	88.049192
597.249612	87.926309
597.676684	87.785617
598.103735	87.655995
598.530766	87.519057
598.957775	87.396262
599.384764	87.259360
599.811733	87.134020
600.238680	87.002439
600.665606	86.863552
601.092512	86.721075
601.519397	86.559040
601.946261	86.397744
602.373104	86.235076
602.799926	86.048894
603.226727	85.859030
603.653507	85.645374
604.080266	85.423688
604.507004	85.193927
604.933721	84.952979
605.360417	84.684371
605.787092	84.389077
606.213746	84.070404
606.640379	83.732047
607.066991	83.359690
607.493581	82.972945
607.920150	82.576145
608.346699	82.130206
608.773226	81.672233
609.199731	81.175127
609.626216	80.651527
610.052679	80.102729
610.479121	79.520083
610.905542	78.908963
611.331941	78.269825
611.758319	77.613428
612.184676	76.921108
612.611011	76.186990
613.037325	75.425971
613.463617	74.635613
613.889888	73.795891
614.316138	72.930207
614.742366	72.034091
615.168573	71.115926
615.594758	70.161522
616.020921	69.186484
616.447063	68.192969
616.873184	67.182145
617.299283	66.161585
617.725360	65.110198
618.151416	64.050115
618.577450	62.984384
619.003462	61.917517
619.429453	60.850105
619.855422	59.775055
620.281369	58.707861
620.707295	57.652093
621.133199	56.597723
621.559081	55.572811
621.984941	54.551799
622.410779	53.563757
622.836596	52.587147
623.262391	51.645445
623.688163	50.736598
624.113914	49.855978
624.539644	49.008187
624.965351	48.193846
625.391036	47.414272
625.816699	46.688597
626.242340	45.987685
626.667960	45.334295
627.093557	44.725695
627.519132	44.157183
627.944685	43.633401
628.370216	43.147931
628.795725	42.713039
629.221212	42.321564
629.646677	41.977431
630.072119	41.662610
630.497540	41.384342
630.922938	41.167399
631.348314	40.979862
631.773668	40.823658
632.198999	40.708521
632.624308	40.617506
633.049595	40.568380
633.474860	40.547799
633.900102	40.540169
634.325322	40.554757
634.750520	40.587538
635.175695	40.632721
635.600848	40.685983
636.025978	40.754260
636.451086	40.837769
636.876171	40.924567
637.301234	41.025538
637.726275	41.134186
638.151293	41.247978
638.576288	41.369844
639.001261	41.491062
639.426211	41.623647
639.851139	41.751946
640.276044	41.891449
640.700927	42.034556
641.125787	42.188360
641.550624	42.340855
641.975438	42.492821
642.400230	42.654477
642.824999	42.816026
643.249745	43.001858
643.674469	43.186160
644.099169	43.374808
644.523847	43.570938
644.948502	43.788298
645.373135	44.019410
645.797744	44.264116
646.222330	44.519941
646.646894	44.792754
647.071435	45.078669
647.495953	45.385807
647.920447	45.701709
648.344919	46.040535
648.769368	46.392452
649.193794	46.771246
649.618197	47.147154
650.042576	47.539608
650.466933	47.947055
650.891267	48.356543
651.315577	48.772187
651.739864	49.201630
652.164129	49.635116
652.588370	50.067553
653.012587	50.508298
653.436782	50.936441
653.860953	51.369988
654.285102	51.801402
654.709226	52.228817
655.133328	52.646160
655.557406	53.042816
655.981461	53.435632
656.405493	53.800348
656.829501	54.151353
657.253486	54.479148
657.677448	54.773143
658.101386	55.044734
658.525301	55.275488
658.949192	55.483272
659.373060	55.658428
659.796904	55.797786
660.220725	55.911963
660.644522	56.001422
661.068296	56.059243
661.492046	56.084491
661.915772	56.098150
662.339475	56.076907
662.763154	56.048435
663.186810	55.989396
663.610442	55.908434
664.034050	55.811426
664.457635	55.699542
664.881196	55.568482
665.304733	55.420921
665.728247	55.268149
666.151736	55.105718
666.575202	54.943929
666.998644	54.765827
667.422062	54.576584
667.845457	54.377106
668.268827	54.189951
668.692174	54.004087
669.115496	53.810875
669.538795	53.634876
669.962070	53.468697
670.385321	53.305410
670.808547	53.168875
671.231750	53.041418
671.654929	52.935175
672.078084	52.841067
672.501214	52.767032
672.924321	52.712659
673.347404	52.673136
673.770462	52.643782
674.193496	52.639120
674.616506	52.651465
675.039492	52.661645
675.462454	52.689771
675.885391	52.728529
676.308305	52.792719
676.731194	52.861644
677.154058	52.944383
677.576899	53.043368
677.999715	53.147194
678.422507	53.256903
678.845274	53.374673
679.268017	53.490039
679.690736	53.614560
680.113430	53.745989
680.536100	53.878107
680.958746	54.014620
681.381367	54.138548
681.803963	54.260754
682.226535	54.391246
682.649083	54.514662
683.071605	54.629757
683.494104	54.748707
683.916578	54.859925
684.339027	54.964077
684.761451	55.055232
685.183851	55.139388
685.606227	55.217623
686.028577	55.287030
686.450903	55.351299
686.873204	55.403249
687.295481	55.440726
687.717733	55.464855
688.139959	55.493106
688.562162	55.506890
688.984339	55.509792
689.406492	55.493115
689.828619	55.465624
690.250722	55.430422
690.672800	55.376933
691.094853	55.320554
691.516881	55.267955
691.938884	55.204132
692.360863	55.133711
692.782816	55.062227
693.204744	54.997491
693.626647	54.936764
694.048526	54.875984
694.470379	54.828491
694.892207	54.786799
695.314010	54.741635
695.735788	54.704571
696.157540	54.679192
696.579268	54.664612
697.000970	54.668854
697.422648	54.682071
697.844300	54.712797
698.265926	54.770421
698.687528	54.838233
699.109104	54.927021
699.530655	55.033047
699.952181	55.158871
700.373681	55.310500
700.795156	55.490086
701.216606	55.679146
701.638030	55.902175
702.059429	56.146942
702.480803	56.406533
702.902151	56.699453
703.323473	57.006260
703.744770	57.339635
704.166042	57.675568
704.587288	58.026012
705.008509	58.385871
705.429704	58.775280
705.850873	59.168162
706.272017	59.554065
706.693135	59.941450
707.114228	60.328687
707.535295	60.701500
707.956336	61.081877
708.377352	61.452327
708.798342	61.812605
709.219306	62.153908
709.640245	62.481719
710.061157	62.776551
710.482044	63.054766
710.902905	63.305718
711.323741	63.530832
711.744550	63.733087
712.165334	63.910190
712.586092	64.070019
713.006823	64.207072
713.427529	64.328350
713.848209	64.417755
714.268863	64.505848
714.689492	64.552263
715.110094	64.589855
715.530670	64.616367
715.951220	64.619999
716.371744	64.611046
716.792242	64.594887
717.212714	64.574124
717.633159	64.539056
718.053579	64.510535
718.473973	64.460587
718.894340	64.409597
719.314681	64.351565
719.734996	64.289052
720.155285	64.228937
720.575547	64.176374
720.995784	64.110245
721.415994	64.047960
721.836177	63.988515
722.256335	63.943604
722.676466	63.893072
723.096570	63.873633
723.516649	63.857590
723.936701	63.868072
724.356726	63.886080
724.776725	63.922584
725.196698	63.975248
725.616644	64.030458
726.036564	64.105592
726.456457	64.172158
726.876324	64.263352
727.296164	64.353232
727.715977	64.452282
728.135764	64.545413
728.555525	64.648124
728.975258	64.749092
729.394966	64.858249
729.814646	64.946902
730.234300	65.044401
730.653927	65.127628
731.073527	65.203130
731.493101	65.268223
731.912648	65.318596
732.332168	65.371279
732.751661	65.413373
733.171128	65.441619
733.590568	65.458779
734.009980	65.472400
734.429366	65.483404
734.848726	65.480570
735.268058	65.464470
735.687363	65.456714
736.106641	65.427574
736.525893	65.403805
736.945117	65.363149
737.364314	65.322291
737.783485	65.272005
738.202628	65.224700
738.621744	65.174851
739.040834	65.125440
739.459896	65.092554
739.878931	65.051989
740.297939	65.014034
740.716919	64.996187
741.135873	64.979672
741.554799	64.969938
741.973698	64.966330
742.392570	64.978018
742.811415	65.006478
743.230232	65.047359
743.649022	65.119712
744.067785	65.199508
744.486521	65.291503
744.905229	65.407175
745.323909	65.537001
745.742563	65.688804
746.161189	65.867725
746.579787	66.061282
746.998358	66.271849
747.416902	66.502720
747.835418	66.748735
748.253907	67.005390
748.672368	67.272246
749.090802	67.545049
749.509208	67.810998
749.927586	68.079021
750.345937	68.350642
750.764261	68.612748
751.182556	68.862239
751.600824	69.112459
752.019065	69.346815
752.437277	69.553801
752.855462	69.761951
753.273620	69.956036
753.691749	70.117125
754.109851	70.276528
754.527925	70.409720
754.945971	70.525590
755.363989	70.619208
755.781980	70.693481
756.199943	70.746779
756.617877	70.773534
757.035784	70.786496
