Time1=100ms:Average1=5:Objective=10X:Aperture=1: (11/28/2018 9:49:41 AM)
11/28/2018 9:49:41 AM
Reflectance
10X
Ap#: 1
Avg1: 5.000000
Avg2: 0.000000
Int.Time1:100.000000

350.166136	86.287541
350.601937	86.783453
351.037728	86.651241
351.473509	86.461484
351.909281	86.592328
352.345042	86.295599
352.780794	86.522403
353.216536	86.787704
353.652267	86.899288
354.087989	86.644392
354.523701	86.346465
354.959403	86.200685
355.395095	86.017254
355.830777	85.370885
356.266449	85.531496
356.702110	85.292010
357.137762	85.774547
357.573404	85.394866
358.009035	85.061166
358.444656	85.158064
358.880268	85.396371
359.315869	85.607210
359.751459	85.494759
360.187040	85.893668
360.622610	85.126162
361.058170	85.011482
361.493720	85.312334
361.929260	85.140030
362.364789	85.402106
362.800308	85.429053
363.235816	85.421311
363.671314	85.185845
364.106802	84.829914
364.542279	84.695052
364.977746	84.969461
365.413203	85.161519
365.848649	85.291504
366.284084	84.780298
366.719509	84.449761
367.154924	84.234274
367.590328	84.494958
368.025721	84.911504
368.461104	84.531994
368.896477	84.575313
369.331838	84.708374
369.767189	84.560844
370.202530	84.673145
370.637859	84.210063
371.073178	84.283959
371.508486	84.380752
371.943784	84.441326
372.379071	84.347902
372.814347	84.424359
373.249612	84.501229
373.684866	84.287337
374.120110	84.633549
374.555343	84.682637
374.990565	84.332401
375.425776	84.514276
375.860976	84.283473
376.296165	84.322071
376.731343	84.410745
377.166511	84.348277
377.601667	84.997404
378.036812	85.450926
378.471946	85.140632
378.907070	85.386943
379.342182	85.746372
379.777283	86.096674
380.212373	86.140928
380.647452	86.236708
381.082520	86.211951
381.517576	85.970355
381.952622	86.419006
382.387656	86.582953
382.822679	86.623600
383.257691	86.641516
383.692692	86.298446
384.127681	86.491573
384.562659	86.282051
384.997626	85.907698
385.432581	86.117026
385.867525	86.777142
386.302458	86.622901
386.737379	86.562978
387.172289	86.365179
387.607188	86.289777
388.042075	86.098200
388.476951	86.683034
388.911815	86.957997
389.346668	86.814114
389.781509	86.680743
390.216338	86.424958
390.651157	86.426826
391.085963	85.921552
391.520758	85.720303
391.955541	85.775392
392.390313	85.480624
392.825073	85.178676
393.259821	85.209326
393.694558	85.067534
394.129283	84.824029
394.563996	84.601283
394.998698	84.732380
395.433388	84.617297
395.868066	84.278318
396.302732	84.265489
396.737386	83.803772
397.172029	83.798402
397.606659	83.312294
398.041278	82.954959
398.475885	82.626589
398.910480	81.614153
399.345063	79.992914
399.779634	79.454129
400.214194	78.221900
400.648741	76.955563
401.083276	75.112247
401.517799	73.445223
401.952310	71.197578
402.386809	68.815175
402.821296	66.407267
403.255771	64.175219
403.690234	61.580687
404.124684	58.535857
404.559123	55.636085
404.993549	52.875242
405.427963	49.707471
405.862365	46.898844
406.296754	44.022870
406.731131	41.531507
407.165496	39.254146
407.599849	37.180149
408.034190	34.927105
408.468518	32.931538
408.902833	31.063479
409.337137	29.339456
409.771428	27.786506
410.205706	26.365800
410.639973	24.978106
411.074226	23.836674
411.508467	22.757375
411.942696	21.830900
412.376912	21.002541
412.811116	20.233147
413.245307	19.438445
413.679486	18.822591
414.113652	18.241542
414.547805	17.708118
414.981946	17.189353
415.416074	16.655218
415.850190	16.242301
416.284293	15.827409
416.718383	15.418091
417.152460	15.048906
417.586525	14.749516
418.020577	14.448296
418.454616	14.172398
418.888643	13.983653
419.322656	13.806258
419.756657	13.627309
420.190645	13.438829
420.624620	13.277283
421.058582	13.124233
421.492531	12.985346
421.926468	12.828810
422.360391	12.710350
422.794301	12.602822
423.228199	12.503664
423.662083	12.413980
424.095955	12.362931
424.529813	12.295412
424.963658	12.251667
425.397491	12.214599
425.831310	12.165423
426.265116	12.113070
426.698909	12.066213
427.132689	12.003128
427.566455	11.924739
428.000209	11.869979
428.433949	11.808152
428.867676	11.784850
429.301389	11.748512
429.735090	11.733326
430.168777	11.714133
430.602451	11.684632
431.036111	11.678305
431.469759	11.681391
431.903392	11.667616
432.337013	11.652744
432.770620	11.618990
433.204213	11.609227
433.637794	11.601854
434.071360	11.568100
434.504914	11.542446
434.938453	11.532273
435.371979	11.518561
435.805492	11.498234
436.238991	11.500075
436.672477	11.496275
437.105949	11.510771
437.539407	11.498234
437.972852	11.495100
438.406283	11.474040
438.839700	11.463934
439.273104	11.458553
439.706494	11.463078
440.139871	11.452628
440.573233	11.446130
441.006582	11.464118
441.439917	11.473741
441.873238	11.487741
442.306546	11.495869
442.739839	11.500950
443.173119	11.510302
443.606385	11.524577
444.039636	11.555530
444.472874	11.581130
444.906099	11.595831
445.339309	11.613436
445.772505	11.618901
446.205687	11.624769
446.638855	11.636617
447.072009	11.626675
447.505149	11.637945
447.938275	11.640739
448.371387	11.644751
448.804485	11.656128
449.237569	11.657183
449.670638	11.665589
450.103694	11.687711
450.536735	11.702941
450.969762	11.720178
451.402774	11.754798
451.835773	11.788344
452.268757	11.805204
452.701727	11.813581
453.134683	11.826125
453.567624	11.840740
454.000551	11.840350
454.433464	11.835160
454.866362	11.828568
455.299246	11.835858
455.732116	11.824256
456.164971	11.827777
456.597811	11.820944
457.030638	11.811940
457.463449	11.817432
457.896246	11.803384
458.329029	11.818989
458.761797	11.829232
459.194551	11.844141
459.627290	11.860625
460.060014	11.860596
460.492724	11.877529
460.925419	11.889709
461.358099	11.914896
461.790765	11.936294
462.223416	11.946440
462.656052	11.976627
463.088674	11.987617
463.521281	12.003554
463.953873	12.024664
464.386450	12.053225
464.819012	12.075607
465.251560	12.096294
465.684093	12.136675
466.116611	12.180697
466.549114	12.219438
466.981602	12.251602
467.414075	12.294013
467.846533	12.314494
468.278977	12.340602
468.711405	12.356553
469.143818	12.382439
469.576216	12.382318
470.008600	12.382968
470.440968	12.390223
470.873321	12.383905
471.305659	12.398586
471.737982	12.400372
472.170289	12.421375
472.602582	12.441960
473.034859	12.476903
473.467122	12.515633
473.899369	12.551320
474.331600	12.589010
474.763817	12.614307
475.196018	12.641704
475.628204	12.655531
476.060375	12.657766
476.492530	12.660271
476.924670	12.643786
477.356795	12.617325
477.788904	12.578896
478.220998	12.528455
478.653076	12.481230
479.085139	12.448022
479.517186	12.408472
479.949219	12.390792
480.381235	12.386687
480.813236	12.390986
481.245221	12.422499
481.677191	12.456412
482.109146	12.503395
482.541084	12.552185
482.973008	12.620265
483.404915	12.691644
483.836807	12.762073
484.268683	12.829232
484.700544	12.892039
485.132388	12.946628
485.564217	12.986037
485.996031	13.026529
486.427828	13.067169
486.859610	13.115443
487.291376	13.188478
487.723126	13.253737
488.154860	13.351103
488.586579	13.464503
489.018281	13.592999
489.449968	13.736979
489.881639	13.896861
490.313293	14.073662
490.744932	14.258542
491.176555	14.453820
491.608162	14.645359
492.039753	14.840150
492.471328	15.013786
492.902886	15.183948
493.334429	15.327411
493.765956	15.459436
494.197466	15.576016
494.628960	15.677503
495.060439	15.765763
495.491901	15.849837
495.923347	15.941228
496.354776	16.027097
496.786190	16.123108
497.217587	16.244351
497.648968	16.386068
498.080332	16.538320
498.511681	16.711373
498.943013	16.916516
499.374328	17.132596
499.805628	17.356847
500.236911	17.590406
500.668177	17.824070
501.099427	18.064202
501.530661	18.273539
501.961878	18.465428
502.393079	18.655241
502.824264	18.814926
503.255431	18.962844
503.686583	19.083552
504.117717	19.190485
504.548835	19.289421
504.979937	19.396698
505.411022	19.495515
505.842090	19.596141
506.273142	19.702527
506.704177	19.834157
507.135195	19.971065
507.566197	20.124801
507.997182	20.296512
508.428150	20.480510
508.859102	20.680434
509.290036	20.883260
509.720954	21.090670
510.151855	21.297283
510.582739	21.487994
511.013607	21.676168
511.444457	21.845182
511.875291	22.005949
512.306107	22.157556
512.736907	22.300130
513.167690	22.434976
513.598456	22.562549
514.029205	22.682085
514.459936	22.809268
514.890651	22.958419
515.321349	23.106409
515.752030	23.281266
516.182693	23.488403
516.613340	23.716501
517.043969	23.980932
517.474582	24.267607
517.905177	24.573219
518.335755	24.893929
518.766315	25.246670
519.196859	25.614180
519.627385	25.987960
520.057894	26.362586
520.488386	26.734258
520.918860	27.091913
521.349318	27.444523
521.779757	27.789969
522.210180	28.109883
522.640585	28.415092
523.070973	28.710266
523.501343	28.980204
523.931696	29.225896
524.362031	29.446373
524.792349	29.663503
525.222650	29.856313
525.652933	30.028098
526.083198	30.197275
526.513446	30.358341
526.943677	30.506872
527.373890	30.655881
527.804085	30.817656
528.234262	30.967150
528.664422	31.143228
529.094565	31.323933
529.524689	31.514003
529.954796	31.733786
530.384885	31.968045
530.814957	32.227428
531.245011	32.511430
531.675047	32.839134
532.105065	33.189030
532.535065	33.570427
532.965048	34.001776
533.395013	34.480316
533.824959	35.014764
534.254888	35.617842
534.684799	36.308973
535.114693	37.046621
535.544568	37.832732
535.974425	38.662604
536.404264	39.557669
536.834086	40.504506
537.263889	41.520877
537.693674	42.567821
538.123441	43.669726
538.553190	44.818539
538.982921	45.991768
539.412634	47.186387
539.842329	48.400805
540.272006	49.638185
540.701664	50.865991
541.131304	52.079226
541.560926	53.324876
541.990530	54.532821
542.420116	55.712620
542.849683	56.854783
543.279232	57.969734
543.708763	59.033286
544.138275	60.055992
544.567769	61.033670
544.997245	61.955699
545.426702	62.832168
545.856141	63.663344
546.285562	64.453263
546.714964	65.191703
547.144347	65.898855
547.573713	66.556088
548.003059	67.153018
548.432387	67.719651
548.861697	68.263824
549.290988	68.794888
549.720260	69.289582
550.149514	69.809875
550.578750	70.300998
551.007966	70.793557
551.437164	71.259569
551.866344	71.748229
552.295504	72.236599
552.724646	72.748038
553.153769	73.268630
553.582874	73.811697
554.011960	74.381112
554.441027	74.962998
554.870075	75.526113
555.299104	76.118992
555.728115	76.736559
556.157106	77.393736
556.586079	78.019398
557.015033	78.672891
557.443968	79.343272
557.872884	80.020967
558.301781	80.682318
558.730659	81.353620
559.159518	82.010592
559.588358	82.664132
560.017180	83.311061
560.445982	83.951969
560.874765	84.583139
561.303528	85.203602
561.732273	85.805936
562.160999	86.396093
562.589705	86.965008
563.018393	87.520698
563.447061	88.028013
563.875710	88.498189
564.304340	88.959883
564.732950	89.397840
565.161542	89.817306
565.590114	90.216637
566.018666	90.568383
566.447200	90.899432
566.875714	91.203619
567.304208	91.483980
567.732684	91.745564
568.161140	91.981739
568.589576	92.192065
569.017993	92.368087
569.446391	92.517427
569.874769	92.674104
570.303128	92.782039
570.731467	92.875945
571.159787	92.967377
571.588087	93.056657
572.016368	93.120139
572.444629	93.185263
572.872870	93.259718
573.301092	93.331349
573.729294	93.394202
574.157476	93.454315
574.585639	93.525539
575.013782	93.608542
575.441906	93.691714
575.870009	93.802706
576.298093	93.893686
576.726157	94.007014
577.154202	94.134536
577.582226	94.263811
578.010231	94.409525
578.438216	94.538774
578.866181	94.695496
579.294126	94.871459
579.722051	95.045567
580.149957	95.242804
580.577842	95.444148
581.005707	95.666817
581.433553	95.891299
581.861378	96.137070
582.289184	96.400796
582.716969	96.658790
583.144734	96.925655
583.572479	97.220281
584.000205	97.499467
584.427910	97.801556
584.855594	98.088989
585.283259	98.377680
585.710904	98.658015
586.138528	98.928822
586.566132	99.190649
586.993716	99.447688
587.421280	99.693519
587.848823	99.931653
588.276346	100.151303
588.703849	100.347687
589.131332	100.522936
589.558794	100.699976
589.986236	100.821620
590.413657	100.932825
590.841058	101.005842
591.268438	101.042978
591.695799	101.047668
592.123138	101.018487
592.550458	100.950817
592.977756	100.865186
593.405034	100.727585
593.832292	100.560799
594.259529	100.348684
594.686746	100.124487
595.113942	99.867650
595.541117	99.578135
595.968272	99.281433
596.395406	98.963525
596.822519	98.625457
597.249612	98.275382
597.676684	97.901725
598.103735	97.530430
598.530766	97.142721
598.957775	96.777500
599.384764	96.396834
599.811733	96.016972
600.238680	95.646978
600.665606	95.280597
601.092512	94.900715
601.519397	94.520274
601.946261	94.185836
602.373104	93.845092
602.799926	93.507010
603.226727	93.187049
603.653507	92.880077
604.080266	92.603765
604.507004	92.339203
604.933721	92.097375
605.360417	91.872563
605.787092	91.660571
606.213746	91.454270
606.640379	91.282669
607.066991	91.126001
607.493581	90.997842
607.920150	90.880054
608.346699	90.771718
608.773226	90.691184
609.199731	90.602731
609.626216	90.520870
610.052679	90.440438
610.479121	90.379393
610.905542	90.300897
611.331941	90.230508
611.758319	90.182033
612.184676	90.112947
612.611011	90.025268
613.037325	89.942364
613.463617	89.850749
613.889888	89.745894
614.316138	89.630458
614.742366	89.513722
615.168573	89.368513
615.594758	89.214837
616.020921	89.069874
616.447063	88.927472
616.873184	88.751953
617.299283	88.561868
617.725360	88.352473
618.151416	88.138749
618.577450	87.903858
619.003462	87.656052
619.429453	87.395712
619.855422	87.115734
620.281369	86.815273
620.707295	86.494331
621.133199	86.151979
621.559081	85.797918
621.984941	85.398714
622.410779	84.994356
622.836596	84.549514
623.262391	84.082455
623.688163	83.573037
624.113914	83.029932
624.539644	82.450660
624.965351	81.837714
625.391036	81.189314
625.816699	80.529727
626.242340	79.812712
626.667960	79.060111
627.093557	78.280257
627.519132	77.460507
627.944685	76.614947
628.370216	75.741077
628.795725	74.846770
629.221212	73.902109
629.646677	72.940971
630.072119	71.962179
630.497540	70.976925
630.922938	69.993398
631.348314	68.999925
631.773668	68.010164
632.198999	67.043779
632.624308	66.095006
633.049595	65.168451
633.474860	64.286313
633.900102	63.430315
634.325322	62.619066
634.750520	61.846542
635.175695	61.121055
635.600848	60.433527
636.025978	59.783470
636.451086	59.183939
636.876171	58.627215
637.301234	58.127033
637.726275	57.657282
638.151293	57.227334
638.576288	56.835787
639.001261	56.483002
639.426211	56.178467
639.851139	55.925620
640.276044	55.711955
640.700927	55.558485
641.125787	55.458131
641.550624	55.389299
641.975438	55.356877
642.400230	55.380925
642.824999	55.445256
643.249745	55.546316
643.674469	55.664457
644.099169	55.815028
644.523847	55.983605
644.948502	56.159038
645.373135	56.333400
645.797744	56.509030
646.222330	56.677674
646.646894	56.825475
647.071435	56.957287
647.495953	57.064927
647.920447	57.149643
648.344919	57.200135
648.769368	57.223187
649.193794	57.234123
649.618197	57.203757
650.042576	57.164448
650.466933	57.087949
650.891267	56.986625
651.315577	56.874454
651.739864	56.739557
652.164129	56.591690
652.588370	56.420304
653.012587	56.225507
653.436782	56.020909
653.860953	55.805532
654.285102	55.572924
654.709226	55.342043
655.133328	55.110375
655.557406	54.875892
655.981461	54.635686
656.405493	54.413568
656.829501	54.209935
657.253486	54.016919
657.677448	53.838371
658.101386	53.700842
658.525301	53.584074
658.949192	53.505455
659.373060	53.458637
659.796904	53.447597
660.220725	53.472189
660.644522	53.541957
661.068296	53.631822
661.492046	53.769640
661.915772	53.942346
662.339475	54.150418
662.763154	54.387851
663.186810	54.643120
663.610442	54.934066
664.034050	55.267175
664.457635	55.628802
664.881196	56.024190
665.304733	56.436303
665.728247	56.895012
666.151736	57.379316
666.575202	57.894506
666.998644	58.428995
667.422062	58.982828
667.845457	59.555941
668.268827	60.147366
668.692174	60.757753
669.115496	61.379318
669.538795	62.005078
669.962070	62.628693
670.385321	63.259099
670.808547	63.883230
671.231750	64.483074
671.654929	65.072777
672.078084	65.636497
672.501214	66.175726
672.924321	66.695199
673.347404	67.180896
673.770462	67.616843
674.193496	68.046685
674.616506	68.434425
675.039492	68.775556
675.462454	69.075445
675.885391	69.358460
676.308305	69.614453
676.731194	69.835164
677.154058	70.020916
677.576899	70.160318
677.999715	70.257722
678.422507	70.328952
678.845274	70.359427
679.268017	70.348940
679.690736	70.303394
680.113430	70.227942
680.536100	70.120014
680.958746	69.982920
681.381367	69.814172
681.803963	69.611189
682.226535	69.391718
682.649083	69.153570
683.071605	68.909962
683.494104	68.646305
683.916578	68.382602
684.339027	68.119306
684.761451	67.858942
685.183851	67.601283
685.606227	67.354646
686.028577	67.115937
686.450903	66.906034
686.873204	66.709266
687.295481	66.513063
687.717733	66.343445
688.139959	66.203551
688.562162	66.082279
688.984339	65.966316
689.406492	65.871974
689.828619	65.796976
690.250722	65.730746
690.672800	65.687041
691.094853	65.670658
691.516881	65.663438
691.938884	65.667445
692.360863	65.686347
692.782816	65.738328
693.204744	65.807206
693.626647	65.900493
694.048526	66.007704
694.470379	66.146679
694.892207	66.303214
695.314010	66.478779
695.735788	66.676661
696.157540	66.886278
696.579268	67.115175
697.000970	67.360359
697.422648	67.612551
697.844300	67.880350
698.265926	68.167793
698.687528	68.453147
699.109104	68.747108
699.530655	69.032879
699.952181	69.329902
700.373681	69.634815
700.795156	69.931985
701.216606	70.220648
701.638030	70.511304
702.059429	70.812588
702.480803	71.090651
702.902151	71.364007
703.323473	71.640688
703.744770	71.903543
704.166042	72.145300
704.587288	72.380261
705.008509	72.599874
705.429704	72.811346
705.850873	72.989452
706.272017	73.136736
706.693135	73.245058
707.114228	73.339166
707.535295	73.392346
707.956336	73.423857
708.377352	73.413136
708.798342	73.372958
709.219306	73.301388
709.640245	73.202837
710.061157	73.070183
710.482044	72.912768
710.902905	72.728300
711.323741	72.507621
711.744550	72.290682
712.165334	72.046677
712.586092	71.791367
713.006823	71.526771
713.427529	71.260965
713.848209	70.991456
714.268863	70.723977
714.689492	70.454195
715.110094	70.183484
715.530670	69.933935
715.951220	69.683905
716.371744	69.441092
716.792242	69.212983
717.212714	69.003986
717.633159	68.806358
718.053579	68.628066
718.473973	68.464721
718.894340	68.316707
719.314681	68.183002
719.734996	68.077938
720.155285	67.974074
720.575547	67.891744
720.995784	67.821779
721.415994	67.763359
721.836177	67.722064
722.256335	67.694964
722.676466	67.682528
723.096570	67.691597
723.516649	67.727436
723.936701	67.777038
724.356726	67.855093
724.776725	67.930254
725.196698	68.023154
725.616644	68.118592
726.036564	68.230433
726.456457	68.334315
726.876324	68.454770
727.296164	68.579101
727.715977	68.710672
728.135764	68.840112
728.555525	68.968578
728.975258	69.103146
729.394966	69.230050
729.814646	69.351378
730.234300	69.469789
730.653927	69.578057
731.073527	69.685586
731.493101	69.774272
731.912648	69.845912
732.332168	69.932483
732.751661	70.007103
733.171128	70.075844
733.590568	70.149415
734.009980	70.206623
734.429366	70.273903
734.848726	70.332666
735.268058	70.388075
735.687363	70.435327
736.106641	70.481113
736.525893	70.521519
736.945117	70.559094
737.364314	70.590633
737.783485	70.627303
738.202628	70.672578
738.621744	70.720296
739.040834	70.767034
739.459896	70.836885
739.878931	70.895249
740.297939	70.959254
740.716919	71.026861
741.135873	71.096708
741.554799	71.170009
741.973698	71.236768
742.392570	71.320798
742.811415	71.392865
743.230232	71.465158
743.649022	71.547441
744.067785	71.624170
744.486521	71.695899
744.905229	71.779767
745.323909	71.842644
745.742563	71.897264
746.161189	71.966643
746.579787	72.020155
746.998358	72.075528
747.416902	72.140908
747.835418	72.189511
748.253907	72.237733
748.672368	72.281814
749.090802	72.312111
749.509208	72.320898
749.927586	72.338801
750.345937	72.339257
750.764261	72.325608
751.182556	72.287396
751.600824	72.245731
752.019065	72.198903
752.437277	72.121922
752.855462	72.043977
753.273620	71.960218
753.691749	71.846382
