Time1=100ms:Average1=5:Objective=10X:Aperture=1: (11/21/2018 10:02:21 AM)
11/21/2018 10:02:21 AM
Reflectance
10X
Ap#: 1
Avg1: 5.000000
Avg2: 0.000000
Int.Time1:100.000000

350.166136	73.031004
350.601937	73.136468
351.037728	73.032723
351.473509	73.728482
351.909281	73.191909
352.345042	72.969757
352.780794	72.594868
353.216536	72.519084
353.652267	72.412765
354.087989	72.584337
354.523701	72.142573
354.959403	71.988879
355.395095	72.165871
355.830777	72.202849
356.266449	72.502750
356.702110	72.321250
357.137762	72.385230
357.573404	72.315537
358.009035	72.014367
358.444656	72.271771
358.880268	71.959053
359.315869	71.450121
359.751459	71.526379
360.187040	71.417061
360.622610	71.467529
361.058170	71.581088
361.493720	71.515644
361.929260	71.727005
362.364789	72.019935
362.800308	71.558982
363.235816	70.749192
363.671314	70.706560
364.106802	70.537331
364.542279	70.475228
364.977746	69.632768
365.413203	69.936613
365.848649	69.796699
366.284084	69.450328
366.719509	69.123727
367.154924	69.211350
367.590328	69.457333
368.025721	69.775667
368.461104	69.433771
368.896477	69.063225
369.331838	68.837726
369.767189	68.548387
370.202530	68.255405
370.637859	68.218299
371.073178	68.081291
371.508486	68.421053
371.943784	67.966052
372.379071	68.289304
372.814347	68.507905
373.249612	68.518883
373.684866	67.998825
374.120110	67.711599
374.555343	67.827869
374.990565	67.814298
375.425776	67.652532
375.860976	67.239192
376.296165	67.527028
376.731343	68.048258
377.166511	67.855758
377.601667	67.996109
378.036812	68.151879
378.471946	68.406274
378.907070	67.956388
379.342182	68.058495
379.777283	68.079801
380.212373	68.377134
380.647452	68.229464
381.082520	68.086115
381.517576	68.491981
381.952622	68.977929
382.387656	69.233680
382.822679	69.649953
383.257691	69.684668
383.692692	69.932114
384.127681	69.625860
384.562659	69.627317
384.997626	69.268523
385.432581	69.537676
385.867525	69.504951
386.302458	69.491365
386.737379	69.267696
387.172289	70.066225
387.607188	70.237307
388.042075	70.423865
388.476951	70.339063
388.911815	71.024801
389.346668	71.337995
389.781509	71.337107
390.216338	71.444465
390.651157	71.714470
391.085963	71.932572
391.520758	72.019868
391.955541	72.196775
392.390313	72.625698
392.825073	72.817932
393.259821	73.188804
393.694558	73.050940
394.129283	73.111700
394.563996	72.801692
394.998698	72.334584
395.433388	72.068493
395.868066	72.175064
396.302732	72.168004
396.737386	72.264134
397.172029	72.748320
397.606659	72.805827
398.041278	72.491895
398.475885	72.355056
398.910480	71.881135
399.345063	71.030175
399.779634	70.503660
400.214194	69.737182
400.648741	68.629270
401.083276	67.650697
401.517799	66.155452
401.952310	64.403212
402.386809	62.437886
402.821296	60.385703
403.255771	58.067667
403.690234	55.945964
404.124684	53.497475
404.559123	50.862992
404.993549	48.437587
405.427963	46.119200
405.862365	43.933320
406.296754	41.793091
406.731131	39.651138
407.165496	37.600950
407.599849	35.811433
408.034190	34.363357
408.468518	32.822506
408.902833	31.373274
409.337137	29.944332
409.771428	28.730526
410.205706	27.500534
410.639973	26.368440
411.074226	25.471834
411.508467	24.640243
411.942696	23.937297
412.376912	23.334923
412.811116	22.793007
413.245307	22.293795
413.679486	21.777338
414.113652	21.313500
414.547805	20.875698
414.981946	20.525031
415.416074	20.209629
415.850190	19.948713
416.284293	19.688677
416.718383	19.491919
417.152460	19.230546
417.586525	19.043946
418.020577	18.884320
418.454616	18.743110
418.888643	18.629771
419.322656	18.495172
419.756657	18.388420
420.190645	18.347930
420.624620	18.297626
421.058582	18.246799
421.492531	18.184103
421.926468	18.147875
422.360391	18.090239
422.794301	18.060854
423.228199	18.007621
423.662083	18.012589
424.095955	18.032806
424.529813	18.028106
424.963658	18.044129
425.397491	18.037525
425.831310	18.047701
426.265116	18.039713
426.698909	18.050223
427.132689	18.089365
427.566455	18.098049
428.000209	18.108079
428.433949	18.127267
428.867676	18.144786
429.301389	18.130941
429.735090	18.145716
430.168777	18.160814
430.602451	18.192467
431.036111	18.175962
431.469759	18.194679
431.903392	18.174872
432.337013	18.177617
432.770620	18.166897
433.204213	18.166337
433.637794	18.161616
434.071360	18.153574
434.504914	18.150919
434.938453	18.156160
435.371979	18.156063
435.805492	18.160323
436.238991	18.160049
436.672477	18.168440
437.105949	18.169522
437.539407	18.142191
437.972852	18.147333
438.406283	18.125733
438.839700	18.090621
439.273104	18.054024
439.706494	18.029810
440.139871	18.005361
440.573233	17.970191
441.006582	17.946634
441.439917	17.928531
441.873238	17.877434
442.306546	17.827650
442.739839	17.783182
443.173119	17.723860
443.606385	17.681983
444.039636	17.633060
444.472874	17.600508
444.906099	17.559022
445.339309	17.542919
445.772505	17.492543
446.205687	17.466641
446.638855	17.419746
447.072009	17.381108
447.505149	17.340829
447.938275	17.308766
448.371387	17.267190
448.804485	17.227964
449.237569	17.191462
449.670638	17.143960
450.103694	17.096519
450.536735	17.019162
450.969762	16.960293
451.402774	16.864050
451.835773	16.779440
452.268757	16.717173
452.701727	16.646409
453.134683	16.577233
453.567624	16.498350
454.000551	16.425207
454.433464	16.338448
454.866362	16.246784
455.299246	16.151803
455.732116	16.073200
456.164971	15.990351
456.597811	15.915159
457.030638	15.833403
457.463449	15.732590
457.896246	15.638417
458.329029	15.538081
458.761797	15.430467
459.194551	15.344148
459.627290	15.228005
460.060014	15.121155
460.492724	15.012817
460.925419	14.904915
461.358099	14.790022
461.790765	14.672019
462.223416	14.551348
462.656052	14.429207
463.088674	14.316098
463.521281	14.203900
463.953873	14.103010
464.386450	13.999781
464.819012	13.901314
465.251560	13.817777
465.684093	13.728525
466.116611	13.645329
466.549114	13.577550
466.981602	13.512657
467.414075	13.442608
467.846533	13.383511
468.278977	13.329869
468.711405	13.296067
469.143818	13.258325
469.576216	13.215379
470.008600	13.182125
470.440968	13.161406
470.873321	13.146567
471.305659	13.133682
471.737982	13.131497
472.170289	13.129220
472.602582	13.129700
473.034859	13.142740
473.467122	13.162320
473.899369	13.178209
474.331600	13.205153
474.763817	13.230844
475.196018	13.254385
475.628204	13.289750
476.060375	13.336339
476.492530	13.385444
476.924670	13.435082
477.356795	13.486745
477.788904	13.548839
478.220998	13.622794
478.653076	13.705940
479.085139	13.781156
479.517186	13.869232
479.949219	13.952342
480.381235	14.039991
480.813236	14.143147
481.245221	14.242814
481.677191	14.354822
482.109146	14.455473
482.541084	14.560961
482.973008	14.687261
483.404915	14.799811
483.836807	14.900768
484.268683	15.003908
484.700544	15.112263
485.132388	15.213660
485.564217	15.314117
485.996031	15.416972
486.427828	15.518625
486.859610	15.619677
487.291376	15.720695
487.723126	15.816237
488.154860	15.914430
488.586579	16.014336
489.018281	16.112594
489.449968	16.200978
489.881639	16.276363
490.313293	16.346389
490.744932	16.420489
491.176555	16.475070
491.608162	16.516479
492.039753	16.541614
492.471328	16.562988
492.902886	16.570330
493.334429	16.568206
493.765956	16.553723
494.197466	16.533282
494.628960	16.498644
495.060439	16.452327
495.491901	16.401659
495.923347	16.349365
496.354776	16.282437
496.786190	16.217693
497.217587	16.150657
497.648968	16.090571
498.080332	16.025519
498.511681	15.960673
498.943013	15.897601
499.374328	15.813837
499.805628	15.733702
500.236911	15.646782
500.668177	15.561002
501.099427	15.464916
501.530661	15.369363
501.961878	15.270612
502.393079	15.170521
502.824264	15.066661
503.255431	14.985676
503.686583	14.904075
504.117717	14.825797
504.548835	14.748666
504.979937	14.689207
505.411022	14.630054
505.842090	14.579132
506.273142	14.532633
506.704177	14.487052
507.135195	14.448837
507.566197	14.405480
507.997182	14.378628
508.428150	14.353796
508.859102	14.341489
509.290036	14.326993
509.720954	14.320203
510.151855	14.324086
510.582739	14.339398
511.013607	14.367207
511.444457	14.398030
511.875291	14.430331
512.306107	14.479016
512.736907	14.548641
513.167690	14.627353
513.598456	14.734058
514.029205	14.846762
514.459936	14.994229
514.890651	15.160935
515.321349	15.347171
515.752030	15.557520
516.182693	15.796561
516.613340	16.051918
517.043969	16.337062
517.474582	16.644436
517.905177	16.987800
518.335755	17.352651
518.766315	17.750892
519.196859	18.168320
519.627385	18.614061
520.057894	19.088117
520.488386	19.585071
520.918860	20.120479
521.349318	20.701091
521.779757	21.308055
522.210180	21.945896
522.640585	22.613067
523.070973	23.319882
523.501343	24.050323
523.931696	24.804483
524.362031	25.578148
524.792349	26.396316
525.222650	27.241797
525.652933	28.101863
526.083198	28.991851
526.513446	29.912386
526.943677	30.833014
527.373890	31.782463
527.804085	32.731700
528.234262	33.706001
528.664422	34.684244
529.094565	35.669989
529.524689	36.663372
529.954796	37.674492
530.384885	38.684738
530.814957	39.703529
531.245011	40.723555
531.675047	41.737147
532.105065	42.748645
532.535065	43.771846
532.965048	44.782885
533.395013	45.790519
533.824959	46.791826
534.254888	47.775207
534.684799	48.762201
535.114693	49.740962
535.544568	50.703001
535.974425	51.650998
536.404264	52.561869
536.834086	53.469075
537.263889	54.354660
537.693674	55.226936
538.123441	56.061173
538.553190	56.880337
538.982921	57.677617
539.412634	58.458247
539.842329	59.217254
540.272006	59.959856
540.701664	60.703473
541.131304	61.423690
541.560926	62.121175
541.990530	62.799267
542.420116	63.477778
542.849683	64.139745
543.279232	64.783944
543.708763	65.401681
544.138275	66.010646
544.567769	66.602818
544.997245	67.204747
545.426702	67.790618
545.856141	68.370208
546.285562	68.944114
546.714964	69.509130
547.144347	70.063818
547.573713	70.628391
548.003059	71.167321
548.432387	71.721178
548.861697	72.256298
549.290988	72.797894
549.720260	73.339637
550.149514	73.859742
550.578750	74.379212
551.007966	74.880585
551.437164	75.376580
551.866344	75.852359
552.295504	76.330290
552.724646	76.789961
553.153769	77.238719
553.582874	77.689909
554.011960	78.100266
554.441027	78.505546
554.870075	78.880867
555.299104	79.245500
555.728115	79.573527
556.157106	79.885278
556.586079	80.167226
557.015033	80.451876
557.443968	80.724802
557.872884	80.966498
558.301781	81.188721
558.730659	81.405248
559.159518	81.607204
559.588358	81.797619
560.017180	81.980488
560.445982	82.154117
560.874765	82.322349
561.303528	82.488852
561.732273	82.624411
562.160999	82.774658
562.589705	82.928229
563.018393	83.059047
563.447061	83.213265
563.875710	83.372354
564.304340	83.525397
564.732950	83.681990
565.161542	83.856094
565.590114	84.030899
566.018666	84.203123
566.447200	84.396317
566.875714	84.570852
567.304208	84.759723
567.732684	84.967560
568.161140	85.171233
568.589576	85.372033
569.017993	85.591551
569.446391	85.797250
569.874769	86.004457
570.303128	86.199988
570.731467	86.376290
571.159787	86.554538
571.588087	86.725135
572.016368	86.880278
572.444629	87.036641
572.872870	87.181538
573.301092	87.309056
573.729294	87.423270
574.157476	87.528176
574.585639	87.635482
575.013782	87.737112
575.441906	87.813756
575.870009	87.892479
576.298093	87.970962
576.726157	88.015543
577.154202	88.057019
577.582226	88.122955
578.010231	88.183520
578.438216	88.228317
578.866181	88.271071
579.294126	88.312231
579.722051	88.345539
580.149957	88.402203
580.577842	88.436116
581.005707	88.481239
581.433553	88.509089
581.861378	88.563118
582.289184	88.590437
582.716969	88.631404
583.144734	88.679186
583.572479	88.742762
584.000205	88.790711
584.427910	88.842052
584.855594	88.887119
585.283259	88.943304
585.710904	89.002223
586.138528	89.045902
586.566132	89.100923
586.993716	89.145048
587.421280	89.182288
587.848823	89.204377
588.276346	89.232678
588.703849	89.249471
589.131332	89.246180
589.558794	89.247582
589.986236	89.244331
590.413657	89.231712
590.841058	89.190963
591.268438	89.135960
591.695799	89.075347
592.123138	89.010214
592.550458	88.937702
592.977756	88.858208
593.405034	88.763263
593.832292	88.679786
594.259529	88.566007
594.686746	88.487926
595.113942	88.390507
595.541117	88.291119
595.968272	88.185343
596.395406	88.086542
596.822519	87.988782
597.249612	87.914157
597.676684	87.855594
598.103735	87.793824
598.530766	87.738126
598.957775	87.679899
599.384764	87.648323
599.811733	87.608852
600.238680	87.579922
600.665606	87.559869
601.092512	87.555110
601.519397	87.540379
601.946261	87.561615
602.373104	87.561716
602.799926	87.573459
603.226727	87.577375
603.653507	87.568943
604.080266	87.558625
604.507004	87.543713
604.933721	87.544906
605.360417	87.537874
605.787092	87.512526
606.213746	87.476045
606.640379	87.425858
607.066991	87.366240
607.493581	87.301678
607.920150	87.203155
608.346699	87.087776
608.773226	86.970045
609.199731	86.845705
609.626216	86.691493
610.052679	86.511510
610.479121	86.304325
610.905542	86.072483
611.331941	85.829387
611.758319	85.564142
612.184676	85.268868
612.611011	84.956109
613.037325	84.641568
613.463617	84.313005
613.889888	83.965488
614.316138	83.592522
614.742366	83.198687
615.168573	82.785637
615.594758	82.372063
616.020921	81.935054
616.447063	81.500399
616.873184	81.061180
617.299283	80.610798
617.725360	80.175403
618.151416	79.719049
618.577450	79.264436
619.003462	78.801137
619.429453	78.338872
619.855422	77.892141
620.281369	77.426532
620.707295	76.955073
621.133199	76.495662
621.559081	76.039705
621.984941	75.574763
622.410779	75.102796
622.836596	74.633568
623.262391	74.159628
623.688163	73.688037
624.113914	73.217628
624.539644	72.720434
624.965351	72.212261
625.391036	71.695321
625.816699	71.175828
626.242340	70.622409
626.667960	70.051554
627.093557	69.470680
627.519132	68.850229
627.944685	68.220059
628.370216	67.566340
628.795725	66.896851
629.221212	66.207571
629.646677	65.483399
630.072119	64.735408
630.497540	63.977070
630.922938	63.173486
631.348314	62.359093
631.773668	61.513198
632.198999	60.658791
632.624308	59.787995
633.049595	58.884970
633.474860	57.981453
633.900102	57.067040
634.325322	56.141347
634.750520	55.203802
635.175695	54.259607
635.600848	53.311957
636.025978	52.350924
636.451086	51.371913
636.876171	50.392202
637.301234	49.397271
637.726275	48.398146
638.151293	47.391422
638.576288	46.374578
639.001261	45.349097
639.426211	44.315528
639.851139	43.274149
640.276044	42.215852
640.700927	41.170321
641.125787	40.117116
641.550624	39.055828
641.975438	37.998305
642.400230	36.937227
642.824999	35.898428
643.249745	34.866400
643.674469	33.841990
644.099169	32.849176
644.523847	31.879985
644.948502	30.942574
645.373135	30.036828
645.797744	29.166071
646.222330	28.345713
646.646894	27.560694
647.071435	26.827606
647.495953	26.147489
647.920447	25.513709
648.344919	24.940806
648.769368	24.415836
649.193794	23.948931
649.618197	23.552157
650.042576	23.204399
650.466933	22.916576
650.891267	22.696163
651.315577	22.544448
651.739864	22.454806
652.164129	22.420988
652.588370	22.449399
653.012587	22.547076
653.436782	22.699629
653.860953	22.912907
654.285102	23.194928
654.709226	23.534236
655.133328	23.923340
655.557406	24.371788
655.981461	24.866890
656.405493	25.417349
656.829501	26.019598
657.253486	26.671004
657.677448	27.352094
658.101386	28.069963
658.525301	28.827525
658.949192	29.604281
659.373060	30.395045
659.796904	31.219042
660.220725	32.051669
660.644522	32.893256
661.068296	33.741104
661.492046	34.587568
661.915772	35.433309
662.339475	36.274818
662.763154	37.111846
663.186810	37.943558
663.610442	38.773253
664.034050	39.590166
664.457635	40.396259
664.881196	41.186561
665.304733	41.966553
665.728247	42.741243
666.151736	43.490648
666.575202	44.237547
666.998644	44.962421
667.422062	45.673552
667.845457	46.358301
668.268827	47.031728
668.692174	47.692989
669.115496	48.340323
669.538795	48.970317
669.962070	49.576876
670.385321	50.156297
670.808547	50.720285
671.231750	51.257689
671.654929	51.772809
672.078084	52.270883
672.501214	52.751257
672.924321	53.205970
673.347404	53.645034
673.770462	54.048749
674.193496	54.441636
674.616506	54.815142
675.039492	55.175951
675.462454	55.515281
675.885391	55.830103
676.308305	56.134797
676.731194	56.421791
677.154058	56.697664
677.576899	56.952685
677.999715	57.209569
678.422507	57.450125
678.845274	57.689182
679.268017	57.929214
679.690736	58.155436
680.113430	58.391245
680.536100	58.612007
680.958746	58.857732
681.381367	59.097544
681.803963	59.344180
682.226535	59.594125
682.649083	59.855964
683.071605	60.135818
683.494104	60.431944
683.916578	60.739822
684.339027	61.059617
684.761451	61.394070
685.183851	61.751177
685.606227	62.129137
686.028577	62.518796
686.450903	62.933500
686.873204	63.383082
687.295481	63.848666
687.717733	64.334642
688.139959	64.842174
688.562162	65.368040
688.984339	65.920389
689.406492	66.484752
689.828619	67.052556
690.250722	67.650389
690.672800	68.257275
691.094853	68.877705
691.516881	69.517106
691.938884	70.162759
692.360863	70.791096
692.782816	71.445655
693.204744	72.080837
693.626647	72.742549
694.048526	73.378375
694.470379	74.024397
694.892207	74.667855
695.314010	75.308149
695.735788	75.932384
696.157540	76.555815
696.579268	77.166341
697.000970	77.771582
697.422648	78.367908
697.844300	78.939487
698.265926	79.501507
698.687528	80.063735
699.109104	80.607288
699.530655	81.121159
699.952181	81.625581
700.373681	82.110227
700.795156	82.578479
701.216606	83.032337
701.638030	83.462063
702.059429	83.874061
702.480803	84.274640
702.902151	84.663643
703.323473	85.021946
703.744770	85.359478
704.166042	85.671805
704.587288	85.946145
705.008509	86.191584
705.429704	86.450231
705.850873	86.668240
706.272017	86.871443
706.693135	87.036030
707.114228	87.203290
707.535295	87.347168
707.956336	87.463370
708.377352	87.569607
708.798342	87.667717
709.219306	87.748616
709.640245	87.827223
710.061157	87.891996
710.482044	87.945249
710.902905	87.993901
711.323741	88.034765
711.744550	88.054543
712.165334	88.093133
712.586092	88.141029
713.006823	88.171287
713.427529	88.205169
713.848209	88.243864
714.268863	88.277880
714.689492	88.332938
715.110094	88.389511
715.530670	88.437152
715.951220	88.491457
716.371744	88.550828
716.792242	88.613967
717.212714	88.676444
717.633159	88.767122
718.053579	88.854901
718.473973	88.928379
718.894340	89.000695
719.314681	89.094563
719.734996	89.193611
720.155285	89.283556
720.575547	89.374840
720.995784	89.481223
721.415994	89.577770
721.836177	89.677175
722.256335	89.780948
722.676466	89.873422
723.096570	89.957464
723.516649	90.046940
723.936701	90.160880
724.356726	90.250685
724.776725	90.336556
725.196698	90.399476
725.616644	90.446679
726.036564	90.501511
726.456457	90.550024
726.876324	90.582398
727.296164	90.596740
727.715977	90.601785
728.135764	90.592496
728.555525	90.575867
728.975258	90.564994
729.394966	90.531542
729.814646	90.507284
730.234300	90.478751
730.653927	90.415339
731.073527	90.366472
731.493101	90.307597
731.912648	90.244691
732.332168	90.162908
732.751661	90.088025
733.171128	90.019972
733.590568	89.939046
734.009980	89.850777
734.429366	89.773069
734.848726	89.686578
735.268058	89.593958
735.687363	89.491923
736.106641	89.394179
736.525893	89.294301
736.945117	89.186688
737.364314	89.087967
737.783485	88.995628
738.202628	88.903122
738.621744	88.813570
739.040834	88.715220
739.459896	88.613909
739.878931	88.530460
740.297939	88.465324
740.716919	88.383100
741.135873	88.318543
741.554799	88.275271
741.973698	88.218630
742.392570	88.187400
742.811415	88.164396
743.230232	88.144990
743.649022	88.144114
744.067785	88.153550
744.486521	88.174748
744.905229	88.206534
745.323909	88.259338
745.742563	88.301194
746.161189	88.340340
746.579787	88.405598
746.998358	88.482411
747.416902	88.549777
747.835418	88.628806
748.253907	88.711609
748.672368	88.786896
749.090802	88.889032
749.509208	88.989314
749.927586	89.080028
750.345937	89.166425
750.764261	89.244719
751.182556	89.330441
751.600824	89.419321
752.019065	89.511138
752.437277	89.614934
752.855462	89.697651
753.273620	89.765614
753.691749	89.847199
754.109851	89.917976
