Time1=100ms:Average1=5:Objective=10X:Aperture=1: (11/28/2018 9:50:54 AM)
11/28/2018 9:50:54 AM
Reflectance
10X
Ap#: 1
Avg1: 5.000000
Avg2: 0.000000
Int.Time1:100.000000

350.166136	78.699420
350.601937	79.030440
351.037728	79.140340
351.473509	78.776019
351.909281	79.000892
352.345042	78.793582
352.780794	78.827332
353.216536	78.590688
353.652267	78.685421
354.087989	78.201192
354.523701	78.179529
354.959403	78.265177
355.395095	78.253055
355.830777	78.015966
356.266449	78.078024
356.702110	78.206736
357.137762	78.091905
357.573404	78.204096
358.009035	77.614073
358.444656	77.495981
358.880268	77.415319
359.315869	77.549746
359.751459	77.544857
360.187040	77.638258
360.622610	77.078353
361.058170	77.203674
361.493720	77.349142
361.929260	77.559855
362.364789	77.528090
362.800308	77.628893
363.235816	77.637093
363.671314	77.547018
364.106802	77.289280
364.542279	77.498451
364.977746	77.710897
365.413203	77.760028
365.848649	77.843939
366.284084	77.480510
366.719509	77.467659
367.154924	77.200743
367.590328	77.366000
368.025721	77.362832
368.461104	76.961044
368.896477	76.840897
369.331838	76.484602
369.767189	76.362670
370.202530	76.325088
370.637859	76.152357
371.073178	75.798526
371.508486	75.826102
371.943784	75.749868
372.379071	75.335027
372.814347	75.473850
373.249612	75.201967
373.684866	74.770602
374.120110	75.048102
374.555343	75.048085
374.990565	74.886403
375.425776	74.704039
375.860976	74.599024
376.296165	74.402849
376.731343	74.584055
377.166511	74.371599
377.601667	74.545769
378.036812	74.614852
378.471946	74.495889
378.907070	74.682231
379.342182	74.749482
379.777283	75.225225
380.212373	75.190443
380.647452	75.300424
381.082520	75.278089
381.517576	75.336091
381.952622	75.706264
382.387656	75.720306
382.822679	75.788114
383.257691	75.460859
383.692692	74.927437
384.127681	75.344341
384.562659	75.256410
384.997626	75.187330
385.432581	75.376884
385.867525	75.911848
386.302458	75.735357
386.737379	75.854156
387.172289	75.657560
387.607188	75.093094
388.042075	75.010564
388.476951	75.355571
388.911815	75.400933
389.346668	75.375654
389.781509	75.261824
390.216338	75.118044
390.651157	75.246440
391.085963	75.385913
391.520758	75.299073
391.955541	75.140485
392.390313	74.719007
392.825073	74.709181
393.259821	74.588452
393.694558	74.520594
394.129283	74.282386
394.563996	74.285476
394.998698	74.260306
395.433388	74.120426
395.868066	74.036032
396.302732	74.264251
396.737386	74.366243
397.172029	74.484737
397.606659	73.836381
398.041278	73.465258
398.475885	72.842445
398.910480	71.973963
399.345063	70.820046
399.779634	70.244982
400.214194	68.984324
400.648741	68.000897
401.083276	66.855266
401.517799	65.401984
401.952310	63.546290
402.386809	61.657894
402.821296	59.482896
403.255771	57.339630
403.690234	54.832591
404.124684	52.013468
404.559123	49.373485
404.993549	46.892439
405.427963	44.184170
405.862365	41.768924
406.296754	39.293285
406.731131	37.087063
407.165496	34.981059
407.599849	33.095450
408.034190	31.109016
408.468518	29.331522
408.902833	27.713594
409.337137	26.209528
409.771428	24.892930
410.205706	23.646202
410.639973	22.454208
411.074226	21.485685
411.508467	20.576175
411.942696	19.837040
412.376912	19.147898
412.811116	18.546149
413.245307	17.851164
413.679486	17.317896
414.113652	16.839491
414.547805	16.376942
414.981946	15.883754
415.416074	15.424624
415.850190	15.049707
416.284293	14.698860
416.718383	14.403810
417.152460	14.111840
417.586525	13.888911
418.020577	13.640925
418.454616	13.408480
418.888643	13.253880
419.322656	13.106084
419.756657	12.941293
420.190645	12.766664
420.624620	12.631117
421.058582	12.493341
421.492531	12.373164
421.926468	12.256181
422.360391	12.140803
422.794301	12.077660
423.228199	11.996398
423.662083	11.936775
424.095955	11.914682
424.529813	11.856501
424.963658	11.802847
425.397491	11.768739
425.831310	11.723651
426.265116	11.684071
426.698909	11.647238
427.132689	11.605982
427.566455	11.561565
428.000209	11.529296
428.433949	11.538397
428.867676	11.538826
429.301389	11.534120
429.735090	11.541232
430.168777	11.529339
430.602451	11.528982
431.036111	11.527413
431.469759	11.529948
431.903392	11.517837
432.337013	11.488215
432.770620	11.462398
433.204213	11.461935
433.637794	11.465693
434.071360	11.445050
434.504914	11.437481
434.938453	11.437209
435.371979	11.436148
435.805492	11.445609
436.238991	11.447340
436.672477	11.448908
437.105949	11.440912
437.539407	11.419623
437.972852	11.409888
438.406283	11.419483
438.839700	11.392686
439.273104	11.368600
439.706494	11.346229
440.139871	11.347086
440.573233	11.346128
441.006582	11.338727
441.439917	11.332423
441.873238	11.320617
442.306546	11.318374
442.739839	11.311306
443.173119	11.300268
443.606385	11.269073
444.039636	11.258978
444.472874	11.250441
444.906099	11.246586
445.339309	11.246176
445.772505	11.246184
446.205687	11.239360
446.638855	11.242447
447.072009	11.248265
447.505149	11.262900
447.938275	11.271305
448.371387	11.297836
448.804485	11.309014
449.237569	11.311797
449.670638	11.305794
450.103694	11.300837
450.536735	11.280442
450.969762	11.280427
451.402774	11.280147
451.835773	11.273901
452.268757	11.276150
452.701727	11.290285
453.134683	11.305106
453.567624	11.311274
454.000551	11.330697
454.433464	11.324442
454.866362	11.343044
455.299246	11.355373
455.732116	11.346739
456.164971	11.341447
456.597811	11.338433
457.030638	11.339258
457.463449	11.321682
457.896246	11.312787
458.329029	11.305192
458.761797	11.287650
459.194551	11.286785
459.627290	11.278413
460.060014	11.265324
460.492724	11.260370
460.925419	11.259743
461.358099	11.259053
461.790765	11.247168
462.223416	11.244082
462.656052	11.239948
463.088674	11.238687
463.521281	11.237239
463.953873	11.253719
464.386450	11.257039
464.819012	11.264410
465.251560	11.264052
465.684093	11.275388
466.116611	11.287342
466.549114	11.297830
466.981602	11.322885
467.414075	11.333691
467.846533	11.351332
468.278977	11.352831
468.711405	11.367280
469.143818	11.381688
469.576216	11.392315
470.008600	11.399194
470.440968	11.405654
470.873321	11.414314
471.305659	11.414748
471.737982	11.412372
472.170289	11.423426
472.602582	11.415968
473.034859	11.416453
473.467122	11.414717
473.899369	11.417068
474.331600	11.407908
474.763817	11.405726
475.196018	11.410301
475.628204	11.426408
476.060375	11.445247
476.492530	11.452107
476.924670	11.462307
477.356795	11.464247
477.788904	11.465053
478.220998	11.459186
478.653076	11.447616
479.085139	11.437918
479.517186	11.415821
479.949219	11.392660
480.381235	11.350830
480.813236	11.315818
481.245221	11.297843
481.677191	11.280271
482.109146	11.257367
482.541084	11.240031
482.973008	11.237152
483.404915	11.245152
483.836807	11.269211
484.268683	11.296299
484.700544	11.332072
485.132388	11.372442
485.564217	11.402719
485.996031	11.446981
486.427828	11.498614
486.859610	11.543157
487.291376	11.587766
487.723126	11.634959
488.154860	11.686518
488.586579	11.732366
489.018281	11.771153
489.449968	11.813317
489.881639	11.874508
490.313293	11.943788
490.744932	12.020181
491.176555	12.116535
491.608162	12.226914
492.039753	12.356596
492.471328	12.481194
492.902886	12.618249
493.334429	12.758482
493.765956	12.910175
494.197466	13.055556
494.628960	13.189863
495.060439	13.320039
495.491901	13.438316
495.923347	13.550245
496.354776	13.649256
496.786190	13.741908
497.217587	13.822481
497.648968	13.900897
498.080332	13.980180
498.511681	14.052614
498.943013	14.140268
499.374328	14.232933
499.805628	14.322242
500.236911	14.432130
500.668177	14.549907
501.099427	14.692588
501.530661	14.832457
501.961878	14.999413
502.393079	15.172166
502.824264	15.348269
503.255431	15.516628
503.686583	15.683232
504.117717	15.848429
504.548835	15.995859
504.979937	16.136014
505.411022	16.263398
505.842090	16.385526
506.273142	16.500500
506.704177	16.622390
507.135195	16.721548
507.566197	16.827400
507.997182	16.934194
508.428150	17.046758
508.859102	17.176075
509.290036	17.312279
509.720954	17.454902
510.151855	17.604221
510.582739	17.768739
511.013607	17.942883
511.444457	18.111100
511.875291	18.291978
512.306107	18.477177
512.736907	18.670475
513.167690	18.856949
513.598456	19.032514
514.029205	19.199796
514.459936	19.354867
514.890651	19.492448
515.321349	19.615097
515.752030	19.726849
516.182693	19.836942
516.613340	19.937886
517.043969	20.039752
517.474582	20.141920
517.905177	20.249822
518.335755	20.371470
518.766315	20.498141
519.196859	20.652260
519.627385	20.822354
520.057894	20.995693
520.488386	21.218799
520.918860	21.441898
521.349318	21.692330
521.779757	21.964306
522.210180	22.240788
522.640585	22.537086
523.070973	22.843371
523.501343	23.155039
523.931696	23.467975
524.362031	23.785531
524.792349	24.115302
525.222650	24.438985
525.652933	24.756795
526.083198	25.054763
526.513446	25.368087
526.943677	25.671845
527.373890	25.976171
527.804085	26.274082
528.234262	26.578255
528.664422	26.874145
529.094565	27.182389
529.524689	27.490925
529.954796	27.820195
530.384885	28.148312
530.814957	28.489284
531.245011	28.846944
531.675047	29.218517
532.105065	29.621921
532.535065	30.027702
532.965048	30.465175
533.395013	30.925668
533.824959	31.405181
534.254888	31.923084
534.684799	32.495946
535.114693	33.083510
535.544568	33.693370
535.974425	34.330754
536.404264	35.001777
536.834086	35.705801
537.263889	36.446780
537.693674	37.227509
538.123441	38.027943
538.553190	38.880481
538.982921	39.757326
539.412634	40.670540
539.842329	41.625015
540.272006	42.613849
540.701664	43.629122
541.131304	44.674204
541.560926	45.768026
541.990530	46.873870
542.420116	47.997639
542.849683	49.126015
543.279232	50.267693
543.708763	51.414843
544.138275	52.559909
544.567769	53.690703
544.997245	54.805329
545.426702	55.889910
545.856141	56.970757
546.285562	58.027396
546.714964	59.053171
547.144347	60.047655
547.573713	61.006122
548.003059	61.904625
548.432387	62.775718
548.861697	63.602964
549.290988	64.414291
549.720260	65.178108
550.149514	65.923349
550.578750	66.621948
551.007966	67.283796
551.437164	67.917823
551.866344	68.524783
552.295504	69.108037
552.724646	69.682182
553.153769	70.208323
553.582874	70.737447
554.011960	71.248770
554.441027	71.751454
554.870075	72.219784
555.299104	72.688250
555.728115	73.155320
556.157106	73.643958
556.586079	74.089033
557.015033	74.548302
557.443968	75.005839
557.872884	75.464129
558.301781	75.918983
558.730659	76.399620
559.159518	76.869317
559.588358	77.340163
560.017180	77.817545
560.445982	78.309747
560.874765	78.824653
561.303528	79.353493
561.732273	79.892914
562.160999	80.448706
562.589705	80.996108
563.018393	81.552703
563.447061	82.114222
563.875710	82.675965
564.304340	83.249200
564.732950	83.829003
565.161542	84.415124
565.590114	85.010130
566.018666	85.591594
566.447200	86.173167
566.875714	86.752759
567.304208	87.321977
567.732684	87.865680
568.161140	88.425531
568.589576	88.941254
569.017993	89.440155
569.446391	89.901387
569.874769	90.365009
570.303128	90.792470
570.731467	91.202998
571.159787	91.604239
571.588087	91.971799
572.016368	92.306087
572.444629	92.621362
572.872870	92.923187
573.301092	93.203349
573.729294	93.456386
574.157476	93.671621
574.585639	93.872412
575.013782	94.057673
575.441906	94.222381
575.870009	94.370005
576.298093	94.491878
576.726157	94.611354
577.154202	94.715534
577.582226	94.800616
578.010231	94.889916
578.438216	94.952936
578.866181	95.009537
579.294126	95.076208
579.722051	95.144139
580.149957	95.214153
580.577842	95.285466
581.005707	95.371835
581.433553	95.421491
581.861378	95.527452
582.289184	95.629062
582.716969	95.734017
583.144734	95.848787
583.572479	95.986078
584.000205	96.115109
584.427910	96.263007
584.855594	96.421606
585.283259	96.588615
585.710904	96.759766
586.138528	96.935400
586.566132	97.105416
586.993716	97.287455
587.421280	97.475884
587.848823	97.671846
588.276346	97.859398
588.703849	98.046375
589.131332	98.231936
589.558794	98.421284
589.986236	98.578291
590.413657	98.752492
590.841058	98.903518
591.268438	99.011527
591.695799	99.109826
592.123138	99.193799
592.550458	99.259394
592.977756	99.294346
593.405034	99.286855
593.832292	99.261691
594.259529	99.205485
594.686746	99.136203
595.113942	99.029223
595.541117	98.900227
595.968272	98.755170
596.395406	98.585840
596.822519	98.375231
597.249612	98.159843
597.676684	97.905607
598.103735	97.630446
598.530766	97.337417
598.957775	97.036570
599.384764	96.701840
599.811733	96.371785
600.238680	96.009959
600.665606	95.637104
601.092512	95.245410
601.519397	94.830407
601.946261	94.428344
602.373104	94.015453
602.799926	93.600416
603.226727	93.173639
603.653507	92.730995
604.080266	92.297058
604.507004	91.872320
604.933721	91.463056
605.360417	91.057972
605.787092	90.641829
606.213746	90.235048
606.640379	89.847266
607.066991	89.477282
607.493581	89.117065
607.920150	88.783434
608.346699	88.451304
608.773226	88.134488
609.199731	87.822535
609.626216	87.527829
610.052679	87.245598
610.479121	86.975120
610.905542	86.705992
611.331941	86.465992
611.758319	86.236975
612.184676	86.002651
612.611011	85.781013
613.037325	85.555370
613.463617	85.347057
613.889888	85.138003
614.316138	84.917342
614.742366	84.712563
615.168573	84.505031
615.594758	84.301665
616.020921	84.114249
616.447063	83.931533
616.873184	83.754021
617.299283	83.576578
617.725360	83.395725
618.151416	83.217430
618.577450	83.043931
619.003462	82.865321
619.429453	82.702948
619.855422	82.530987
620.281369	82.355488
620.707295	82.194906
621.133199	82.008608
621.559081	81.827922
621.984941	81.642455
622.410779	81.460561
622.836596	81.259378
623.262391	81.060060
623.688163	80.845063
624.113914	80.628439
624.539644	80.383456
624.965351	80.125508
625.391036	79.855779
625.816699	79.573528
626.242340	79.271910
626.667960	78.942413
627.093557	78.577027
627.519132	78.191221
627.944685	77.773624
628.370216	77.327343
628.795725	76.845115
629.221212	76.303544
629.646677	75.742400
630.072119	75.121092
630.497540	74.463344
630.922938	73.779677
631.348314	73.032425
631.773668	72.242062
632.198999	71.437034
632.624308	70.598845
633.049595	69.742200
633.474860	68.866926
633.900102	67.966596
634.325322	67.068833
634.750520	66.161067
635.175695	65.235125
635.600848	64.311298
636.025978	63.387743
636.451086	62.465738
636.876171	61.554572
637.301234	60.646227
637.726275	59.745635
638.151293	58.847067
638.576288	57.958695
639.001261	57.077424
639.426211	56.212720
639.851139	55.357620
640.276044	54.535679
640.700927	53.732493
641.125787	52.966419
641.550624	52.220623
641.975438	51.504416
642.400230	50.832607
642.824999	50.199054
643.249745	49.615396
643.674469	49.070442
644.099169	48.567593
644.523847	48.109352
644.948502	47.694214
645.373135	47.319664
645.797744	46.970845
646.222330	46.664021
646.646894	46.379276
647.071435	46.126213
647.495953	45.898543
647.920447	45.685784
648.344919	45.495179
648.769368	45.316087
649.193794	45.150030
649.618197	44.981681
650.042576	44.817459
650.466933	44.660010
650.891267	44.500375
651.315577	44.344230
651.739864	44.184651
652.164129	44.026865
652.588370	43.851738
653.012587	43.679150
653.436782	43.487967
653.860953	43.296485
654.285102	43.085745
654.709226	42.870277
655.133328	42.652885
655.557406	42.431671
655.981461	42.199199
656.405493	41.965026
656.829501	41.729973
657.253486	41.505433
657.677448	41.286289
658.101386	41.085793
658.525301	40.887044
658.949192	40.711941
659.373060	40.551321
659.796904	40.417046
660.220725	40.300400
660.644522	40.218056
661.068296	40.157294
661.492046	40.130937
661.915772	40.132718
662.339475	40.163194
662.763154	40.224968
663.186810	40.312394
663.610442	40.430553
664.034050	40.579900
664.457635	40.762822
664.881196	40.971009
665.304733	41.209176
665.728247	41.486927
666.151736	41.798225
666.575202	42.146076
666.998644	42.520862
667.422062	42.937148
667.845457	43.383840
668.268827	43.863964
668.692174	44.371662
669.115496	44.912000
669.538795	45.482968
669.962070	46.089946
670.385321	46.712958
670.808547	47.366830
671.231750	48.026865
671.654929	48.702515
672.078084	49.390973
672.501214	50.084882
672.924321	50.788513
673.347404	51.486627
673.770462	52.162016
674.193496	52.845934
674.616506	53.517363
675.039492	54.151443
675.462454	54.769724
675.885391	55.370147
676.308305	55.951565
676.731194	56.500934
677.154058	57.019847
677.576899	57.496126
677.999715	57.946650
678.422507	58.355992
678.845274	58.722634
679.268017	59.044761
679.690736	59.332944
680.113430	59.582307
680.536100	59.772983
680.958746	59.926623
681.381367	60.033800
681.803963	60.091229
682.226535	60.109778
682.649083	60.088828
683.071605	60.024257
683.494104	59.924771
683.916578	59.788739
684.339027	59.615954
684.761451	59.404159
685.183851	59.161914
685.606227	58.895401
686.028577	58.603256
686.450903	58.296241
686.873204	57.977327
687.295481	57.630844
687.717733	57.273199
688.139959	56.917808
688.562162	56.552589
688.984339	56.182401
689.406492	55.810362
689.828619	55.448411
690.250722	55.084172
690.672800	54.732048
691.094853	54.388845
691.516881	54.055894
691.938884	53.743563
692.360863	53.434339
692.782816	53.135690
693.204744	52.850379
693.626647	52.588814
694.048526	52.341348
694.470379	52.112031
694.892207	51.904641
695.314010	51.707675
695.735788	51.524397
696.157540	51.355645
696.579268	51.203065
697.000970	51.061076
697.422648	50.940910
697.844300	50.839427
698.265926	50.763995
698.687528	50.697529
699.109104	50.648616
699.530655	50.608329
699.952181	50.586667
700.373681	50.584879
700.795156	50.593909
701.216606	50.619138
701.638030	50.662740
702.059429	50.724757
702.480803	50.794252
702.902151	50.868093
703.323473	50.965693
703.744770	51.070940
704.166042	51.178043
704.587288	51.303113
705.008509	51.422889
705.429704	51.575587
705.850873	51.733476
706.272017	51.890570
706.693135	52.049541
707.114228	52.210051
707.535295	52.376100
707.956336	52.540960
708.377352	52.701345
708.798342	52.858891
709.219306	53.010038
709.640245	53.158046
710.061157	53.292729
710.482044	53.417179
710.902905	53.530216
711.323741	53.616627
711.744550	53.703181
712.165334	53.759225
712.586092	53.808266
713.006823	53.842151
713.427529	53.867511
713.848209	53.867179
714.268863	53.857488
714.689492	53.829139
715.110094	53.784681
715.530670	53.743148
715.951220	53.687398
716.371744	53.620950
716.792242	53.560358
717.212714	53.489550
717.633159	53.410282
718.053579	53.341778
718.473973	53.257335
718.894340	53.174896
719.314681	53.092853
719.734996	53.016127
720.155285	52.943423
720.575547	52.863990
720.995784	52.789493
721.415994	52.724824
721.836177	52.661464
722.256335	52.612890
722.676466	52.562932
723.096570	52.530317
723.516649	52.500317
723.936701	52.478501
724.356726	52.476560
724.776725	52.476153
725.196698	52.492942
725.616644	52.501677
726.036564	52.503458
726.456457	52.511011
726.876324	52.533743
727.296164	52.553290
727.715977	52.581340
728.135764	52.616888
728.555525	52.648312
728.975258	52.681052
729.394966	52.708848
729.814646	52.736750
730.234300	52.778701
730.653927	52.813816
731.073527	52.843684
731.493101	52.856062
731.912648	52.866835
732.332168	52.883457
732.751661	52.899384
733.171128	52.902299
733.590568	52.903196
734.009980	52.903020
734.429366	52.900521
734.848726	52.905542
735.268058	52.893038
735.687363	52.889364
736.106641	52.888555
736.525893	52.887454
736.945117	52.894907
737.364314	52.897983
737.783485	52.896356
738.202628	52.906298
738.621744	52.928840
739.040834	52.972009
739.459896	53.009705
739.878931	53.051923
740.297939	53.102302
740.716919	53.164093
741.135873	53.227214
741.554799	53.295856
741.973698	53.371337
742.392570	53.469309
742.811415	53.556454
743.230232	53.655025
743.649022	53.774186
744.067785	53.896580
744.486521	54.029165
744.905229	54.173844
745.323909	54.322073
745.742563	54.475781
746.161189	54.642713
746.579787	54.814546
746.998358	54.990478
747.416902	55.180892
747.835418	55.368229
748.253907	55.571896
748.672368	55.773424
749.090802	55.972949
749.509208	56.165721
749.927586	56.355511
750.345937	56.539643
750.764261	56.725638
751.182556	56.895692
751.600824	57.067600
752.019065	57.227953
752.437277	57.385322
752.855462	57.531619
753.273620	57.675169
753.691749	57.783817
754.109851	57.884799
