Time1=100ms:Average1=5:Objective=10X:Aperture=1: (11/21/2018 11:55:57 AM)
11/21/2018 11:55:57 AM
Reflectance
10X
Ap#: 1
Avg1: 5.000000
Avg2: 0.000000
Int.Time1:100.000000

350.166136	93.707844
350.601937	94.644635
351.037728	95.312659
351.473509	95.127868
351.909281	94.811656
352.345042	94.875459
352.780794	94.978523
353.216536	95.181215
353.652267	95.140665
354.087989	94.707265
354.523701	94.958155
354.959403	95.317113
355.395095	96.027775
355.830777	95.861788
356.266449	96.120470
356.702110	95.733252
357.137762	96.241980
357.573404	95.982372
358.009035	95.802191
358.444656	96.086689
358.880268	96.131687
359.315869	95.558990
359.751459	95.193591
360.187040	95.458290
360.622610	95.801094
361.058170	95.990104
361.493720	95.952504
361.929260	95.866915
362.364789	94.992803
362.800308	94.813065
363.235816	95.426923
363.671314	95.803407
364.106802	95.688328
364.542279	95.603157
364.977746	96.102289
365.413203	96.754186
365.848649	96.229728
366.284084	95.768876
366.719509	95.170221
367.154924	95.779854
367.590328	95.598321
368.025721	95.792383
368.461104	95.498821
368.896477	95.207864
369.331838	95.178133
369.767189	94.492342
370.202530	94.730930
370.637859	93.813182
371.073178	94.388737
371.508486	94.037721
371.943784	94.264542
372.379071	94.677616
372.814347	95.230347
373.249612	95.725626
373.684866	95.212605
374.120110	95.375898
374.555343	95.437532
374.990565	95.449512
375.425776	95.956141
375.860976	96.594115
376.296165	96.031826
376.731343	95.360257
377.166511	95.195980
377.601667	95.025523
378.036812	95.056157
378.471946	94.654811
378.907070	94.755733
379.342182	94.834793
379.777283	95.034332
380.212373	95.253699
380.647452	94.936709
381.082520	94.774793
381.517576	94.318406
381.952622	94.666269
382.387656	95.041405
382.822679	95.474933
383.257691	95.956361
383.692692	96.203667
384.127681	96.677009
384.562659	96.225665
384.997626	96.330821
385.432581	95.475158
385.867525	95.099872
386.302458	95.024973
386.737379	95.121473
387.172289	94.950088
387.607188	94.395882
388.042075	94.134241
388.476951	94.316302
388.911815	94.096479
389.346668	93.760343
389.781509	94.372252
390.216338	94.776484
390.651157	94.933620
391.085963	95.586505
391.520758	95.605794
391.955541	96.019218
392.390313	95.203814
392.825073	95.680934
393.259821	95.919366
393.694558	96.203777
394.129283	95.766937
394.563996	96.397016
394.998698	96.674233
395.433388	96.338235
395.868066	95.729035
396.302732	95.605307
396.737386	95.752652
397.172029	94.996603
397.606659	94.877128
398.041278	94.270984
398.475885	93.907342
398.910480	93.741360
399.345063	92.985688
399.779634	92.048486
400.214194	90.689004
400.648741	89.495894
401.083276	87.798161
401.517799	86.040598
401.952310	83.357731
402.386809	80.951419
402.821296	78.170623
403.255771	75.367035
403.690234	72.213049
404.124684	68.978767
404.559123	65.334287
404.993549	61.999358
405.427963	58.442514
405.862365	55.437295
406.296754	52.341624
406.731131	49.460760
407.165496	46.830520
407.599849	44.586903
408.034190	42.437321
408.468518	40.327736
408.902833	38.499692
409.337137	36.892541
409.771428	35.374194
410.205706	33.846283
410.639973	32.671547
411.074226	31.601947
411.508467	30.594645
411.942696	29.679268
412.376912	28.946603
412.811116	28.305259
413.245307	27.708924
413.679486	27.216524
414.113652	26.739847
414.547805	26.326942
414.981946	25.956337
415.416074	25.620332
415.850190	25.331867
416.284293	25.140438
416.718383	24.913346
417.152460	24.659257
417.586525	24.545463
418.020577	24.434622
418.454616	24.379009
418.888643	24.343085
419.322656	24.323380
419.756657	24.330824
420.190645	24.379884
420.624620	24.365653
421.058582	24.353154
421.492531	24.378982
421.926468	24.447824
422.360391	24.533858
422.794301	24.578441
423.228199	24.645617
423.662083	24.745677
424.095955	24.864862
424.529813	24.986264
424.963658	25.113185
425.397491	25.248954
425.831310	25.334079
426.265116	25.456236
426.698909	25.560345
427.132689	25.677388
427.566455	25.810290
428.000209	25.923425
428.433949	26.055809
428.867676	26.207397
429.301389	26.343252
429.735090	26.462798
430.168777	26.602496
430.602451	26.742418
431.036111	26.836513
431.469759	26.978119
431.903392	27.075045
432.337013	27.192043
432.770620	27.262850
433.204213	27.352990
433.637794	27.456123
434.071360	27.565315
434.504914	27.683653
434.938453	27.799148
435.371979	27.895826
435.805492	27.987759
436.238991	28.109724
436.672477	28.236690
437.105949	28.348273
437.539407	28.429814
437.972852	28.490389
438.406283	28.593478
438.839700	28.664175
439.273104	28.763960
439.706494	28.805231
440.139871	28.889517
440.573233	28.977338
441.006582	29.043697
441.439917	29.089798
441.873238	29.143505
442.306546	29.193535
442.739839	29.261551
443.173119	29.321603
443.606385	29.380275
444.039636	29.442007
444.472874	29.516643
444.906099	29.551921
445.339309	29.625503
445.772505	29.693824
446.205687	29.783403
446.638855	29.848835
447.072009	29.902426
447.505149	29.973454
447.938275	30.036503
448.371387	30.075015
448.804485	30.098148
449.237569	30.121447
449.670638	30.129278
450.103694	30.138134
450.536735	30.131678
450.969762	30.128402
451.402774	30.121164
451.835773	30.090815
452.268757	30.103431
452.701727	30.091608
453.134683	30.105963
453.567624	30.090602
454.000551	30.072574
454.433464	30.050849
454.866362	30.048966
455.299246	30.027752
455.732116	29.991512
456.164971	29.947218
456.597811	29.903413
457.030638	29.847342
457.463449	29.782737
457.896246	29.718352
458.329029	29.669237
458.761797	29.592889
459.194551	29.521340
459.627290	29.425757
460.060014	29.333381
460.492724	29.237767
460.925419	29.126236
461.358099	28.995228
461.790765	28.879710
462.223416	28.749256
462.656052	28.610818
463.088674	28.477731
463.521281	28.306891
463.953873	28.142566
464.386450	27.972743
464.819012	27.803239
465.251560	27.634005
465.684093	27.429591
466.116611	27.229839
466.549114	27.024407
466.981602	26.825929
467.414075	26.617916
467.846533	26.401846
468.278977	26.184613
468.711405	25.953498
469.143818	25.729109
469.576216	25.483856
470.008600	25.234510
470.440968	24.968237
470.873321	24.718829
471.305659	24.445590
471.737982	24.174783
472.170289	23.898955
472.602582	23.616072
473.034859	23.345086
473.467122	23.075241
473.899369	22.793267
474.331600	22.530431
474.763817	22.284942
475.196018	22.032942
475.628204	21.815825
476.060375	21.592698
476.492530	21.368364
476.924670	21.169231
477.356795	20.975804
477.788904	20.788166
478.220998	20.616693
478.653076	20.461367
479.085139	20.335156
479.517186	20.224544
479.949219	20.119913
480.381235	20.028875
480.813236	19.954113
481.245221	19.894014
481.677191	19.864902
482.109146	19.835926
482.541084	19.827869
482.973008	19.847251
483.404915	19.869004
483.836807	19.923861
484.268683	19.990258
484.700544	20.063181
485.132388	20.167051
485.564217	20.292843
485.996031	20.421278
486.427828	20.568189
486.859610	20.735814
487.291376	20.911606
487.723126	21.104240
488.154860	21.311678
488.586579	21.527811
489.018281	21.759297
489.449968	21.996856
489.881639	22.258828
490.313293	22.530994
490.744932	22.826968
491.176555	23.120509
491.608162	23.444397
492.039753	23.775065
492.471328	24.107458
492.902886	24.453506
493.334429	24.814464
493.765956	25.180194
494.197466	25.550819
494.628960	25.924265
495.060439	26.298939
495.491901	26.679523
495.923347	27.075392
496.354776	27.454538
496.786190	27.861253
497.217587	28.256511
497.648968	28.658685
498.080332	29.072571
498.511681	29.496292
498.943013	29.918038
499.374328	30.378317
499.805628	30.851881
500.236911	31.344532
500.668177	31.841071
501.099427	32.348957
501.530661	32.874924
501.961878	33.414290
502.393079	33.946187
502.824264	34.484401
503.255431	35.022629
503.686583	35.551694
504.117717	36.069375
504.548835	36.620674
504.979937	37.148499
505.411022	37.660450
505.842090	38.165524
506.273142	38.667003
506.704177	39.173693
507.135195	39.661117
507.566197	40.144386
507.997182	40.640217
508.428150	41.116405
508.859102	41.591893
509.290036	42.063901
509.720954	42.567747
510.151855	43.046520
510.582739	43.561530
511.013607	44.068921
511.444457	44.587329
511.875291	45.114434
512.306107	45.677048
512.736907	46.216603
513.167690	46.750208
513.598456	47.298220
514.029205	47.860247
514.459936	48.422396
514.890651	48.964813
515.321349	49.505634
515.752030	50.040683
516.182693	50.584006
516.613340	51.117763
517.043969	51.661394
517.474582	52.192990
517.905177	52.711873
518.335755	53.227268
518.766315	53.754053
519.196859	54.274534
519.627385	54.793282
520.057894	55.303653
520.488386	55.824329
520.918860	56.326349
521.349318	56.857112
521.779757	57.398735
522.210180	57.940444
522.640585	58.470717
523.070973	58.999414
523.501343	59.531890
523.931696	60.037688
524.362031	60.543923
524.792349	61.054607
525.222650	61.560941
525.652933	62.026773
526.083198	62.492543
526.513446	62.949135
526.943677	63.377229
527.373890	63.818345
527.804085	64.236949
528.234262	64.653687
528.664422	65.084768
529.094565	65.511004
529.524689	65.929336
529.954796	66.329623
530.384885	66.717771
530.814957	67.106291
531.245011	67.492064
531.675047	67.884266
532.105065	68.268984
532.535065	68.666358
532.965048	69.076405
533.395013	69.448864
533.824959	69.850302
534.254888	70.272711
534.684799	70.666027
535.114693	71.052086
535.544568	71.435222
535.974425	71.814222
536.404264	72.157696
536.834086	72.504822
537.263889	72.854719
537.693674	73.201093
538.123441	73.537207
538.553190	73.833207
538.982921	74.150427
539.412634	74.446125
539.842329	74.765688
540.272006	75.067877
540.701664	75.324541
541.131304	75.604506
541.560926	75.846702
541.990530	76.074191
542.420116	76.304248
542.849683	76.509856
543.279232	76.726383
543.708763	76.927472
544.138275	77.132562
544.567769	77.309847
544.997245	77.478146
545.426702	77.649681
545.856141	77.809947
546.285562	77.972004
546.714964	78.143754
547.144347	78.289086
547.573713	78.432662
548.003059	78.571400
548.432387	78.722898
548.861697	78.886043
549.290988	79.048829
549.720260	79.224292
550.149514	79.393868
550.578750	79.556646
551.007966	79.712316
551.437164	79.888181
551.866344	80.080428
552.295504	80.238529
552.724646	80.433177
553.153769	80.605806
553.582874	80.783991
554.011960	80.978639
554.441027	81.142319
554.870075	81.326158
555.299104	81.501160
555.728115	81.642443
556.157106	81.810009
556.586079	81.957922
557.015033	82.108377
557.443968	82.239928
557.872884	82.354020
558.301781	82.463572
558.730659	82.573043
559.159518	82.666737
559.588358	82.749760
560.017180	82.827554
560.445982	82.898802
560.874765	82.955739
561.303528	83.008824
561.732273	83.057232
562.160999	83.097836
562.589705	83.132636
563.018393	83.178055
563.447061	83.218286
563.875710	83.252395
564.304340	83.298337
564.732950	83.315505
565.161542	83.333373
565.590114	83.366986
566.018666	83.382678
566.447200	83.404275
566.875714	83.425270
567.304208	83.447163
567.732684	83.487681
568.161140	83.522658
568.589576	83.551438
569.017993	83.603682
569.446391	83.646361
569.874769	83.684016
570.303128	83.712255
570.731467	83.748751
571.159787	83.799200
571.588087	83.847930
572.016368	83.884515
572.444629	83.919756
572.872870	83.943535
573.301092	83.973178
573.729294	83.995714
574.157476	84.028708
574.585639	84.044020
575.013782	84.054688
575.441906	84.070078
575.870009	84.076279
576.298093	84.065517
576.726157	84.050107
577.154202	84.041412
577.582226	84.041372
578.010231	84.024072
578.438216	83.999660
578.866181	83.963304
579.294126	83.940412
579.722051	83.910345
580.149957	83.897872
580.577842	83.871759
581.005707	83.822427
581.433553	83.789069
581.861378	83.755147
582.289184	83.716343
582.716969	83.664166
583.144734	83.597957
583.572479	83.556994
584.000205	83.496322
584.427910	83.437622
584.855594	83.366352
585.283259	83.292177
585.710904	83.218514
586.138528	83.123900
586.566132	83.030344
586.993716	82.925155
587.421280	82.807730
587.848823	82.698089
588.276346	82.572491
588.703849	82.413353
589.131332	82.259270
589.558794	82.100952
589.986236	81.924801
590.413657	81.744236
590.841058	81.542942
591.268438	81.337442
591.695799	81.131278
592.123138	80.914932
592.550458	80.687433
592.977756	80.444586
593.405034	80.188725
593.832292	79.928399
594.259529	79.686309
594.686746	79.419360
595.113942	79.164252
595.541117	78.890365
595.968272	78.628039
596.395406	78.387628
596.822519	78.126622
597.249612	77.884040
597.676684	77.636789
598.103735	77.399703
598.530766	77.172333
598.957775	76.958391
599.384764	76.745891
599.811733	76.527742
600.238680	76.328196
600.665606	76.117465
601.092512	75.916703
601.519397	75.709068
601.946261	75.519379
602.373104	75.312488
602.799926	75.101574
603.226727	74.890943
603.653507	74.668060
604.080266	74.433862
604.507004	74.204217
604.933721	73.947818
605.360417	73.699811
605.787092	73.439554
606.213746	73.157391
606.640379	72.851595
607.066991	72.539852
607.493581	72.199181
607.920150	71.854176
608.346699	71.488932
608.773226	71.111745
609.199731	70.709026
609.626216	70.284080
610.052679	69.847221
610.479121	69.384705
610.905542	68.906486
611.331941	68.408588
611.758319	67.871757
612.184676	67.313633
612.611011	66.745233
613.037325	66.157702
613.463617	65.534142
613.889888	64.903334
614.316138	64.230502
614.742366	63.553193
615.168573	62.848933
615.594758	62.135782
616.020921	61.408631
616.447063	60.666256
616.873184	59.917693
617.299283	59.153327
617.725360	58.390484
618.151416	57.635671
618.577450	56.867548
619.003462	56.088396
619.429453	55.329850
619.855422	54.576774
620.281369	53.829856
620.707295	53.089668
621.133199	52.353103
621.559081	51.612853
621.984941	50.885134
622.410779	50.161451
622.836596	49.436197
623.262391	48.719026
623.688163	48.006310
624.113914	47.303472
624.539644	46.597088
624.965351	45.895262
625.391036	45.189237
625.816699	44.487834
626.242340	43.782647
626.667960	43.077917
627.093557	42.372028
627.519132	41.675708
627.944685	40.965501
628.370216	40.261343
628.795725	39.547896
629.221212	38.832295
629.646677	38.127610
630.072119	37.428132
630.497540	36.733050
630.922938	36.036657
631.348314	35.346967
631.773668	34.670445
632.198999	34.009123
632.624308	33.358203
633.049595	32.724097
633.474860	32.109762
633.900102	31.514726
634.325322	30.935080
634.750520	30.384567
635.175695	29.853391
635.600848	29.345833
636.025978	28.866800
636.451086	28.407310
636.876171	27.969319
637.301234	27.548298
637.726275	27.152061
638.151293	26.787309
638.576288	26.447290
639.001261	26.133019
639.426211	25.847046
639.851139	25.586710
640.276044	25.350322
640.700927	25.150053
641.125787	24.984797
641.550624	24.851559
641.975438	24.762377
642.400230	24.711673
642.824999	24.700324
643.249745	24.713535
643.674469	24.773262
644.099169	24.871008
644.523847	25.013439
644.948502	25.193290
645.373135	25.404772
645.797744	25.653752
646.222330	25.934289
646.646894	26.246565
647.071435	26.587322
647.495953	26.957370
647.920447	27.345187
648.344919	27.756471
648.769368	28.193375
649.193794	28.646833
649.618197	29.119218
650.042576	29.616897
650.466933	30.136401
650.891267	30.674853
651.315577	31.229654
651.739864	31.798920
652.164129	32.380607
652.588370	32.981065
653.012587	33.598071
653.436782	34.227646
653.860953	34.869322
654.285102	35.521060
654.709226	36.177494
655.133328	36.846605
655.557406	37.518073
655.981461	38.201835
656.405493	38.900459
656.829501	39.600386
657.253486	40.302766
657.677448	40.998061
658.101386	41.690459
658.525301	42.385097
658.949192	43.078017
659.373060	43.770211
659.796904	44.446565
660.220725	45.125011
660.644522	45.793528
661.068296	46.466708
661.492046	47.144631
661.915772	47.813869
662.339475	48.484733
662.763154	49.151100
663.186810	49.815238
663.610442	50.471844
664.034050	51.127311
664.457635	51.777830
664.881196	52.423752
665.304733	53.070045
665.728247	53.719152
666.151736	54.363325
666.575202	55.006224
666.998644	55.654707
667.422062	56.305494
667.845457	56.945129
668.268827	57.585190
668.692174	58.229115
669.115496	58.864898
669.538795	59.497517
669.962070	60.123488
670.385321	60.751812
670.808547	61.361708
671.231750	61.973754
671.654929	62.574287
672.078084	63.166277
672.501214	63.753084
672.924321	64.328335
673.347404	64.890366
673.770462	65.445072
674.193496	65.978582
674.616506	66.482196
675.039492	66.973176
675.462454	67.444951
675.885391	67.895104
676.308305	68.317586
676.731194	68.724902
677.154058	69.115320
677.576899	69.481409
677.999715	69.832170
678.422507	70.165312
678.845274	70.467604
679.268017	70.752454
679.690736	71.028785
680.113430	71.269884
680.536100	71.505471
680.958746	71.740215
681.381367	71.952790
681.803963	72.154520
682.226535	72.349020
682.649083	72.532834
683.071605	72.718125
683.494104	72.890253
683.916578	73.074793
684.339027	73.242432
684.761451	73.403743
685.183851	73.555029
685.606227	73.701637
686.028577	73.852505
686.450903	74.000554
686.873204	74.141867
687.295481	74.300806
687.717733	74.453889
688.139959	74.600828
688.562162	74.743990
688.984339	74.886779
689.406492	75.037313
689.828619	75.191447
690.250722	75.340895
690.672800	75.508518
691.094853	75.684839
691.516881	75.843782
691.938884	76.014797
692.360863	76.196120
692.782816	76.370720
693.204744	76.560042
693.626647	76.739667
694.048526	76.917146
694.470379	77.102899
694.892207	77.279282
695.314010	77.459341
695.735788	77.645211
696.157540	77.828531
696.579268	78.015689
697.000970	78.190834
697.422648	78.369324
697.844300	78.532573
698.265926	78.698797
698.687528	78.854489
699.109104	79.004339
699.530655	79.146097
699.952181	79.280785
700.373681	79.386977
700.795156	79.505432
701.216606	79.615519
701.638030	79.717057
702.059429	79.817771
702.480803	79.902302
702.902151	79.970658
703.323473	80.034002
703.744770	80.066584
704.166042	80.085405
704.587288	80.102985
705.008509	80.105907
705.429704	80.085718
705.850873	80.053526
706.272017	80.006799
706.693135	79.957134
707.114228	79.896027
707.535295	79.814931
707.956336	79.724258
708.377352	79.608551
708.798342	79.485670
709.219306	79.344467
709.640245	79.203952
710.061157	79.056819
710.482044	78.891967
710.902905	78.738095
711.323741	78.570231
711.744550	78.412029
712.165334	78.256208
712.586092	78.105980
713.006823	77.960255
713.427529	77.827144
713.848209	77.685148
714.268863	77.552562
714.689492	77.431186
715.110094	77.308977
715.530670	77.204340
715.951220	77.101953
716.371744	77.007812
716.792242	76.931136
717.212714	76.864674
717.633159	76.813283
718.053579	76.773541
718.473973	76.762502
718.894340	76.778027
719.314681	76.792206
719.734996	76.828290
720.155285	76.880313
720.575547	76.952377
720.995784	77.050908
721.415994	77.176916
721.836177	77.315856
722.256335	77.488500
722.676466	77.655077
723.096570	77.845967
723.516649	78.068785
723.936701	78.299251
724.356726	78.547141
724.776725	78.802274
725.196698	79.068362
725.616644	79.343518
726.036564	79.628689
726.456457	79.914636
726.876324	80.217584
727.296164	80.523390
727.715977	80.840390
728.135764	81.150749
728.555525	81.465168
728.975258	81.781647
729.394966	82.104316
729.814646	82.413904
730.234300	82.721899
730.653927	83.030662
731.073527	83.339262
731.493101	83.634289
731.912648	83.911538
732.332168	84.196572
732.751661	84.460310
733.171128	84.726344
733.590568	84.981831
734.009980	85.228146
734.429366	85.465119
734.848726	85.690556
735.268058	85.901452
735.687363	86.124332
736.106641	86.336925
736.525893	86.529633
736.945117	86.718795
737.364314	86.898614
737.783485	87.080280
738.202628	87.264733
738.621744	87.449651
739.040834	87.632431
739.459896	87.817541
739.878931	87.986919
740.297939	88.168133
740.716919	88.340475
741.135873	88.524828
741.554799	88.700933
741.973698	88.886187
742.392570	89.066046
742.811415	89.281262
743.230232	89.495912
743.649022	89.717996
744.067785	89.929908
744.486521	90.149979
744.905229	90.375332
745.323909	90.599668
745.742563	90.840042
746.161189	91.073134
746.579787	91.319472
746.998358	91.566531
747.416902	91.819733
747.835418	92.079002
748.253907	92.351783
748.672368	92.630525
749.090802	92.902092
749.509208	93.184820
749.927586	93.481065
750.345937	93.768535
750.764261	94.066086
751.182556	94.342412
751.600824	94.630090
752.019065	94.906515
752.437277	95.192083
752.855462	95.499204
753.273620	95.784792
753.691749	96.070406
754.109851	96.356982
