Time1=100ms:Average1=5:Objective=10X:Aperture=1: (11/21/2018 11:56:12 AM)
11/21/2018 11:56:12 AM
Reflectance
10X
Ap#: 1
Avg1: 5.000000
Avg2: 0.000000
Int.Time1:100.000000

350.166136	92.753902
350.601937	93.161457
351.037728	93.990849
351.473509	94.248459
351.909281	94.303990
352.345042	94.252756
352.780794	94.416036
353.216536	94.272588
353.652267	93.913043
354.087989	94.073771
354.523701	94.539702
354.959403	94.156571
355.395095	95.037272
355.830777	94.893487
356.266449	94.793262
356.702110	94.922469
357.137762	95.732763
357.573404	95.449421
358.009035	95.710044
358.444656	96.096960
358.880268	96.286008
359.315869	96.249356
359.751459	95.922769
360.187040	96.261586
360.622610	96.430414
361.058170	96.309659
361.493720	96.303562
361.929260	96.466212
362.364789	95.805059
362.800308	95.860723
363.235816	95.993408
363.671314	95.875231
364.106802	95.873114
364.542279	96.166855
364.977746	96.494122
365.413203	97.229688
365.848649	96.963124
366.284084	96.895810
366.719509	96.923708
367.154924	97.381661
367.590328	97.103081
368.025721	96.703522
368.461104	97.364913
368.896477	96.641409
369.331838	96.826372
369.767189	96.662948
370.202530	96.517921
370.637859	95.450869
371.073178	95.786488
371.508486	95.629690
371.943784	95.502995
372.379071	95.225061
372.814347	95.443913
373.249612	95.552616
373.684866	95.020705
374.120110	95.193767
374.555343	95.164390
374.990565	95.328702
375.425776	95.161453
375.860976	95.576380
376.296165	95.427536
376.731343	95.871330
377.166511	95.939698
377.601667	96.026424
378.036812	95.547533
378.471946	95.823759
378.907070	95.473579
379.342182	95.601115
379.777283	95.183600
380.212373	95.074968
380.647452	95.164161
381.082520	94.873568
381.517576	94.910239
381.952622	94.815256
382.387656	95.600120
382.822679	96.182597
383.257691	96.326694
383.692692	96.383021
384.127681	96.747072
384.562659	96.315058
384.997626	96.380405
385.432581	95.672319
385.867525	95.650890
386.302458	95.504848
386.737379	95.493730
387.172289	95.625367
387.607188	95.211733
388.042075	95.418288
388.476951	95.250608
388.911815	95.526162
389.346668	95.794802
389.781509	95.906204
390.216338	95.304705
390.651157	95.187427
391.085963	95.370734
391.520758	95.312194
391.955541	94.901461
392.390313	94.211499
392.825073	94.250973
393.259821	94.725511
393.694558	94.758065
394.129283	94.398279
394.563996	95.071667
394.998698	95.302477
395.433388	95.215686
395.868066	94.681991
396.302732	94.459077
396.737386	94.210373
397.172029	93.904688
397.606659	93.479102
398.041278	93.167582
398.475885	92.954915
398.910480	93.164593
399.345063	92.990411
399.779634	92.062526
400.214194	90.978966
400.648741	89.418758
401.083276	87.749300
401.517799	85.725984
401.952310	83.177883
402.386809	80.842386
402.821296	77.655578
403.255771	74.823416
403.690234	71.605242
404.124684	68.120839
404.559123	64.118982
404.993549	60.788775
405.427963	57.154142
405.862365	53.895395
406.296754	50.493409
406.731131	47.354317
407.165496	44.714818
407.599849	42.001853
408.034190	39.459972
408.468518	37.077959
408.902833	34.793260
409.337137	32.769691
409.771428	30.815870
410.205706	29.114683
410.639973	27.461925
411.074226	26.065249
411.508467	24.740456
411.942696	23.601292
412.376912	22.556417
412.811116	21.588457
413.245307	20.793070
413.679486	20.041598
414.113652	19.367970
414.547805	18.678002
414.981946	18.018128
415.416074	17.471036
415.850190	16.987627
416.284293	16.572692
416.718383	16.153754
417.152460	15.783614
417.586525	15.480524
418.020577	15.216717
418.454616	14.978845
418.888643	14.749447
419.322656	14.527676
419.756657	14.338559
420.190645	14.133910
420.624620	13.891950
421.058582	13.666766
421.492531	13.483614
421.926468	13.334465
422.360391	13.230310
422.794301	13.146565
423.228199	13.093456
423.662083	13.038241
424.095955	13.021258
424.529813	12.996392
424.963658	13.003507
425.397491	12.977174
425.831310	12.959292
426.265116	12.918815
426.698909	12.878838
427.132689	12.859053
427.566455	12.862927
428.000209	12.889578
428.433949	12.932259
428.867676	12.994909
429.301389	13.004967
429.735090	13.015256
430.168777	13.058695
430.602451	13.091686
431.036111	13.068226
431.469759	13.058012
431.903392	13.030179
432.337013	13.018655
432.770620	12.987872
433.204213	13.001855
433.637794	13.039803
434.071360	13.100623
434.504914	13.172872
434.938453	13.265603
435.371979	13.338325
435.805492	13.414566
436.238991	13.472419
436.672477	13.540606
437.105949	13.606418
437.539407	13.653743
437.972852	13.707273
438.406283	13.768058
438.839700	13.813707
439.273104	13.876713
439.706494	13.962583
440.139871	14.070216
440.573233	14.183132
441.006582	14.269479
441.439917	14.341237
441.873238	14.395045
442.306546	14.442070
442.739839	14.489474
443.173119	14.512441
443.606385	14.525293
444.039636	14.531808
444.472874	14.580761
444.906099	14.653119
445.339309	14.720946
445.772505	14.814458
446.205687	14.940507
446.638855	15.042033
447.072009	15.168686
447.505149	15.302286
447.938275	15.449193
448.371387	15.571502
448.804485	15.688702
449.237569	15.785284
449.670638	15.879041
450.103694	15.948668
450.536735	16.031814
450.969762	16.102384
451.402774	16.167106
451.835773	16.244971
452.268757	16.353404
452.701727	16.455600
453.134683	16.574416
453.567624	16.670378
454.000551	16.763226
454.433464	16.849514
454.866362	16.928252
455.299246	17.003680
455.732116	17.060899
456.164971	17.099437
456.597811	17.158325
457.030638	17.217572
457.463449	17.282186
457.896246	17.335463
458.329029	17.388088
458.761797	17.456853
459.194551	17.507040
459.627290	17.553814
460.060014	17.623374
460.492724	17.675917
460.925419	17.721822
461.358099	17.760944
461.790765	17.810961
462.223416	17.844747
462.656052	17.877896
463.088674	17.913270
463.521281	17.923187
463.953873	17.923012
464.386450	17.931804
464.819012	17.958721
465.251560	17.969987
465.684093	17.969744
466.116611	17.985034
466.549114	17.995570
466.981602	18.009909
467.414075	18.020526
467.846533	18.041671
468.278977	18.060530
468.711405	18.064133
469.143818	18.064726
469.576216	18.076729
470.008600	18.071849
470.440968	18.044695
470.873321	18.024970
471.305659	17.997133
471.737982	17.974077
472.170289	17.936359
472.602582	17.921372
473.034859	17.903942
473.467122	17.890034
473.899369	17.883814
474.331600	17.887850
474.763817	17.909387
475.196018	17.935481
475.628204	17.989444
476.060375	18.059980
476.492530	18.126998
476.924670	18.214630
477.356795	18.302409
477.788904	18.399900
478.220998	18.488424
478.653076	18.579936
479.085139	18.680474
479.517186	18.792886
479.949219	18.915132
480.381235	19.063912
480.813236	19.236071
481.245221	19.441816
481.677191	19.672131
482.109146	19.922484
482.541084	20.182637
482.973008	20.462546
483.404915	20.738972
483.836807	21.029696
484.268683	21.304439
484.700544	21.578559
485.132388	21.844050
485.564217	22.116844
485.996031	22.371795
486.427828	22.628672
486.859610	22.889939
487.291376	23.153891
487.723126	23.445574
488.154860	23.742929
488.586579	24.065344
489.018281	24.418043
489.449968	24.792471
489.881639	25.210227
490.313293	25.650700
490.744932	26.119002
491.176555	26.593961
491.608162	27.063547
492.039753	27.507351
492.471328	27.931656
492.902886	28.308382
493.334429	28.661385
493.765956	28.974434
494.197466	29.271235
494.628960	29.550775
495.060439	29.847663
495.491901	30.152644
495.923347	30.494604
496.354776	30.870923
496.786190	31.288754
497.217587	31.720272
497.648968	32.166043
498.080332	32.604531
498.511681	33.038279
498.943013	33.433578
499.374328	33.807729
499.805628	34.139786
500.236911	34.427338
500.668177	34.664103
501.099427	34.840396
501.530661	34.994631
501.961878	35.083851
502.393079	35.140270
502.824264	35.182114
503.255431	35.177684
503.686583	35.175526
504.117717	35.166671
504.548835	35.182129
504.979937	35.219675
505.411022	35.292714
505.842090	35.406630
506.273142	35.571741
506.704177	35.753913
507.135195	35.957518
507.566197	36.139226
507.997182	36.308663
508.428150	36.431452
508.859102	36.513175
509.290036	36.534396
509.720954	36.500357
510.151855	36.413762
510.582739	36.310581
511.013607	36.203094
511.444457	36.110808
511.875291	36.034346
512.306107	36.016082
512.736907	36.043539
513.167690	36.127351
513.598456	36.255768
514.029205	36.441459
514.459936	36.660838
514.890651	36.884631
515.321349	37.121587
515.752030	37.354141
516.182693	37.565061
516.613340	37.779795
517.043969	37.968941
517.474582	38.130560
517.905177	38.253119
518.335755	38.367376
518.766315	38.466101
519.196859	38.545603
519.627385	38.606063
520.057894	38.677706
520.488386	38.762189
520.918860	38.870392
521.349318	39.026680
521.779757	39.226902
522.210180	39.500354
522.640585	39.841170
523.070973	40.242750
523.501343	40.701338
523.931696	41.199017
524.362031	41.733344
524.792349	42.291411
525.222650	42.848036
525.652933	43.391740
526.083198	43.891144
526.513446	44.348395
526.943677	44.776589
527.373890	45.174990
527.804085	45.557995
528.234262	45.936432
528.664422	46.344648
529.094565	46.776193
529.524689	47.258636
529.954796	47.791551
530.384885	48.381307
530.814957	49.035913
531.245011	49.771741
531.675047	50.534718
532.105065	51.340506
532.535065	52.169676
532.965048	53.004505
533.395013	53.800135
533.824959	54.569008
534.254888	55.295472
534.684799	55.928498
535.114693	56.511740
535.544568	57.018698
535.974425	57.438526
536.404264	57.784648
536.834086	58.076278
537.263889	58.311487
537.693674	58.507778
538.123441	58.679711
538.553190	58.833287
538.982921	59.001955
539.412634	59.202057
539.842329	59.444132
540.272006	59.716578
540.701664	60.025539
541.131304	60.393232
541.560926	60.798269
541.990530	61.236748
542.420116	61.706361
542.849683	62.167235
543.279232	62.618418
543.708763	63.054289
544.138275	63.448694
544.567769	63.768017
544.997245	64.052565
545.426702	64.278582
545.856141	64.450751
546.285562	64.595013
546.714964	64.717835
547.144347	64.815117
547.573713	64.931368
548.003059	65.091189
548.432387	65.292068
548.861697	65.540555
549.290988	65.872993
549.720260	66.263275
550.149514	66.718495
550.578750	67.234357
551.007966	67.798914
551.437164	68.403545
551.866344	69.034573
552.295504	69.650884
552.724646	70.263399
553.153769	70.848064
553.582874	71.376242
554.011960	71.829403
554.441027	72.175075
554.870075	72.437213
555.299104	72.609105
555.728115	72.678356
556.157106	72.683119
556.586079	72.627153
557.015033	72.511882
557.443968	72.381794
557.872884	72.241236
558.301781	72.108388
558.730659	72.015385
559.159518	71.948878
559.588358	71.934006
560.017180	71.982596
560.445982	72.098061
560.874765	72.272249
561.303528	72.499173
561.732273	72.764697
562.160999	73.062352
562.589705	73.386925
563.018393	73.727223
563.447061	74.083351
563.875710	74.437388
564.304340	74.797256
564.732950	75.133308
565.161542	75.466543
565.590114	75.773048
566.018666	76.054854
566.447200	76.303236
566.875714	76.538695
567.304208	76.776448
567.732684	77.028121
568.161140	77.280907
568.589576	77.546171
569.017993	77.829693
569.446391	78.145917
569.874769	78.491244
570.303128	78.884165
570.731467	79.303294
571.159787	79.782257
571.588087	80.315532
572.016368	80.859616
572.444629	81.436854
572.872870	82.008882
573.301092	82.574875
573.729294	83.108816
574.157476	83.597158
574.585639	84.013874
575.013782	84.336141
575.441906	84.580748
575.870009	84.715722
576.298093	84.760234
576.726157	84.695569
577.154202	84.542237
577.582226	84.334396
578.010231	84.057384
578.438216	83.738161
578.866181	83.416091
579.294126	83.117704
579.722051	82.848726
580.149957	82.621252
580.577842	82.429194
581.005707	82.275849
581.433553	82.176781
581.861378	82.135189
582.289184	82.137173
582.716969	82.178808
583.144734	82.228589
583.572479	82.311929
584.000205	82.416344
584.427910	82.531302
584.855594	82.650470
585.283259	82.773380
585.710904	82.911481
586.138528	83.049585
586.566132	83.196644
586.993716	83.350041
587.421280	83.508942
587.848823	83.681295
588.276346	83.871074
588.703849	84.041108
589.131332	84.211965
589.558794	84.383134
589.986236	84.536790
590.413657	84.707981
590.841058	84.846808
591.268438	85.007250
591.695799	85.170553
592.123138	85.341277
592.550458	85.523395
592.977756	85.720923
593.405034	85.959597
593.832292	86.229144
594.259529	86.531027
594.686746	86.854659
595.113942	87.188714
595.541117	87.536781
595.968272	87.872542
596.395406	88.217973
596.822519	88.518521
597.249612	88.784101
597.676684	88.984909
598.103735	89.100036
598.530766	89.155744
598.957775	89.119842
599.384764	89.014330
599.811733	88.822004
600.238680	88.576582
600.665606	88.269580
601.092512	87.936225
601.519397	87.580233
601.946261	87.233315
602.373104	86.880680
602.799926	86.529060
603.226727	86.235627
603.653507	85.960946
604.080266	85.715356
604.507004	85.494656
604.933721	85.294929
605.360417	85.111707
605.787092	84.912194
606.213746	84.706365
606.640379	84.477199
607.066991	84.242918
607.493581	83.988973
607.920150	83.721509
608.346699	83.456919
608.773226	83.196217
609.199731	82.947389
609.626216	82.719916
610.052679	82.518970
610.479121	82.353532
610.905542	82.225066
611.331941	82.150694
611.758319	82.101598
612.184676	82.101789
612.611011	82.150697
613.037325	82.224083
613.463617	82.309372
613.889888	82.416613
614.316138	82.527519
614.742366	82.642084
615.168573	82.742968
615.594758	82.847813
616.020921	82.965476
616.447063	83.064172
616.873184	83.171839
617.299283	83.279324
617.725360	83.407546
618.151416	83.563567
618.577450	83.731395
619.003462	83.926501
619.429453	84.161903
619.855422	84.432810
620.281369	84.707708
620.707295	85.000482
621.133199	85.299242
621.559081	85.577830
621.984941	85.832493
622.410779	86.067066
622.836596	86.238922
623.262391	86.360895
623.688163	86.416673
624.113914	86.415550
624.539644	86.331264
624.965351	86.185405
625.391036	85.982367
625.816699	85.704968
626.242340	85.405669
626.667960	85.066596
627.093557	84.700000
627.519132	84.323381
627.944685	83.926835
628.370216	83.540783
628.795725	83.163794
629.221212	82.769774
629.646677	82.386936
630.072119	81.994577
630.497540	81.611486
630.922938	81.221398
631.348314	80.809091
631.773668	80.395576
632.198999	79.976331
632.624308	79.554266
633.049595	79.118464
633.474860	78.690120
633.900102	78.270062
634.325322	77.867385
634.750520	77.508443
635.175695	77.174928
635.600848	76.888069
636.025978	76.667309
636.451086	76.516735
636.876171	76.446705
637.301234	76.416144
637.726275	76.477339
638.151293	76.605662
638.576288	76.771986
639.001261	77.005844
639.426211	77.270252
639.851139	77.557796
640.276044	77.866035
640.700927	78.179781
641.125787	78.501457
641.550624	78.819370
641.975438	79.117082
642.400230	79.410297
642.824999	79.660375
643.249745	79.885069
643.674469	80.091700
644.099169	80.260586
644.523847	80.407540
644.948502	80.543858
645.373135	80.647127
645.797744	80.727551
646.222330	80.777645
646.646894	80.824933
647.071435	80.851540
647.495953	80.854767
647.920447	80.814705
648.344919	80.769557
648.769368	80.682779
649.193794	80.572643
649.618197	80.419811
650.042576	80.219797
650.466933	80.020312
650.891267	79.770524
651.315577	79.500880
651.739864	79.218429
652.164129	78.912906
652.588370	78.600789
653.012587	78.294758
653.436782	77.985371
653.860953	77.690515
654.285102	77.389129
654.709226	77.096339
655.133328	76.817658
655.557406	76.552303
655.981461	76.315846
656.405493	76.095326
656.829501	75.880158
657.253486	75.669886
657.677448	75.470067
658.101386	75.261053
658.525301	75.055997
658.949192	74.845945
659.373060	74.618377
659.796904	74.370793
660.220725	74.108413
660.644522	73.827474
661.068296	73.541602
661.492046	73.243021
661.915772	72.938608
662.339475	72.626221
662.763154	72.337634
663.186810	72.061112
663.610442	71.801113
664.034050	71.572370
664.457635	71.381397
664.881196	71.236282
665.304733	71.124232
665.728247	71.052813
666.151736	71.027134
666.575202	71.046881
666.998644	71.099697
667.422062	71.205206
667.845457	71.323506
668.268827	71.463675
668.692174	71.630113
669.115496	71.792982
669.538795	71.953060
669.962070	72.101772
670.385321	72.251542
670.808547	72.381164
671.231750	72.503261
671.654929	72.602206
672.078084	72.672815
672.501214	72.745632
672.924321	72.798835
673.347404	72.847261
673.770462	72.899785
674.193496	72.941460
674.616506	72.987729
675.039492	73.045685
675.462454	73.126139
675.885391	73.195280
676.308305	73.283749
676.731194	73.401416
677.154058	73.539122
677.576899	73.673303
677.999715	73.832968
678.422507	74.033957
678.845274	74.245162
679.268017	74.481629
679.690736	74.739290
680.113430	74.993888
680.536100	75.268519
680.958746	75.563992
681.381367	75.870390
681.803963	76.156955
682.226535	76.461551
682.649083	76.773521
683.071605	77.077537
683.494104	77.373991
683.916578	77.662770
684.339027	77.938694
684.761451	78.210143
685.183851	78.466822
685.606227	78.707184
686.028577	78.924307
686.450903	79.110252
686.873204	79.251528
687.295481	79.378813
687.717733	79.452267
688.139959	79.469341
688.562162	79.421747
688.984339	79.332824
689.406492	79.184970
689.828619	78.961725
690.250722	78.666480
690.672800	78.336497
691.094853	77.942676
691.516881	77.475611
691.938884	76.970870
692.360863	76.416791
692.782816	75.834078
693.204744	75.245981
693.626647	74.648373
694.048526	74.050233
694.470379	73.476594
694.892207	72.937062
695.314010	72.451638
695.735788	72.012923
696.157540	71.650959
696.579268	71.362622
697.000970	71.161864
697.422648	71.036708
697.844300	70.993009
698.265926	71.042093
698.687528	71.163776
699.109104	71.369090
699.530655	71.646742
699.952181	72.001373
700.373681	72.401384
700.795156	72.866854
701.216606	73.385604
701.638030	73.936936
702.059429	74.505255
702.480803	75.082474
702.902151	75.654934
703.323473	76.226694
703.744770	76.760837
704.166042	77.266760
704.587288	77.739623
705.008509	78.165134
705.429704	78.543733
705.850873	78.872276
706.272017	79.144119
706.693135	79.359177
707.114228	79.531696
707.535295	79.641480
707.956336	79.712791
708.377352	79.709442
708.798342	79.662307
709.219306	79.571018
709.640245	79.447974
710.061157	79.271941
710.482044	79.070572
710.902905	78.837411
711.323741	78.581872
711.744550	78.323442
712.165334	78.049344
712.586092	77.774146
713.006823	77.500892
713.427529	77.229852
713.848209	76.967286
714.268863	76.718948
714.689492	76.504149
715.110094	76.323381
715.530670	76.186569
715.951220	76.092229
716.371744	76.031964
716.792242	76.036467
717.212714	76.093962
717.633159	76.187260
718.053579	76.343888
718.473973	76.562207
718.894340	76.819118
719.314681	77.114850
719.734996	77.449967
720.155285	77.791051
720.575547	78.155688
720.995784	78.519134
721.415994	78.895647
721.836177	79.251297
722.256335	79.583664
722.676466	79.873708
723.096570	80.134290
723.516649	80.351695
723.936701	80.511640
724.356726	80.609802
724.776725	80.640512
725.196698	80.614028
725.616644	80.521109
726.036564	80.378455
726.456457	80.177825
726.876324	79.922504
727.296164	79.620950
727.715977	79.279936
728.135764	78.906495
728.555525	78.513484
728.975258	78.108178
729.394966	77.692871
729.814646	77.268359
730.234300	76.834528
730.653927	76.423020
731.073527	76.027320
731.493101	75.641422
731.912648	75.285166
732.332168	74.959226
732.751661	74.656776
733.171128	74.416122
733.590568	74.203906
734.009980	74.039301
734.429366	73.919716
734.848726	73.846657
735.268058	73.824903
735.687363	73.842755
736.106641	73.907947
736.525893	74.001339
736.945117	74.137005
737.364314	74.302188
737.783485	74.505989
738.202628	74.740325
738.621744	75.009533
739.040834	75.288859
739.459896	75.593894
739.878931	75.907328
740.297939	76.227177
740.716919	76.551325
741.135873	76.866690
741.554799	77.151798
741.973698	77.427374
742.392570	77.692052
742.811415	77.934874
743.230232	78.150528
743.649022	78.345629
744.067785	78.495967
744.486521	78.614267
744.905229	78.705237
745.323909	78.772735
745.742563	78.822879
746.161189	78.842112
746.579787	78.842721
746.998358	78.835805
747.416902	78.803983
747.835418	78.772544
748.253907	78.718051
748.672368	78.675463
749.090802	78.632447
749.509208	78.591269
749.927586	78.563366
750.345937	78.546511
750.764261	78.548715
751.182556	78.549722
751.600824	78.563705
752.019065	78.593401
752.437277	78.631722
752.855462	78.700462
753.273620	78.778379
753.691749	78.861051
754.109851	78.951620
