Time1=100ms:Average1=5:Objective=10X:Aperture=1: (11/28/2018 9:47:51 AM)
11/28/2018 9:47:51 AM
Reflectance
10X
Ap#: 1
Avg1: 5.000000
Avg2: 0.000000
Int.Time1:100.000000

350.166136	83.671237
350.601937	84.129737
351.037728	84.515440
351.473509	84.522327
351.909281	84.380018
352.345042	83.947298
352.780794	83.774805
353.216536	83.767751
353.652267	83.959968
354.087989	83.628319
354.523701	83.414283
354.959403	83.336336
355.395095	83.671819
355.830777	83.541125
356.266449	83.437724
356.702110	83.572196
357.137762	83.782086
357.573404	83.516680
358.009035	83.498527
358.444656	83.380961
358.880268	83.591027
359.315869	83.724458
359.751459	83.771540
360.187040	84.112566
360.622610	83.930943
361.058170	84.066419
361.493720	84.312511
361.929260	84.238890
362.364789	84.358135
362.800308	84.532789
363.235816	84.850646
363.671314	84.963009
364.106802	84.767741
364.542279	84.659644
364.977746	84.686200
365.413203	85.090522
365.848649	84.962673
366.284084	84.922041
366.719509	84.848485
367.154924	84.703176
367.590328	85.061030
368.025721	85.238938
368.461104	84.743522
368.896477	84.760728
369.331838	84.699550
369.767189	85.145795
370.202530	85.141343
370.637859	84.658691
371.073178	84.634960
371.508486	84.801473
371.943784	84.906157
372.379071	84.882193
372.814347	84.740260
373.249612	84.975413
373.684866	84.558245
374.120110	84.677278
374.555343	84.525267
374.990565	84.550856
375.425776	84.801532
375.860976	84.911088
376.296165	84.652132
376.731343	84.748700
377.166511	84.443293
377.601667	84.807060
378.036812	84.992210
378.471946	85.192557
378.907070	85.196714
379.342182	85.608155
379.777283	85.940748
380.212373	86.114958
380.647452	86.124319
381.082520	86.073985
381.517576	85.978973
381.952622	86.505400
382.387656	86.634557
382.822679	86.830319
383.257691	86.718683
383.692692	86.033806
384.127681	86.474463
384.562659	86.504273
384.997626	86.009877
385.432581	86.415126
385.867525	86.734432
386.302458	86.946884
386.737379	86.622472
387.172289	86.636688
387.607188	86.535207
388.042075	86.284121
388.476951	86.530647
388.911815	86.355537
389.346668	86.383589
389.781509	86.351351
390.216338	86.121417
390.651157	86.064538
391.085963	86.157739
391.520758	86.166807
391.955541	85.808941
392.390313	85.690320
392.825073	85.304210
393.259821	84.992062
393.694558	84.817409
394.129283	84.865629
394.563996	84.651279
394.998698	84.566157
395.433388	84.302350
395.868066	83.797888
396.302732	83.662855
396.737386	83.244998
397.172029	83.462405
397.606659	82.978377
398.041278	82.550281
398.475885	82.392576
398.910480	81.494349
399.345063	80.528326
399.779634	79.601662
400.214194	78.130363
400.648741	76.634152
401.083276	74.666910
401.517799	73.203428
401.952310	70.832903
402.386809	68.530473
402.821296	65.829178
403.255771	63.303363
403.690234	60.672510
404.124684	57.661498
404.559123	54.538727
404.993549	51.701674
405.427963	48.505974
405.862365	45.636223
406.296754	42.957158
406.731131	40.479161
407.165496	38.213654
407.599849	35.987605
408.034190	33.891347
408.468518	31.892968
408.902833	30.095319
409.337137	28.409407
409.771428	26.858926
410.205706	25.431595
410.639973	24.035254
411.074226	22.885849
411.508467	21.784337
411.942696	20.815261
412.376912	19.908703
412.811116	19.066058
413.245307	18.332971
413.679486	17.743320
414.113652	17.186284
414.547805	16.659247
414.981946	16.088979
415.416074	15.559067
415.850190	15.145189
416.284293	14.722110
416.718383	14.363548
417.152460	13.982901
417.586525	13.700999
418.020577	13.429579
418.454616	13.165315
418.888643	12.984013
419.322656	12.777835
419.756657	12.577177
420.190645	12.369620
420.624620	12.155450
421.058582	11.948044
421.492531	11.758078
421.926468	11.592067
422.360391	11.447562
422.794301	11.331179
423.228199	11.210633
423.662083	11.103715
424.095955	11.046765
424.529813	10.952138
424.963658	10.862785
425.397491	10.793802
425.831310	10.708319
426.265116	10.631612
426.698909	10.539212
427.132689	10.445735
427.566455	10.367536
428.000209	10.287627
428.433949	10.249011
428.867676	10.212685
429.301389	10.173869
429.735090	10.140148
430.168777	10.072657
430.602451	10.027986
431.036111	9.970356
431.469759	9.902783
431.903392	9.817010
432.337013	9.734462
432.770620	9.673952
433.204213	9.612484
433.637794	9.569545
434.071360	9.530897
434.504914	9.524667
434.938453	9.523506
435.371979	9.514726
435.805492	9.487959
436.238991	9.473043
436.672477	9.452414
437.105949	9.422978
437.539407	9.373234
437.972852	9.350147
438.406283	9.337665
438.839700	9.316749
439.273104	9.288263
439.706494	9.266439
440.139871	9.268291
440.573233	9.264406
441.006582	9.247622
441.439917	9.238818
441.873238	9.201653
442.306546	9.177892
442.739839	9.128350
443.173119	9.081141
443.606385	9.046004
444.039636	9.004080
444.472874	8.967544
444.906099	8.942139
445.339309	8.931092
445.772505	8.920900
446.205687	8.899625
446.638855	8.883315
447.072009	8.857748
447.505149	8.850384
447.938275	8.822555
448.371387	8.793447
448.804485	8.761017
449.237569	8.724983
449.670638	8.662041
450.103694	8.622285
450.536735	8.578769
450.969762	8.544025
451.402774	8.505913
451.835773	8.464666
452.268757	8.420446
452.701727	8.395443
453.134683	8.380826
453.567624	8.343832
454.000551	8.315968
454.433464	8.292570
454.866362	8.272842
455.299246	8.257163
455.732116	8.228935
456.164971	8.217249
456.597811	8.212992
457.030638	8.200826
457.463449	8.198195
457.896246	8.199688
458.329029	8.203358
458.761797	8.198980
459.194551	8.194847
459.627290	8.198929
460.060014	8.193091
460.492724	8.199302
460.925419	8.191459
461.358099	8.190947
461.790765	8.193827
462.223416	8.193731
462.656052	8.198104
463.088674	8.204353
463.521281	8.203861
463.953873	8.218132
464.386450	8.227096
464.819012	8.234886
465.251560	8.253984
465.684093	8.281849
466.116611	8.310047
466.549114	8.335908
466.981602	8.372042
467.414075	8.416912
467.846533	8.448645
468.278977	8.495879
468.711405	8.543645
469.143818	8.593065
469.576216	8.639416
470.008600	8.669353
470.440968	8.715616
470.873321	8.753952
471.305659	8.789231
471.737982	8.822238
472.170289	8.870507
472.602582	8.916285
473.034859	8.967534
473.467122	9.026708
473.899369	9.077856
474.331600	9.137056
474.763817	9.197136
475.196018	9.263503
475.628204	9.337378
476.060375	9.409916
476.492530	9.493118
476.924670	9.578277
477.356795	9.654648
477.788904	9.734205
478.220998	9.823095
478.653076	9.894004
479.085139	9.984835
479.517186	10.067952
479.949219	10.157458
480.381235	10.246931
480.813236	10.325562
481.245221	10.423196
481.677191	10.511938
482.109146	10.593566
482.541084	10.681451
482.973008	10.767377
483.404915	10.849544
483.836807	10.929316
484.268683	10.995335
484.700544	11.057100
485.132388	11.116500
485.564217	11.163455
485.996031	11.209645
486.427828	11.252887
486.859610	11.293428
487.291376	11.359037
487.723126	11.415504
488.154860	11.486607
488.586579	11.556980
489.018281	11.635687
489.449968	11.732634
489.881639	11.830684
490.313293	11.933374
490.744932	12.041326
491.176555	12.157100
491.608162	12.258370
492.039753	12.381390
492.471328	12.479499
492.902886	12.579353
493.334429	12.674868
493.765956	12.768719
494.197466	12.870136
494.628960	12.959023
495.060439	13.048310
495.491901	13.149166
495.923347	13.262488
496.354776	13.366613
496.786190	13.493683
497.217587	13.609393
497.648968	13.752457
498.080332	13.896090
498.511681	14.044415
498.943013	14.190699
499.374328	14.339960
499.805628	14.481912
500.236911	14.617186
500.668177	14.738137
501.099427	14.861234
501.530661	14.968352
501.961878	15.076886
502.393079	15.192570
502.824264	15.302563
503.255431	15.415056
503.686583	15.536910
504.117717	15.678952
504.548835	15.832290
504.979937	15.998076
505.411022	16.169933
505.842090	16.353422
506.273142	16.541845
506.704177	16.744362
507.135195	16.958773
507.566197	17.167105
507.997182	17.380037
508.428150	17.590699
508.859102	17.795278
509.290036	17.977174
509.720954	18.165038
510.151855	18.344758
510.582739	18.528427
511.013607	18.703479
511.444457	18.871696
511.875291	19.048724
512.306107	19.243882
512.736907	19.444683
513.167690	19.667721
513.598456	19.911143
514.029205	20.175139
514.459936	20.466704
514.890651	20.780874
515.321349	21.112254
515.752030	21.465570
516.182693	21.835463
516.613340	22.232714
517.043969	22.656268
517.474582	23.087650
517.905177	23.530452
518.335755	24.002023
518.766315	24.490075
519.196859	25.017626
519.627385	25.578295
520.057894	26.163142
520.488386	26.780225
520.918860	27.433650
521.349318	28.138244
521.779757	28.884678
522.210180	29.670473
522.640585	30.509038
523.070973	31.379933
523.501343	32.284442
523.931696	33.225004
524.362031	34.204657
524.792349	35.219201
525.222650	36.234384
525.652933	37.275305
526.083198	38.312361
526.513446	39.353409
526.943677	40.391854
527.373890	41.414499
527.804085	42.426417
528.234262	43.416734
528.664422	44.400834
529.094565	45.383566
529.524689	46.342666
529.954796	47.290557
530.384885	48.225592
530.814957	49.162047
531.245011	50.087591
531.675047	51.019375
532.105065	51.948865
532.535065	52.872224
532.965048	53.798215
533.395013	54.716487
533.824959	55.620604
534.254888	56.534260
534.684799	57.469491
535.114693	58.397120
535.544568	59.314339
535.974425	60.200062
536.404264	61.088909
536.834086	61.961466
537.263889	62.835407
537.693674	63.676681
538.123441	64.524110
538.553190	65.380036
538.982921	66.205984
539.412634	67.033117
539.842329	67.864310
540.272006	68.690051
540.701664	69.500685
541.131304	70.326083
541.560926	71.164025
541.990530	71.989077
542.420116	72.803052
542.849683	73.613986
543.279232	74.425823
543.708763	75.219004
544.138275	75.988839
544.567769	76.735623
544.997245	77.462396
545.426702	78.160460
545.856141	78.835577
546.285562	79.481084
546.714964	80.107205
547.144347	80.706899
547.573713	81.275930
548.003059	81.785938
548.432387	82.263983
548.861697	82.714389
549.290988	83.171714
549.720260	83.581866
550.149514	83.988146
550.578750	84.365009
551.007966	84.725262
551.437164	85.052099
551.866344	85.366616
552.295504	85.661434
552.724646	85.964871
553.153769	86.230377
553.582874	86.506615
554.011960	86.778056
554.441027	87.028663
554.870075	87.258411
555.299104	87.476560
555.728115	87.678115
556.157106	87.895692
556.586079	88.084263
557.015033	88.263910
557.443968	88.428796
557.872884	88.606550
558.301781	88.753531
558.730659	88.922135
559.159518	89.076406
559.588358	89.244514
560.017180	89.394679
560.445982	89.542374
560.874765	89.701062
561.303528	89.877063
561.732273	90.054082
562.160999	90.236957
562.589705	90.407142
563.018393	90.594021
563.447061	90.789564
563.875710	90.966247
564.304340	91.151578
564.732950	91.330253
565.161542	91.520901
565.590114	91.729936
566.018666	91.905157
566.447200	92.082290
566.875714	92.245393
567.304208	92.414676
567.732684	92.550956
568.161140	92.693485
568.589576	92.811599
569.017993	92.919803
569.446391	92.987102
569.874769	93.048952
570.303128	93.081258
570.731467	93.114640
571.159787	93.137072
571.588087	93.163657
572.016368	93.146425
572.444629	93.112614
572.872870	93.070822
573.301092	93.020408
573.729294	92.968692
574.157476	92.906138
574.585639	92.827936
575.013782	92.759509
575.441906	92.688161
575.870009	92.612192
576.298093	92.530367
576.726157	92.456353
577.154202	92.387706
577.582226	92.321765
578.010231	92.269333
578.438216	92.224757
578.866181	92.174091
579.294126	92.160755
579.722051	92.175388
580.149957	92.197676
580.577842	92.219036
581.005707	92.270616
581.433553	92.321015
581.861378	92.419681
582.289184	92.525090
582.716969	92.643973
583.144734	92.778239
583.572479	92.945481
584.000205	93.112210
584.427910	93.296277
584.855594	93.464380
585.283259	93.648847
585.710904	93.839814
586.138528	94.027650
586.566132	94.197014
586.993716	94.372448
587.421280	94.526488
587.848823	94.675174
588.276346	94.795212
588.703849	94.900453
589.131332	94.991815
589.558794	95.057561
589.986236	95.069169
590.413657	95.056395
590.841058	95.017988
591.268438	94.927414
591.695799	94.811047
592.123138	94.665089
592.550458	94.470568
592.977756	94.239562
593.405034	93.958840
593.832292	93.653004
594.259529	93.311645
594.686746	92.940967
595.113942	92.535690
595.541117	92.092373
595.968272	91.635288
596.395406	91.172214
596.822519	90.664387
597.249612	90.137096
597.676684	89.579863
598.103735	89.020420
598.530766	88.426591
598.957775	87.840520
599.384764	87.235242
599.811733	86.648905
600.238680	86.035217
600.665606	85.427970
601.092512	84.819810
601.519397	84.207799
601.946261	83.615949
602.373104	83.021810
602.799926	82.446378
603.226727	81.882542
603.653507	81.336066
604.080266	80.798096
604.507004	80.290486
604.933721	79.795069
605.360417	79.325173
605.787092	78.856298
606.213746	78.389907
606.640379	77.958116
607.066991	77.538836
607.493581	77.132206
607.920150	76.742569
608.346699	76.343732
608.773226	75.972286
609.199731	75.601927
609.626216	75.207328
610.052679	74.820869
610.479121	74.443477
610.905542	74.041799
611.331941	73.628490
611.758319	73.231319
612.184676	72.809745
612.611011	72.360927
613.037325	71.888222
613.463617	71.410217
613.889888	70.887285
614.316138	70.331116
614.742366	69.760805
615.168573	69.147451
615.594758	68.516090
616.020921	67.860022
616.447063	67.181799
616.873184	66.475174
617.299283	65.747025
617.725360	64.984318
618.151416	64.192358
618.577450	63.373436
619.003462	62.537575
619.429453	61.691602
619.855422	60.829566
620.281369	59.952395
620.707295	59.075737
621.133199	58.195066
621.559081	57.321155
621.984941	56.442251
622.410779	55.582440
622.836596	54.735920
623.262391	53.925923
623.688163	53.136145
624.113914	52.397214
624.539644	51.702600
624.965351	51.049863
625.391036	50.442886
625.816699	49.901788
626.242340	49.410978
626.667960	48.975409
627.093557	48.608978
627.519132	48.300295
627.944685	48.050315
628.370216	47.865105
628.795725	47.731755
629.221212	47.635422
629.646677	47.594464
630.072119	47.584588
630.497540	47.613647
630.922938	47.677049
631.348314	47.762118
631.773668	47.867390
632.198999	48.004033
632.624308	48.161207
633.049595	48.325980
633.474860	48.504572
633.900102	48.684510
634.325322	48.863218
634.750520	49.044912
635.175695	49.221534
635.600848	49.391043
636.025978	49.560742
636.451086	49.707576
636.876171	49.847442
637.301234	49.971744
637.726275	50.069891
638.151293	50.136324
638.576288	50.186876
639.001261	50.210061
639.426211	50.207702
639.851139	50.172640
640.276044	50.126479
640.700927	50.057086
641.125787	49.964714
641.550624	49.859087
641.975438	49.739336
642.400230	49.619647
642.824999	49.485144
643.249745	49.362568
643.674469	49.243169
644.099169	49.147584
644.523847	49.066147
644.948502	49.010430
645.373135	48.984980
645.797744	48.980399
646.222330	49.013966
646.646894	49.089786
647.071435	49.199850
647.495953	49.365732
647.920447	49.572752
648.344919	49.828765
648.769368	50.139018
649.193794	50.493490
649.618197	50.901117
650.042576	51.367716
650.466933	51.869495
650.891267	52.422544
651.315577	53.028511
651.739864	53.668189
652.164129	54.346868
652.588370	55.050235
653.012587	55.790578
653.436782	56.537258
653.860953	57.313314
654.285102	58.099155
654.709226	58.882822
655.133328	59.669443
655.557406	60.452399
655.981461	61.228225
656.405493	61.998078
656.829501	62.760337
657.253486	63.492949
657.677448	64.204360
658.101386	64.889408
658.525301	65.540515
658.949192	66.164880
659.373060	66.748171
659.796904	67.289371
660.220725	67.792547
660.644522	68.257827
661.068296	68.663133
661.492046	69.031861
661.915772	69.360000
662.339475	69.655365
662.763154	69.900530
663.186810	70.087351
663.610442	70.234010
664.034050	70.345348
664.457635	70.414718
664.881196	70.438705
665.304733	70.428212
665.728247	70.409355
666.151736	70.345466
666.575202	70.272604
666.998644	70.166075
667.422062	70.049544
667.845457	69.913266
668.268827	69.768434
668.692174	69.615695
669.115496	69.449564
669.538795	69.277757
669.962070	69.101848
670.385321	68.909403
670.808547	68.720950
671.231750	68.536714
671.654929	68.345433
672.078084	68.153251
672.501214	67.967769
672.924321	67.772604
673.347404	67.585075
673.770462	67.379245
674.193496	67.205602
674.616506	67.041762
675.039492	66.865128
675.462454	66.689670
675.885391	66.525031
676.308305	66.372349
676.731194	66.238888
677.154058	66.104044
677.576899	65.989558
677.999715	65.893648
678.422507	65.795637
678.845274	65.693858
679.268017	65.616383
679.690736	65.538443
680.113430	65.470319
680.536100	65.402313
680.958746	65.343075
681.381367	65.284117
681.803963	65.217034
682.226535	65.173812
682.649083	65.131292
683.071605	65.076308
683.494104	65.045897
683.916578	65.019002
684.339027	64.992670
684.761451	64.967948
685.183851	64.945322
685.606227	64.931817
686.028577	64.939322
686.450903	64.952211
686.873204	64.975439
687.295481	64.992813
687.717733	65.005120
688.139959	65.019784
688.562162	65.038658
688.984339	65.056445
689.406492	65.079812
689.828619	65.095850
690.250722	65.119028
690.672800	65.131514
691.094853	65.140246
691.516881	65.151694
691.938884	65.170672
692.360863	65.183061
692.782816	65.201897
693.204744	65.236726
693.626647	65.270457
694.048526	65.302944
694.470379	65.347988
694.892207	65.408381
695.314010	65.464052
695.735788	65.523985
696.157540	65.608079
696.579268	65.698942
697.000970	65.802136
697.422648	65.916245
697.844300	66.058908
698.265926	66.227555
698.687528	66.399206
699.109104	66.587704
699.530655	66.783679
699.952181	67.004068
700.373681	67.238305
700.795156	67.496057
701.216606	67.769259
701.638030	68.059309
702.059429	68.373639
702.480803	68.686898
702.902151	69.019566
703.323473	69.365109
703.744770	69.718636
704.166042	70.067285
704.587288	70.434485
705.008509	70.785243
705.429704	71.150376
705.850873	71.514832
706.272017	71.858588
706.693135	72.198425
707.114228	72.539974
707.535295	72.866094
707.956336	73.188919
708.377352	73.501951
708.798342	73.808628
709.219306	74.096927
709.640245	74.366916
710.061157	74.621726
710.482044	74.860006
710.902905	75.068852
711.323741	75.259083
711.744550	75.445097
712.165334	75.598331
712.586092	75.743152
713.006823	75.881724
713.427529	76.017180
713.848209	76.121799
714.268863	76.226233
714.689492	76.312456
715.110094	76.397116
715.530670	76.483008
715.951220	76.558531
716.371744	76.627141
716.792242	76.699651
717.212714	76.778973
717.633159	76.852803
718.053579	76.957542
718.473973	77.058207
718.894340	77.180660
719.314681	77.293244
719.734996	77.419788
720.155285	77.550455
720.575547	77.692551
720.995784	77.830663
721.415994	77.962628
721.836177	78.098165
722.256335	78.219551
722.676466	78.347462
723.096570	78.465361
723.516649	78.576554
723.936701	78.681890
724.356726	78.764872
724.776725	78.824754
725.196698	78.875262
725.616644	78.890505
726.036564	78.871584
726.456457	78.809350
726.876324	78.748472
727.296164	78.649292
727.715977	78.527335
728.135764	78.375800
728.555525	78.195254
728.975258	77.987498
729.394966	77.754827
729.814646	77.496754
730.234300	77.228137
730.653927	76.931439
731.073527	76.615125
731.493101	76.287708
731.912648	75.919534
732.332168	75.567944
732.751661	75.206207
733.171128	74.833841
733.590568	74.460756
734.009980	74.080531
734.429366	73.712753
734.848726	73.348670
735.268058	72.994451
735.687363	72.638752
736.106641	72.301508
736.525893	71.985537
736.945117	71.685375
737.364314	71.403936
737.783485	71.139049
738.202628	70.902679
738.621744	70.693356
739.040834	70.511421
739.459896	70.372423
739.878931	70.240807
740.297939	70.147088
740.716919	70.090168
741.135873	70.063349
741.554799	70.067103
741.973698	70.109845
742.392570	70.193648
742.811415	70.304385
743.230232	70.446246
743.649022	70.635513
744.067785	70.845368
744.486521	71.062835
744.905229	71.314814
745.323909	71.582760
745.742563	71.855218
746.161189	72.136099
746.579787	72.425788
746.998358	72.726614
747.416902	73.030014
747.835418	73.323657
748.253907	73.620418
748.672368	73.923439
749.090802	74.202655
749.509208	74.455558
749.927586	74.699561
750.345937	74.926170
750.764261	75.144356
751.182556	75.345329
751.600824	75.539051
752.019065	75.727836
752.437277	75.893839
752.855462	76.046389
753.273620	76.195946
753.691749	76.323811
754.109851	76.443767
754.527925	76.560262
754.945971	76.653010
755.363989	76.737429
755.781980	76.823782
756.199943	76.896811
