Time1=100ms:Average1=5:Objective=10X:Aperture=1: (11/21/2018 11:58:51 AM)
11/21/2018 11:58:51 AM
Reflectance
10X
Ap#: 1
Avg1: 5.000000
Avg2: 0.000000
Int.Time1:100.000000

350.166136	91.915591
350.601937	92.773243
351.037728	93.279105
351.473509	93.561104
351.909281	92.994213
352.345042	93.129849
352.780794	93.025159
353.216536	93.210822
353.652267	93.524297
354.087989	93.184837
354.523701	93.121045
354.959403	92.914588
355.395095	92.954151
355.830777	92.396290
356.266449	92.649311
356.702110	92.733354
357.137762	93.441287
357.573404	93.430358
358.009035	93.201597
358.444656	93.898932
358.880268	94.650206
359.315869	94.477074
359.751459	94.803328
360.187040	94.490216
360.622610	94.594037
361.058170	95.124214
361.493720	95.260712
361.929260	95.577599
362.364789	95.003085
362.800308	95.069844
363.235816	95.056133
363.671314	95.403242
364.106802	95.524074
364.542279	95.746643
364.977746	95.885750
365.413203	96.268348
365.848649	96.343353
366.284084	96.496261
366.719509	96.175144
367.154924	96.170038
367.590328	95.956597
368.025721	95.864046
368.461104	96.042243
368.896477	95.924637
369.331838	96.007371
369.767189	95.263211
370.202530	95.333401
370.637859	94.480388
371.073178	95.047098
371.508486	94.970594
371.943784	94.711197
372.379071	94.049067
372.814347	94.355741
373.249612	94.443314
373.684866	94.263206
374.120110	94.323586
374.555343	94.183106
374.990565	94.070271
375.425776	93.984509
375.860976	94.417574
376.296165	93.836237
376.731343	94.047500
377.166511	93.728643
377.601667	94.004604
378.036812	93.762535
378.471946	93.385953
378.907070	93.698903
379.342182	93.799761
379.777283	93.511792
380.212373	93.247940
380.647452	93.136867
381.082520	93.115369
381.517576	92.888144
381.952622	93.255860
382.387656	93.654594
382.822679	93.910097
383.257691	94.404964
383.692692	94.589478
384.127681	94.695226
384.562659	93.692888
384.997626	93.762396
385.432581	93.227524
385.867525	93.456656
386.302458	93.507002
386.737379	93.495298
387.172289	93.716970
387.607188	93.094406
388.042075	92.966926
388.476951	93.041363
388.911815	92.764054
389.346668	92.563029
389.781509	93.033708
390.216338	92.869021
390.651157	92.707927
391.085963	92.369557
391.520758	92.288119
391.955541	92.509070
392.390313	91.954470
392.825073	91.352140
393.259821	91.691946
393.694558	91.886310
394.129283	91.484994
394.563996	91.645396
394.998698	92.292510
395.433388	91.823529
395.868066	91.243791
396.302732	91.366696
396.737386	91.193928
397.172029	90.876444
397.606659	90.537926
398.041278	90.662041
398.475885	90.427874
398.910480	90.199724
399.345063	89.447830
399.779634	88.262274
400.214194	86.394808
400.648741	84.781524
401.083276	83.227469
401.517799	81.631686
401.952310	79.313229
402.386809	77.369462
402.821296	74.394919
403.255771	71.820569
403.690234	68.949162
404.124684	65.689490
404.559123	62.067572
404.993549	58.892681
405.427963	55.280146
405.862365	51.969924
406.296754	49.163452
406.731131	46.176994
407.165496	43.692602
407.599849	41.203835
408.034190	38.866958
408.468518	36.587978
408.902833	34.369411
409.337137	32.449335
409.771428	30.624539
410.205706	28.925323
410.639973	27.457469
411.074226	26.262469
411.508467	25.049287
411.942696	23.927028
412.376912	23.038889
412.811116	22.316339
413.245307	21.677462
413.679486	21.170480
414.113652	20.614934
414.547805	20.057277
414.981946	19.461771
415.416074	18.962607
415.850190	18.550454
416.284293	18.268425
416.718383	17.908878
417.152460	17.573716
417.586525	17.386216
418.020577	17.230200
418.454616	17.065306
418.888643	16.914081
419.322656	16.782545
419.756657	16.603227
420.190645	16.472295
420.624620	16.292665
421.058582	16.166125
421.492531	16.092696
421.926468	16.008537
422.360391	16.034144
422.794301	16.064381
423.228199	16.110239
423.662083	16.172190
424.095955	16.263420
424.529813	16.309920
424.963658	16.425131
425.397491	16.524265
425.831310	16.575554
426.265116	16.599008
426.698909	16.641466
427.132689	16.702693
427.566455	16.785996
428.000209	16.905336
428.433949	17.064154
428.867676	17.236751
429.301389	17.361775
429.735090	17.491366
430.168777	17.607978
430.602451	17.730745
431.036111	17.777603
431.469759	17.808331
431.903392	17.854687
432.337013	17.928451
432.770620	17.979029
433.204213	18.103202
433.637794	18.208584
434.071360	18.365780
434.504914	18.537663
434.938453	18.717833
435.371979	18.905919
435.805492	19.083872
436.238991	19.253555
436.672477	19.447597
437.105949	19.621159
437.539407	19.725056
437.972852	19.866315
438.406283	19.984426
438.839700	20.130466
439.273104	20.290388
439.706494	20.463961
440.139871	20.665225
440.573233	20.843060
441.006582	21.027780
441.439917	21.202342
441.873238	21.333384
442.306546	21.444866
442.739839	21.525742
443.173119	21.601985
443.606385	21.669161
444.039636	21.735192
444.472874	21.838592
444.906099	21.998076
445.339309	22.144723
445.772505	22.313523
446.205687	22.502342
446.638855	22.683860
447.072009	22.903693
447.505149	23.107396
447.938275	23.317212
448.371387	23.524043
448.804485	23.705037
449.237569	23.849408
449.670638	23.973293
450.103694	24.059735
450.536735	24.156405
450.969762	24.274388
451.402774	24.370965
451.835773	24.497053
452.268757	24.650140
452.701727	24.819094
453.134683	25.002697
453.567624	25.152974
454.000551	25.323923
454.433464	25.467595
454.866362	25.595356
455.299246	25.718932
455.732116	25.807272
456.164971	25.915669
456.597811	26.007108
457.030638	26.113321
457.463449	26.211571
457.896246	26.298114
458.329029	26.381537
458.761797	26.501164
459.194551	26.573373
459.627290	26.675565
460.060014	26.774010
460.492724	26.863708
460.925419	26.955835
461.358099	27.045222
461.790765	27.123817
462.223416	27.195186
462.656052	27.248486
463.088674	27.301358
463.521281	27.329648
463.953873	27.338032
464.386450	27.350158
464.819012	27.386484
465.251560	27.389768
465.684093	27.387191
466.116611	27.399276
466.549114	27.416043
466.981602	27.444758
467.414075	27.453737
467.846533	27.456709
468.278977	27.444492
468.711405	27.419230
469.143818	27.410889
469.576216	27.374775
470.008600	27.329232
470.440968	27.242607
470.873321	27.161722
471.305659	27.062892
471.737982	26.956460
472.170289	26.810368
472.602582	26.696692
473.034859	26.571680
473.467122	26.453200
473.899369	26.334149
474.331600	26.233305
474.763817	26.141801
475.196018	26.071647
475.628204	26.025721
476.060375	26.000378
476.492530	25.977797
476.924670	25.958786
477.356795	25.941039
477.788904	25.908748
478.220998	25.869295
478.653076	25.855164
479.085139	25.836227
479.517186	25.813307
479.949219	25.785086
480.381235	25.780447
480.813236	25.815326
481.245221	25.873211
481.677191	25.978796
482.109146	26.101229
482.541084	26.224577
482.973008	26.359443
483.404915	26.505678
483.836807	26.671735
484.268683	26.812957
484.700544	26.955955
485.132388	27.104024
485.564217	27.252766
485.996031	27.400828
486.427828	27.547593
486.859610	27.702741
487.291376	27.870242
487.723126	28.055617
488.154860	28.281110
488.586579	28.530483
489.018281	28.801292
489.449968	29.133918
489.881639	29.517070
490.313293	29.955549
490.744932	30.421784
491.176555	30.927380
491.608162	31.425570
492.039753	31.902728
492.471328	32.365171
492.902886	32.778964
493.334429	33.168769
493.765956	33.525167
494.197466	33.860352
494.628960	34.193980
495.060439	34.526014
495.491901	34.892004
495.923347	35.295716
496.354776	35.723314
496.786190	36.201593
497.217587	36.696628
497.648968	37.227230
498.080332	37.764740
498.511681	38.283938
498.943013	38.780813
499.374328	39.242840
499.805628	39.672099
500.236911	40.063401
500.668177	40.393393
501.099427	40.695982
501.530661	40.945804
501.961878	41.147996
502.393079	41.327618
502.824264	41.471832
503.255431	41.577348
503.686583	41.667949
504.117717	41.762499
504.548835	41.885227
504.979937	42.037875
505.411022	42.212382
505.842090	42.413684
506.273142	42.657389
506.704177	42.933576
507.135195	43.208214
507.566197	43.464504
507.997182	43.692385
508.428150	43.859367
508.859102	43.957442
509.290036	43.994381
509.720954	43.989280
510.151855	43.913042
510.582739	43.814159
511.013607	43.707932
511.444457	43.613456
511.875291	43.553977
512.306107	43.550533
512.736907	43.595773
513.167690	43.682695
513.598456	43.804626
514.029205	44.001592
514.459936	44.194942
514.890651	44.389563
515.321349	44.588967
515.752030	44.758267
516.182693	44.894185
516.613340	45.007880
517.043969	45.081169
517.474582	45.118811
517.905177	45.104873
518.335755	45.064146
518.766315	45.000854
519.196859	44.920168
519.627385	44.836916
520.057894	44.763100
520.488386	44.714760
520.918860	44.703449
521.349318	44.754164
521.779757	44.879898
522.210180	45.094015
522.640585	45.383220
523.070973	45.741017
523.501343	46.171095
523.931696	46.660263
524.362031	47.165757
524.792349	47.696723
525.222650	48.221728
525.652933	48.710459
526.083198	49.151363
526.513446	49.555409
526.943677	49.933795
527.373890	50.264372
527.804085	50.577132
528.234262	50.874964
528.664422	51.196376
529.094565	51.563052
529.524689	51.967625
529.954796	52.429284
530.384885	52.961629
530.814957	53.553115
531.245011	54.218602
531.675047	54.938194
532.105065	55.704605
532.535065	56.506656
532.965048	57.305274
533.395013	58.067834
533.824959	58.804071
534.254888	59.502791
534.684799	60.109947
535.114693	60.655268
535.544568	61.119286
535.974425	61.513719
536.404264	61.824069
536.834086	62.075919
537.263889	62.270887
537.693674	62.432264
538.123441	62.570030
538.553190	62.700112
538.982921	62.856034
539.412634	63.046676
539.842329	63.302112
540.272006	63.586154
540.701664	63.911657
541.131304	64.298904
541.560926	64.721624
541.990530	65.171771
542.420116	65.646595
542.849683	66.127654
543.279232	66.615077
543.708763	67.056084
544.138275	67.458685
544.567769	67.780721
544.997245	68.041626
545.426702	68.241191
545.856141	68.375159
546.285562	68.472730
546.714964	68.546358
547.144347	68.594520
547.573713	68.648060
548.003059	68.733621
548.432387	68.852659
548.861697	69.020966
549.290988	69.253764
549.720260	69.556303
550.149514	69.918572
550.578750	70.352916
551.007966	70.830962
551.437164	71.359214
551.866344	71.896629
552.295504	72.434516
552.724646	72.965088
553.153769	73.434278
553.582874	73.859681
554.011960	74.208749
554.441027	74.467478
554.870075	74.650636
555.299104	74.739971
555.728115	74.722346
556.157106	74.651653
556.586079	74.505586
557.015033	74.321280
557.443968	74.124701
557.872884	73.918803
558.301781	73.728630
558.730659	73.584373
559.159518	73.484249
559.588358	73.428417
560.017180	73.437458
560.445982	73.515052
560.874765	73.644721
561.303528	73.826901
561.732273	74.055929
562.160999	74.314258
562.589705	74.591581
563.018393	74.898200
563.447061	75.198929
563.875710	75.495827
564.304340	75.795397
564.732950	76.063202
565.161542	76.317447
565.590114	76.557061
566.018666	76.767025
566.447200	76.960521
566.875714	77.132872
567.304208	77.308820
567.732684	77.479628
568.161140	77.658209
568.589576	77.862941
569.017993	78.090257
569.446391	78.337765
569.874769	78.637222
570.303128	78.977535
570.731467	79.359279
571.159787	79.799470
571.588087	80.292094
572.016368	80.806736
572.444629	81.345093
572.872870	81.884891
573.301092	82.419315
573.729294	82.920801
574.157476	83.371135
574.585639	83.761096
575.013782	84.064620
575.441906	84.271175
575.870009	84.375578
576.298093	84.363806
576.726157	84.263915
577.154202	84.063931
577.582226	83.808723
578.010231	83.485104
578.438216	83.149401
578.866181	82.771241
579.294126	82.423370
579.722051	82.094010
580.149957	81.812524
580.577842	81.559860
581.005707	81.356279
581.433553	81.190538
581.861378	81.070812
582.289184	81.004463
582.716969	80.968208
583.144734	80.932861
583.572479	80.928493
584.000205	80.938189
584.427910	80.951119
584.855594	80.971451
585.283259	80.989403
585.710904	81.022835
586.138528	81.067174
586.566132	81.110207
586.993716	81.152192
587.421280	81.211160
587.848823	81.278184
588.276346	81.361980
588.703849	81.439915
589.131332	81.519899
589.558794	81.607518
589.986236	81.688611
590.413657	81.779001
590.841058	81.858070
591.268438	81.952976
591.695799	82.047162
592.123138	82.169705
592.550458	82.310088
592.977756	82.484178
593.405034	82.682013
593.832292	82.926764
594.259529	83.214682
594.686746	83.535724
595.113942	83.886523
595.541117	84.236187
595.968272	84.583299
596.395406	84.952261
596.822519	85.286737
597.249612	85.581873
597.676684	85.828542
598.103735	85.986728
598.530766	86.084526
598.957775	86.099332
599.384764	86.037350
599.811733	85.892721
600.238680	85.714395
600.665606	85.466106
601.092512	85.183172
601.519397	84.879097
601.946261	84.574880
602.373104	84.259736
602.799926	83.964761
603.226727	83.696555
603.653507	83.451500
604.080266	83.226644
604.507004	83.026042
604.933721	82.837761
605.360417	82.657416
605.787092	82.466937
606.213746	82.259826
606.640379	82.029552
607.066991	81.779172
607.493581	81.493582
607.920150	81.207902
608.346699	80.899903
608.773226	80.605838
609.199731	80.319346
609.626216	80.030134
610.052679	79.767264
610.479121	79.524537
610.905542	79.323011
611.331941	79.176813
611.758319	79.056166
612.184676	78.987917
612.611011	78.963202
613.037325	78.972850
613.463617	78.986259
613.889888	79.022964
614.316138	79.065785
614.742366	79.118412
615.168573	79.174452
615.594758	79.245693
616.020921	79.321287
616.447063	79.396130
616.873184	79.484729
617.299283	79.582501
617.725360	79.695662
618.151416	79.834339
618.577450	80.006138
619.003462	80.192997
619.429453	80.425673
619.855422	80.688416
620.281369	80.973825
620.707295	81.279723
621.133199	81.581214
621.559081	81.867247
621.984941	82.121695
622.410779	82.344976
622.836596	82.518590
623.262391	82.649345
623.688163	82.719686
624.113914	82.729820
624.539644	82.665583
624.965351	82.540033
625.391036	82.335130
625.816699	82.079104
626.242340	81.787575
626.667960	81.465603
627.093557	81.120418
627.519132	80.781110
627.944685	80.411389
628.370216	80.050051
628.795725	79.683856
629.221212	79.308105
629.646677	78.945051
630.072119	78.570240
630.497540	78.186925
630.922938	77.796405
631.348314	77.377540
631.773668	76.951983
632.198999	76.500676
632.624308	76.038065
633.049595	75.574755
633.474860	75.106464
633.900102	74.642918
634.325322	74.189857
634.750520	73.781660
635.175695	73.412252
635.600848	73.102370
636.025978	72.850133
636.451086	72.668168
636.876171	72.564580
637.301234	72.506020
637.726275	72.528337
638.151293	72.623184
638.576288	72.761696
639.001261	72.959701
639.426211	73.202252
639.851139	73.457609
640.276044	73.737792
640.700927	74.011706
641.125787	74.294436
641.550624	74.571521
641.975438	74.836983
642.400230	75.091389
642.824999	75.299571
643.249745	75.481237
643.674469	75.646306
644.099169	75.788908
644.523847	75.911582
644.948502	76.007256
645.373135	76.098913
645.797744	76.156595
646.222330	76.202311
646.646894	76.231067
647.071435	76.253545
647.495953	76.265757
647.920447	76.239883
648.344919	76.203717
648.769368	76.130146
649.193794	76.038006
649.618197	75.899158
650.042576	75.732876
650.466933	75.549066
650.891267	75.322569
651.315577	75.068190
651.739864	74.801825
652.164129	74.500091
652.588370	74.178842
653.012587	73.864005
653.436782	73.544367
653.860953	73.229510
654.285102	72.919631
654.709226	72.616180
655.133328	72.343269
655.557406	72.069069
655.981461	71.835571
656.405493	71.624957
656.829501	71.427891
657.253486	71.244047
657.677448	71.068695
658.101386	70.894680
658.525301	70.717558
658.949192	70.556038
659.373060	70.373217
659.796904	70.174025
660.220725	69.962797
660.644522	69.728359
661.068296	69.491985
661.492046	69.244049
661.915772	68.990752
662.339475	68.733898
662.763154	68.484061
663.186810	68.241740
663.610442	68.026732
664.034050	67.831649
664.457635	67.673237
664.881196	67.560161
665.304733	67.498698
665.728247	67.472147
666.151736	67.502060
666.575202	67.565270
666.998644	67.686249
667.422062	67.839267
667.845457	68.018928
668.268827	68.210063
668.692174	68.435859
669.115496	68.660969
669.538795	68.874712
669.962070	69.074613
670.385321	69.254364
670.808547	69.411027
671.231750	69.557668
671.654929	69.679455
672.078084	69.757451
672.501214	69.804699
672.924321	69.827545
673.347404	69.822461
673.770462	69.810125
674.193496	69.779576
674.616506	69.732847
675.039492	69.686304
675.462454	69.645048
675.885391	69.610335
676.308305	69.584556
676.731194	69.576671
677.154058	69.602383
677.576899	69.626217
677.999715	69.680635
678.422507	69.756107
678.845274	69.862289
679.268017	69.975278
679.690736	70.113177
680.113430	70.250589
680.536100	70.408076
680.958746	70.574783
681.381367	70.747494
681.803963	70.906313
682.226535	71.069491
682.649083	71.250737
683.071605	71.430353
683.494104	71.617199
683.916578	71.805327
684.339027	71.986660
684.761451	72.165710
685.183851	72.337639
685.606227	72.511300
686.028577	72.679169
686.450903	72.830950
686.873204	72.958159
687.295481	73.068736
687.717733	73.146994
688.139959	73.190684
688.562162	73.185964
688.984339	73.137308
689.406492	73.032525
689.828619	72.877931
690.250722	72.657484
690.672800	72.410057
691.094853	72.100807
691.516881	71.737958
691.938884	71.327853
692.360863	70.885849
692.782816	70.420786
693.204744	69.942539
693.626647	69.448080
694.048526	68.960672
694.470379	68.484701
694.892207	68.039035
695.314010	67.630849
695.735788	67.253571
696.157540	66.932773
696.579268	66.668598
697.000970	66.471367
697.422648	66.343955
697.844300	66.281268
698.265926	66.301715
698.687528	66.385070
699.109104	66.544211
699.530655	66.755962
699.952181	67.040167
700.373681	67.371008
700.795156	67.763974
701.216606	68.189779
701.638030	68.655867
702.059429	69.144570
702.480803	69.655792
702.902151	70.154488
703.323473	70.655116
703.744770	71.126198
704.166042	71.581572
704.587288	71.994053
705.008509	72.383321
705.429704	72.729758
705.850873	73.029889
706.272017	73.289261
706.693135	73.516487
707.114228	73.696803
707.535295	73.835314
707.956336	73.932631
708.377352	73.991378
708.798342	74.013152
709.219306	74.012315
709.640245	73.980308
710.061157	73.920208
710.482044	73.829833
710.902905	73.719962
711.323741	73.598818
711.744550	73.470471
712.165334	73.335954
712.586092	73.210690
713.006823	73.069510
713.427529	72.932461
713.848209	72.794366
714.268863	72.677711
714.689492	72.560963
715.110094	72.467415
715.530670	72.396647
715.951220	72.344806
716.371744	72.304772
716.792242	72.300516
717.212714	72.319991
717.633159	72.381270
718.053579	72.478320
718.473973	72.595301
718.894340	72.747750
719.314681	72.906727
719.734996	73.078900
720.155285	73.251071
720.575547	73.431744
720.995784	73.610139
721.415994	73.781547
721.836177	73.939847
722.256335	74.079369
722.676466	74.181230
723.096570	74.249849
723.516649	74.277614
723.936701	74.268481
724.356726	74.200501
724.776725	74.090572
725.196698	73.926831
725.616644	73.711983
726.036564	73.459967
726.456457	73.168258
726.876324	72.842971
727.296164	72.483907
727.715977	72.111218
728.135764	71.725749
728.555525	71.326677
728.975258	70.942038
729.394966	70.572944
729.814646	70.202758
730.234300	69.851985
730.653927	69.525139
731.073527	69.218081
731.493101	68.944127
731.912648	68.702380
732.332168	68.506232
732.751661	68.351817
733.171128	68.250149
733.590568	68.194686
734.009980	68.195150
734.429366	68.229214
734.848726	68.306759
735.268058	68.412047
735.687363	68.562092
736.106641	68.747371
736.525893	68.955550
736.945117	69.190268
737.364314	69.436668
737.783485	69.694494
738.202628	69.969800
738.621744	70.259730
739.040834	70.548866
739.459896	70.834920
739.878931	71.114642
740.297939	71.383376
740.716919	71.644648
741.135873	71.882575
741.554799	72.086994
741.973698	72.268485
742.392570	72.420428
742.811415	72.566311
743.230232	72.677592
743.649022	72.767249
744.067785	72.812412
744.486521	72.844348
744.905229	72.851329
745.323909	72.836819
745.742563	72.804992
746.161189	72.757806
746.579787	72.699622
746.998358	72.626746
747.416902	72.547262
747.835418	72.463779
748.253907	72.396716
748.672368	72.344075
749.090802	72.296638
749.509208	72.271660
749.927586	72.268794
750.345937	72.284451
750.764261	72.336133
751.182556	72.391517
751.600824	72.479823
752.019065	72.587863
752.437277	72.726124
752.855462	72.883828
753.273620	73.058895
753.691749	73.238190
754.109851	73.433796
