Time1=100ms:Average1=5:Objective=10X:Aperture=1: (11/21/2018 11:35:56 AM)
11/21/2018 11:35:56 AM
Reflectance
10X
Ap#: 1
Avg1: 5.000000
Avg2: 0.000000
Int.Time1:100.000000

350.166136	91.366352
350.601937	92.016723
351.037728	92.313167
351.473509	92.792884
351.909281	92.811453
352.345042	92.874643
352.780794	93.301289
353.216536	93.067892
353.652267	93.084399
354.087989	92.755696
354.523701	92.814860
354.959403	92.761885
355.395095	93.046053
355.830777	92.987463
356.266449	92.822869
356.702110	92.398905
357.137762	92.504328
357.573404	92.825664
358.009035	92.658954
358.444656	92.923172
358.880268	93.055556
359.315869	93.219990
359.751459	92.656876
360.187040	93.069001
360.622610	92.819561
361.058170	93.217194
361.493720	93.422819
361.929260	93.624716
362.364789	93.306601
362.800308	93.159408
363.235816	93.418478
363.671314	93.402422
364.106802	93.470896
364.542279	93.676335
364.977746	93.575995
365.413203	93.870167
365.848649	93.833282
366.284084	93.607212
366.719509	93.939705
367.154924	94.044563
367.590328	93.673866
368.025721	93.294431
368.461104	93.150825
368.896477	93.170182
369.331838	92.741605
369.767189	91.895730
370.202530	92.341468
370.637859	92.236150
371.073178	91.988251
371.508486	92.273373
371.943784	92.203837
372.379071	92.092457
372.814347	92.047188
373.249612	92.723387
373.684866	92.233108
374.120110	92.998078
374.555343	92.574608
374.990565	92.811839
375.425776	92.626496
375.860976	93.037082
376.296165	92.698157
376.731343	92.363964
377.166511	92.432161
377.601667	91.772595
378.036812	91.766947
378.471946	91.667499
378.907070	91.674975
379.342182	91.908838
379.777283	91.909643
380.212373	91.669149
380.647452	91.960047
381.082520	92.206638
381.517576	92.276583
381.952622	93.077076
382.387656	93.524893
382.822679	93.820393
383.257691	94.995496
383.692692	95.107613
384.127681	95.185667
384.562659	94.904648
384.997626	94.932566
385.432581	94.686514
385.867525	94.588212
386.302458	94.564685
386.737379	94.112461
387.172289	93.922490
387.607188	93.162393
388.042075	93.550584
388.476951	93.537713
388.911815	93.814433
389.346668	93.789545
389.781509	94.313630
390.216338	94.639538
390.651157	94.181960
391.085963	95.047077
391.520758	94.852222
391.955541	95.362290
392.390313	94.260142
392.825073	94.153696
393.259821	94.118798
393.694558	94.217152
394.129283	93.381562
394.563996	93.608875
394.998698	94.009671
395.433388	93.455882
395.868066	92.553813
396.302732	92.239781
396.737386	91.626934
397.172029	91.347180
397.606659	90.968460
398.041278	90.859593
398.475885	90.202929
398.910480	89.875590
399.345063	89.173870
399.779634	88.271634
400.214194	87.039168
400.648741	86.061074
401.083276	84.355706
401.517799	82.390208
401.952310	79.932243
402.386809	77.216008
402.821296	74.348449
403.255771	71.458156
403.690234	68.499455
404.124684	65.609990
404.559123	62.129736
404.993549	59.096876
405.427963	55.683273
405.862365	52.955521
406.296754	50.062711
406.731131	47.442177
407.165496	44.731108
407.599849	42.478395
408.034190	40.463533
408.468518	38.324004
408.902833	36.505193
409.337137	34.966223
409.771428	33.563016
410.205706	31.941898
410.639973	30.390944
411.074226	29.165758
411.508467	28.020084
411.942696	27.068832
412.376912	26.166401
412.811116	25.401784
413.245307	24.734151
413.679486	24.161228
414.113652	23.533562
414.547805	22.977641
414.981946	22.441645
415.416074	21.982749
415.850190	21.610118
416.284293	21.216567
416.718383	20.881168
417.152460	20.534823
417.586525	20.221716
418.020577	19.935512
418.454616	19.661014
418.888643	19.459499
419.322656	19.231868
419.756657	19.044811
420.190645	18.858039
420.624620	18.701252
421.058582	18.475571
421.492531	18.267602
421.926468	18.106937
422.360391	17.955195
422.794301	17.790204
423.228199	17.650930
423.662083	17.569714
424.095955	17.538778
424.529813	17.442750
424.963658	17.375552
425.397491	17.273711
425.831310	17.193095
426.265116	17.085417
426.698909	16.950021
427.132689	16.847974
427.566455	16.775627
428.000209	16.705203
428.433949	16.654312
428.867676	16.600027
429.301389	16.509911
429.735090	16.434665
430.168777	16.332827
430.602451	16.266409
431.036111	16.165938
431.469759	16.115467
431.903392	16.044283
432.337013	15.948848
432.770620	15.876199
433.204213	15.786932
433.637794	15.726966
434.071360	15.668582
434.504914	15.624287
434.938453	15.583537
435.371979	15.539194
435.805492	15.485281
436.238991	15.444733
436.672477	15.405259
437.105949	15.352493
437.539407	15.275839
437.972852	15.215292
438.406283	15.150520
438.839700	15.091126
439.273104	15.028593
439.706494	14.965487
440.139871	14.927787
440.573233	14.867957
441.006582	14.791477
441.439917	14.716386
441.873238	14.612752
442.306546	14.523655
442.739839	14.456974
443.173119	14.379955
443.606385	14.321457
444.039636	14.250243
444.472874	14.193677
444.906099	14.108448
445.339309	14.052958
445.772505	14.015431
446.205687	13.948681
446.638855	13.896981
447.072009	13.831955
447.505149	13.765877
447.938275	13.719765
448.371387	13.645012
448.804485	13.550978
449.237569	13.464917
449.670638	13.362853
450.103694	13.269253
450.536735	13.180379
450.969762	13.107405
451.402774	13.030812
451.835773	12.947141
452.268757	12.862109
452.701727	12.767329
453.134683	12.685107
453.567624	12.602582
454.000551	12.520277
454.433464	12.459809
454.866362	12.390489
455.299246	12.356774
455.732116	12.301376
456.164971	12.223022
456.597811	12.164020
457.030638	12.108038
457.463449	12.043398
457.896246	11.985786
458.329029	11.934069
458.761797	11.876697
459.194551	11.814011
459.627290	11.769745
460.060014	11.717696
460.492724	11.656727
460.925419	11.611735
461.358099	11.577863
461.790765	11.558998
462.223416	11.554332
462.656052	11.541951
463.088674	11.541322
463.521281	11.552628
463.953873	11.562713
464.386450	11.579591
464.819012	11.618142
465.251560	11.658505
465.684093	11.710785
466.116611	11.782460
466.549114	11.852420
466.981602	11.926341
467.414075	12.005590
467.846533	12.076500
468.278977	12.168931
468.711405	12.238980
469.143818	12.327907
469.576216	12.441215
470.008600	12.541143
470.440968	12.645910
470.873321	12.763320
471.305659	12.879623
471.737982	13.010388
472.170289	13.143319
472.602582	13.257757
473.034859	13.392264
473.467122	13.521765
473.899369	13.670749
474.331600	13.818649
474.763817	13.959565
475.196018	14.102770
475.628204	14.271445
476.060375	14.456080
476.492530	14.636048
476.924670	14.816418
477.356795	15.014899
477.788904	15.215196
478.220998	15.413419
478.653076	15.604164
479.085139	15.793188
479.517186	15.985199
479.949219	16.163534
480.381235	16.331446
480.813236	16.502501
481.245221	16.673542
481.677191	16.841906
482.109146	17.015449
482.541084	17.179016
482.973008	17.323844
483.404915	17.478330
483.836807	17.627864
484.268683	17.767133
484.700544	17.908751
485.132388	18.052489
485.564217	18.186837
485.996031	18.347763
486.427828	18.483679
486.859610	18.634084
487.291376	18.768610
487.723126	18.899885
488.154860	19.030670
488.586579	19.150508
489.018281	19.243179
489.449968	19.322997
489.881639	19.416322
490.313293	19.508604
490.744932	19.581717
491.176555	19.650789
491.608162	19.715900
492.039753	19.783776
492.471328	19.847780
492.902886	19.887242
493.334429	19.933331
493.765956	19.974420
494.197466	20.015501
494.628960	20.045800
495.060439	20.064802
495.491901	20.071082
495.923347	20.073740
496.354776	20.090145
496.786190	20.098342
497.217587	20.094265
497.648968	20.093017
498.080332	20.089298
498.511681	20.066992
498.943013	20.047605
499.374328	20.018539
499.805628	19.994820
500.236911	19.960851
500.668177	19.923206
501.099427	19.883400
501.530661	19.857806
501.961878	19.830452
502.393079	19.808677
502.824264	19.799135
503.255431	19.781305
503.686583	19.758057
504.117717	19.751686
504.548835	19.739567
504.979937	19.730145
505.411022	19.719127
505.842090	19.709741
506.273142	19.711677
506.704177	19.728704
507.135195	19.754035
507.566197	19.790654
507.997182	19.843805
508.428150	19.910671
508.859102	20.008619
509.290036	20.125353
509.720954	20.257774
510.151855	20.405582
510.582739	20.581032
511.013607	20.767275
511.444457	20.977346
511.875291	21.204585
512.306107	21.460691
512.736907	21.732754
513.167690	22.026670
513.598456	22.343842
514.029205	22.697315
514.459936	23.073831
514.890651	23.477209
515.321349	23.913700
515.752030	24.374260
516.182693	24.852505
516.613340	25.376924
517.043969	25.938587
517.474582	26.515274
517.905177	27.114955
518.335755	27.739398
518.766315	28.380661
519.196859	29.043263
519.627385	29.716152
520.057894	30.393150
520.488386	31.072342
520.918860	31.755379
521.349318	32.456032
521.779757	33.177424
522.210180	33.899578
522.640585	34.632571
523.070973	35.378954
523.501343	36.137725
523.931696	36.900775
524.362031	37.691434
524.792349	38.479116
525.222650	39.298908
525.652933	40.124081
526.083198	40.966480
526.513446	41.803726
526.943677	42.661526
527.373890	43.531968
527.804085	44.413809
528.234262	45.288928
528.664422	46.172108
529.094565	47.067067
529.524689	47.967992
529.954796	48.843178
530.384885	49.716668
530.814957	50.587061
531.245011	51.472271
531.675047	52.343963
532.105065	53.216185
532.535065	54.093475
532.965048	54.976099
533.395013	55.842799
533.824959	56.723989
534.254888	57.600217
534.684799	58.481858
535.114693	59.354797
535.544568	60.216705
535.974425	61.082281
536.404264	61.917636
536.834086	62.744213
537.263889	63.565153
537.693674	64.356371
538.123441	65.136429
538.553190	65.871035
538.982921	66.592027
539.412634	67.290734
539.842329	67.981639
540.272006	68.622523
540.701664	69.234859
541.131304	69.837851
541.560926	70.414432
541.990530	70.977809
542.420116	71.518779
542.849683	72.048132
543.279232	72.582990
543.708763	73.095042
544.138275	73.612769
544.567769	74.088244
544.997245	74.578857
545.426702	75.065542
545.856141	75.544711
546.285562	76.016239
546.714964	76.489901
547.144347	76.960316
547.573713	77.431521
548.003059	77.877520
548.432387	78.340358
548.861697	78.806547
549.290988	79.254750
549.720260	79.709011
550.149514	80.138572
550.578750	80.561214
551.007966	80.964143
551.437164	81.374799
551.866344	81.772237
552.295504	82.149198
552.724646	82.529943
553.153769	82.904892
553.582874	83.286045
554.011960	83.637286
554.441027	83.988446
554.870075	84.321681
555.299104	84.628119
555.728115	84.905881
556.157106	85.181899
556.586079	85.425963
557.015033	85.670412
557.443968	85.889836
557.872884	86.113776
558.301781	86.313014
558.730659	86.522896
559.159518	86.703033
559.588358	86.891667
560.017180	87.078876
560.445982	87.253203
560.874765	87.428056
561.303528	87.623869
561.732273	87.796093
562.160999	87.971339
562.589705	88.150315
563.018393	88.324833
563.447061	88.512976
563.875710	88.702644
564.304340	88.904326
564.732950	89.085789
565.161542	89.283951
565.590114	89.481402
566.018666	89.660298
566.447200	89.842647
566.875714	90.028434
567.304208	90.232133
567.732684	90.407650
568.161140	90.573907
568.589576	90.746033
569.017993	90.919646
569.446391	91.075620
569.874769	91.234654
570.303128	91.370546
570.731467	91.493216
571.159787	91.601032
571.588087	91.703605
572.016368	91.778695
572.444629	91.857649
572.872870	91.920054
573.301092	91.970954
573.729294	92.003028
574.157476	92.025034
574.585639	92.026410
575.013782	92.040319
575.441906	92.046035
575.870009	92.046813
576.298093	92.044325
576.726157	92.060988
577.154202	92.057277
577.582226	92.090350
578.010231	92.118658
578.438216	92.152034
578.866181	92.202953
579.294126	92.264358
579.722051	92.337063
580.149957	92.421737
580.577842	92.510709
581.005707	92.607921
581.433553	92.723182
581.861378	92.852361
582.289184	92.982132
582.716969	93.106850
583.144734	93.210363
583.572479	93.334930
584.000205	93.472303
584.427910	93.606514
584.855594	93.722526
585.283259	93.822204
585.710904	93.918313
586.138528	94.004630
586.566132	94.074425
586.993716	94.138090
587.421280	94.194764
587.848823	94.239231
588.276346	94.247706
588.703849	94.240893
589.131332	94.212930
589.558794	94.173952
589.986236	94.101566
590.413657	94.029185
590.841058	93.919967
591.268438	93.816516
591.695799	93.702276
592.123138	93.559512
592.550458	93.414584
592.977756	93.259501
593.405034	93.094767
593.832292	92.936093
594.259529	92.771734
594.686746	92.624135
595.113942	92.468261
595.541117	92.319304
595.968272	92.184680
596.395406	92.079328
596.822519	91.986937
597.249612	91.903377
597.676684	91.825691
598.103735	91.770924
598.530766	91.747749
598.957775	91.739918
599.384764	91.726587
599.811733	91.729211
600.238680	91.753648
600.665606	91.788318
601.092512	91.826618
601.519397	91.890046
601.946261	91.948656
602.373104	92.016189
602.799926	92.080880
603.226727	92.144426
603.653507	92.203070
604.080266	92.249205
604.507004	92.283775
604.933721	92.290698
605.360417	92.306509
605.787092	92.294211
606.213746	92.264985
606.640379	92.207953
607.066991	92.113627
607.493581	92.000972
607.920150	91.855289
608.346699	91.695789
608.773226	91.504105
609.199731	91.299966
609.626216	91.064888
610.052679	90.785717
610.479121	90.485486
610.905542	90.174275
611.331941	89.854586
611.758319	89.495818
612.184676	89.117351
612.611011	88.746736
613.037325	88.356004
613.463617	87.938807
613.889888	87.505291
614.316138	87.075302
614.742366	86.627747
615.168573	86.191640
615.594758	85.742161
616.020921	85.314183
616.447063	84.881743
616.873184	84.464165
617.299283	84.058456
617.725360	83.673787
618.151416	83.317851
618.577450	82.952511
619.003462	82.612637
619.429453	82.291648
619.855422	81.991846
620.281369	81.717525
620.707295	81.465389
621.133199	81.230389
621.559081	80.988494
621.984941	80.772730
622.410779	80.549423
622.836596	80.333758
623.262391	80.152154
623.688163	79.951094
624.113914	79.760283
624.539644	79.561589
624.965351	79.355443
625.391036	79.150102
625.816699	78.917364
626.242340	78.690265
626.667960	78.435634
627.093557	78.163867
627.519132	77.868465
627.944685	77.540554
628.370216	77.184873
628.795725	76.818252
629.221212	76.408238
629.646677	75.980302
630.072119	75.511603
630.497540	75.013828
630.922938	74.479442
631.348314	73.911849
631.773668	73.327686
632.198999	72.706864
632.624308	72.062505
633.049595	71.405902
633.474860	70.711095
633.900102	69.989357
634.325322	69.249989
634.750520	68.514982
635.175695	67.756400
635.600848	67.003300
636.025978	66.245043
636.451086	65.459377
636.876171	64.688254
637.301234	63.888675
637.726275	63.098718
638.151293	62.310143
638.576288	61.506470
639.001261	60.724572
639.426211	59.925775
639.851139	59.133490
640.276044	58.341720
640.700927	57.562684
641.125787	56.798286
641.550624	56.048289
641.975438	55.312215
642.400230	54.597043
642.824999	53.901846
643.249745	53.234185
643.674469	52.594903
644.099169	51.983716
644.523847	51.406964
644.948502	50.872352
645.373135	50.373181
645.797744	49.909982
646.222330	49.467087
646.646894	49.078300
647.071435	48.729891
647.495953	48.407834
647.920447	48.102006
648.344919	47.833206
648.769368	47.585347
649.193794	47.374547
649.618197	47.191036
650.042576	47.033085
650.466933	46.912107
650.891267	46.798025
651.315577	46.717225
651.739864	46.662300
652.164129	46.614225
652.588370	46.598179
653.012587	46.603836
653.436782	46.640623
653.860953	46.695602
654.285102	46.770369
654.709226	46.863608
655.133328	46.972747
655.557406	47.094390
655.981461	47.234695
656.405493	47.394850
656.829501	47.572319
657.253486	47.760886
657.677448	47.965028
658.101386	48.180767
658.525301	48.416790
658.949192	48.665809
659.373060	48.935201
659.796904	49.213698
660.220725	49.513339
660.644522	49.829293
661.068296	50.173669
661.492046	50.549754
661.915772	50.943818
662.339475	51.351355
662.763154	51.782289
663.186810	52.231482
663.610442	52.704409
664.034050	53.196286
664.457635	53.701527
664.881196	54.239424
665.304733	54.792182
665.728247	55.361313
666.151736	55.944198
666.575202	56.534051
666.998644	57.145252
667.422062	57.769423
667.845457	58.385487
668.268827	59.017044
668.692174	59.662071
669.115496	60.308909
669.538795	60.957806
669.962070	61.598462
670.385321	62.250424
670.808547	62.886048
671.231750	63.511776
671.654929	64.122948
672.078084	64.712263
672.501214	65.290695
672.924321	65.844735
673.347404	66.372509
673.770462	66.881818
674.193496	67.360413
674.616506	67.793125
675.039492	68.198748
675.462454	68.569513
675.885391	68.905819
676.308305	69.207509
676.731194	69.480492
677.154058	69.724612
677.576899	69.924310
677.999715	70.090766
678.422507	70.237418
678.845274	70.345825
679.268017	70.445063
679.690736	70.520258
680.113430	70.554075
680.536100	70.577780
680.958746	70.599618
681.381367	70.608917
681.803963	70.599476
682.226535	70.579432
682.649083	70.558702
683.071605	70.542627
683.494104	70.513576
683.916578	70.484074
684.339027	70.453818
684.761451	70.425407
685.183851	70.399121
685.606227	70.378145
686.028577	70.359045
686.450903	70.346660
686.873204	70.338614
687.295481	70.348293
687.717733	70.375474
688.139959	70.397214
688.562162	70.437617
688.984339	70.488790
689.406492	70.555003
689.828619	70.637769
690.250722	70.733194
690.672800	70.866565
691.094853	71.017262
691.516881	71.176763
691.938884	71.352598
692.360863	71.532585
692.782816	71.735330
693.204744	71.954840
693.626647	72.176033
694.048526	72.408203
694.470379	72.638355
694.892207	72.866048
695.314010	73.109326
695.735788	73.349648
696.157540	73.584200
696.579268	73.825030
697.000970	74.073292
697.422648	74.309967
697.844300	74.534612
698.265926	74.761094
698.687528	74.974515
699.109104	75.194368
699.530655	75.403039
699.952181	75.603953
700.373681	75.792510
700.795156	75.973653
701.216606	76.156113
701.638030	76.325166
702.059429	76.489913
702.480803	76.641456
702.902151	76.768350
703.323473	76.887762
703.744770	76.986465
704.166042	77.053374
704.587288	77.110113
705.008509	77.151478
705.429704	77.171751
705.850873	77.160333
706.272017	77.127388
706.693135	77.080289
707.114228	77.005907
707.535295	76.914246
707.956336	76.806144
708.377352	76.665035
708.798342	76.504000
709.219306	76.343113
709.640245	76.160123
710.061157	75.961470
710.482044	75.763321
710.902905	75.564864
711.323741	75.360744
711.744550	75.159244
712.165334	74.962850
712.586092	74.766373
713.006823	74.577333
713.427529	74.394869
713.848209	74.212178
714.268863	74.039266
714.689492	73.863646
715.110094	73.689298
715.530670	73.515198
715.951220	73.338857
716.371744	73.148762
716.792242	72.957649
717.212714	72.780170
717.633159	72.585719
718.053579	72.398473
718.473973	72.214603
718.894340	72.037781
719.314681	71.864372
719.734996	71.692803
720.155285	71.523239
720.575547	71.358053
720.995784	71.215084
721.415994	71.082174
721.836177	70.966450
722.256335	70.849663
722.676466	70.748052
723.096570	70.659943
723.516649	70.575822
723.936701	70.506932
724.356726	70.431652
724.776725	70.360862
725.196698	70.285285
725.616644	70.223653
726.036564	70.160946
726.456457	70.086504
726.876324	70.024804
727.296164	69.955523
727.715977	69.889901
728.135764	69.825496
728.555525	69.768698
728.975258	69.725107
729.394966	69.687862
729.814646	69.657173
730.234300	69.619847
730.653927	69.604186
731.073527	69.592581
731.493101	69.592878
731.912648	69.603872
732.332168	69.625786
732.751661	69.667242
733.171128	69.720538
733.590568	69.791554
734.009980	69.860667
734.429366	69.941180
734.848726	70.033989
735.268058	70.132921
735.687363	70.236335
736.106641	70.351365
736.525893	70.469704
736.945117	70.598432
737.364314	70.736445
737.783485	70.893594
738.202628	71.064140
738.621744	71.239471
739.040834	71.421024
739.459896	71.631211
739.878931	71.836968
740.297939	72.066667
740.716919	72.322538
741.135873	72.587968
741.554799	72.866905
741.973698	73.165540
742.392570	73.489902
742.811415	73.843288
743.230232	74.216408
743.649022	74.607315
744.067785	75.008377
744.486521	75.421719
744.905229	75.853954
745.323909	76.293288
745.742563	76.745974
746.161189	77.213411
746.579787	77.686828
746.998358	78.172167
747.416902	78.679484
747.835418	79.172746
748.253907	79.677231
748.672368	80.203276
749.090802	80.723089
749.509208	81.256628
749.927586	81.785998
750.345937	82.330956
750.764261	82.878354
751.182556	83.423694
751.600824	83.971483
752.019065	84.521141
752.437277	85.077019
752.855462	85.642805
753.273620	86.198538
753.691749	86.759716
754.109851	87.318019
