Time1=100ms:Average1=5:Objective=10X:Aperture=1: (11/21/2018 10:59:24 AM)
11/21/2018 10:59:24 AM
Reflectance
10X
Ap#: 1
Avg1: 5.000000
Avg2: 0.000000
Int.Time1:100.000000

350.166136	68.664483
350.601937	69.151901
351.037728	68.561261
351.473509	68.735470
351.909281	68.758250
352.345042	69.314006
352.780794	69.237063
353.216536	69.433384
353.652267	69.585678
354.087989	69.786451
354.523701	70.004082
354.959403	70.314568
355.395095	70.764832
355.830777	70.543268
356.266449	70.750383
356.702110	70.223979
357.137762	70.343212
357.573404	69.714051
358.009035	69.908877
358.444656	69.833607
358.880268	69.444444
359.315869	69.201443
359.751459	69.271850
360.187040	69.382080
360.622610	69.225214
361.058170	69.126894
361.493720	69.468250
361.929260	69.539161
362.364789	68.908081
362.800308	68.488085
363.235816	68.348955
363.671314	69.115535
364.106802	68.647983
364.542279	69.324587
364.977746	69.705094
365.413203	70.033078
365.848649	69.951451
366.284084	69.808421
366.719509	69.042248
367.154924	68.887976
367.590328	68.522878
368.025721	68.611794
368.461104	68.686558
368.896477	68.472251
369.331838	68.570844
369.767189	67.795923
370.202530	68.017972
370.637859	67.731500
371.073178	68.550593
371.508486	68.637193
371.943784	68.673231
372.379071	68.917275
372.814347	69.846435
373.249612	69.987788
373.684866	69.649530
374.120110	69.816857
374.555343	69.893778
374.990565	69.958723
375.425776	70.314858
375.860976	70.636840
376.296165	71.104844
376.731343	71.349835
377.166511	70.874372
377.601667	71.234111
378.036812	70.848375
378.471946	70.896193
378.907070	70.797607
379.342182	71.287818
379.777283	71.161310
380.212373	71.273955
380.647452	71.509098
381.082520	71.542868
381.517576	71.197475
381.952622	71.742153
382.387656	71.924573
382.822679	71.952557
383.257691	72.214993
383.692692	72.339578
384.127681	72.815534
384.562659	72.397696
384.997626	72.481158
385.432581	72.072161
385.867525	72.212929
386.302458	71.716776
386.737379	71.532132
387.172289	71.697005
387.607188	71.250971
388.042075	71.293774
388.476951	71.309002
388.911815	71.231278
389.346668	71.517570
389.781509	71.431363
390.216338	71.094591
390.651157	71.085513
391.085963	70.969007
391.520758	71.139166
391.955541	71.252084
392.390313	70.541882
392.825073	69.951362
393.259821	69.801350
393.694558	69.984264
394.129283	69.781992
394.563996	69.909680
394.998698	70.275338
395.433388	70.039216
395.868066	70.254213
396.302732	70.402888
396.737386	70.283157
397.172029	70.134912
397.606659	69.678793
398.041278	69.654043
398.475885	69.646789
398.910480	69.698270
399.345063	68.971707
399.779634	68.273506
400.214194	67.418419
400.648741	66.364173
401.083276	65.304491
401.517799	64.121019
401.952310	62.336359
402.386809	60.243105
402.821296	57.754715
403.255771	55.781961
403.690234	53.704810
404.124684	51.157706
404.559123	48.469213
404.993549	45.757125
405.427963	43.101899
405.862365	40.902279
406.296754	38.715479
406.731131	36.896787
407.165496	34.853082
407.599849	33.089389
408.034190	31.426215
408.468518	29.827209
408.902833	28.172486
409.337137	26.798524
409.771428	25.529714
410.205706	24.429823
410.639973	23.314059
411.074226	22.406294
411.508467	21.544348
411.942696	20.728811
412.376912	20.113261
412.811116	19.670521
413.245307	19.247281
413.679486	18.828086
414.113652	18.479220
414.547805	18.159169
414.981946	17.846353
415.416074	17.572786
415.850190	17.347264
416.284293	17.155404
416.718383	16.972211
417.152460	16.811603
417.586525	16.723647
418.020577	16.680102
418.454616	16.673775
418.888643	16.608137
419.322656	16.544439
419.756657	16.469201
420.190645	16.387195
420.624620	16.298390
421.058582	16.192463
421.492531	16.133021
421.926468	16.080333
422.360391	16.142032
422.794301	16.160879
423.228199	16.235209
423.662083	16.303854
424.095955	16.421250
424.529813	16.564806
424.963658	16.688675
425.397491	16.784232
425.831310	16.843031
426.265116	16.928679
426.698909	17.006402
427.132689	17.092286
427.566455	17.229903
428.000209	17.331831
428.433949	17.461562
428.867676	17.613511
429.301389	17.769370
429.735090	17.923652
430.168777	18.036782
430.602451	18.122210
431.036111	18.192405
431.469759	18.228007
431.903392	18.242419
432.337013	18.306031
432.770620	18.362995
433.204213	18.438007
433.637794	18.576819
434.071360	18.758592
434.504914	18.943137
434.938453	19.153736
435.371979	19.382017
435.805492	19.576205
436.238991	19.757920
436.672477	19.949182
437.105949	20.139440
437.539407	20.246304
437.972852	20.339870
438.406283	20.448157
438.839700	20.608679
439.273104	20.761767
439.706494	20.912912
440.139871	21.103827
440.573233	21.292147
441.006582	21.441341
441.439917	21.591969
441.873238	21.708412
442.306546	21.806977
442.739839	21.880775
443.173119	21.943886
443.606385	22.014807
444.039636	22.101702
444.472874	22.182276
444.906099	22.301702
445.339309	22.448641
445.772505	22.616240
446.205687	22.783117
446.638855	22.973525
447.072009	23.132439
447.505149	23.314864
447.938275	23.495951
448.371387	23.658009
448.804485	23.784232
449.237569	23.881512
449.670638	23.976130
450.103694	24.030708
450.536735	24.068453
450.969762	24.162507
451.402774	24.230812
451.835773	24.319008
452.268757	24.406478
452.701727	24.526611
453.134683	24.635883
453.567624	24.724553
454.000551	24.854473
454.433464	24.944125
454.866362	25.034334
455.299246	25.109756
455.732116	25.153252
456.164971	25.197446
456.597811	25.225917
457.030638	25.260813
457.463449	25.274176
457.896246	25.293310
458.329029	25.304337
458.761797	25.344412
459.194551	25.351713
459.627290	25.367107
460.060014	25.389427
460.492724	25.415573
460.925419	25.422275
461.358099	25.406291
461.790765	25.383818
462.223416	25.374149
462.656052	25.343962
463.088674	25.315758
463.521281	25.282583
463.953873	25.244809
464.386450	25.189097
464.819012	25.168754
465.251560	25.137167
465.684093	25.111534
466.116611	25.080683
466.549114	25.069592
466.981602	25.067994
467.414075	25.037620
467.846533	25.033716
468.278977	25.015085
468.711405	24.991400
469.143818	24.971208
469.576216	24.940189
470.008600	24.908806
470.440968	24.863626
470.873321	24.819959
471.305659	24.781399
471.737982	24.738716
472.170289	24.673114
472.602582	24.625704
473.034859	24.595713
473.467122	24.583942
473.899369	24.591971
474.331600	24.613940
474.763817	24.680491
475.196018	24.748177
475.628204	24.835304
476.060375	24.968926
476.492530	25.109303
476.924670	25.250825
477.356795	25.413273
477.788904	25.576909
478.220998	25.733805
478.653076	25.904050
479.085139	26.076994
479.517186	26.262268
479.949219	26.461370
480.381235	26.676831
480.813236	26.922749
481.245221	27.203730
481.677191	27.517200
482.109146	27.838892
482.541084	28.178133
482.973008	28.531440
483.404915	28.881264
483.836807	29.227845
484.268683	29.568203
484.700544	29.872672
485.132388	30.185414
485.564217	30.490404
485.996031	30.783707
486.427828	31.076766
486.859610	31.351886
487.291376	31.620622
487.723126	31.897498
488.154860	32.194692
488.586579	32.534223
489.018281	32.899805
489.449968	33.299207
489.881639	33.738568
490.313293	34.211077
490.744932	34.714925
491.176555	35.224799
491.608162	35.709718
492.039753	36.189366
492.471328	36.613576
492.902886	36.993214
493.334429	37.314574
493.765956	37.598568
494.197466	37.864657
494.628960	38.102968
495.060439	38.364640
495.491901	38.629980
495.923347	38.954411
496.354776	39.300396
496.786190	39.699052
497.217587	40.119582
497.648968	40.565138
498.080332	41.012301
498.511681	41.442443
498.943013	41.843088
499.374328	42.213247
499.805628	42.537896
500.236911	42.822708
500.668177	43.042238
501.099427	43.231099
501.530661	43.376655
501.961878	43.466472
502.393079	43.524545
502.824264	43.559695
503.255431	43.563002
503.686583	43.561339
504.117717	43.564937
504.548835	43.596450
504.979937	43.690870
505.411022	43.807822
505.842090	43.981306
506.273142	44.200640
506.704177	44.453821
507.135195	44.744824
507.566197	45.009321
507.997182	45.269526
508.428150	45.465012
508.859102	45.630827
509.290036	45.725781
509.720954	45.774896
510.151855	45.781471
510.582739	45.766969
511.013607	45.756066
511.444457	45.772611
511.875291	45.827632
512.306107	45.955035
512.736907	46.136208
513.167690	46.390826
513.598456	46.725412
514.029205	47.138838
514.459936	47.560773
514.890651	47.998135
515.321349	48.427709
515.752030	48.837933
516.182693	49.217298
516.613340	49.567480
517.043969	49.885098
517.474582	50.128227
517.905177	50.340486
518.335755	50.485159
518.766315	50.593085
519.196859	50.676070
519.627385	50.737135
520.057894	50.799224
520.488386	50.862675
520.918860	50.948313
521.349318	51.080817
521.779757	51.258440
522.210180	51.497601
522.640585	51.788137
523.070973	52.143471
523.501343	52.545365
523.931696	52.996144
524.362031	53.460881
524.792349	53.943634
525.222650	54.401694
525.652933	54.821772
526.083198	55.196876
526.513446	55.490770
526.943677	55.723920
527.373890	55.899390
527.804085	56.068072
528.234262	56.207846
528.664422	56.383662
529.094565	56.602935
529.524689	56.864542
529.954796	57.175254
530.384885	57.564926
530.814957	58.032339
531.245011	58.558699
531.675047	59.156443
532.105065	59.799322
532.535065	60.448078
532.965048	61.110934
533.395013	61.734789
533.824959	62.319201
534.254888	62.851646
534.684799	63.268535
535.114693	63.632832
535.544568	63.920851
535.974425	64.145109
536.404264	64.277416
536.834086	64.338261
537.263889	64.355652
537.693674	64.328442
538.123441	64.269231
538.553190	64.201013
538.982921	64.142971
539.412634	64.107421
539.842329	64.146630
540.272006	64.207764
540.701664	64.308975
541.131304	64.465727
541.560926	64.673901
541.990530	64.918649
542.420116	65.183593
542.849683	65.470512
543.279232	65.769152
543.708763	66.028453
544.138275	66.262816
544.567769	66.447804
544.997245	66.575542
545.426702	66.651433
545.856141	66.691347
546.285562	66.701122
546.714964	66.699197
547.144347	66.696594
547.573713	66.715279
548.003059	66.793537
548.432387	66.931621
548.861697	67.121792
549.290988	67.378198
549.720260	67.722303
550.149514	68.140597
550.578750	68.606637
551.007966	69.119784
551.437164	69.682941
551.866344	70.280197
552.295504	70.858855
552.724646	71.433742
553.153769	71.969019
553.582874	72.462274
554.011960	72.888827
554.441027	73.224130
554.870075	73.460519
555.299104	73.587907
555.728115	73.607270
556.157106	73.542039
556.586079	73.414444
557.015033	73.238857
557.443968	73.023642
557.872884	72.787869
558.301781	72.566939
558.730659	72.381481
559.159518	72.232578
559.588358	72.121033
560.017180	72.084484
560.445982	72.086139
560.874765	72.153628
561.303528	72.274509
561.732273	72.431689
562.160999	72.622841
562.589705	72.841991
563.018393	73.080143
563.447061	73.327948
563.875710	73.572002
564.304340	73.830757
564.732950	74.070770
565.161542	74.291518
565.590114	74.494643
566.018666	74.687719
566.447200	74.847395
566.875714	74.981143
567.304208	75.122823
567.732684	75.252722
568.161140	75.397936
568.589576	75.563311
569.017993	75.757410
569.446391	75.982019
569.874769	76.228642
570.303128	76.514628
570.731467	76.851728
571.159787	77.222418
571.588087	77.630024
572.016368	78.059147
572.444629	78.515709
572.872870	78.970497
573.301092	79.405174
573.729294	79.808855
574.157476	80.168821
574.585639	80.440043
575.013782	80.625842
575.441906	80.724019
575.870009	80.713276
576.298093	80.599125
576.726157	80.391403
577.154202	80.100143
577.582226	79.755842
578.010231	79.344528
578.438216	78.903513
578.866181	78.458830
579.294126	78.022610
579.722051	77.621624
580.149957	77.275972
580.577842	76.964180
581.005707	76.709522
581.433553	76.504297
581.861378	76.353040
582.289184	76.241728
582.716969	76.161543
583.144734	76.108537
583.572479	76.081826
584.000205	76.087634
584.427910	76.111575
584.855594	76.140383
585.283259	76.180890
585.710904	76.232729
586.138528	76.282274
586.566132	76.336099
586.993716	76.415103
587.421280	76.489199
587.848823	76.594618
588.276346	76.687439
588.703849	76.784186
589.131332	76.875867
589.558794	76.973206
589.986236	77.045677
590.413657	77.125190
590.841058	77.178759
591.268438	77.244975
591.695799	77.317156
592.123138	77.401700
592.550458	77.504193
592.977756	77.613308
593.405034	77.745905
593.832292	77.903890
594.259529	78.079500
594.686746	78.284122
595.113942	78.504741
595.541117	78.731478
595.968272	78.941968
596.395406	79.157018
596.822519	79.343979
597.249612	79.472402
597.676684	79.563593
598.103735	79.575059
598.530766	79.523421
598.957775	79.390565
599.384764	79.191074
599.811733	78.937366
600.238680	78.608275
600.665606	78.248566
601.092512	77.849836
601.519397	77.453163
601.946261	77.062546
602.373104	76.684014
602.799926	76.322271
603.226727	76.013145
603.653507	75.735811
604.080266	75.492498
604.507004	75.286824
604.933721	75.100320
605.360417	74.938148
605.787092	74.776501
606.213746	74.620871
606.640379	74.461246
607.066991	74.295653
607.493581	74.128009
607.920150	73.955976
608.346699	73.785760
608.773226	73.621017
609.199731	73.489583
609.626216	73.365662
610.052679	73.258679
610.479121	73.192829
610.905542	73.153308
611.331941	73.166768
611.758319	73.197317
612.184676	73.264781
612.611011	73.382718
613.037325	73.504226
613.463617	73.647425
613.889888	73.791150
614.316138	73.930252
614.742366	74.070219
615.168573	74.183849
615.594758	74.297291
616.020921	74.408655
616.447063	74.506275
616.873184	74.593229
617.299283	74.677266
617.725360	74.774933
618.151416	74.881854
618.577450	74.995213
619.003462	75.122072
619.429453	75.267181
619.855422	75.428601
620.281369	75.603930
620.707295	75.787695
621.133199	75.957956
621.559081	76.103203
621.984941	76.229322
622.410779	76.301551
622.836596	76.319306
623.262391	76.310153
623.688163	76.218429
624.113914	76.068120
624.539644	75.863934
624.965351	75.619251
625.391036	75.318645
625.816699	74.971591
626.242340	74.598272
626.667960	74.216471
627.093557	73.826465
627.519132	73.456539
627.944685	73.086813
628.370216	72.743461
628.795725	72.419413
629.221212	72.093839
629.646677	71.775540
630.072119	71.477750
630.497540	71.185264
630.922938	70.882044
631.348314	70.569287
631.773668	70.248778
632.198999	69.917245
632.624308	69.584946
633.049595	69.239710
633.474860	68.891167
633.900102	68.543353
634.325322	68.208523
634.750520	67.904002
635.175695	67.630112
635.600848	67.402331
636.025978	67.240155
636.451086	67.113636
636.876171	67.067421
637.301234	67.071028
637.726275	67.138446
638.151293	67.251831
638.576288	67.410890
639.001261	67.627223
639.426211	67.881113
639.851139	68.136294
640.276044	68.403806
640.700927	68.685525
641.125787	68.952029
641.550624	69.209807
641.975438	69.436230
642.400230	69.654983
642.824999	69.839798
643.249745	69.989572
643.674469	70.126239
644.099169	70.228181
644.523847	70.319807
644.948502	70.401916
645.373135	70.469375
645.797744	70.527331
646.222330	70.575896
646.646894	70.628116
647.071435	70.671094
647.495953	70.717203
647.920447	70.735418
648.344919	70.749458
648.769368	70.751021
649.193794	70.720626
649.618197	70.673082
650.042576	70.592982
650.466933	70.508417
650.891267	70.385550
651.315577	70.244920
651.739864	70.107166
652.164129	69.923659
652.588370	69.734484
653.012587	69.553997
653.436782	69.372567
653.860953	69.175403
654.285102	68.990717
654.709226	68.808088
655.133328	68.646040
655.557406	68.486617
655.981461	68.355765
656.405493	68.236476
656.829501	68.125294
657.253486	68.028502
657.677448	67.944017
658.101386	67.856503
658.525301	67.773613
658.949192	67.694659
659.373060	67.601531
659.796904	67.502879
660.220725	67.399778
660.644522	67.276116
661.068296	67.160735
661.492046	67.041104
661.915772	66.920475
662.339475	66.811537
662.763154	66.724386
663.186810	66.657001
663.610442	66.605839
664.034050	66.599308
664.457635	66.630563
664.881196	66.691706
665.304733	66.821917
665.728247	66.996466
666.151736	67.223651
666.575202	67.505580
666.998644	67.837959
667.422062	68.220335
667.845457	68.629810
668.268827	69.071765
668.692174	69.535825
669.115496	70.015050
669.538795	70.494248
669.962070	70.956959
670.385321	71.400731
670.808547	71.810377
671.231750	72.192346
671.654929	72.536999
672.078084	72.828116
672.501214	73.085134
672.924321	73.286495
673.347404	73.455551
673.770462	73.601848
674.193496	73.707514
674.616506	73.793065
675.039492	73.858623
675.462454	73.906790
675.885391	73.930337
676.308305	73.951460
676.731194	73.980433
677.154058	74.006070
677.576899	74.034435
677.999715	74.088457
678.422507	74.146811
678.845274	74.207552
679.268017	74.276151
679.690736	74.342571
680.113430	74.407721
680.536100	74.486339
680.958746	74.579762
681.381367	74.679714
681.803963	74.776408
682.226535	74.875740
682.649083	74.992264
683.071605	75.133419
683.494104	75.283418
683.916578	75.447180
684.339027	75.626756
684.761451	75.812586
685.183851	76.003921
685.606227	76.214474
686.028577	76.428660
686.450903	76.629333
686.873204	76.813142
687.295481	77.000391
687.717733	77.164131
688.139959	77.292337
688.562162	77.391374
688.984339	77.464107
689.406492	77.493584
689.828619	77.479634
690.250722	77.410831
690.672800	77.306537
691.094853	77.141867
691.516881	76.912820
691.938884	76.641932
692.360863	76.337495
692.782816	76.007557
693.204744	75.659092
693.626647	75.286424
694.048526	74.912677
694.470379	74.539685
694.892207	74.186209
695.314010	73.866052
695.735788	73.579991
696.157540	73.321990
696.579268	73.118418
697.000970	72.972942
697.422648	72.881797
697.844300	72.849651
698.265926	72.888016
698.687528	72.976982
699.109104	73.122711
699.530655	73.320186
699.952181	73.563994
700.373681	73.844293
700.795156	74.158751
701.216606	74.521404
701.638030	74.896846
702.059429	75.275942
702.480803	75.658165
702.902151	76.014613
703.323473	76.365055
703.744770	76.686706
704.166042	76.968381
704.587288	77.240382
705.008509	77.479395
705.429704	77.676975
705.850873	77.826200
706.272017	77.939969
706.693135	78.020865
707.114228	78.070700
707.535295	78.086142
707.956336	78.071616
708.377352	78.017194
708.798342	77.938882
709.219306	77.847510
709.640245	77.744209
710.061157	77.624578
710.482044	77.495474
710.902905	77.359679
711.323741	77.225120
711.744550	77.093892
712.165334	76.974857
712.586092	76.868553
713.006823	76.787263
713.427529	76.714960
713.848209	76.660344
714.268863	76.626667
714.689492	76.616593
715.110094	76.636275
715.530670	76.689414
715.951220	76.777256
716.371744	76.884688
716.792242	77.025009
717.212714	77.198185
717.633159	77.379230
718.053579	77.596317
718.473973	77.809783
718.894340	78.056801
719.314681	78.293573
719.734996	78.529008
720.155285	78.730050
720.575547	78.914318
720.995784	79.065737
721.415994	79.199186
721.836177	79.286826
722.256335	79.329684
722.676466	79.318409
723.096570	79.251514
723.516649	79.131788
723.936701	78.951807
724.356726	78.692232
724.776725	78.376593
725.196698	78.003491
725.616644	77.568785
726.036564	77.085673
726.456457	76.572628
726.876324	76.014342
727.296164	75.419383
727.715977	74.815490
728.135764	74.196110
728.555525	73.573261
728.975258	72.957082
729.394966	72.363127
729.814646	71.772752
730.234300	71.208183
730.653927	70.682522
731.073527	70.179582
731.493101	69.745943
731.912648	69.338255
732.332168	68.989236
732.751661	68.695964
733.171128	68.469788
733.590568	68.298923
734.009980	68.194379
734.429366	68.130577
734.848726	68.119978
735.268058	68.156406
735.687363	68.237366
736.106641	68.351811
736.525893	68.487885
736.945117	68.661716
737.364314	68.857525
737.783485	69.076109
738.202628	69.303859
738.621744	69.553792
739.040834	69.786370
739.459896	70.014888
739.878931	70.220289
740.297939	70.418816
740.716919	70.592250
741.135873	70.734682
741.554799	70.838536
741.973698	70.906856
742.392570	70.939035
742.811415	70.956158
743.230232	70.929552
743.649022	70.872071
744.067785	70.772991
744.486521	70.625001
744.905229	70.457443
745.323909	70.273763
745.742563	70.066677
746.161189	69.834340
746.579787	69.593281
746.998358	69.346213
747.416902	69.095646
747.835418	68.846531
748.253907	68.606762
748.672368	68.380110
749.090802	68.171945
749.509208	67.994377
749.927586	67.831101
750.345937	67.702314
750.764261	67.603968
751.182556	67.528776
751.600824	67.491199
752.019065	67.504858
752.437277	67.538212
752.855462	67.644100
753.273620	67.765269
753.691749	67.917832
754.109851	68.113899
