Time1=100ms:Average1=5:Objective=10X:Aperture=1: (11/21/2018 10:52:19 AM)
11/21/2018 10:52:19 AM
Reflectance
10X
Ap#: 1
Avg1: 5.000000
Avg2: 0.000000
Int.Time1:100.000000

350.166136	76.640140
350.601937	76.950816
351.037728	76.646279
351.473509	76.609791
351.909281	77.277380
352.345042	77.440033
352.780794	77.539283
353.216536	77.141680
353.652267	77.087399
354.087989	76.995594
354.523701	77.115761
354.959403	76.398026
355.395095	76.361017
355.830777	76.878909
356.266449	76.807136
356.702110	76.675878
357.137762	76.959232
357.573404	77.026197
358.009035	77.015385
358.444656	76.636569
358.880268	76.648860
359.315869	76.426519
359.751459	75.889288
360.187040	75.651374
360.622610	75.588536
361.058170	75.781571
361.493720	76.045431
361.929260	75.836086
362.364789	75.958260
362.800308	76.189983
363.235816	76.313895
363.671314	76.675271
364.106802	76.344750
364.542279	76.333607
364.977746	76.511724
365.413203	75.944947
365.848649	76.029848
366.284084	75.615764
366.719509	75.441297
367.154924	75.457348
367.590328	75.270591
368.025721	75.213412
368.461104	75.416924
368.896477	75.560376
369.331838	75.338471
369.767189	75.140420
370.202530	75.147684
370.637859	75.187032
371.073178	74.847071
371.508486	74.953503
371.943784	75.448916
372.379071	75.169579
372.814347	75.130595
373.249612	75.381308
373.684866	75.637742
374.120110	75.669597
374.555343	75.804481
374.990565	76.168224
375.425776	76.304612
375.860976	76.273757
376.296165	76.059044
376.731343	76.610204
377.166511	76.232146
377.601667	76.335110
378.036812	76.410049
378.471946	75.964452
378.907070	76.251889
379.342182	76.160678
379.777283	76.358504
380.212373	76.358887
380.647452	76.432226
381.082520	76.493063
381.517576	76.282244
381.952622	76.033637
382.387656	76.388334
382.822679	76.569038
383.257691	76.832669
383.692692	76.498062
384.127681	76.369048
384.562659	76.454869
384.997626	76.329787
385.432581	75.707269
385.867525	75.928838
386.302458	75.553587
386.737379	75.873643
387.172289	75.726345
387.607188	75.699833
388.042075	75.331565
388.476951	75.459523
388.911815	75.434825
389.346668	75.475563
389.781509	75.063046
390.216338	74.781511
390.651157	75.272692
391.085963	74.590402
391.520758	74.636275
391.955541	75.213178
392.390313	74.876704
392.825073	74.308833
393.259821	74.209363
393.694558	74.077278
394.129283	73.975488
394.563996	73.807707
394.998698	73.878678
395.433388	74.158854
395.868066	74.051687
396.302732	73.730298
396.737386	73.292482
397.172029	73.230494
397.606659	72.821450
398.041278	72.726848
398.475885	72.584649
398.910480	72.719208
399.345063	72.187789
399.779634	71.787506
400.214194	71.006633
400.648741	69.756678
401.083276	68.276247
401.517799	67.014151
401.952310	64.652163
402.386809	62.253135
402.821296	59.741379
403.255771	57.587785
403.690234	54.990870
404.124684	52.207950
404.559123	49.708218
404.993549	47.264284
405.427963	44.594524
405.862365	42.018264
406.296754	39.597815
406.731131	37.295886
407.165496	35.056427
407.599849	32.966856
408.034190	31.085565
408.468518	29.562606
408.902833	27.989640
409.337137	26.538190
409.771428	25.249079
410.205706	24.165519
410.639973	23.226741
411.074226	22.352692
411.508467	21.582978
411.942696	20.771587
412.376912	20.028092
412.811116	19.330884
413.245307	18.697078
413.679486	18.186430
414.113652	17.777807
414.547805	17.417189
414.981946	17.031531
415.416074	16.721460
415.850190	16.491858
416.284293	16.290734
416.718383	16.069805
417.152460	15.859144
417.586525	15.693635
418.020577	15.581540
418.454616	15.431238
418.888643	15.353979
419.322656	15.281951
419.756657	15.216413
420.190645	15.165573
420.624620	15.166593
421.058582	15.179307
421.492531	15.187632
421.926468	15.156834
422.360391	15.186703
422.794301	15.251388
423.228199	15.308083
423.662083	15.365863
424.095955	15.378292
424.529813	15.412362
424.963658	15.448502
425.397491	15.528456
425.831310	15.608621
426.265116	15.713323
426.698909	15.829607
427.132689	15.916773
427.566455	15.990005
428.000209	16.100624
428.433949	16.218249
428.867676	16.328448
429.301389	16.441792
429.735090	16.543024
430.168777	16.663628
430.602451	16.790479
431.036111	16.927404
431.469759	17.049768
431.903392	17.179219
432.337013	17.294912
432.770620	17.430793
433.204213	17.565041
433.637794	17.695055
434.071360	17.839363
434.504914	17.949288
434.938453	18.104796
435.371979	18.236849
435.805492	18.368789
436.238991	18.488166
436.672477	18.614877
437.105949	18.759397
437.539407	18.917472
437.972852	19.055236
438.406283	19.215312
438.839700	19.382755
439.273104	19.522886
439.706494	19.655719
440.139871	19.777572
440.573233	19.913350
441.006582	20.063660
441.439917	20.197682
441.873238	20.311901
442.306546	20.465156
442.739839	20.599913
443.173119	20.746922
443.606385	20.877284
444.039636	21.009484
444.472874	21.127682
444.906099	21.271500
445.339309	21.405266
445.772505	21.524489
446.205687	21.658815
446.638855	21.800774
447.072009	21.943629
447.505149	22.078726
447.938275	22.211683
448.371387	22.339353
448.804485	22.478163
449.237569	22.604861
449.670638	22.733647
450.103694	22.852256
450.536735	22.957851
450.969762	23.064743
451.402774	23.177683
451.835773	23.276915
452.268757	23.369098
452.701727	23.472836
453.134683	23.561545
453.567624	23.683088
454.000551	23.763615
454.433464	23.861361
454.866362	23.944922
455.299246	24.033766
455.732116	24.118592
456.164971	24.177686
456.597811	24.255562
457.030638	24.320615
457.463449	24.390875
457.896246	24.463377
458.329029	24.518408
458.761797	24.577461
459.194551	24.642149
459.627290	24.687987
460.060014	24.731142
460.492724	24.752032
460.925419	24.781495
461.358099	24.799732
461.790765	24.820660
462.223416	24.849009
462.656052	24.863922
463.088674	24.881467
463.521281	24.900378
463.953873	24.906959
464.386450	24.910672
464.819012	24.920729
465.251560	24.925251
465.684093	24.916338
466.116611	24.918154
466.549114	24.934878
466.981602	24.921393
467.414075	24.924777
467.846533	24.920846
468.278977	24.928629
468.711405	24.932077
469.143818	24.929160
469.576216	24.933923
470.008600	24.933452
470.440968	24.932432
470.873321	24.919125
471.305659	24.908208
471.737982	24.905804
472.170289	24.906714
472.602582	24.896140
473.034859	24.887218
473.467122	24.877413
473.899369	24.909084
474.331600	24.917979
474.763817	24.949052
475.196018	24.980389
475.628204	25.002303
476.060375	25.036298
476.492530	25.072865
476.924670	25.119829
477.356795	25.181731
477.788904	25.245722
478.220998	25.310506
478.653076	25.382005
479.085139	25.475214
479.517186	25.575353
479.949219	25.676655
480.381235	25.788251
480.813236	25.908765
481.245221	26.043321
481.677191	26.180449
482.109146	26.335699
482.541084	26.484283
482.973008	26.641141
483.404915	26.793201
483.836807	26.964975
484.268683	27.146707
484.700544	27.348393
485.132388	27.540875
485.564217	27.747168
485.996031	27.961240
486.427828	28.190683
486.859610	28.444973
487.291376	28.677313
487.723126	28.926900
488.154860	29.208314
488.586579	29.481877
489.018281	29.774591
489.449968	30.075080
489.881639	30.401134
490.313293	30.716730
490.744932	31.040936
491.176555	31.370739
491.608162	31.715126
492.039753	32.051193
492.471328	32.385896
492.902886	32.733021
493.334429	33.089973
493.765956	33.451522
494.197466	33.827797
494.628960	34.193904
495.060439	34.560417
495.491901	34.928409
495.923347	35.312125
496.354776	35.696856
496.786190	36.082014
497.217587	36.451027
497.648968	36.816713
498.080332	37.166201
498.511681	37.515103
498.943013	37.863185
499.374328	38.210924
499.805628	38.550672
500.236911	38.865239
500.668177	39.188320
501.099427	39.507720
501.530661	39.809967
501.961878	40.128869
502.393079	40.447659
502.824264	40.769664
503.255431	41.071066
503.686583	41.389655
504.117717	41.700360
504.548835	42.022250
504.979937	42.343395
505.411022	42.679289
505.842090	42.996038
506.273142	43.296705
506.704177	43.584665
507.135195	43.869141
507.566197	44.140616
507.997182	44.405619
508.428150	44.663499
508.859102	44.911271
509.290036	45.147005
509.720954	45.374069
510.151855	45.587625
510.582739	45.800751
511.013607	46.004483
511.444457	46.197861
511.875291	46.393370
512.306107	46.570851
512.736907	46.744417
513.167690	46.912941
513.598456	47.097207
514.029205	47.273962
514.459936	47.454155
514.890651	47.630017
515.321349	47.811038
515.752030	47.986697
516.182693	48.170167
516.613340	48.353814
517.043969	48.535703
517.474582	48.718151
517.905177	48.885504
518.335755	49.061383
518.766315	49.228459
519.196859	49.423921
519.627385	49.591323
520.057894	49.772801
520.488386	49.953132
520.918860	50.129567
521.349318	50.324114
521.779757	50.515391
522.210180	50.712303
522.640585	50.901332
523.070973	51.110363
523.501343	51.324712
523.931696	51.540501
524.362031	51.758996
524.792349	51.975970
525.222650	52.177066
525.652933	52.397182
526.083198	52.618867
526.513446	52.846014
526.943677	53.071893
527.373890	53.307989
527.804085	53.555539
528.234262	53.791950
528.664422	54.014866
529.094565	54.253749
529.524689	54.493018
529.954796	54.741597
530.384885	54.978625
530.814957	55.227912
531.245011	55.498866
531.675047	55.760563
532.105065	56.035173
532.535065	56.303537
532.965048	56.597546
533.395013	56.876168
533.824959	57.147515
534.254888	57.438678
534.684799	57.725822
535.114693	58.022733
535.544568	58.321940
535.974425	58.634052
536.404264	58.942309
536.834086	59.241295
537.263889	59.564223
537.693674	59.866348
538.123441	60.183195
538.553190	60.500708
538.982921	60.815690
539.412634	61.132799
539.842329	61.436930
540.272006	61.714040
540.701664	61.989781
541.131304	62.249377
541.560926	62.502456
541.990530	62.773311
542.420116	62.996973
542.849683	63.219516
543.279232	63.448678
543.708763	63.664960
544.138275	63.883711
544.567769	64.083008
544.997245	64.269257
545.426702	64.450838
545.856141	64.625667
546.285562	64.796563
546.714964	64.970981
547.144347	65.162549
547.573713	65.335588
548.003059	65.507239
548.432387	65.689694
548.861697	65.869459
549.290988	66.039877
549.720260	66.220815
550.149514	66.422782
550.578750	66.592136
551.007966	66.795176
551.437164	66.991923
551.866344	67.201560
552.295504	67.403598
552.724646	67.594873
553.153769	67.789188
553.582874	67.999659
554.011960	68.184070
554.441027	68.354445
554.870075	68.535752
555.299104	68.701854
555.728115	68.886882
556.157106	69.066773
556.586079	69.207847
557.015033	69.366077
557.443968	69.494509
557.872884	69.623926
558.301781	69.747051
558.730659	69.863734
559.159518	69.962214
559.588358	70.071592
560.017180	70.179895
560.445982	70.260474
560.874765	70.338008
561.303528	70.414728
561.732273	70.475675
562.160999	70.543428
562.589705	70.624649
563.018393	70.708568
563.447061	70.771186
563.875710	70.867568
564.304340	70.963371
564.732950	71.048902
565.161542	71.150083
565.590114	71.248693
566.018666	71.363514
566.447200	71.486251
566.875714	71.609713
567.304208	71.768481
567.732684	71.935895
568.161140	72.113083
568.589576	72.289471
569.017993	72.470527
569.446391	72.640770
569.874769	72.828939
570.303128	73.028745
570.731467	73.225023
571.159787	73.417578
571.588087	73.607122
572.016368	73.799588
572.444629	73.995419
572.872870	74.176193
573.301092	74.338485
573.729294	74.513780
574.157476	74.683137
574.585639	74.829509
575.013782	74.979688
575.441906	75.112867
575.870009	75.236108
576.298093	75.330146
576.726157	75.439639
577.154202	75.500991
577.582226	75.562961
578.010231	75.626271
578.438216	75.671571
578.866181	75.700832
579.294126	75.731171
579.722051	75.733326
580.149957	75.727033
580.577842	75.712804
581.005707	75.675575
581.433553	75.638527
581.861378	75.599165
582.289184	75.561977
582.716969	75.510754
583.144734	75.470932
583.572479	75.403749
584.000205	75.350755
584.427910	75.289024
584.855594	75.239579
585.283259	75.173314
585.710904	75.117023
586.138528	75.050759
586.566132	74.996871
586.993716	74.924288
587.421280	74.854297
587.848823	74.814650
588.276346	74.757350
588.703849	74.719663
589.131332	74.677925
589.558794	74.641032
589.986236	74.604845
590.413657	74.602671
590.841058	74.599840
591.268438	74.587616
591.695799	74.577029
592.123138	74.588738
592.550458	74.582614
592.977756	74.597731
593.405034	74.628189
593.832292	74.653753
594.259529	74.705956
594.686746	74.746919
595.113942	74.781724
595.541117	74.825169
595.968272	74.892074
596.395406	74.939798
596.822519	74.990064
597.249612	75.039673
597.676684	75.106019
598.103735	75.166327
598.530766	75.214242
598.957775	75.269023
599.384764	75.323354
599.811733	75.382475
600.238680	75.456578
600.665606	75.512511
601.092512	75.548193
601.519397	75.607584
601.946261	75.642387
602.373104	75.670076
602.799926	75.693223
603.226727	75.705846
603.653507	75.701224
604.080266	75.678595
604.507004	75.660579
604.933721	75.633070
605.360417	75.584065
605.787092	75.540141
606.213746	75.487430
606.640379	75.414879
607.066991	75.315402
607.493581	75.209062
607.920150	75.100095
608.346699	74.988247
608.773226	74.851195
609.199731	74.700534
609.626216	74.542777
610.052679	74.382567
610.479121	74.219744
610.905542	74.042467
611.331941	73.866896
611.758319	73.701235
612.184676	73.512029
612.611011	73.347889
613.037325	73.168202
613.463617	72.989216
613.889888	72.828043
614.316138	72.675496
614.742366	72.514732
615.168573	72.377910
615.594758	72.259175
616.020921	72.153861
616.447063	72.057742
616.873184	71.972519
617.299283	71.891572
617.725360	71.831235
618.151416	71.792038
618.577450	71.757496
619.003462	71.742271
619.429453	71.743037
619.855422	71.750203
620.281369	71.770328
620.707295	71.804033
621.133199	71.832541
621.559081	71.871331
621.984941	71.916956
622.410779	71.981046
622.836596	72.048672
623.262391	72.119914
623.688163	72.192942
624.113914	72.271542
624.539644	72.339886
624.965351	72.400883
625.391036	72.463969
625.816699	72.490223
626.242340	72.525912
626.667960	72.545210
627.093557	72.561801
627.519132	72.560695
627.944685	72.552752
628.370216	72.524733
628.795725	72.476105
629.221212	72.409186
629.646677	72.315279
630.072119	72.212570
630.497540	72.111841
630.922938	71.982356
631.348314	71.824447
631.773668	71.660691
632.198999	71.481235
632.624308	71.283132
633.049595	71.066727
633.474860	70.842330
633.900102	70.597010
634.325322	70.346991
634.750520	70.091250
635.175695	69.827499
635.600848	69.559078
636.025978	69.283864
636.451086	69.019191
636.876171	68.744692
637.301234	68.474837
637.726275	68.217911
638.151293	67.977287
638.576288	67.742990
639.001261	67.536150
639.426211	67.340874
639.851139	67.183875
640.276044	67.025306
640.700927	66.889594
641.125787	66.767307
641.550624	66.669603
641.975438	66.594937
642.400230	66.529592
642.824999	66.501153
643.249745	66.491068
643.674469	66.481656
644.099169	66.497652
644.523847	66.527856
644.948502	66.582943
645.373135	66.636290
645.797744	66.705146
646.222330	66.790689
646.646894	66.890972
647.071435	66.999729
647.495953	67.116226
647.920447	67.230211
648.344919	67.351510
648.769368	67.477418
649.193794	67.617335
649.618197	67.736946
650.042576	67.881739
650.466933	68.009820
650.891267	68.142951
651.315577	68.266471
651.739864	68.391222
652.164129	68.511305
652.588370	68.612598
653.012587	68.678052
653.436782	68.751542
653.860953	68.811284
654.285102	68.852381
654.709226	68.877639
655.133328	68.882165
655.557406	68.885711
655.981461	68.875669
656.405493	68.848026
656.829501	68.827200
657.253486	68.776452
657.677448	68.729899
658.101386	68.667373
658.525301	68.603092
658.949192	68.528297
659.373060	68.452889
659.796904	68.375206
660.220725	68.296274
660.644522	68.227184
661.068296	68.160925
661.492046	68.102993
661.915772	68.026263
662.339475	67.955573
662.763154	67.907303
663.186810	67.843271
663.610442	67.793394
664.034050	67.759766
664.457635	67.742982
664.881196	67.726835
665.304733	67.722144
665.728247	67.738835
666.151736	67.776054
666.575202	67.823918
666.998644	67.889101
667.422062	67.983548
667.845457	68.081755
668.268827	68.204104
668.692174	68.340223
669.115496	68.478250
669.538795	68.634408
669.962070	68.783388
670.385321	68.950575
670.808547	69.131581
671.231750	69.319585
671.654929	69.516203
672.078084	69.718503
672.501214	69.927511
672.924321	70.138761
673.347404	70.342160
673.770462	70.552677
674.193496	70.760115
674.616506	70.971088
675.039492	71.179026
675.462454	71.387387
675.885391	71.590393
676.308305	71.792960
676.731194	71.989175
677.154058	72.169962
677.576899	72.345501
677.999715	72.527837
678.422507	72.697957
678.845274	72.856590
679.268017	73.001113
679.690736	73.137526
680.113430	73.265232
680.536100	73.364766
680.958746	73.456770
681.381367	73.541755
681.803963	73.612469
682.226535	73.675382
682.649083	73.734129
683.071605	73.781977
683.494104	73.841761
683.916578	73.872735
684.339027	73.896665
684.761451	73.915630
685.183851	73.937105
685.606227	73.953268
686.028577	73.966526
686.450903	73.990097
686.873204	74.001526
687.295481	74.025899
687.717733	74.041306
688.139959	74.064159
688.562162	74.088566
688.984339	74.109721
689.406492	74.140791
689.828619	74.172328
690.250722	74.210059
690.672800	74.255500
691.094853	74.297332
691.516881	74.346063
691.938884	74.405417
692.360863	74.477420
692.782816	74.559206
693.204744	74.631351
693.626647	74.734809
694.048526	74.846022
694.470379	74.959035
694.892207	75.083308
695.314010	75.206401
695.735788	75.336893
696.157540	75.480692
696.579268	75.618469
697.000970	75.757239
697.422648	75.898967
697.844300	76.038824
698.265926	76.174840
698.687528	76.312289
699.109104	76.455310
699.530655	76.586677
699.952181	76.727255
700.373681	76.841033
700.795156	76.959212
701.216606	77.081039
701.638030	77.191832
702.059429	77.308876
702.480803	77.408859
702.902151	77.505822
703.323473	77.597606
703.744770	77.676855
704.166042	77.756057
704.587288	77.836149
705.008509	77.900748
705.429704	77.976153
705.850873	78.026542
706.272017	78.090204
706.693135	78.134678
707.114228	78.184536
707.535295	78.233300
707.956336	78.273866
708.377352	78.325944
708.798342	78.357252
709.219306	78.391067
709.640245	78.425847
710.061157	78.462619
710.482044	78.505178
710.902905	78.556484
711.323741	78.613791
711.744550	78.680244
712.165334	78.752262
712.586092	78.834456
713.006823	78.918484
713.427529	79.021140
713.848209	79.110340
714.268863	79.218800
714.689492	79.335856
715.110094	79.457325
715.530670	79.586386
715.951220	79.729857
716.371744	79.883757
716.792242	80.040338
717.212714	80.201326
717.633159	80.368721
718.053579	80.538462
718.473973	80.690294
718.894340	80.868086
719.314681	81.045302
719.734996	81.221799
720.155285	81.392895
720.575547	81.560643
720.995784	81.728947
721.415994	81.895972
721.836177	82.086653
722.256335	82.267194
722.676466	82.434399
723.096570	82.616855
723.516649	82.791100
723.936701	82.949231
724.356726	83.104069
724.776725	83.247292
725.196698	83.375825
725.616644	83.508979
726.036564	83.613902
726.456457	83.718985
726.876324	83.823710
727.296164	83.899517
727.715977	83.964192
728.135764	84.021178
728.555525	84.062300
728.975258	84.092121
729.394966	84.087399
729.814646	84.091355
730.234300	84.079066
730.653927	84.045203
731.073527	83.998762
731.493101	83.961549
731.912648	83.891399
732.332168	83.814162
732.751661	83.731927
733.171128	83.637811
733.590568	83.539720
734.009980	83.427381
734.429366	83.308111
734.848726	83.162557
735.268058	83.013289
735.687363	82.866549
736.106641	82.727650
736.525893	82.580618
736.945117	82.437251
737.364314	82.285875
737.783485	82.122924
738.202628	81.965066
738.621744	81.804540
739.040834	81.651511
739.459896	81.512007
739.878931	81.384257
740.297939	81.260871
740.716919	81.150996
741.135873	81.045306
741.554799	80.954372
741.973698	80.859716
742.392570	80.799540
742.811415	80.724096
743.230232	80.665429
743.649022	80.615230
744.067785	80.586044
744.486521	80.541535
744.905229	80.534287
745.323909	80.516630
745.742563	80.509257
746.161189	80.524394
746.579787	80.548995
746.998358	80.588826
747.416902	80.637605
747.835418	80.688141
748.253907	80.766126
748.672368	80.851836
749.090802	80.920267
749.509208	81.004241
749.927586	81.103466
750.345937	81.196251
750.764261	81.314964
751.182556	81.435576
751.600824	81.557330
752.019065	81.686767
752.437277	81.808701
752.855462	81.929735
753.273620	82.055673
753.691749	82.162011
754.109851	82.257305
