Time1=100ms:Average1=5:Objective=10X:Aperture=1: (11/21/2018 2:30:26 PM)
11/21/2018 2:30:26 PM
Reflectance
10X
Ap#: 1
Avg1: 5.000000
Avg2: 0.000000
Int.Time1:100.000000

350.166136	87.494189
350.601937	88.021936
351.037728	87.638467
351.473509	87.558824
351.909281	87.247202
352.345042	87.291399
352.780794	86.763399
353.216536	86.437828
353.652267	86.690434
354.087989	86.694387
354.523701	86.694982
354.959403	86.329089
355.395095	85.960226
355.830777	85.975851
356.266449	85.990911
356.702110	85.833826
357.137762	85.701677
357.573404	85.792671
358.009035	85.691916
358.444656	85.665261
358.880268	85.876037
359.315869	85.710100
359.751459	85.813453
360.187040	86.032211
360.622610	86.231600
361.058170	85.816929
361.493720	86.073329
361.929260	86.229605
362.364789	86.299881
362.800308	86.412667
363.235816	86.235457
363.671314	86.089523
364.106802	86.238442
364.542279	86.675865
364.977746	87.058012
365.413203	87.919596
365.848649	87.786788
366.284084	88.002774
366.719509	88.162701
367.154924	88.417103
367.590328	88.023244
368.025721	87.916420
368.461104	88.480537
368.896477	89.104404
369.331838	88.714764
369.767189	89.074385
370.202530	89.741302
370.637859	90.039841
371.073178	90.405500
371.508486	90.383275
371.943784	90.246325
372.379071	89.888756
372.814347	90.250421
373.249612	90.488915
373.684866	90.653187
374.120110	90.962963
374.555343	91.398594
374.990565	91.389219
375.425776	91.332343
375.860976	91.275566
376.296165	91.554021
376.731343	92.043882
377.166511	92.135277
377.601667	91.611631
378.036812	91.312057
378.471946	91.643674
378.907070	90.651641
379.342182	90.616753
379.777283	90.986578
380.212373	91.370011
380.647452	91.074753
381.082520	91.333725
381.517576	91.376613
381.952622	90.410826
382.387656	89.670056
382.822679	89.796896
383.257691	89.301393
383.692692	88.788341
384.127681	88.990216
384.562659	88.370771
384.997626	88.578177
385.432581	88.451344
385.867525	89.173004
386.302458	88.475766
386.737379	88.792693
387.172289	88.691607
387.607188	88.220789
388.042075	88.129191
388.476951	88.142628
388.911815	87.913845
389.346668	87.367632
389.781509	87.242026
390.216338	87.304559
390.651157	87.419325
391.085963	87.607718
391.520758	87.592541
391.955541	87.079646
392.390313	87.301735
392.825073	87.164680
393.259821	86.884334
393.694558	86.633938
394.129283	86.743756
394.563996	86.748103
394.998698	87.025023
395.433388	87.610867
395.868066	87.580781
396.302732	87.575842
396.737386	87.760611
397.172029	87.458194
397.606659	86.895087
398.041278	86.508082
398.475885	85.831660
398.910480	85.326357
399.345063	83.862351
399.779634	83.199226
400.214194	81.657263
400.648741	79.946198
401.083276	78.628055
401.517799	76.819181
401.952310	74.658092
402.386809	72.375670
402.821296	70.409745
403.255771	68.081734
403.690234	65.256540
404.124684	62.558594
404.559123	59.576834
404.993549	56.682673
405.427963	53.625382
405.862365	50.688507
406.296754	47.801769
406.731131	45.408026
407.165496	42.885532
407.599849	40.561321
408.034190	38.309691
408.468518	36.338372
408.902833	34.494490
409.337137	32.980008
409.771428	31.291160
410.205706	29.781399
410.639973	28.598410
411.074226	27.404336
411.508467	26.464132
411.942696	25.567376
412.376912	24.775261
412.811116	24.088029
413.245307	23.439721
413.679486	22.838405
414.113652	22.259460
414.547805	21.729173
414.981946	21.284372
415.416074	20.912510
415.850190	20.639713
416.284293	20.364148
416.718383	20.050554
417.152460	19.775099
417.586525	19.560107
418.020577	19.378066
418.454616	19.206122
418.888643	19.101700
419.322656	19.038088
419.756657	19.011368
420.190645	18.903668
420.624620	18.876266
421.058582	18.836081
421.492531	18.840168
421.926468	18.800298
422.360391	18.782864
422.794301	18.799689
423.228199	18.841554
423.662083	18.889380
424.095955	18.937730
424.529813	18.979811
424.963658	19.029632
425.397491	19.076675
425.831310	19.122717
426.265116	19.173418
426.698909	19.221817
427.132689	19.296132
427.566455	19.388446
428.000209	19.512241
428.433949	19.608732
428.867676	19.717077
429.301389	19.807210
429.735090	19.887982
430.168777	20.005696
430.602451	20.096572
431.036111	20.201784
431.469759	20.294351
431.903392	20.396916
432.337013	20.478996
432.770620	20.571489
433.204213	20.651377
433.637794	20.776086
434.071360	20.873489
434.504914	20.953021
434.938453	21.039774
435.371979	21.144176
435.805492	21.260199
436.238991	21.363470
436.672477	21.454831
437.105949	21.541882
437.539407	21.644055
437.972852	21.739809
438.406283	21.860202
438.839700	21.972161
439.273104	22.060415
439.706494	22.146873
440.139871	22.274442
440.573233	22.361646
441.006582	22.455125
441.439917	22.524783
441.873238	22.602777
442.306546	22.699988
442.739839	22.782514
443.173119	22.864294
443.606385	22.944553
444.039636	23.039877
444.472874	23.114267
444.906099	23.201706
445.339309	23.293038
445.772505	23.360740
446.205687	23.458399
446.638855	23.532994
447.072009	23.605485
447.505149	23.663155
447.938275	23.739231
448.371387	23.814339
448.804485	23.855195
449.237569	23.905238
449.670638	23.944034
450.103694	23.987254
450.536735	24.038850
450.969762	24.077862
451.402774	24.117388
451.835773	24.126429
452.268757	24.154988
452.701727	24.197539
453.134683	24.242105
453.567624	24.250155
454.000551	24.282545
454.433464	24.299274
454.866362	24.325067
455.299246	24.356131
455.732116	24.363357
456.164971	24.389525
456.597811	24.420036
457.030638	24.431676
457.463449	24.461239
457.896246	24.479244
458.329029	24.485336
458.761797	24.477315
459.194551	24.472972
459.627290	24.446695
460.060014	24.420909
460.492724	24.383895
460.925419	24.358548
461.358099	24.342123
461.790765	24.310519
462.223416	24.278600
462.656052	24.228798
463.088674	24.180029
463.521281	24.134493
463.953873	24.083390
464.386450	24.023497
464.819012	23.970752
465.251560	23.920175
465.684093	23.860603
466.116611	23.796623
466.549114	23.741995
466.981602	23.688492
467.414075	23.613227
467.846533	23.543797
468.278977	23.464850
468.711405	23.378650
469.143818	23.289944
469.576216	23.185696
470.008600	23.076280
470.440968	22.953490
470.873321	22.816750
471.305659	22.676172
471.737982	22.544481
472.170289	22.413282
472.602582	22.270747
473.034859	22.134410
473.467122	22.000085
473.899369	21.859645
474.331600	21.727130
474.763817	21.580784
475.196018	21.437789
475.628204	21.301377
476.060375	21.166861
476.492530	21.022030
476.924670	20.880144
477.356795	20.728632
477.788904	20.586299
478.220998	20.432955
478.653076	20.282917
479.085139	20.127074
479.517186	19.980177
479.949219	19.822089
480.381235	19.672250
480.813236	19.528036
481.245221	19.400284
481.677191	19.273874
482.109146	19.137475
482.541084	19.017842
482.973008	18.895364
483.404915	18.781622
483.836807	18.686878
484.268683	18.596349
484.700544	18.507280
485.132388	18.439750
485.564217	18.375967
485.996031	18.344349
486.427828	18.319431
486.859610	18.308173
487.291376	18.317212
487.723126	18.343632
488.154860	18.387769
488.586579	18.448690
489.018281	18.540993
489.449968	18.652100
489.881639	18.785408
490.313293	18.941935
490.744932	19.111822
491.176555	19.288022
491.608162	19.500842
492.039753	19.730909
492.471328	19.983194
492.902886	20.261863
493.334429	20.576445
493.765956	20.909718
494.197466	21.268135
494.628960	21.623868
495.060439	21.996422
495.491901	22.399429
495.923347	22.812054
496.354776	23.241618
496.786190	23.686857
497.217587	24.140112
497.648968	24.614575
498.080332	25.112260
498.511681	25.611367
498.943013	26.142360
499.374328	26.687880
499.805628	27.264656
500.236911	27.868362
500.668177	28.470563
501.099427	29.087776
501.530661	29.717798
501.961878	30.351949
502.393079	30.994597
502.824264	31.623935
503.255431	32.250334
503.686583	32.871426
504.117717	33.497453
504.548835	34.127186
504.979937	34.752701
505.411022	35.383390
505.842090	36.035534
506.273142	36.680053
506.704177	37.325919
507.135195	37.979335
507.566197	38.648872
507.997182	39.317255
508.428150	39.997065
508.859102	40.695748
509.290036	41.378331
509.720954	42.075979
510.151855	42.781661
510.582739	43.483832
511.013607	44.199044
511.444457	44.907714
511.875291	45.639387
512.306107	46.364841
512.736907	47.075799
513.167690	47.794417
513.598456	48.501679
514.029205	49.230103
514.459936	49.969663
514.890651	50.715531
515.321349	51.450688
515.752030	52.202214
516.182693	52.949445
516.613340	53.694286
517.043969	54.461869
517.474582	55.231265
517.905177	56.009697
518.335755	56.770738
518.766315	57.514651
519.196859	58.245635
519.627385	58.968184
520.057894	59.677205
520.488386	60.359432
520.918860	61.034654
521.349318	61.731193
521.779757	62.416141
522.210180	63.080085
522.640585	63.754862
523.070973	64.417256
523.501343	65.064583
523.931696	65.725006
524.362031	66.356972
524.792349	66.991907
525.222650	67.601785
525.652933	68.227400
526.083198	68.844442
526.513446	69.433484
526.943677	70.030985
527.373890	70.613425
527.804085	71.190621
528.234262	71.730224
528.664422	72.290056
529.094565	72.818288
529.524689	73.343472
529.954796	73.885965
530.384885	74.396159
530.814957	74.891894
531.245011	75.393102
531.675047	75.885204
532.105065	76.390754
532.535065	76.881958
532.965048	77.376861
533.395013	77.879916
533.824959	78.376121
534.254888	78.853659
534.684799	79.339901
535.114693	79.825452
535.544568	80.311837
535.974425	80.795721
536.404264	81.275275
536.834086	81.749936
537.263889	82.201636
537.693674	82.665145
538.123441	83.128321
538.553190	83.580075
538.982921	84.004302
539.412634	84.432232
539.842329	84.854361
540.272006	85.263469
540.701664	85.657297
541.131304	86.034649
541.560926	86.421453
541.990530	86.799531
542.420116	87.167702
542.849683	87.535548
543.279232	87.883023
543.708763	88.215484
544.138275	88.545709
544.567769	88.862601
544.997245	89.166203
545.426702	89.459165
545.856141	89.732426
546.285562	90.020353
546.714964	90.285825
547.144347	90.558759
547.573713	90.819926
548.003059	91.074634
548.432387	91.335904
548.861697	91.604123
549.290988	91.847701
549.720260	92.103648
550.149514	92.339322
550.578750	92.575067
551.007966	92.803297
551.437164	93.027540
551.866344	93.270196
552.295504	93.502359
552.724646	93.732406
553.153769	93.958600
553.582874	94.179292
554.011960	94.399254
554.441027	94.604176
554.870075	94.815167
555.299104	95.012322
555.728115	95.186888
556.157106	95.374970
556.586079	95.537521
557.015033	95.686897
557.443968	95.812566
557.872884	95.937206
558.301781	96.070481
558.730659	96.169741
559.159518	96.287764
559.588358	96.378293
560.017180	96.454801
560.445982	96.539140
560.874765	96.630203
561.303528	96.710155
561.732273	96.768405
562.160999	96.808509
562.589705	96.870506
563.018393	96.922096
563.447061	96.983807
563.875710	97.054362
564.304340	97.120266
564.732950	97.187360
565.161542	97.228546
565.590114	97.269454
566.018666	97.306659
566.447200	97.351660
566.875714	97.394577
567.304208	97.428379
567.732684	97.457473
568.161140	97.475106
568.589576	97.478803
569.017993	97.485520
569.446391	97.457609
569.874769	97.432262
570.303128	97.408928
570.731467	97.397630
571.159787	97.350350
571.588087	97.285342
572.016368	97.240166
572.444629	97.174424
572.872870	97.086642
573.301092	97.002233
573.729294	96.887546
574.157476	96.749871
574.585639	96.607527
575.013782	96.444831
575.441906	96.287934
575.870009	96.100623
576.298093	95.910028
576.726157	95.702415
577.154202	95.477931
577.582226	95.243898
578.010231	94.999619
578.438216	94.758584
578.866181	94.519785
579.294126	94.253750
579.722051	93.981687
580.149957	93.701390
580.577842	93.431755
581.005707	93.156864
581.433553	92.896775
581.861378	92.618398
582.289184	92.356676
582.716969	92.092768
583.144734	91.818968
583.572479	91.569330
584.000205	91.294396
584.427910	91.026770
584.855594	90.782746
585.283259	90.508099
585.710904	90.230762
586.138528	89.974799
586.566132	89.697223
586.993716	89.434395
587.421280	89.166142
587.848823	88.885009
588.276346	88.624799
588.703849	88.340038
589.131332	88.034652
589.558794	87.716313
589.986236	87.380584
590.413657	87.048422
590.841058	86.687056
591.268438	86.308359
591.695799	85.915237
592.123138	85.515727
592.550458	85.118836
592.977756	84.700640
593.405034	84.287122
593.832292	83.848908
594.259529	83.391992
594.686746	82.906597
595.113942	82.434663
595.541117	81.939044
595.968272	81.448958
596.395406	80.957188
596.822519	80.449391
597.249612	79.949209
597.676684	79.448602
598.103735	78.923051
598.530766	78.422720
598.957775	77.916680
599.384764	77.403097
599.811733	76.902992
600.238680	76.378964
600.665606	75.867021
601.092512	75.349499
601.519397	74.817507
601.946261	74.286024
602.373104	73.758721
602.799926	73.222933
603.226727	72.688703
603.653507	72.130935
604.080266	71.576660
604.507004	71.020887
604.933721	70.455721
605.360417	69.890566
605.787092	69.321232
606.213746	68.753543
606.640379	68.177146
607.066991	67.601404
607.493581	67.040584
607.920150	66.503173
608.346699	65.963335
608.773226	65.435755
609.199731	64.910304
609.626216	64.390625
610.052679	63.874140
610.479121	63.359619
610.905542	62.851285
611.331941	62.348313
611.758319	61.841433
612.184676	61.348537
612.611011	60.854363
613.037325	60.360682
613.463617	59.880732
613.889888	59.391090
614.316138	58.917214
614.742366	58.444818
615.168573	57.990392
615.594758	57.537239
616.020921	57.106661
616.447063	56.690621
616.873184	56.303456
617.299283	55.932248
617.725360	55.582550
618.151416	55.268657
618.577450	54.956668
619.003462	54.678385
619.429453	54.419716
619.855422	54.184120
620.281369	53.982490
620.707295	53.799703
621.133199	53.620511
621.559081	53.471432
621.984941	53.339175
622.410779	53.225726
622.836596	53.133370
623.262391	53.048494
623.688163	52.986510
624.113914	52.930151
624.539644	52.895986
624.965351	52.867610
625.391036	52.855890
625.816699	52.846167
626.242340	52.846346
626.667960	52.844970
627.093557	52.865752
627.519132	52.890786
627.944685	52.921959
628.370216	52.944861
628.795725	52.998032
629.221212	53.033986
629.646677	53.082696
630.072119	53.137227
630.497540	53.192802
630.922938	53.250619
631.348314	53.297315
631.773668	53.360285
632.198999	53.419189
632.624308	53.479950
633.049595	53.533892
633.474860	53.585721
633.900102	53.634766
634.325322	53.676982
634.750520	53.705860
635.175695	53.734376
635.600848	53.760806
636.025978	53.779648
636.451086	53.797667
636.876171	53.811769
637.301234	53.819801
637.726275	53.822534
638.151293	53.834482
638.576288	53.834131
639.001261	53.842294
639.426211	53.854924
639.851139	53.884620
640.276044	53.910840
640.700927	53.937793
641.125787	53.967445
641.550624	54.017343
641.975438	54.067373
642.400230	54.133364
642.824999	54.201846
643.249745	54.266989
643.674469	54.343730
644.099169	54.432737
644.523847	54.531520
644.948502	54.637572
645.373135	54.742600
645.797744	54.854701
646.222330	54.977274
646.646894	55.106247
647.071435	55.248633
647.495953	55.408096
647.920447	55.575897
648.344919	55.749409
648.769368	55.925512
649.193794	56.117317
649.618197	56.309413
650.042576	56.512526
650.466933	56.726503
650.891267	56.954367
651.315577	57.178851
651.739864	57.409152
652.164129	57.641647
652.588370	57.871032
653.012587	58.102809
653.436782	58.326864
653.860953	58.555667
654.285102	58.786601
654.709226	59.012427
655.133328	59.232596
655.557406	59.455814
655.981461	59.683666
656.405493	59.904908
656.829501	60.125329
657.253486	60.348581
657.677448	60.561046
658.101386	60.768534
658.525301	60.979464
658.949192	61.186567
659.373060	61.391372
659.796904	61.591468
660.220725	61.782596
660.644522	61.965812
661.068296	62.156517
661.492046	62.340645
661.915772	62.542943
662.339475	62.725496
662.763154	62.921534
663.186810	63.109767
663.610442	63.303508
664.034050	63.493030
664.457635	63.677310
664.881196	63.866734
665.304733	64.062748
665.728247	64.260957
666.151736	64.462429
666.575202	64.671745
666.998644	64.878583
667.422062	65.076435
667.845457	65.272648
668.268827	65.460463
668.692174	65.646050
669.115496	65.829723
669.538795	66.006563
669.962070	66.176724
670.385321	66.320101
670.808547	66.479948
671.231750	66.623589
671.654929	66.752831
672.078084	66.888242
672.501214	66.991190
672.924321	67.095274
673.347404	67.198700
673.770462	67.285080
674.193496	67.352748
674.616506	67.421073
675.039492	67.459581
675.462454	67.501146
675.885391	67.528589
676.308305	67.544641
676.731194	67.552545
677.154058	67.542804
677.576899	67.538288
677.999715	67.521767
678.422507	67.486373
678.845274	67.446404
679.268017	67.394001
679.690736	67.336157
680.113430	67.272817
680.536100	67.215129
680.958746	67.155602
681.381367	67.108995
681.803963	67.057123
682.226535	66.997964
682.649083	66.951681
683.071605	66.916110
683.494104	66.885592
683.916578	66.848313
684.339027	66.827723
684.761451	66.811320
685.183851	66.786984
685.606227	66.792656
686.028577	66.787692
686.450903	66.783174
686.873204	66.792969
687.295481	66.809220
687.717733	66.822167
688.139959	66.841033
688.562162	66.872661
688.984339	66.916270
689.406492	66.972145
689.828619	67.028170
690.250722	67.103888
690.672800	67.175911
691.094853	67.264132
691.516881	67.370336
691.938884	67.488248
692.360863	67.611537
692.782816	67.740932
693.204744	67.872234
693.626647	68.007382
694.048526	68.155624
694.470379	68.297689
694.892207	68.448376
695.314010	68.603635
695.735788	68.766822
696.157540	68.907645
696.579268	69.072767
697.000970	69.231433
697.422648	69.400259
697.844300	69.568389
698.265926	69.744419
698.687528	69.918078
699.109104	70.101161
699.530655	70.295558
699.952181	70.495726
700.373681	70.708802
700.795156	70.924581
701.216606	71.160199
701.638030	71.398952
702.059429	71.635124
702.480803	71.896014
702.902151	72.161178
703.323473	72.424471
703.744770	72.697398
704.166042	72.973930
704.587288	73.260843
705.008509	73.561282
705.429704	73.857965
705.850873	74.168471
706.272017	74.485965
706.693135	74.817833
707.114228	75.135587
707.535295	75.470594
707.956336	75.807402
708.377352	76.136011
708.798342	76.471525
709.219306	76.815202
709.640245	77.154340
710.061157	77.509649
710.482044	77.842785
710.902905	78.188888
711.323741	78.536457
711.744550	78.880958
712.165334	79.241459
712.586092	79.591789
713.006823	79.951563
713.427529	80.303924
713.848209	80.670706
714.268863	81.035350
714.689492	81.402292
715.110094	81.769318
715.530670	82.117013
715.951220	82.492863
716.371744	82.859140
716.792242	83.240105
717.212714	83.615691
717.633159	84.000750
718.053579	84.388279
718.473973	84.776134
718.894340	85.171418
719.314681	85.577721
719.734996	85.974938
720.155285	86.378327
720.575547	86.778978
720.995784	87.184285
721.415994	87.600785
721.836177	88.003655
722.256335	88.422132
722.676466	88.821653
723.096570	89.206770
723.516649	89.605400
723.936701	89.989988
724.356726	90.346803
724.776725	90.703438
725.196698	91.040460
725.616644	91.368278
726.036564	91.665622
726.456457	91.960670
726.876324	92.235445
727.296164	92.491780
727.715977	92.741870
728.135764	92.978374
728.555525	93.202999
728.975258	93.392160
729.394966	93.574172
729.814646	93.750307
730.234300	93.911440
730.653927	94.059365
731.073527	94.180823
731.493101	94.304074
731.912648	94.413132
732.332168	94.507569
732.751661	94.601507
733.171128	94.692345
733.590568	94.770023
734.009980	94.835560
734.429366	94.897623
734.848726	94.959167
735.268058	95.022908
735.687363	95.081366
736.106641	95.143451
736.525893	95.183619
736.945117	95.224384
737.364314	95.281661
737.783485	95.326767
738.202628	95.367195
738.621744	95.402925
739.040834	95.450754
739.459896	95.500014
739.878931	95.546838
740.297939	95.585926
740.716919	95.623931
741.135873	95.665956
741.554799	95.725680
741.973698	95.798346
742.392570	95.874015
742.811415	95.940217
743.230232	96.019292
743.649022	96.104064
744.067785	96.188607
744.486521	96.289026
744.905229	96.397169
745.323909	96.500624
745.742563	96.610759
746.161189	96.726349
746.579787	96.853249
746.998358	96.976148
747.416902	97.107982
747.835418	97.238415
748.253907	97.376279
748.672368	97.525138
749.090802	97.656178
749.509208	97.803549
749.927586	97.950094
750.345937	98.104110
750.764261	98.261483
751.182556	98.414756
751.600824	98.564158
752.019065	98.722935
752.437277	98.873829
752.855462	99.032944
753.273620	99.196660
753.691749	99.357071
754.109851	99.500568
