Time1=100ms:Average1=5:Objective=10X:Aperture=1: (11/21/2018 2:28:12 PM)
11/21/2018 2:28:12 PM
Reflectance
10X
Ap#: 1
Avg1: 5.000000
Avg2: 0.000000
Int.Time1:100.000000

350.166136	67.057183
350.601937	67.452376
351.037728	67.473777
351.473509	67.411765
351.909281	68.034557
352.345042	68.470426
352.780794	68.009081
353.216536	67.830646
353.652267	68.033274
354.087989	67.834868
354.523701	67.947452
354.959403	68.285460
355.395095	68.546552
355.830777	68.448139
356.266449	67.980636
356.702110	68.064580
357.137762	68.343630
357.573404	68.126592
358.009035	67.889998
358.444656	67.967448
358.880268	67.955100
359.315869	67.952725
359.751459	67.960501
360.187040	68.335774
360.622610	68.753680
361.058170	68.631890
361.493720	68.352060
361.929260	68.163947
362.364789	67.878309
362.800308	67.728847
363.235816	67.747979
363.671314	67.870143
364.106802	68.020854
364.542279	68.029960
364.977746	67.920812
365.413203	67.719576
365.848649	67.306171
366.284084	67.525263
366.719509	68.180472
367.154924	67.868075
367.590328	67.960209
368.025721	67.731126
368.461104	67.842324
368.896477	68.114795
369.331838	67.612852
369.767189	68.418453
370.202530	68.500347
370.637859	68.057769
371.073178	68.068148
371.508486	67.934296
371.943784	67.590385
372.379071	67.342074
372.814347	67.098882
373.249612	67.230800
373.684866	67.231638
374.120110	66.716049
374.555343	67.306741
374.990565	67.261197
375.425776	67.409609
375.860976	67.611896
376.296165	67.705969
376.731343	67.503459
377.166511	67.648517
377.601667	67.718088
378.036812	67.681245
378.471946	67.727631
378.907070	67.731504
379.342182	67.960121
379.777283	68.325659
380.212373	68.020006
380.647452	67.767219
381.082520	67.577360
381.517576	67.393430
381.952622	66.785887
382.387656	66.372530
382.822679	66.478253
383.257691	65.756824
383.692692	65.450562
384.127681	65.897217
384.562659	65.567245
384.997626	65.592820
385.432581	65.391897
385.867525	65.589354
386.302458	65.550602
386.737379	65.750166
387.172289	65.248766
387.607188	65.487481
388.042075	64.850316
388.476951	65.239128
388.911815	64.616253
389.346668	64.248899
389.781509	64.324578
390.216338	64.478981
390.651157	64.212889
391.085963	63.713001
391.520758	63.686627
391.955541	63.698184
392.390313	63.584624
392.825073	63.105440
393.259821	62.730730
393.694558	62.458318
394.129283	62.867715
394.563996	62.696650
394.998698	63.095459
395.433388	63.383438
395.868066	63.257469
396.302732	62.988892
396.737386	62.844378
397.172029	62.857674
397.606659	62.670853
398.041278	62.619397
398.475885	62.351652
398.910480	62.167892
399.345063	61.327516
399.779634	60.686805
400.214194	59.382402
400.648741	58.627212
401.083276	57.531321
401.517799	56.135864
401.952310	54.286932
402.386809	53.067496
402.821296	51.367617
403.255771	49.474518
403.690234	47.241413
404.124684	45.192935
404.559123	43.153551
404.993549	40.905474
405.427963	38.605761
405.862365	36.549561
406.296754	34.619070
406.731131	32.770515
407.165496	31.008470
407.599849	29.040988
408.034190	27.400176
408.468518	25.830258
408.902833	24.368559
409.337137	23.083352
409.771428	21.866883
410.205706	20.616837
410.639973	19.657693
411.074226	18.654819
411.508467	17.770574
411.942696	16.926035
412.376912	16.277663
412.811116	15.717274
413.245307	15.190773
413.679486	14.651648
414.113652	14.105712
414.547805	13.620133
414.981946	13.208010
415.416074	12.824609
415.850190	12.547240
416.284293	12.260336
416.718383	12.001307
417.152460	11.721204
417.586525	11.519565
418.020577	11.301251
418.454616	11.063551
418.888643	10.852683
419.322656	10.691374
419.756657	10.530029
420.190645	10.350775
420.624620	10.194611
421.058582	10.037224
421.492531	9.887332
421.926468	9.779362
422.360391	9.665312
422.794301	9.571139
423.228199	9.491789
423.662083	9.472736
424.095955	9.399263
424.529813	9.376087
424.963658	9.344576
425.397491	9.299950
425.831310	9.229913
426.265116	9.144577
426.698909	9.077651
427.132689	9.016137
427.566455	8.993444
428.000209	8.988644
428.433949	8.962500
428.867676	8.946597
429.301389	8.915646
429.735090	8.878157
430.168777	8.856515
430.602451	8.806105
431.036111	8.741735
431.469759	8.690829
431.903392	8.634872
432.337013	8.583606
432.770620	8.524169
433.204213	8.485419
433.637794	8.464007
434.071360	8.442952
434.504914	8.451954
434.938453	8.469024
435.371979	8.477915
435.805492	8.497403
436.238991	8.496036
436.672477	8.507702
437.105949	8.491985
437.539407	8.472102
437.972852	8.428579
438.406283	8.419938
438.839700	8.429147
439.273104	8.406708
439.706494	8.420134
440.139871	8.431872
440.573233	8.470914
441.006582	8.478230
441.439917	8.482093
441.873238	8.495891
442.306546	8.489666
442.739839	8.483442
443.173119	8.470816
443.606385	8.443531
444.039636	8.441414
444.472874	8.444160
444.906099	8.450211
445.339309	8.475986
445.772505	8.500961
446.205687	8.545126
446.638855	8.572561
447.072009	8.612026
447.505149	8.656979
447.938275	8.710371
448.371387	8.752429
448.804485	8.772231
449.237569	8.805537
449.670638	8.831874
450.103694	8.844487
450.536735	8.863405
450.969762	8.884654
451.402774	8.913539
451.835773	8.932720
452.268757	8.972835
452.701727	9.046292
453.134683	9.109989
453.567624	9.173834
454.000551	9.216039
454.433464	9.277617
454.866362	9.308046
455.299246	9.346846
455.732116	9.392411
456.164971	9.431054
456.597811	9.474349
457.030638	9.525878
457.463449	9.589036
457.896246	9.634503
458.329029	9.689394
458.761797	9.756790
459.194551	9.821964
459.627290	9.878774
460.060014	9.957576
460.492724	10.030171
460.925419	10.108376
461.358099	10.190168
461.790765	10.256373
462.223416	10.340024
462.656052	10.400853
463.088674	10.472117
463.521281	10.537001
463.953873	10.622260
464.386450	10.695774
464.819012	10.774456
465.251560	10.861655
465.684093	10.938113
466.116611	11.019340
466.549114	11.126803
466.981602	11.216713
467.414075	11.324954
467.846533	11.413682
468.278977	11.516044
468.711405	11.618972
469.143818	11.715218
469.576216	11.803066
470.008600	11.886863
470.440968	11.948957
470.873321	12.009886
471.305659	12.080775
471.737982	12.137118
472.170289	12.200110
472.602582	12.255820
473.034859	12.328110
473.467122	12.394747
473.899369	12.468593
474.331600	12.541730
474.763817	12.624254
475.196018	12.726225
475.628204	12.831577
476.060375	12.940776
476.492530	13.049662
476.924670	13.150931
477.356795	13.233683
477.788904	13.323207
478.220998	13.395593
478.653076	13.464104
479.085139	13.524677
479.517186	13.571496
479.949219	13.600720
480.381235	13.658664
480.813236	13.716166
481.245221	13.788303
481.677191	13.855298
482.109146	13.920051
482.541084	13.990525
482.973008	14.045144
483.404915	14.100815
483.836807	14.152124
484.268683	14.187885
484.700544	14.198278
485.132388	14.207362
485.564217	14.199361
485.996031	14.177259
486.427828	14.141992
486.859610	14.097998
487.291376	14.046893
487.723126	14.003359
488.154860	13.956729
488.586579	13.908832
489.018281	13.867825
489.449968	13.840574
489.881639	13.836163
490.313293	13.840467
490.744932	13.848108
491.176555	13.862874
491.608162	13.870540
492.039753	13.880360
492.471328	13.865587
492.902886	13.849999
493.334429	13.826778
493.765956	13.787427
494.197466	13.740845
494.628960	13.689217
495.060439	13.658703
495.491901	13.644731
495.923347	13.638070
496.354776	13.654765
496.786190	13.697731
497.217587	13.761674
497.648968	13.837380
498.080332	13.934973
498.511681	14.036024
498.943013	14.145115
499.374328	14.257616
499.805628	14.372046
500.236911	14.478363
500.668177	14.585432
501.099427	14.676744
501.530661	14.762743
501.961878	14.857163
502.393079	14.941884
502.824264	15.038057
503.255431	15.128528
503.686583	15.240080
504.117717	15.378563
504.548835	15.531644
504.979937	15.721514
505.411022	15.916596
505.842090	16.159864
506.273142	16.425243
506.704177	16.706623
507.135195	16.994321
507.566197	17.291823
507.997182	17.598831
508.428150	17.887143
508.859102	18.163926
509.290036	18.420014
509.720954	18.667140
510.151855	18.899185
510.582739	19.116404
511.013607	19.350236
511.444457	19.588657
511.875291	19.848081
512.306107	20.115553
512.736907	20.417925
513.167690	20.733061
513.598456	21.081531
514.029205	21.441975
514.459936	21.821513
514.890651	22.208740
515.321349	22.570409
515.752030	22.928073
516.182693	23.252196
516.613340	23.551618
517.043969	23.812844
517.474582	24.037860
517.905177	24.237474
518.335755	24.403347
518.766315	24.541034
519.196859	24.652812
519.627385	24.748947
520.057894	24.829684
520.488386	24.914306
520.918860	25.008688
521.349318	25.117042
521.779757	25.242851
522.210180	25.379526
522.640585	25.546565
523.070973	25.735155
523.501343	25.942242
523.931696	26.177083
524.362031	26.390922
524.792349	26.600523
525.222650	26.795002
525.652933	26.966759
526.083198	27.104606
526.513446	27.200599
526.943677	27.260424
527.373890	27.288131
527.804085	27.296717
528.234262	27.276047
528.664422	27.271357
529.094565	27.278175
529.524689	27.310724
529.954796	27.365877
530.384885	27.458516
530.814957	27.570427
531.245011	27.715642
531.675047	27.885512
532.105065	28.078570
532.535065	28.271949
532.965048	28.469616
533.395013	28.651008
533.824959	28.804296
534.254888	28.930558
534.684799	29.012374
535.114693	29.070585
535.544568	29.104874
535.974425	29.109451
536.404264	29.084376
536.834086	29.032578
537.263889	28.949747
537.693674	28.874575
538.123441	28.808407
538.553190	28.732468
538.982921	28.679779
539.412634	28.650009
539.842329	28.651951
540.272006	28.681165
540.701664	28.737919
541.131304	28.822149
541.560926	28.949821
541.990530	29.091227
542.420116	29.254415
542.849683	29.426470
543.279232	29.604034
543.708763	29.780209
544.138275	29.964627
544.567769	30.132224
544.997245	30.276554
545.426702	30.412856
545.856141	30.533696
546.285562	30.640046
546.714964	30.740250
547.144347	30.849637
547.573713	30.946600
548.003059	31.064991
548.432387	31.187642
548.861697	31.330226
549.290988	31.489886
549.720260	31.686718
550.149514	31.902172
550.578750	32.142134
551.007966	32.409132
551.437164	32.687387
551.866344	32.989623
552.295504	33.314269
552.724646	33.631164
553.153769	33.954207
553.582874	34.264638
554.011960	34.553416
554.441027	34.806342
554.870075	35.013715
555.299104	35.184045
555.728115	35.304875
556.157106	35.381165
556.586079	35.411659
557.015033	35.406556
557.443968	35.356641
557.872884	35.305211
558.301781	35.240873
558.730659	35.162479
559.159518	35.109462
559.588358	35.075071
560.017180	35.076276
560.445982	35.100987
560.874765	35.183088
561.303528	35.299849
561.732273	35.458189
562.160999	35.646194
562.589705	35.859052
563.018393	36.080482
563.447061	36.313497
563.875710	36.550839
564.304340	36.779037
564.732950	36.979990
565.161542	37.154511
565.590114	37.284735
566.018666	37.383562
566.447200	37.444467
566.875714	37.468593
567.304208	37.466735
567.732684	37.449286
568.161140	37.432277
568.589576	37.416813
569.017993	37.407716
569.446391	37.425538
569.874769	37.474613
570.303128	37.568988
570.731467	37.729232
571.159787	37.912190
571.588087	38.152178
572.016368	38.445294
572.444629	38.765398
572.872870	39.111345
573.301092	39.463268
573.729294	39.804909
574.157476	40.113628
574.585639	40.390609
575.013782	40.610416
575.441906	40.775846
575.870009	40.874029
576.298093	40.914862
576.726157	40.891098
577.154202	40.819070
577.582226	40.691651
578.010231	40.551655
578.438216	40.405937
578.866181	40.268582
579.294126	40.140733
579.722051	40.040254
580.149957	39.980416
580.577842	39.968590
581.005707	40.006507
581.433553	40.078403
581.861378	40.198552
582.289184	40.358676
582.716969	40.541677
583.144734	40.752966
583.572479	40.979762
584.000205	41.200800
584.427910	41.430485
584.855594	41.653719
585.283259	41.861110
585.710904	42.054265
586.138528	42.234930
586.566132	42.387549
586.993716	42.545905
587.421280	42.678120
587.848823	42.804175
588.276346	42.924633
588.703849	43.042831
589.131332	43.165273
589.558794	43.292762
589.986236	43.425268
590.413657	43.578823
590.841058	43.749492
591.268438	43.943401
591.695799	44.147913
592.123138	44.385541
592.550458	44.667367
592.977756	44.976770
593.405034	45.318853
593.832292	45.695584
594.259529	46.095938
594.686746	46.523166
595.113942	46.958491
595.541117	47.397237
595.968272	47.846750
596.395406	48.272351
596.822519	48.656179
597.249612	49.020129
597.676684	49.331387
598.103735	49.589672
598.530766	49.801815
598.957775	49.942281
599.384764	50.034676
599.811733	50.097054
600.238680	50.097876
600.665606	50.096599
601.092512	50.069967
601.519397	50.049656
601.946261	50.030796
602.373104	50.022202
602.799926	50.035664
603.226727	50.088955
603.653507	50.160109
604.080266	50.259869
604.507004	50.375680
604.933721	50.520894
605.360417	50.658178
605.787092	50.795169
606.213746	50.929124
606.640379	51.042370
607.066991	51.148705
607.493581	51.239609
607.920150	51.330884
608.346699	51.412788
608.773226	51.495850
609.199731	51.560642
609.626216	51.647526
610.052679	51.761281
610.479121	51.872453
610.905542	52.011221
611.331941	52.162565
611.758319	52.341478
612.184676	52.566332
612.611011	52.790717
613.037325	53.038047
613.463617	53.304278
613.889888	53.569865
614.316138	53.846630
614.742366	54.122817
615.168573	54.400165
615.594758	54.674049
616.020921	54.944855
616.447063	55.204162
616.873184	55.464773
617.299283	55.732335
617.725360	55.996158
618.151416	56.271674
618.577450	56.549512
619.003462	56.848679
619.429453	57.158656
619.855422	57.490580
620.281369	57.820669
620.707295	58.141849
621.133199	58.432664
621.559081	58.711632
621.984941	58.956825
622.410779	59.173297
622.836596	59.338286
623.262391	59.442989
623.688163	59.504284
624.113914	59.515276
624.539644	59.479528
624.965351	59.393315
625.391036	59.258261
625.816699	59.093707
626.242340	58.900640
626.667960	58.697271
627.093557	58.484804
627.519132	58.262764
627.944685	58.030664
628.370216	57.794212
628.795725	57.580492
629.221212	57.350025
629.646677	57.126668
630.072119	56.902617
630.497540	56.665565
630.922938	56.429275
631.348314	56.170161
631.773668	55.905228
632.198999	55.625679
632.624308	55.331216
633.049595	55.031249
633.474860	54.727067
633.900102	54.429322
634.325322	54.157631
634.750520	53.898142
635.175695	53.672862
635.600848	53.498085
636.025978	53.368781
636.451086	53.297759
636.876171	53.278643
637.301234	53.299760
637.726275	53.386969
638.151293	53.517469
638.576288	53.683224
639.001261	53.887798
639.426211	54.112186
639.851139	54.353258
640.276044	54.598969
640.700927	54.842872
641.125787	55.079404
641.550624	55.297352
641.975438	55.496722
642.400230	55.668101
642.824999	55.816700
643.249745	55.927017
643.674469	56.022937
644.099169	56.085696
644.523847	56.142772
644.948502	56.187233
645.373135	56.203381
645.797744	56.218091
646.222330	56.220827
646.646894	56.211235
647.071435	56.209210
647.495953	56.188609
647.920447	56.174203
648.344919	56.149566
648.769368	56.096259
649.193794	56.034381
649.618197	55.946040
650.042576	55.845559
650.466933	55.750723
650.891267	55.625039
651.315577	55.490849
651.739864	55.351173
652.164129	55.201284
652.588370	55.046697
653.012587	54.892797
653.436782	54.743578
653.860953	54.605439
654.285102	54.474075
654.709226	54.357406
655.133328	54.245917
655.557406	54.158848
655.981461	54.088690
656.405493	54.039273
656.829501	53.993804
657.253486	53.964562
657.677448	53.932934
658.101386	53.910584
658.525301	53.901021
658.949192	53.891693
659.373060	53.877793
659.796904	53.861083
660.220725	53.846348
660.644522	53.824345
661.068296	53.807691
661.492046	53.785216
661.915772	53.783297
662.339475	53.794038
662.763154	53.829733
663.186810	53.890610
663.610442	53.966957
664.034050	54.087471
664.457635	54.247756
664.881196	54.457453
665.304733	54.708121
665.728247	55.000513
666.151736	55.331396
666.575202	55.698713
666.998644	56.098637
667.422062	56.522385
667.845457	56.962378
668.268827	57.414723
668.692174	57.862711
669.115496	58.299601
669.538795	58.712887
669.962070	59.092828
670.385321	59.447307
670.808547	59.749707
671.231750	60.000201
671.654929	60.192807
672.078084	60.335183
672.501214	60.415070
672.924321	60.456097
673.347404	60.432174
673.770462	60.377078
674.193496	60.266263
674.616506	60.130064
675.039492	59.971613
675.462454	59.792926
675.885391	59.584031
676.308305	59.360890
676.731194	59.141857
677.154058	58.923155
677.576899	58.708609
677.999715	58.492548
678.422507	58.296971
678.845274	58.117123
679.268017	57.959039
679.690736	57.817760
680.113430	57.694099
680.536100	57.608085
680.958746	57.557950
681.381367	57.524091
681.803963	57.522916
682.226535	57.544567
682.649083	57.600360
683.071605	57.704566
683.494104	57.817038
683.916578	57.970290
684.339027	58.154901
684.761451	58.367490
685.183851	58.594814
685.606227	58.840888
686.028577	59.084289
686.450903	59.343067
686.873204	59.588542
687.295481	59.831755
687.717733	60.057780
688.139959	60.251636
688.562162	60.418662
688.984339	60.557095
689.406492	60.655767
689.828619	60.703019
690.250722	60.695647
690.672800	60.632813
691.094853	60.520938
691.516881	60.353599
691.938884	60.142907
692.360863	59.876012
692.782816	59.582626
693.204744	59.260535
693.626647	58.911881
694.048526	58.542541
694.470379	58.174933
694.892207	57.818850
695.314010	57.482073
695.735788	57.167977
696.157540	56.867763
696.579268	56.621288
697.000970	56.413847
697.422648	56.255663
697.844300	56.139586
698.265926	56.076812
698.687528	56.074266
699.109104	56.118811
699.530655	56.210196
699.952181	56.360086
700.373681	56.553992
700.795156	56.799022
701.216606	57.081048
701.638030	57.397070
702.059429	57.742088
702.480803	58.112410
702.902151	58.502115
703.323473	58.906745
703.744770	59.311814
704.166042	59.709659
704.587288	60.108199
705.008509	60.499442
705.429704	60.894955
705.850873	61.268934
706.272017	61.623759
706.693135	61.967403
707.114228	62.300897
707.535295	62.619255
707.956336	62.910764
708.377352	63.181021
708.798342	63.452953
709.219306	63.705294
709.640245	63.950343
710.061157	64.187280
710.482044	64.410038
710.902905	64.637105
711.323741	64.868122
711.744550	65.093696
712.165334	65.340235
712.586092	65.589909
713.006823	65.849295
713.427529	66.118368
713.848209	66.384106
714.268863	66.669878
714.689492	66.959533
715.110094	67.261275
715.530670	67.577642
715.951220	67.906269
716.371744	68.244007
716.792242	68.605211
717.212714	68.978648
717.633159	69.366033
718.053579	69.749983
718.473973	70.128539
718.894340	70.504576
719.314681	70.888333
719.734996	71.248559
720.155285	71.588377
720.575547	71.908706
720.995784	72.199564
721.415994	72.463910
721.836177	72.667378
722.256335	72.840265
722.676466	72.955656
723.096570	73.022719
723.516649	73.036563
723.936701	72.997013
724.356726	72.887184
724.776725	72.724324
725.196698	72.496706
725.616644	72.220421
726.036564	71.895316
726.456457	71.532431
726.876324	71.142238
727.296164	70.721322
727.715977	70.308347
728.135764	69.896123
728.555525	69.486149
728.975258	69.090737
729.394966	68.722307
729.814646	68.381616
730.234300	68.083254
730.653927	67.832890
731.073527	67.639310
731.493101	67.491573
731.912648	67.406773
732.332168	67.385753
732.751661	67.427956
733.171128	67.534998
733.590568	67.697796
734.009980	67.939429
734.429366	68.242188
734.848726	68.607008
735.268058	69.033564
735.687363	69.500853
736.106641	70.015978
736.525893	70.560915
736.945117	71.118872
737.364314	71.704097
737.783485	72.303785
738.202628	72.913858
738.621744	73.520394
739.040834	74.116945
739.459896	74.699723
739.878931	75.247056
740.297939	75.763280
740.716919	76.214902
741.135873	76.628287
741.554799	76.980605
741.973698	77.276685
742.392570	77.507778
742.811415	77.675108
743.230232	77.768026
743.649022	77.793004
744.067785	77.742425
744.486521	77.643119
744.905229	77.484935
745.323909	77.255537
745.742563	76.997823
746.161189	76.693488
746.579787	76.366780
746.998358	76.002805
747.416902	75.610843
747.835418	75.213478
748.253907	74.801811
748.672368	74.396711
749.090802	73.990589
749.509208	73.605697
749.927586	73.250299
750.345937	72.923512
750.764261	72.628543
751.182556	72.372623
751.600824	72.156372
752.019065	71.995849
752.437277	71.878906
752.855462	71.828542
753.273620	71.819050
753.691749	71.864777
754.109851	71.944090
754.527925	72.062930
754.945971	72.223789
755.363989	72.427425
755.781980	72.657591
