Time1=100ms:Average1=5:Objective=10X:Aperture=1: (11/21/2018 11:24:49 AM)
11/21/2018 11:24:49 AM
Reflectance
10X
Ap#: 1
Avg1: 5.000000
Avg2: 0.000000
Int.Time1:100.000000

350.166136	82.087107
350.601937	82.191917
351.037728	82.480935
351.473509	82.704943
351.909281	82.871357
352.345042	83.340139
352.780794	83.462876
353.216536	83.552833
353.652267	83.079284
354.087989	82.967201
354.523701	83.027148
354.959403	82.795480
355.395095	82.834678
355.830777	82.743859
356.266449	83.215926
356.702110	83.105300
357.137762	83.511559
357.573404	83.622015
358.009035	83.157571
358.444656	83.247740
358.880268	83.024691
359.315869	83.410613
359.751459	83.598644
360.187040	83.934089
360.622610	83.854328
361.058170	83.548088
361.493720	83.572535
361.929260	83.787973
362.364789	83.446432
362.800308	83.802383
363.235816	83.788238
363.671314	83.429099
364.106802	83.482189
364.542279	84.134468
364.977746	84.471025
365.413203	84.783957
365.848649	84.164859
366.284084	84.284397
366.719509	84.198113
367.154924	84.649348
367.590328	84.399631
368.025721	84.613022
368.461104	84.773916
368.896477	84.917059
369.331838	84.797297
369.767189	84.136322
370.202530	84.233636
370.637859	83.936514
371.073178	84.249975
371.508486	84.658284
371.943784	84.915237
372.379071	85.097324
372.814347	85.152039
373.249612	85.243232
373.684866	84.587415
374.120110	84.711120
374.555343	84.461305
374.990565	84.596799
375.425776	84.659491
375.860976	84.905280
376.296165	84.338806
376.731343	84.507466
377.166511	84.502513
377.601667	84.486037
378.036812	84.225832
378.471946	84.084324
378.907070	83.659023
379.342182	84.325239
379.777283	84.117823
380.212373	83.735478
380.647452	83.593750
381.082520	83.652706
381.517576	83.468140
381.952622	83.720699
382.387656	83.867106
382.822679	83.843317
383.257691	84.175758
383.692692	83.947788
384.127681	84.155740
384.562659	83.522050
384.997626	83.716779
385.432581	83.132886
385.867525	82.888911
386.302458	83.175007
386.737379	83.013323
387.172289	82.873361
387.607188	82.226107
388.042075	82.743191
388.476951	82.647202
388.911815	82.454775
389.346668	82.400467
389.781509	82.344895
390.216338	82.148097
390.651157	82.458024
391.085963	82.865830
391.520758	82.628694
391.955541	82.998333
392.390313	82.313455
392.825073	82.305447
393.259821	82.512966
393.694558	83.133360
394.129283	83.106853
394.563996	83.290791
394.998698	83.410639
395.433388	83.431373
395.868066	83.685595
396.302732	83.328456
396.737386	83.438747
397.172029	83.490246
397.606659	82.991486
398.041278	82.586489
398.475885	81.889538
398.910480	81.800848
399.345063	81.691937
399.779634	80.483924
400.214194	79.352879
400.648741	78.356550
401.083276	77.230933
401.517799	75.494548
401.952310	73.449329
402.386809	71.037435
402.821296	68.493204
403.255771	66.229060
403.690234	63.749429
404.124684	60.866541
404.559123	57.685015
404.993549	54.791284
405.427963	51.706480
405.862365	49.241751
406.296754	46.707054
406.731131	44.288005
407.165496	41.937323
407.599849	39.868762
408.034190	37.968665
408.468518	36.172629
408.902833	34.573821
409.337137	32.928477
409.771428	31.526896
410.205706	30.073467
410.639973	28.867943
411.074226	27.908739
411.508467	27.007157
411.942696	26.152586
412.376912	25.482044
412.811116	24.931560
413.245307	24.461097
413.679486	24.076598
414.113652	23.646182
414.547805	23.180551
414.981946	22.815652
415.416074	22.490345
415.850190	22.270003
416.284293	22.118932
416.718383	21.916010
417.152460	21.744222
417.586525	21.592930
418.020577	21.545058
418.454616	21.505220
418.888643	21.462115
419.322656	21.386733
419.756657	21.244380
420.190645	21.159425
420.624620	21.041860
421.058582	20.936116
421.492531	20.871307
421.926468	20.821476
422.360391	20.796471
422.794301	20.816890
423.228199	20.872374
423.662083	20.958133
424.095955	21.071162
424.529813	21.176557
424.963658	21.274884
425.397491	21.341825
425.831310	21.411445
426.265116	21.440625
426.698909	21.505051
427.132689	21.570333
427.566455	21.660577
428.000209	21.793028
428.433949	21.907654
428.867676	22.067751
429.301389	22.181421
429.735090	22.278081
430.168777	22.372564
430.602451	22.445614
431.036111	22.468225
431.469759	22.485700
431.903392	22.487227
432.337013	22.493444
432.770620	22.497580
433.204213	22.544195
433.637794	22.599628
434.071360	22.714117
434.504914	22.852787
434.938453	23.002684
435.371979	23.163579
435.805492	23.294887
436.238991	23.423167
436.672477	23.557668
437.105949	23.671429
437.539407	23.735725
437.972852	23.768634
438.406283	23.831157
438.839700	23.914453
439.273104	23.972181
439.706494	24.043791
440.139871	24.157404
440.573233	24.282003
441.006582	24.409210
441.439917	24.505003
441.873238	24.579285
442.306546	24.624789
442.739839	24.665938
443.173119	24.643371
443.606385	24.645998
444.039636	24.622723
444.472874	24.651111
444.906099	24.673632
445.339309	24.717566
445.772505	24.799039
446.205687	24.921882
446.638855	25.063390
447.072009	25.194447
447.505149	25.328287
447.938275	25.446443
448.371387	25.569821
448.804485	25.646095
449.237569	25.741460
449.670638	25.789839
450.103694	25.806205
450.536735	25.818716
450.969762	25.845431
451.402774	25.885452
451.835773	25.937643
452.268757	26.005017
452.701727	26.095685
453.134683	26.198596
453.567624	26.259400
454.000551	26.325233
454.433464	26.376576
454.866362	26.410183
455.299246	26.442356
455.732116	26.430588
456.164971	26.410532
456.597811	26.449826
457.030638	26.445583
457.463449	26.466174
457.896246	26.477766
458.329029	26.495997
458.761797	26.537777
459.194551	26.559685
459.627290	26.592691
460.060014	26.616071
460.492724	26.665170
460.925419	26.698470
461.358099	26.708717
461.790765	26.698467
462.223416	26.720410
462.656052	26.685184
463.088674	26.674422
463.521281	26.655325
463.953873	26.623089
464.386450	26.582781
464.819012	26.565596
465.251560	26.530949
465.684093	26.517748
466.116611	26.512490
466.549114	26.498467
466.981602	26.498755
467.414075	26.493369
467.846533	26.465514
468.278977	26.441877
468.711405	26.391224
469.143818	26.361807
469.576216	26.313323
470.008600	26.228030
470.440968	26.144497
470.873321	26.050982
471.305659	25.943380
471.737982	25.834601
472.170289	25.695621
472.602582	25.557164
473.034859	25.402034
473.467122	25.267505
473.899369	25.120063
474.331600	24.968286
474.763817	24.849807
475.196018	24.741956
475.628204	24.636216
476.060375	24.559497
476.492530	24.479348
476.924670	24.394994
477.356795	24.306356
477.788904	24.212392
478.220998	24.088405
478.653076	23.966896
479.085139	23.825702
479.517186	23.672282
479.949219	23.531472
480.381235	23.386521
480.813236	23.249356
481.245221	23.150842
481.677191	23.070588
482.109146	23.009626
482.541084	22.936903
482.973008	22.888451
483.404915	22.839695
483.836807	22.798564
484.268683	22.724626
484.700544	22.660660
485.132388	22.583725
485.564217	22.512870
485.996031	22.431616
486.427828	22.360953
486.859610	22.286297
487.291376	22.221993
487.723126	22.191269
488.154860	22.169197
488.586579	22.174528
489.018281	22.210902
489.449968	22.294044
489.881639	22.421806
490.313293	22.589608
490.744932	22.791247
491.176555	23.017350
491.608162	23.274214
492.039753	23.524427
492.471328	23.762554
492.902886	24.003553
493.334429	24.234612
493.765956	24.471580
494.197466	24.713790
494.628960	24.963327
495.060439	25.241576
495.491901	25.551907
495.923347	25.924194
496.354776	26.334424
496.786190	26.809693
497.217587	27.304001
497.648968	27.859555
498.080332	28.409988
498.511681	28.976570
498.943013	29.533399
499.374328	30.084866
499.805628	30.630798
500.236911	31.145410
500.668177	31.638769
501.099427	32.104462
501.530661	32.559210
501.961878	32.988616
502.393079	33.383693
502.824264	33.773913
503.255431	34.138537
503.686583	34.501889
504.117717	34.891213
504.548835	35.311342
504.979937	35.769436
505.411022	36.269815
505.842090	36.815978
506.273142	37.385328
506.704177	37.991160
507.135195	38.597156
507.566197	39.202512
507.997182	39.784634
508.428150	40.324045
508.859102	40.802952
509.290036	41.220607
509.720954	41.582031
510.151855	41.882636
510.582739	42.172362
511.013607	42.433985
511.444457	42.710411
511.875291	43.006969
512.306107	43.369148
512.736907	43.774077
513.167690	44.211029
513.598456	44.697780
514.029205	45.223169
514.459936	45.768610
514.890651	46.300979
515.321349	46.807431
515.752030	47.296421
516.182693	47.726881
516.613340	48.116545
517.043969	48.464411
517.474582	48.724364
517.905177	48.923400
518.335755	49.053300
518.766315	49.146777
519.196859	49.197159
519.627385	49.234468
520.057894	49.248965
520.488386	49.268942
520.918860	49.310796
521.349318	49.381928
521.779757	49.493839
522.210180	49.682385
522.640585	49.902842
523.070973	50.196631
523.501343	50.531871
523.931696	50.895741
524.362031	51.271060
524.792349	51.652706
525.222650	52.011234
525.652933	52.311188
526.083198	52.563594
526.513446	52.739713
526.943677	52.857455
527.373890	52.938099
527.804085	52.969846
528.234262	53.000359
528.664422	53.054332
529.094565	53.138530
529.524689	53.266505
529.954796	53.445942
530.384885	53.683929
530.814957	53.994310
531.245011	54.381015
531.675047	54.817010
532.105065	55.289536
532.535065	55.797668
532.965048	56.290940
533.395013	56.754032
533.824959	57.198159
534.254888	57.593603
534.684799	57.922225
535.114693	58.203373
535.544568	58.416858
535.974425	58.585930
536.404264	58.681720
536.834086	58.749387
537.263889	58.779286
537.693674	58.789865
538.123441	58.809367
538.553190	58.839390
538.982921	58.901576
539.412634	59.004517
539.842329	59.207581
540.272006	59.466063
540.701664	59.780672
541.131304	60.185768
541.560926	60.642943
541.990530	61.144723
542.420116	61.698668
542.849683	62.266757
543.279232	62.878152
543.708763	63.470919
544.138275	64.054856
544.567769	64.568456
544.997245	65.061661
545.426702	65.497894
545.856141	65.893679
546.285562	66.260915
546.714964	66.624689
547.144347	66.974235
547.573713	67.321839
548.003059	67.714502
548.432387	68.147706
548.861697	68.619802
549.290988	69.173079
549.720260	69.797457
550.149514	70.457936
550.578750	71.185249
551.007966	71.951348
551.437164	72.769842
551.866344	73.586964
552.295504	74.391492
552.724646	75.191999
553.153769	75.915093
553.582874	76.573797
554.011960	77.158821
554.441027	77.643475
554.870075	78.022650
555.299104	78.301817
555.728115	78.439894
556.157106	78.529366
556.586079	78.506399
557.015033	78.420301
557.443968	78.309867
557.872884	78.193875
558.301781	78.064909
558.730659	77.975462
559.159518	77.900210
559.588358	77.894576
560.017180	77.929513
560.445982	78.020128
560.874765	78.170461
561.303528	78.356352
561.732273	78.588367
562.160999	78.857020
562.589705	79.129205
563.018393	79.400414
563.447061	79.681201
563.875710	79.955539
564.304340	80.229698
564.732950	80.455456
565.161542	80.679321
565.590114	80.869126
566.018666	81.012749
566.447200	81.144953
566.875714	81.268972
567.304208	81.362343
567.732684	81.447828
568.161140	81.544360
568.589576	81.662280
569.017993	81.815685
569.446391	81.969345
569.874769	82.170840
570.303128	82.413209
570.731467	82.688488
571.159787	83.011086
571.588087	83.370954
572.016368	83.755021
572.444629	84.168923
572.872870	84.559113
573.301092	84.954609
573.729294	85.321528
574.157476	85.637223
574.585639	85.880648
575.013782	86.028478
575.441906	86.085297
575.870009	86.038529
576.298093	85.896279
576.726157	85.678792
577.154202	85.360266
577.582226	84.985391
578.010231	84.555001
578.438216	84.097262
578.866181	83.637552
579.294126	83.202768
579.722051	82.791484
580.149957	82.440281
580.577842	82.145151
581.005707	81.906879
581.433553	81.721470
581.861378	81.591613
582.289184	81.510904
582.716969	81.468596
583.144734	81.456118
583.572479	81.489464
584.000205	81.541234
584.427910	81.616583
584.855594	81.707797
585.283259	81.825175
585.710904	81.964760
586.138528	82.109430
586.566132	82.271733
586.993716	82.441768
587.421280	82.638143
587.848823	82.863382
588.276346	83.086598
588.703849	83.309053
589.131332	83.542282
589.558794	83.784267
589.986236	84.002500
590.413657	84.238621
590.841058	84.468852
591.268438	84.697258
591.695799	84.929505
592.123138	85.185367
592.550458	85.458830
592.977756	85.758528
593.405034	86.071340
593.832292	86.419190
594.259529	86.795041
594.686746	87.202892
595.113942	87.614728
595.541117	88.043332
595.968272	88.475973
596.395406	88.890305
596.822519	89.268603
597.249612	89.603282
597.676684	89.866045
598.103735	90.058480
598.530766	90.162258
598.957775	90.181437
599.384764	90.117774
599.811733	89.962624
600.238680	89.749017
600.665606	89.450639
601.092512	89.103438
601.519397	88.744608
601.946261	88.375242
602.373104	88.000044
602.799926	87.621000
603.226727	87.281995
603.653507	86.956664
604.080266	86.644354
604.507004	86.355865
604.933721	86.059025
605.360417	85.768855
605.787092	85.462400
606.213746	85.118751
606.640379	84.749023
607.066991	84.347141
607.493581	83.919041
607.920150	83.452068
608.346699	82.975808
608.773226	82.467374
609.199731	81.959398
609.626216	81.456851
610.052679	80.967540
610.479121	80.486519
610.905542	80.025098
611.331941	79.601926
611.758319	79.175155
612.184676	78.793642
612.611011	78.454303
613.037325	78.131061
613.463617	77.810279
613.889888	77.524144
614.316138	77.239890
614.742366	76.971762
615.168573	76.717089
615.594758	76.469617
616.020921	76.254509
616.447063	76.040717
616.873184	75.845219
617.299283	75.687962
617.725360	75.575069
618.151416	75.533754
618.577450	75.530308
619.003462	75.583604
619.429453	75.715850
619.855422	75.908881
620.281369	76.151524
620.707295	76.447225
621.133199	76.779909
621.559081	77.130871
621.984941	77.499853
622.410779	77.866703
622.836596	78.220273
623.262391	78.540615
623.688163	78.829708
624.113914	79.084323
624.539644	79.283636
624.965351	79.471484
625.391036	79.594093
625.816699	79.680719
626.242340	79.735306
626.667960	79.764584
627.093557	79.770330
627.519132	79.789701
627.944685	79.772316
628.370216	79.752200
628.795725	79.720261
629.221212	79.652973
629.646677	79.576478
630.072119	79.477446
630.497540	79.332374
630.922938	79.148184
631.348314	78.895162
631.773668	78.597560
632.198999	78.230854
632.624308	77.816584
633.049595	77.332213
633.474860	76.795720
633.900102	76.195406
634.325322	75.560623
634.750520	74.913108
635.175695	74.254696
635.600848	73.590333
636.025978	72.945893
636.451086	72.331665
636.876171	71.747743
637.301234	71.200856
637.726275	70.712424
638.151293	70.257629
638.576288	69.852503
639.001261	69.509104
639.426211	69.212238
639.851139	68.954447
640.276044	68.728795
640.700927	68.529624
641.125787	68.367020
641.550624	68.216606
641.975438	68.085284
642.400230	67.985990
642.824999	67.882834
643.249745	67.799635
643.674469	67.761086
644.099169	67.746026
644.523847	67.768928
644.948502	67.838917
645.373135	67.951598
645.797744	68.109918
646.222330	68.328117
646.646894	68.607905
647.071435	68.955860
647.495953	69.357101
647.920447	69.796154
648.344919	70.290548
648.769368	70.815481
649.193794	71.361728
649.618197	71.924886
650.042576	72.514995
650.466933	73.111831
650.891267	73.672489
651.315577	74.230439
651.739864	74.754487
652.164129	75.250419
652.588370	75.708908
653.012587	76.146220
653.436782	76.541633
653.860953	76.896557
654.285102	77.207562
654.709226	77.494810
655.133328	77.750320
655.557406	77.963058
655.981461	78.165329
656.405493	78.322648
656.829501	78.441637
657.253486	78.511638
657.677448	78.536128
658.101386	78.496247
658.525301	78.406485
658.949192	78.247727
659.373060	78.032513
659.796904	77.746769
660.220725	77.393068
660.644522	76.969397
661.068296	76.495552
661.492046	75.970508
661.915772	75.406463
662.339475	74.812950
662.763154	74.214336
663.186810	73.592972
663.610442	72.977336
664.034050	72.395761
664.457635	71.848762
664.881196	71.358769
665.304733	70.912195
665.728247	70.537956
666.151736	70.216105
666.575202	69.984132
666.998644	69.821919
667.422062	69.734680
667.845457	69.701477
668.268827	69.730772
668.692174	69.824231
669.115496	69.946489
669.538795	70.115748
669.962070	70.292178
670.385321	70.504820
670.808547	70.731832
671.231750	70.970960
671.654929	71.218604
672.078084	71.468707
672.501214	71.713557
672.924321	71.956424
673.347404	72.206915
673.770462	72.479219
674.193496	72.749005
674.616506	73.022671
675.039492	73.309001
675.462454	73.598454
675.885391	73.888447
676.308305	74.198170
676.731194	74.527591
677.154058	74.870635
677.576899	75.204562
677.999715	75.557272
678.422507	75.912495
678.845274	76.262659
679.268017	76.611956
679.690736	76.946633
680.113430	77.261540
680.536100	77.563674
680.958746	77.857681
681.381367	78.113012
681.803963	78.338124
682.226535	78.547673
682.649083	78.729446
683.071605	78.900279
683.494104	79.033245
683.916578	79.149367
684.339027	79.243965
684.761451	79.314566
685.183851	79.357386
685.606227	79.379784
686.028577	79.378924
686.450903	79.338296
686.873204	79.251253
687.295481	79.148334
687.717733	78.997539
688.139959	78.797091
688.562162	78.546997
688.984339	78.244684
689.406492	77.885950
689.828619	77.484235
690.250722	77.020459
690.672800	76.526897
691.094853	75.972687
691.516881	75.373308
691.938884	74.732992
692.360863	74.071117
692.782816	73.400555
693.204744	72.715461
693.626647	72.038078
694.048526	71.358180
694.470379	70.721322
694.892207	70.108504
695.314010	69.545045
695.735788	69.038574
696.157540	68.584518
696.579268	68.205430
697.000970	67.891629
697.422648	67.659640
697.844300	67.499318
698.265926	67.419802
698.687528	67.407143
699.109104	67.469660
699.530655	67.594034
699.952181	67.788384
700.373681	68.026795
700.795156	68.323723
701.216606	68.671754
701.638030	69.057685
702.059429	69.473369
702.480803	69.913429
702.902151	70.343401
703.323473	70.774004
703.744770	71.179610
704.166042	71.568096
704.587288	71.931579
705.008509	72.270183
705.429704	72.575508
705.850873	72.823852
706.272017	73.039969
706.693135	73.207600
707.114228	73.345131
707.535295	73.433592
707.956336	73.488015
708.377352	73.500136
708.798342	73.475262
709.219306	73.423455
709.640245	73.347246
710.061157	73.237810
710.482044	73.094528
710.902905	72.950035
711.323741	72.792759
711.744550	72.637914
712.165334	72.485297
712.586092	72.331375
713.006823	72.181259
713.427529	72.036117
713.848209	71.898072
714.268863	71.768365
714.689492	71.657200
715.110094	71.557826
715.530670	71.477742
715.951220	71.414635
716.371744	71.371712
716.792242	71.362865
717.212714	71.370959
717.633159	71.398915
718.053579	71.447528
718.473973	71.510701
718.894340	71.599860
719.314681	71.679521
719.734996	71.768924
720.155285	71.842198
720.575547	71.904032
720.995784	71.951014
721.415994	71.975652
721.836177	71.977375
722.256335	71.949144
722.676466	71.867066
723.096570	71.767722
723.516649	71.621894
723.936701	71.421437
724.356726	71.161917
724.776725	70.854122
725.196698	70.496150
725.616644	70.104002
726.036564	69.674394
726.456457	69.215393
726.876324	68.738233
727.296164	68.241191
727.715977	67.755964
728.135764	67.264847
728.555525	66.787577
728.975258	66.331131
729.394966	65.911399
729.814646	65.516414
730.234300	65.167937
730.653927	64.866726
731.073527	64.619258
731.493101	64.422823
731.912648	64.279549
732.332168	64.218230
732.751661	64.206199
733.171128	64.262799
733.590568	64.380369
734.009980	64.554981
734.429366	64.793197
734.848726	65.081126
735.268058	65.415285
735.687363	65.790318
736.106641	66.191656
736.525893	66.632314
736.945117	67.082722
737.364314	67.557481
737.783485	68.047058
738.202628	68.539126
738.621744	69.040879
739.040834	69.531175
739.459896	70.004876
739.878931	70.445864
740.297939	70.868838
740.716919	71.246399
741.135873	71.592768
741.554799	71.884636
741.973698	72.133645
742.392570	72.328646
742.811415	72.484420
743.230232	72.580304
743.649022	72.626069
744.067785	72.611683
744.486521	72.548236
744.905229	72.445954
745.323909	72.285458
745.742563	72.093157
746.161189	71.863110
746.579787	71.619763
746.998358	71.352156
747.416902	71.061068
747.835418	70.760666
748.253907	70.452221
748.672368	70.168047
749.090802	69.895613
749.509208	69.631736
749.927586	69.400596
750.345937	69.195677
750.764261	69.023846
751.182556	68.884602
751.600824	68.788742
752.019065	68.724061
752.437277	68.704748
752.855462	68.747556
753.273620	68.816413
753.691749	68.921403
754.109851	69.068359
