Time1=100ms:Average1=5:Objective=10X:Aperture=1: (11/21/2018 2:09:22 PM)
11/21/2018 2:09:22 PM
Reflectance
10X
Ap#: 1
Avg1: 5.000000
Avg2: 0.000000
Int.Time1:100.000000

350.166136	81.190144
350.601937	81.296902
351.037728	80.668562
351.473509	80.941176
351.909281	80.914981
352.345042	81.179026
352.780794	81.324647
353.216536	81.363142
353.652267	81.630026
354.087989	81.576082
354.523701	82.092058
354.959403	82.045208
355.395095	82.032255
355.830777	82.056611
356.266449	81.752618
356.702110	81.581020
357.137762	81.445523
357.573404	81.334509
358.009035	80.769231
358.444656	80.978527
358.880268	81.034651
359.315869	81.285407
359.751459	80.827141
360.187040	81.229868
360.622610	81.795878
361.058170	81.309055
361.493720	80.672186
361.929260	80.636918
362.364789	80.906756
362.800308	80.524493
363.235816	80.812463
363.671314	80.757501
364.106802	81.162699
364.542279	81.186558
364.977746	81.355264
365.413203	81.582335
365.848649	80.953323
366.284084	80.899544
366.719509	81.162997
367.154924	80.843290
367.590328	80.626416
368.025721	80.228662
368.461104	80.142264
368.896477	80.583869
369.331838	80.199093
369.767189	81.122197
370.202530	81.177520
370.637859	81.683267
371.073178	81.847165
371.508486	82.349428
371.943784	82.201033
372.379071	82.548669
372.814347	82.252796
373.249612	82.907759
373.684866	82.694023
374.120110	82.814815
374.555343	83.480154
374.990565	83.511692
375.425776	83.625557
375.860976	83.776307
376.296165	84.163789
376.731343	84.067998
377.166511	84.389567
377.601667	84.051257
378.036812	84.298660
378.471946	84.341742
378.907070	83.909848
379.342182	84.429675
379.777283	84.735966
380.212373	84.426792
380.647452	84.461644
381.082520	84.371328
381.517576	84.444662
381.952622	84.166264
382.387656	83.704201
382.822679	83.809159
383.257691	83.336515
383.692692	83.473042
384.127681	83.604066
384.562659	83.281206
384.997626	83.070383
385.432581	82.563423
385.867525	82.747148
386.302458	82.538177
386.737379	82.732376
387.172289	82.415496
387.607188	81.942337
388.042075	81.424119
388.476951	81.813036
388.911815	81.536870
389.346668	81.192016
389.781509	81.303940
390.216338	80.853853
390.651157	80.778225
391.085963	80.723117
391.520758	81.210758
391.955541	80.829064
392.390313	81.041239
392.825073	80.681818
393.259821	80.623319
393.694558	80.622453
394.129283	80.851064
394.563996	81.103091
394.998698	81.473587
395.433388	81.565680
395.868066	81.366489
396.302732	81.289088
396.737386	80.803239
397.172029	80.643813
397.606659	79.862394
398.041278	79.504960
398.475885	79.199379
398.910480	79.114980
399.345063	78.257579
399.779634	77.522754
400.214194	76.036866
400.648741	74.662688
401.083276	73.440131
401.517799	71.828172
401.952310	69.718337
402.386809	67.507402
402.821296	65.332084
403.255771	62.737328
403.690234	60.453161
404.124684	57.576134
404.559123	54.522841
404.993549	51.565372
405.427963	48.657314
405.862365	45.906076
406.296754	43.253783
406.731131	40.873024
407.165496	38.465397
407.599849	36.272559
408.034190	34.183699
408.468518	32.233013
408.902833	30.426393
409.337137	28.779899
409.771428	27.187119
410.205706	25.599068
410.639973	24.294643
411.074226	23.125563
411.508467	22.129394
411.942696	21.136231
412.376912	20.293550
412.811116	19.565084
413.245307	18.911940
413.679486	18.328623
414.113652	17.735084
414.547805	17.119358
414.981946	16.594080
415.416074	16.158053
415.850190	15.794363
416.284293	15.418972
416.718383	15.128740
417.152460	14.811984
417.586525	14.610654
418.020577	14.444926
418.454616	14.198961
418.888643	14.023803
419.322656	13.874662
419.756657	13.709612
420.190645	13.463176
420.624620	13.320748
421.058582	13.129487
421.492531	12.982968
421.926468	12.891973
422.360391	12.770910
422.794301	12.716197
423.228199	12.691079
423.662083	12.709070
424.095955	12.708527
424.529813	12.734158
424.963658	12.730223
425.397491	12.729594
425.831310	12.719538
426.265116	12.705168
426.698909	12.696043
427.132689	12.680990
427.566455	12.700163
428.000209	12.759937
428.433949	12.816530
428.867676	12.861494
429.301389	12.952852
429.735090	13.012210
430.168777	13.043122
430.602451	13.063069
431.036111	13.053672
431.469759	13.034189
431.903392	13.027054
432.337013	13.018932
432.770620	13.003195
433.204213	13.024840
433.637794	13.104688
434.071360	13.156066
434.504914	13.230049
434.938453	13.331524
435.371979	13.426722
435.805492	13.558945
436.238991	13.663816
436.672477	13.748424
437.105949	13.821011
437.539407	13.865937
437.972852	13.901709
438.406283	13.961734
438.839700	14.023432
439.273104	14.097060
439.706494	14.191329
440.139871	14.308718
440.573233	14.424942
441.006582	14.516391
441.439917	14.599459
441.873238	14.657653
442.306546	14.691732
442.739839	14.704573
443.173119	14.715181
443.606385	14.724785
444.039636	14.734027
444.472874	14.774398
444.906099	14.824801
445.339309	14.904909
445.772505	14.986043
446.205687	15.086539
446.638855	15.184592
447.072009	15.283009
447.505149	15.389286
447.938275	15.496141
448.371387	15.587168
448.804485	15.648515
449.237569	15.698705
449.670638	15.746233
450.103694	15.770793
450.536735	15.792486
450.969762	15.820622
451.402774	15.852567
451.835773	15.884227
452.268757	15.940276
452.701727	15.985997
453.134683	16.030603
453.567624	16.054819
454.000551	16.078635
454.433464	16.112133
454.866362	16.120481
455.299246	16.128827
455.732116	16.145076
456.164971	16.132633
456.597811	16.137829
457.030638	16.143213
457.463449	16.170250
457.896246	16.179330
458.329029	16.187048
458.761797	16.199887
459.194551	16.227476
459.627290	16.245255
460.060014	16.260700
460.492724	16.282968
460.925419	16.309536
461.358099	16.364643
461.790765	16.379748
462.223416	16.406813
462.656052	16.430016
463.088674	16.456633
463.521281	16.485255
463.953873	16.526199
464.386450	16.568594
464.819012	16.619779
465.251560	16.678463
465.684093	16.739813
466.116611	16.837458
466.549114	16.947653
466.981602	17.081915
467.414075	17.220566
467.846533	17.368898
468.278977	17.530873
468.711405	17.688082
469.143818	17.843703
469.576216	18.003844
470.008600	18.167751
470.440968	18.316058
470.873321	18.476883
471.305659	18.633360
471.737982	18.804158
472.170289	18.978186
472.602582	19.153606
473.034859	19.346525
473.467122	19.552270
473.899369	19.764125
474.331600	19.992426
474.763817	20.246739
475.196018	20.544129
475.628204	20.858881
476.060375	21.181285
476.492530	21.504005
476.924670	21.838406
477.356795	22.161827
477.788904	22.479779
478.220998	22.783516
478.653076	23.076790
479.085139	23.362607
479.517186	23.636586
479.949219	23.917767
480.381235	24.214627
480.813236	24.529228
481.245221	24.862639
481.677191	25.212440
482.109146	25.561609
482.541084	25.928915
482.973008	26.284065
483.404915	26.623024
483.836807	26.947848
484.268683	27.238722
484.700544	27.505137
485.132388	27.740522
485.564217	27.953999
485.996031	28.154028
486.427828	28.333005
486.859610	28.509196
487.291376	28.661896
487.723126	28.820674
488.154860	28.971427
488.586579	29.112924
489.018281	29.286283
489.449968	29.491475
489.881639	29.730949
490.313293	29.989713
490.744932	30.267762
491.176555	30.543334
491.608162	30.826562
492.039753	31.088623
492.471328	31.307238
492.902886	31.494354
493.334429	31.628317
493.765956	31.724610
494.197466	31.796117
494.628960	31.853331
495.060439	31.909734
495.491901	31.998269
495.923347	32.091234
496.354776	32.220691
496.786190	32.375006
497.217587	32.572900
497.648968	32.782290
498.080332	32.991252
498.511681	33.193999
498.943013	33.372683
499.374328	33.517505
499.805628	33.644787
500.236911	33.723363
500.668177	33.783332
501.099427	33.810855
501.530661	33.809810
501.961878	33.808894
502.393079	33.766777
502.824264	33.705630
503.255431	33.633580
503.686583	33.554755
504.117717	33.504061
504.548835	33.491408
504.979937	33.496093
505.411022	33.541259
505.842090	33.661056
506.273142	33.815018
506.704177	34.022769
507.135195	34.265996
507.566197	34.517940
507.997182	34.764166
508.428150	34.997766
508.859102	35.203075
509.290036	35.373286
509.720954	35.506866
510.151855	35.623588
510.582739	35.711443
511.013607	35.798161
511.444457	35.909827
511.875291	36.071572
512.306107	36.280609
512.736907	36.539516
513.167690	36.862186
513.598456	37.248913
514.029205	37.685332
514.459936	38.160794
514.890651	38.642070
515.321349	39.102552
515.752030	39.562903
516.182693	39.974652
516.613340	40.335954
517.043969	40.662566
517.474582	40.917182
517.905177	41.105717
518.335755	41.262442
518.766315	41.374966
519.196859	41.445142
519.627385	41.492691
520.057894	41.528976
520.488386	41.568018
520.918860	41.636909
521.349318	41.752299
521.779757	41.912766
522.210180	42.122141
522.640585	42.395697
523.070973	42.730402
523.501343	43.086787
523.931696	43.473106
524.362031	43.861450
524.792349	44.239832
525.222650	44.561121
525.652933	44.836266
526.083198	45.057628
526.513446	45.199679
526.943677	45.289416
527.373890	45.320924
527.804085	45.321750
528.234262	45.308983
528.664422	45.323924
529.094565	45.355279
529.524689	45.460648
529.954796	45.630951
530.384885	45.853952
530.814957	46.139558
531.245011	46.483534
531.675047	46.851103
532.105065	47.257656
532.535065	47.652601
532.965048	48.031024
533.395013	48.365306
533.824959	48.635079
534.254888	48.843292
534.684799	48.967420
535.114693	49.031127
535.544568	49.036273
535.974425	48.981940
536.404264	48.885937
536.834086	48.779536
537.263889	48.659156
537.693674	48.536702
538.123441	48.439835
538.553190	48.371260
538.982921	48.343812
539.412634	48.351810
539.842329	48.401040
540.272006	48.483649
540.701664	48.606119
541.131304	48.737193
541.560926	48.886826
541.990530	49.040570
542.420116	49.202638
542.849683	49.343313
543.279232	49.469133
543.708763	49.585278
544.138275	49.680169
544.567769	49.763758
544.997245	49.833176
545.426702	49.904366
545.856141	49.980248
546.285562	50.065099
546.714964	50.169833
547.144347	50.303931
547.573713	50.462759
548.003059	50.668749
548.432387	50.901741
548.861697	51.168164
549.290988	51.462379
549.720260	51.776082
550.149514	52.095205
550.578750	52.434183
551.007966	52.796199
551.437164	53.153819
551.866344	53.519571
552.295504	53.875368
552.724646	54.218597
553.153769	54.563834
553.582874	54.885434
554.011960	55.176224
554.441027	55.455729
554.870075	55.719961
555.299104	55.960945
555.728115	56.164987
556.157106	56.352398
556.586079	56.513013
557.015033	56.644064
557.443968	56.755597
557.872884	56.846163
558.301781	56.934792
558.730659	56.975682
559.159518	57.023259
559.588358	57.080693
560.017180	57.126749
560.445982	57.183668
560.874765	57.262823
561.303528	57.350772
561.732273	57.451469
562.160999	57.579360
562.589705	57.737547
563.018393	57.932200
563.447061	58.160751
563.875710	58.415983
564.304340	58.699976
564.732950	59.010457
565.161542	59.339455
565.590114	59.687785
566.018666	60.034918
566.447200	60.355454
566.875714	60.675398
567.304208	60.988216
567.732684	61.283160
568.161140	61.543896
568.589576	61.780823
569.017993	61.999243
569.446391	62.205671
569.874769	62.410237
570.303128	62.627322
570.731467	62.863584
571.159787	63.113571
571.588087	63.374838
572.016368	63.700173
572.444629	64.058298
572.872870	64.435513
573.301092	64.857785
573.729294	65.287383
574.157476	65.717623
574.585639	66.148384
575.013782	66.551964
575.441906	66.919216
575.870009	67.240330
576.298093	67.501127
576.726157	67.703720
577.154202	67.841058
577.582226	67.916429
578.010231	67.935957
578.438216	67.915238
578.866181	67.850945
579.294126	67.755964
579.722051	67.670594
580.149957	67.576156
580.577842	67.493989
581.005707	67.412580
581.433553	67.375467
581.861378	67.354101
582.289184	67.376418
582.716969	67.412254
583.144734	67.475705
583.572479	67.578507
584.000205	67.701678
584.427910	67.866427
584.855594	68.080191
585.283259	68.305284
585.710904	68.556647
586.138528	68.834897
586.566132	69.114436
586.993716	69.419245
587.421280	69.726654
587.848823	70.031564
588.276346	70.334559
588.703849	70.615361
589.131332	70.863756
589.558794	71.093125
589.986236	71.273145
590.413657	71.422522
590.841058	71.529172
591.268438	71.620678
591.695799	71.674230
592.123138	71.714583
592.550458	71.778692
592.977756	71.844008
593.405034	71.922209
593.832292	72.004048
594.259529	72.129995
594.686746	72.262074
595.113942	72.433454
595.541117	72.610627
595.968272	72.815508
596.395406	73.023611
596.822519	73.195384
597.249612	73.353129
597.676684	73.484487
598.103735	73.544830
598.530766	73.560170
598.957775	73.517636
599.384764	73.402785
599.811733	73.260630
600.238680	73.044691
600.665606	72.794221
601.092512	72.505810
601.519397	72.200700
601.946261	71.894419
602.373104	71.603505
602.799926	71.330967
603.226727	71.091823
603.653507	70.883297
604.080266	70.714053
604.507004	70.566912
604.933721	70.459185
605.360417	70.369171
605.787092	70.280074
606.213746	70.204272
606.640379	70.138512
607.066991	70.078424
607.493581	70.032900
607.920150	69.997850
608.346699	69.962537
608.773226	69.948512
609.199731	69.930392
609.626216	69.932506
610.052679	69.959767
610.479121	70.013700
610.905542	70.066845
611.331941	70.147884
611.758319	70.246879
612.184676	70.349313
612.611011	70.465524
613.037325	70.550526
613.463617	70.640716
613.889888	70.698280
614.316138	70.745593
614.742366	70.772451
615.168573	70.771292
615.594758	70.727437
616.020921	70.663419
616.447063	70.575901
616.873184	70.483777
617.299283	70.383038
617.725360	70.280757
618.151416	70.195924
618.577450	70.132947
619.003462	70.108328
619.429453	70.106876
619.855422	70.138282
620.281369	70.221922
620.707295	70.306233
621.133199	70.406062
621.559081	70.523040
621.984941	70.641151
622.410779	70.762741
622.836596	70.875313
623.262391	70.966512
623.688163	71.026778
624.113914	71.077025
624.539644	71.104801
624.965351	71.110534
625.391036	71.105998
625.816699	71.091189
626.242340	71.073257
626.667960	71.072191
627.093557	71.108407
627.519132	71.166195
627.944685	71.239837
628.370216	71.345537
628.795725	71.507543
629.221212	71.677117
629.646677	71.891781
630.072119	72.121529
630.497540	72.360901
630.922938	72.612189
631.348314	72.857540
631.773668	73.085881
632.198999	73.302114
632.624308	73.485165
633.049595	73.637981
633.474860	73.751605
633.900102	73.834516
634.325322	73.898022
634.750520	73.940215
635.175695	73.970741
635.600848	74.002707
636.025978	74.024084
636.451086	74.066954
636.876171	74.117418
637.301234	74.168800
637.726275	74.232377
638.151293	74.306646
638.576288	74.382630
639.001261	74.470033
639.426211	74.563398
639.851139	74.659665
640.276044	74.743589
640.700927	74.813018
641.125787	74.886903
641.550624	74.947254
641.975438	75.000120
642.400230	75.045221
642.824999	75.078478
643.249745	75.103876
643.674469	75.139589
644.099169	75.183213
644.523847	75.237639
644.948502	75.323581
645.373135	75.430166
645.797744	75.563255
646.222330	75.743842
646.646894	75.948597
647.071435	76.196256
647.495953	76.474900
647.920447	76.786323
648.344919	77.131034
648.769368	77.486805
649.193794	77.857196
649.618197	78.203585
650.042576	78.553641
650.466933	78.908427
650.891267	79.244588
651.315577	79.551001
651.739864	79.841224
652.164129	80.098517
652.588370	80.331519
653.012587	80.522166
653.436782	80.691438
653.860953	80.829601
654.285102	80.936149
654.709226	81.021286
655.133328	81.058470
655.557406	81.078152
655.981461	81.070478
656.405493	81.040109
656.829501	80.966305
657.253486	80.862591
657.677448	80.716589
658.101386	80.534071
658.525301	80.311719
658.949192	80.046107
659.373060	79.721288
659.796904	79.355773
660.220725	78.955823
660.644522	78.506308
661.068296	78.019007
661.492046	77.488997
661.915772	76.959542
662.339475	76.419973
662.763154	75.892163
663.186810	75.390442
663.610442	74.910920
664.034050	74.479644
664.457635	74.116718
664.881196	73.825508
665.304733	73.615529
665.728247	73.493132
666.151736	73.460354
666.575202	73.506863
666.998644	73.641168
667.422062	73.860345
667.845457	74.157807
668.268827	74.522299
668.692174	74.950143
669.115496	75.430200
669.538795	75.934893
669.962070	76.489585
670.385321	77.050992
670.808547	77.620268
671.231750	78.175517
671.654929	78.707774
672.078084	79.251190
672.501214	79.762842
672.924321	80.276502
673.347404	80.771542
673.770462	81.259271
674.193496	81.728670
674.616506	82.198182
675.039492	82.645432
675.462454	83.095877
675.885391	83.549366
676.308305	83.975365
676.731194	84.402807
677.154058	84.841891
677.576899	85.281897
677.999715	85.712685
678.422507	86.125997
678.845274	86.537393
679.268017	86.945397
679.690736	87.335434
680.113430	87.700812
680.536100	88.046852
680.958746	88.366113
681.381367	88.671015
681.803963	88.932404
682.226535	89.159854
682.649083	89.371406
683.071605	89.552376
683.494104	89.721021
683.916578	89.863389
684.339027	90.005273
684.761451	90.131581
685.183851	90.229966
685.606227	90.336361
686.028577	90.408233
686.450903	90.462402
686.873204	90.495644
687.295481	90.513977
687.717733	90.499108
688.139959	90.447002
688.562162	90.382391
688.984339	90.270928
689.406492	90.146435
689.828619	89.980641
690.250722	89.768885
690.672800	89.503203
691.094853	89.204281
691.516881	88.889853
691.938884	88.542540
692.360863	88.161380
692.782816	87.777882
693.204744	87.403746
693.626647	87.034316
694.048526	86.702864
694.470379	86.401173
694.892207	86.151546
695.314010	85.958649
695.735788	85.849734
696.157540	85.802235
696.579268	85.835217
697.000970	85.959980
697.422648	86.170063
697.844300	86.461357
698.265926	86.846451
698.687528	87.310311
699.109104	87.849439
699.530655	88.446679
699.952181	89.107970
700.373681	89.814644
700.795156	90.551340
701.216606	91.326373
701.638030	92.093312
702.059429	92.866698
702.480803	93.624717
702.902151	94.342411
703.323473	95.010917
703.744770	95.625912
704.166042	96.181045
704.587288	96.666644
705.008509	97.082382
705.429704	97.435842
705.850873	97.701951
706.272017	97.883428
706.693135	97.997890
707.114228	98.022352
707.535295	97.983152
707.956336	97.874315
708.377352	97.706672
708.798342	97.478335
709.219306	97.198564
709.640245	96.878758
710.061157	96.537292
710.482044	96.149204
710.902905	95.758756
711.323741	95.350344
711.744550	94.934144
712.165334	94.543498
712.586092	94.163550
713.006823	93.803378
713.427529	93.478082
713.848209	93.185056
714.268863	92.918805
714.689492	92.693119
715.110094	92.516112
715.530670	92.384593
715.951220	92.331427
716.371744	92.327254
716.792242	92.395574
717.212714	92.512945
717.633159	92.683797
718.053579	92.913940
718.473973	93.171969
718.894340	93.478318
719.314681	93.830363
719.734996	94.189310
720.155285	94.562633
720.575547	94.931758
720.995784	95.303980
721.415994	95.654096
721.836177	95.965858
722.256335	96.242221
722.676466	96.465023
723.096570	96.620107
723.516649	96.732350
723.936701	96.776392
724.356726	96.735193
724.776725	96.622919
725.196698	96.418221
725.616644	96.147160
726.036564	95.805175
726.456457	95.398509
726.876324	94.931204
727.296164	94.425034
727.715977	93.893201
728.135764	93.338768
728.555525	92.773221
728.975258	92.190303
729.394966	91.621553
729.814646	91.064822
730.234300	90.541874
730.653927	90.053186
731.073527	89.582051
731.493101	89.178387
731.912648	88.820354
732.332168	88.532415
732.751661	88.316315
733.171128	88.175456
733.590568	88.108334
734.009980	88.112035
734.429366	88.211912
734.848726	88.383334
735.268058	88.642893
735.687363	88.975499
736.106641	89.364932
736.525893	89.803701
736.945117	90.280953
737.364314	90.817096
737.783485	91.385561
738.202628	91.983759
738.621744	92.613409
739.040834	93.252189
739.459896	93.889125
739.878931	94.533537
740.297939	95.153883
740.716919	95.743707
741.135873	96.299821
741.554799	96.806828
741.973698	97.274085
742.392570	97.683536
742.811415	98.042743
743.230232	98.332229
743.649022	98.560200
744.067785	98.743569
744.486521	98.861918
744.905229	98.942523
745.323909	98.938610
745.742563	98.898613
746.161189	98.807704
746.579787	98.680555
746.998358	98.517648
747.416902	98.314491
747.835418	98.085366
748.253907	97.837184
748.672368	97.572782
749.090802	97.313204
749.509208	97.050686
749.927586	96.803264
750.345937	96.575715
750.764261	96.356849
751.182556	96.170807
751.600824	95.996196
752.019065	95.859477
752.437277	95.757713
752.855462	95.692926
753.273620	95.662172
753.691749	95.664028
754.109851	95.696005
