Time1=100ms:Average1=5:Objective=10X:Aperture=1: (11/21/2018 2:47:48 PM)
11/21/2018 2:47:48 PM
Reflectance
10X
Ap#: 1
Avg1: 5.000000
Avg2: 0.000000
Int.Time1:100.000000

350.166136	94.198047
350.601937	94.400616
351.037728	94.226056
351.473509	94.421569
351.909281	94.482623
352.345042	94.638096
352.780794	94.768532
353.216536	94.826392
353.652267	94.949495
354.087989	94.941095
354.523701	94.843935
354.959403	94.679696
355.395095	94.736321
355.830777	94.625891
356.266449	93.884608
356.702110	93.827525
357.137762	93.900167
357.573404	94.336665
358.009035	94.265023
358.444656	94.322973
358.880268	93.918985
359.315869	94.559484
359.751459	94.485725
360.187040	94.338702
360.622610	94.867517
361.058170	95.187008
361.493720	95.298640
361.929260	94.967564
362.364789	95.110628
362.800308	94.893617
363.235816	94.892526
363.671314	94.845057
364.106802	95.248869
364.542279	95.072435
364.977746	95.252635
365.413203	95.613427
365.848649	95.045491
366.284084	94.818704
366.719509	95.122914
367.154924	95.191073
367.590328	94.888210
368.025721	94.924108
368.461104	95.307252
368.896477	95.150915
369.331838	94.529864
369.767189	95.268201
370.202530	95.073843
370.637859	94.980080
371.073178	94.649796
371.508486	94.873071
371.943784	94.646404
372.379071	94.606675
372.814347	94.407602
373.249612	94.804038
373.684866	95.361285
374.120110	95.249383
374.555343	95.407305
374.990565	95.164487
375.425776	95.681030
375.860976	95.543919
376.296165	95.865812
376.731343	96.115833
377.166511	96.280869
377.601667	95.909315
378.036812	96.513002
378.471946	96.689003
378.907070	95.854973
379.342182	96.129411
379.777283	96.463212
380.212373	96.243993
380.647452	96.159498
381.082520	96.161379
381.517576	96.167384
381.952622	95.350411
382.387656	95.511222
382.822679	95.842115
383.257691	95.609849
383.692692	95.427701
384.127681	95.981761
384.562659	95.583357
384.997626	95.408597
385.432581	95.352139
385.867525	95.912548
386.302458	95.267002
386.737379	95.166968
387.172289	94.673376
387.607188	94.404401
388.042075	94.040986
388.476951	93.972267
388.911815	93.594808
389.346668	92.934121
389.781509	93.311445
390.216338	93.287145
390.651157	93.256010
391.085963	93.368303
391.520758	93.421423
391.955541	92.966931
392.390313	93.291659
392.825073	93.125931
393.259821	93.080419
393.694558	93.488329
394.129283	93.617021
394.563996	93.929299
394.998698	94.124189
395.433388	94.351601
395.868066	93.640536
396.302732	93.260525
396.737386	93.037975
397.172029	93.311037
397.606659	92.704100
398.041278	92.450404
398.475885	91.838598
398.910480	91.289639
399.345063	90.148244
399.779634	89.170294
400.214194	87.669581
400.648741	86.024127
401.083276	84.304785
401.517799	82.325674
401.952310	80.275851
402.386809	77.944759
402.821296	75.945079
403.255771	72.637056
403.690234	69.460725
404.124684	66.290007
404.559123	62.737409
404.993549	59.250926
405.427963	55.923466
405.862365	52.666619
406.296754	49.366045
406.731131	46.427314
407.165496	43.626401
407.599849	41.131244
408.034190	38.625667
408.468518	36.542173
408.902833	34.474478
409.337137	32.616511
409.771428	30.860322
410.205706	29.061489
410.639973	27.516102
411.074226	26.111996
411.508467	24.882138
411.942696	23.841544
412.376912	22.918505
412.811116	22.051858
413.245307	21.289714
413.679486	20.589688
414.113652	19.903095
414.547805	19.242040
414.981946	18.673594
415.416074	18.124841
415.850190	17.631162
416.284293	17.182376
416.718383	16.860650
417.152460	16.524991
417.586525	16.241031
418.020577	15.993811
418.454616	15.735974
418.888643	15.497293
419.322656	15.293178
419.756657	15.121209
420.190645	14.890551
420.624620	14.658658
421.058582	14.451609
421.492531	14.257338
421.926468	14.106330
422.360391	13.988289
422.794301	13.901308
423.228199	13.800020
423.662083	13.746487
424.095955	13.720662
424.529813	13.693063
424.963658	13.678247
425.397491	13.632598
425.831310	13.531554
426.265116	13.448732
426.698909	13.370717
427.132689	13.288105
427.566455	13.260124
428.000209	13.250954
428.433949	13.224750
428.867676	13.208492
429.301389	13.223185
429.735090	13.193209
430.168777	13.129426
430.602451	13.061370
431.036111	12.966322
431.469759	12.861621
431.903392	12.784233
432.337013	12.709223
432.770620	12.624135
433.204213	12.533279
433.637794	12.511183
434.071360	12.481261
434.504914	12.459496
434.938453	12.479779
435.371979	12.477596
435.805492	12.497532
436.238991	12.512737
436.672477	12.510666
437.105949	12.506990
437.539407	12.447049
437.972852	12.392933
438.406283	12.348728
438.839700	12.313846
439.273104	12.305665
439.706494	12.291613
440.139871	12.292047
440.573233	12.316849
441.006582	12.309677
441.439917	12.285656
441.873238	12.272012
442.306546	12.250381
442.739839	12.191719
443.173119	12.128096
443.606385	12.081490
444.039636	12.026167
444.472874	12.001282
444.906099	11.987793
445.339309	11.973237
445.772505	11.962224
446.205687	11.986278
446.638855	12.021900
447.072009	12.031092
447.505149	12.069262
447.938275	12.098483
448.371387	12.125623
448.804485	12.137500
449.237569	12.126902
449.670638	12.130288
450.103694	12.115676
450.536735	12.103709
450.969762	12.096950
451.402774	12.102989
451.835773	12.101319
452.268757	12.120337
452.701727	12.141708
453.134683	12.177446
453.567624	12.226232
454.000551	12.256816
454.433464	12.283424
454.866362	12.298829
455.299246	12.319839
455.732116	12.339803
456.164971	12.371540
456.597811	12.401971
457.030638	12.426911
457.463449	12.485188
457.896246	12.521775
458.329029	12.566519
458.761797	12.619093
459.194551	12.683114
459.627290	12.736390
460.060014	12.793125
460.492724	12.863248
460.925419	12.929618
461.358099	13.008426
461.790765	13.069444
462.223416	13.130493
462.656052	13.185653
463.088674	13.228885
463.521281	13.276092
463.953873	13.345719
464.386450	13.405277
464.819012	13.459189
465.251560	13.522657
465.684093	13.586957
466.116611	13.662182
466.549114	13.754043
466.981602	13.838057
467.414075	13.922742
467.846533	14.009854
468.278977	14.080707
468.711405	14.145709
469.143818	14.205780
469.576216	14.244783
470.008600	14.296437
470.440968	14.347261
470.873321	14.375104
471.305659	14.405689
471.737982	14.437819
472.170289	14.479292
472.602582	14.494325
473.034859	14.517014
473.467122	14.540436
473.899369	14.563161
474.331600	14.592080
474.763817	14.620317
475.196018	14.662950
475.628204	14.713623
476.060375	14.786135
476.492530	14.842801
476.924670	14.909534
477.356795	14.938088
477.788904	14.978855
478.220998	14.994428
478.653076	15.005066
479.085139	15.010137
479.517186	15.024754
479.949219	15.021489
480.381235	15.038488
480.813236	15.072607
481.245221	15.121813
481.677191	15.200181
482.109146	15.277137
482.541084	15.357012
482.973008	15.450704
483.404915	15.532756
483.836807	15.603805
484.268683	15.674045
484.700544	15.741880
485.132388	15.806138
485.564217	15.848393
485.996031	15.899120
486.427828	15.946480
486.859610	15.996696
487.291376	16.045187
487.723126	16.099836
488.154860	16.169706
488.586579	16.255937
489.018281	16.356886
489.449968	16.468320
489.881639	16.635379
490.313293	16.820748
490.744932	17.029937
491.176555	17.253495
491.608162	17.505109
492.039753	17.754934
492.471328	17.979185
492.902886	18.184087
493.334429	18.392206
493.765956	18.578532
494.197466	18.762209
494.628960	18.946088
495.060439	19.147996
495.491901	19.391549
495.923347	19.654840
496.354776	19.941475
496.786190	20.266081
497.217587	20.620192
497.648968	20.986151
498.080332	21.356630
498.511681	21.722859
498.943013	22.099366
499.374328	22.460254
499.805628	22.808486
500.236911	23.144245
500.668177	23.461331
501.099427	23.746822
501.530661	24.016917
501.961878	24.268150
502.393079	24.510127
502.824264	24.738565
503.255431	24.947379
503.686583	25.143865
504.117717	25.364064
504.548835	25.599314
504.979937	25.861329
505.411022	26.139932
505.842090	26.481223
506.273142	26.839166
506.704177	27.214451
507.135195	27.610117
507.566197	27.990118
507.997182	28.345343
508.428150	28.678239
508.859102	28.946275
509.290036	29.182071
509.720954	29.381681
510.151855	29.555225
510.582739	29.698690
511.013607	29.846913
511.444457	29.997667
511.875291	30.179577
512.306107	30.378479
512.736907	30.612898
513.167690	30.880635
513.598456	31.165368
514.029205	31.468361
514.459936	31.791374
514.890651	32.106277
515.321349	32.403190
515.752030	32.677294
516.182693	32.917179
516.613340	33.119676
517.043969	33.291490
517.474582	33.426102
517.905177	33.518368
518.335755	33.559220
518.766315	33.583015
519.196859	33.559124
519.627385	33.531818
520.057894	33.500076
520.488386	33.460587
520.918860	33.451284
521.349318	33.482826
521.779757	33.541010
522.210180	33.645419
522.640585	33.806022
523.070973	34.005932
523.501343	34.235579
523.931696	34.506779
524.362031	34.787598
524.792349	35.073435
525.222650	35.341471
525.652933	35.587000
526.083198	35.804913
526.513446	35.980296
526.943677	36.140585
527.373890	36.262188
527.804085	36.383218
528.234262	36.487595
528.664422	36.613012
529.094565	36.759038
529.524689	36.953055
529.954796	37.196583
530.384885	37.479814
530.814957	37.814675
531.245011	38.188711
531.675047	38.622486
532.105065	39.089072
532.535065	39.580802
532.965048	40.072673
533.395013	40.561145
533.824959	41.026255
534.254888	41.455299
534.684799	41.841239
535.114693	42.193072
535.544568	42.514399
535.974425	42.767386
536.404264	42.981563
536.834086	43.160283
537.263889	43.306150
537.693674	43.422610
538.123441	43.541859
538.553190	43.667653
538.982921	43.805727
539.412634	43.972600
539.842329	44.185065
540.272006	44.430521
540.701664	44.745948
541.131304	45.089930
541.560926	45.493580
541.990530	45.930722
542.420116	46.402040
542.849683	46.869170
543.279232	47.331049
543.708763	47.780451
544.138275	48.184803
544.567769	48.566139
544.997245	48.877535
545.426702	49.149346
545.856141	49.364459
546.285562	49.537788
546.714964	49.688907
547.144347	49.848790
547.573713	50.005798
548.003059	50.194239
548.432387	50.404695
548.861697	50.658063
549.290988	50.957031
549.720260	51.324113
550.149514	51.717313
550.578750	52.161086
551.007966	52.667918
551.437164	53.181292
551.866344	53.716412
552.295504	54.256876
552.724646	54.767782
553.153769	55.244760
553.582874	55.682712
554.011960	56.038176
554.441027	56.338417
554.870075	56.561641
555.299104	56.706506
555.728115	56.788106
556.157106	56.831186
556.586079	56.821963
557.015033	56.795407
557.443968	56.760618
557.872884	56.726276
558.301781	56.727176
558.730659	56.727480
559.159518	56.794102
559.588358	56.911240
560.017180	57.063002
560.445982	57.235285
560.874765	57.454313
561.303528	57.691292
561.732273	57.944528
562.160999	58.214413
562.589705	58.501569
563.018393	58.779995
563.447061	59.072852
563.875710	59.355356
564.304340	59.604502
564.732950	59.856578
565.161542	60.076951
565.590114	60.291528
566.018666	60.501012
566.447200	60.688804
566.875714	60.879461
567.304208	61.073762
567.732684	61.262432
568.161140	61.464164
568.589576	61.683734
569.017993	61.918706
569.446391	62.176646
569.874769	62.473256
570.303128	62.804809
570.731467	63.182720
571.159787	63.577784
571.588087	64.002180
572.016368	64.482907
572.444629	64.960434
572.872870	65.459126
573.301092	65.968567
573.729294	66.466953
574.157476	66.927516
574.585639	67.353897
575.013782	67.725519
575.441906	68.034758
575.870009	68.281355
576.298093	68.461970
576.726157	68.571631
577.154202	68.623781
577.582226	68.636937
578.010231	68.611708
578.438216	68.575503
578.866181	68.521377
579.294126	68.480047
579.722051	68.453654
580.149957	68.434464
580.577842	68.459007
581.005707	68.510212
581.433553	68.600828
581.861378	68.713702
582.289184	68.847016
582.716969	68.998295
583.144734	69.157670
583.572479	69.335689
584.000205	69.516024
584.427910	69.724162
584.855594	69.935232
585.283259	70.142739
585.710904	70.372264
586.138528	70.607854
586.566132	70.838322
586.993716	71.090188
587.421280	71.347409
587.848823	71.623575
588.276346	71.916656
588.703849	72.213766
589.131332	72.499226
589.558794	72.774441
589.986236	73.040038
590.413657	73.315810
590.841058	73.576296
591.268438	73.843901
591.695799	74.102196
592.123138	74.377020
592.550458	74.673517
592.977756	74.991663
593.405034	75.341256
593.832292	75.723925
594.259529	76.131790
594.686746	76.565163
595.113942	77.042518
595.541117	77.539701
595.968272	78.051353
596.395406	78.570459
596.822519	79.063668
597.249612	79.523907
597.676684	79.934114
598.103735	80.300024
598.530766	80.592358
598.957775	80.817256
599.384764	80.963949
599.811733	81.071902
600.238680	81.103661
600.665606	81.103301
601.092512	81.052542
601.519397	80.981323
601.946261	80.901402
602.373104	80.841057
602.799926	80.798564
603.226727	80.788092
603.653507	80.781956
604.080266	80.804153
604.507004	80.857676
604.933721	80.935413
605.360417	81.011568
605.787092	81.073975
606.213746	81.150682
606.640379	81.210849
607.066991	81.242181
607.493581	81.286938
607.920150	81.321634
608.346699	81.345376
608.773226	81.375508
609.199731	81.395082
609.626216	81.432472
610.052679	81.495016
610.479121	81.583639
610.905542	81.695953
611.331941	81.835553
611.758319	82.018265
612.184676	82.228973
612.611011	82.463060
613.037325	82.685519
613.463617	82.934054
613.889888	83.170322
614.316138	83.409761
614.742366	83.635117
615.168573	83.844539
615.594758	84.024607
616.020921	84.195901
616.447063	84.345995
616.873184	84.493645
617.299283	84.637553
617.725360	84.777317
618.151416	84.941594
618.577450	85.106036
619.003462	85.315779
619.429453	85.534067
619.855422	85.785556
620.281369	86.069144
620.707295	86.328590
621.133199	86.590058
621.559081	86.838128
621.984941	87.064278
622.410779	87.271158
622.836596	87.419433
623.262391	87.497488
623.688163	87.523087
624.113914	87.489462
624.539644	87.392191
624.965351	87.237834
625.391036	87.035402
625.816699	86.780506
626.242340	86.496263
626.667960	86.174426
627.093557	85.848359
627.519132	85.528639
627.944685	85.199315
628.370216	84.869419
628.795725	84.568702
629.221212	84.250941
629.646677	83.958148
630.072119	83.669011
630.497540	83.374294
630.922938	83.069631
631.348314	82.727731
631.773668	82.400693
632.198999	82.051516
632.624308	81.681701
633.049595	81.298346
633.474860	80.901833
633.900102	80.523819
634.325322	80.145971
634.750520	79.777649
635.175695	79.459810
635.600848	79.185514
636.025978	78.967877
636.451086	78.830653
636.876171	78.749012
637.301234	78.729290
637.726275	78.773385
638.151293	78.889635
638.576288	79.042938
639.001261	79.261626
639.426211	79.525345
639.851139	79.824502
640.276044	80.139344
640.700927	80.461661
641.125787	80.778622
641.550624	81.092686
641.975438	81.397717
642.400230	81.684001
642.824999	81.950285
643.249745	82.185542
643.674469	82.424485
644.099169	82.640995
644.523847	82.871486
644.948502	83.079535
645.373135	83.276737
645.797744	83.474754
646.222330	83.683826
646.646894	83.893218
647.071435	84.108061
647.495953	84.327414
647.920447	84.558064
648.344919	84.761278
648.769368	84.948320
649.193794	85.131242
649.618197	85.256746
650.042576	85.374849
650.466933	85.493048
650.891267	85.561718
651.315577	85.601286
651.739864	85.622606
652.164129	85.621717
652.588370	85.578677
653.012587	85.519015
653.436782	85.461415
653.860953	85.379438
654.285102	85.305812
654.709226	85.239028
655.133328	85.160314
655.557406	85.103803
655.981461	85.040787
656.405493	84.990114
656.829501	84.920383
657.253486	84.860447
657.677448	84.778376
658.101386	84.697282
658.525301	84.593635
658.949192	84.480018
659.373060	84.335887
659.796904	84.159714
660.220725	83.965781
660.644522	83.741353
661.068296	83.496051
661.492046	83.225907
661.915772	82.957938
662.339475	82.682615
662.763154	82.433391
663.186810	82.201551
663.610442	81.964478
664.034050	81.788219
664.457635	81.658182
664.881196	81.581652
665.304733	81.557753
665.728247	81.599229
666.151736	81.714981
666.575202	81.876579
666.998644	82.107027
667.422062	82.398871
667.845457	82.719056
668.268827	83.085524
668.692174	83.480893
669.115496	83.896294
669.538795	84.317797
669.962070	84.761811
670.385321	85.178267
670.808547	85.586204
671.231750	85.960540
671.654929	86.293260
672.078084	86.602207
672.501214	86.843849
672.924321	87.073915
673.347404	87.264334
673.770462	87.432786
674.193496	87.577013
674.616506	87.700372
675.039492	87.795738
675.462454	87.890314
675.885391	87.966766
676.308305	88.034075
676.731194	88.112217
677.154058	88.186805
677.576899	88.266374
677.999715	88.354444
678.422507	88.435949
678.845274	88.527232
679.268017	88.621975
679.690736	88.726175
680.113430	88.818979
680.536100	88.918939
680.958746	89.028398
681.381367	89.141875
681.803963	89.244410
682.226535	89.347472
682.649083	89.449309
683.071605	89.545072
683.494104	89.643966
683.916578	89.743109
684.339027	89.853046
684.761451	89.973707
685.183851	90.087276
685.606227	90.229820
686.028577	90.338457
686.450903	90.442661
686.873204	90.522820
687.295481	90.582800
687.717733	90.611602
688.139959	90.610314
688.562162	90.569373
688.984339	90.495537
689.406492	90.372507
689.828619	90.192520
690.250722	89.977321
690.672800	89.688978
691.094853	89.351179
691.516881	88.977050
691.938884	88.574872
692.360863	88.139591
692.782816	87.676746
693.204744	87.210537
693.626647	86.738250
694.048526	86.284216
694.470379	85.840940
694.892207	85.437320
695.314010	85.080297
695.735788	84.793352
696.157540	84.555837
696.579268	84.404479
697.000970	84.328209
697.422648	84.332104
697.844300	84.421957
698.265926	84.600258
698.687528	84.857571
699.109104	85.182063
699.530655	85.579884
699.952181	86.058387
700.373681	86.584075
700.795156	87.167707
701.216606	87.787773
701.638030	88.426659
702.059429	89.089620
702.480803	89.754989
702.902151	90.422928
703.323473	91.058040
703.744770	91.679461
704.166042	92.264646
704.587288	92.812265
705.008509	93.315342
705.429704	93.770509
705.850873	94.181314
706.272017	94.523828
706.693135	94.828343
707.114228	95.063909
707.535295	95.252945
707.956336	95.397447
708.377352	95.503789
708.798342	95.572187
709.219306	95.596844
709.640245	95.597441
710.061157	95.571046
710.482044	95.503283
710.902905	95.423893
711.323741	95.327727
711.744550	95.219972
712.165334	95.142557
712.586092	95.059448
713.006823	94.977506
713.427529	94.911784
713.848209	94.860569
714.268863	94.838206
714.689492	94.840738
715.110094	94.860329
715.530670	94.914477
715.951220	95.009663
716.371744	95.143244
716.792242	95.306239
717.212714	95.501636
717.633159	95.724133
718.053579	95.982759
718.473973	96.240442
718.894340	96.513802
719.314681	96.811041
719.734996	97.088497
720.155285	97.369764
720.575547	97.622434
720.995784	97.845886
721.415994	98.037003
721.836177	98.160737
722.256335	98.252682
722.676466	98.266465
723.096570	98.219684
723.516649	98.123695
723.936701	97.964705
724.356726	97.724585
724.776725	97.410300
725.196698	97.016193
725.616644	96.575400
726.036564	96.077406
726.456457	95.529881
726.876324	94.936723
727.296164	94.318052
727.715977	93.697171
728.135764	93.064578
728.555525	92.441281
728.975258	91.814977
729.394966	91.210046
729.814646	90.637728
730.234300	90.101568
730.653927	89.625446
731.073527	89.180199
731.493101	88.814746
731.912648	88.515294
732.332168	88.292488
732.751661	88.148352
733.171128	88.085029
733.590568	88.111871
734.009980	88.218843
734.429366	88.398687
734.848726	88.667017
735.268058	89.011150
735.687363	89.417482
736.106641	89.878563
736.525893	90.375503
736.945117	90.897941
737.364314	91.465266
737.783485	92.060561
738.202628	92.678476
738.621744	93.280781
739.040834	93.870658
739.459896	94.460354
739.878931	95.034749
740.297939	95.558823
740.716919	96.026987
741.135873	96.463258
741.554799	96.825366
741.973698	97.146771
742.392570	97.389687
742.811415	97.561431
743.230232	97.656515
743.649022	97.680470
744.067785	97.638070
744.486521	97.532921
744.905229	97.370685
745.323909	97.136924
745.742563	96.836368
746.161189	96.501371
746.579787	96.127374
746.998358	95.728063
747.416902	95.287277
747.835418	94.832303
748.253907	94.364261
748.672368	93.890868
749.090802	93.425167
749.509208	92.980080
749.927586	92.560785
750.345937	92.164549
750.764261	91.808946
751.182556	91.489373
751.600824	91.216830
752.019065	90.996743
752.437277	90.833510
752.855462	90.727277
753.273620	90.675432
753.691749	90.662960
754.109851	90.692088
