Time1=100ms:Average1=5:Objective=10X:Aperture=1: (11/21/2018 2:49:13 PM)
11/21/2018 2:49:13 PM
Reflectance
10X
Ap#: 1
Avg1: 5.000000
Avg2: 0.000000
Int.Time1:100.000000

350.166136	85.188285
350.601937	85.616702
351.037728	85.883737
351.473509	85.911765
351.909281	86.167288
352.345042	86.165696
352.780794	86.171158
353.216536	86.447720
353.652267	86.096257
354.087989	85.902386
354.523701	86.220861
354.959403	86.032968
355.395095	86.128426
355.830777	86.094616
356.266449	85.655009
356.702110	85.154558
357.137762	85.211337
357.573404	85.341956
358.009035	84.928557
358.444656	84.969115
358.880268	84.997560
359.315869	85.006837
359.751459	84.796637
360.187040	85.095168
360.622610	85.672228
361.058170	85.688976
361.493720	85.698798
361.929260	85.767643
362.364789	85.993678
362.800308	85.957447
363.235816	85.988957
363.671314	86.296114
364.106802	86.572890
364.542279	86.508328
364.977746	86.683739
365.413203	87.068027
365.848649	87.292326
366.284084	87.150783
366.719509	86.977984
367.154924	87.340772
367.590328	87.117108
368.025721	87.167357
368.461104	87.492590
368.896477	87.451757
369.331838	87.206781
369.767189	88.126050
370.202530	88.670830
370.637859	88.964143
371.073178	88.891103
371.508486	89.427576
371.943784	89.332539
372.379071	88.597537
372.814347	88.617242
373.249612	88.875693
373.684866	88.314005
374.120110	88.148148
374.555343	88.300505
374.990565	88.495838
375.425776	88.618128
375.860976	88.924019
376.296165	89.028120
376.731343	88.802135
377.166511	88.485570
377.601667	88.309512
378.036812	88.130418
378.471946	88.431218
378.907070	87.966683
379.342182	87.332617
379.777283	87.371412
380.212373	87.525743
380.647452	87.312629
381.082520	87.367803
381.517576	87.016034
381.952622	86.495892
382.387656	86.361021
382.822679	86.357540
383.257691	86.018324
383.692692	85.854448
384.127681	86.254393
384.562659	86.058194
384.997626	85.573925
385.432581	85.336994
385.867525	85.788973
386.302458	85.393152
386.737379	85.462848
387.172289	85.463350
387.607188	85.062595
388.042075	84.710549
388.476951	84.680690
388.911815	84.283296
389.346668	83.862806
389.781509	83.733583
390.216338	83.962176
390.651157	84.108128
391.085963	83.748595
391.520758	83.975260
391.955541	83.726129
392.390313	83.588356
392.825073	84.007079
393.259821	84.277896
393.694558	83.855132
394.129283	84.051804
394.563996	84.092171
394.998698	84.346617
395.433388	84.399216
395.868066	84.040461
396.302732	84.066088
396.737386	83.488459
397.172029	83.370494
397.606659	82.379017
398.041278	81.925055
398.475885	81.814862
398.910480	81.478641
399.345063	80.795085
399.779634	79.721233
400.214194	78.508980
400.648741	77.100584
401.083276	75.838981
401.517799	74.097902
401.952310	71.926698
402.386809	69.703557
402.821296	67.602436
403.255771	65.018435
403.690234	62.332602
404.124684	59.538075
404.559123	56.659155
404.993549	53.754973
405.427963	50.611711
405.862365	47.639917
406.296754	44.724469
406.731131	41.979324
407.165496	39.630723
407.599849	37.186587
408.034190	35.131629
408.468518	33.233491
408.902833	31.385526
409.337137	29.770891
409.771428	28.082032
410.205706	26.521237
410.639973	25.080908
411.074226	23.815273
411.508467	22.715695
411.942696	21.615532
412.376912	20.669478
412.811116	19.891117
413.245307	19.231104
413.679486	18.560492
414.113652	17.890963
414.547805	17.253564
414.981946	16.726020
415.416074	16.264546
415.850190	15.852423
416.284293	15.454180
416.718383	15.129701
417.152460	14.768698
417.586525	14.479870
418.020577	14.237501
418.454616	13.942792
418.888643	13.750730
419.322656	13.589285
419.756657	13.420826
420.190645	13.192749
420.624620	13.009096
421.058582	12.844323
421.492531	12.685658
421.926468	12.535620
422.360391	12.430311
422.794301	12.342732
423.228199	12.277183
423.662083	12.237105
424.095955	12.211056
424.529813	12.191955
424.963658	12.168431
425.397491	12.156944
425.831310	12.115378
426.265116	12.066255
426.698909	12.020388
427.132689	11.984735
427.566455	11.991575
428.000209	12.030159
428.433949	12.061485
428.867676	12.076800
429.301389	12.104950
429.735090	12.118171
430.168777	12.132615
430.602451	12.133451
431.036111	12.118730
431.469759	12.081781
431.903392	12.056580
432.337013	12.024602
432.770620	11.994847
433.204213	11.965321
433.637794	11.996863
434.071360	12.013481
434.504914	12.069023
434.938453	12.102694
435.371979	12.167751
435.805492	12.226167
436.238991	12.298996
436.672477	12.368104
437.105949	12.451067
437.539407	12.495834
437.972852	12.516798
438.406283	12.571258
438.839700	12.618905
439.273104	12.686897
439.706494	12.746511
440.139871	12.831359
440.573233	12.917717
441.006582	12.993808
441.439917	13.054763
441.873238	13.095572
442.306546	13.146105
442.739839	13.171331
443.173119	13.185996
443.606385	13.198575
444.039636	13.208934
444.472874	13.239275
444.906099	13.295644
445.339309	13.369611
445.772505	13.431774
446.205687	13.526067
446.638855	13.625051
447.072009	13.734703
447.505149	13.846683
447.938275	13.969156
448.371387	14.083914
448.804485	14.165301
449.237569	14.248011
449.670638	14.317964
450.103694	14.385629
450.536735	14.423983
450.969762	14.483688
451.402774	14.565209
451.835773	14.623875
452.268757	14.711563
452.701727	14.815897
453.134683	14.920443
453.567624	15.032177
454.000551	15.125320
454.433464	15.206550
454.866362	15.273515
455.299246	15.342495
455.732116	15.413317
456.164971	15.486938
456.597811	15.570279
457.030638	15.632376
457.463449	15.730606
457.896246	15.806901
458.329029	15.896603
458.761797	15.975747
459.194551	16.078793
459.627290	16.179959
460.060014	16.292914
460.492724	16.395971
460.925419	16.514032
461.358099	16.633623
461.790765	16.733055
462.223416	16.836157
462.656052	16.929557
463.088674	17.002493
463.521281	17.066269
463.953873	17.139555
464.386450	17.202071
464.819012	17.275087
465.251560	17.363067
465.684093	17.443328
466.116611	17.516563
466.549114	17.614557
466.981602	17.707933
467.414075	17.784856
467.846533	17.871746
468.278977	17.961157
468.711405	18.044836
469.143818	18.110701
469.576216	18.180093
470.008600	18.226991
470.440968	18.278074
470.873321	18.302452
471.305659	18.328837
471.737982	18.347517
472.170289	18.353533
472.602582	18.347851
473.034859	18.338495
473.467122	18.343627
473.899369	18.341250
474.331600	18.349774
474.763817	18.358365
475.196018	18.395855
475.628204	18.435905
476.060375	18.469707
476.492530	18.521067
476.924670	18.568817
477.356795	18.598094
477.788904	18.634398
478.220998	18.638127
478.653076	18.638163
479.085139	18.621927
479.517186	18.611735
479.949219	18.590996
480.381235	18.585621
480.813236	18.612099
481.245221	18.642560
481.677191	18.691254
482.109146	18.736623
482.541084	18.798641
482.973008	18.853219
483.404915	18.919044
483.836807	18.972719
484.268683	19.017212
484.700544	19.045012
485.132388	19.055770
485.564217	19.076727
485.996031	19.088354
486.427828	19.092663
486.859610	19.074822
487.291376	19.075626
487.723126	19.087832
488.154860	19.095422
488.586579	19.128662
489.018281	19.182955
489.449968	19.272047
489.881639	19.394788
490.313293	19.537112
490.744932	19.705621
491.176555	19.875508
491.608162	20.072529
492.039753	20.278532
492.471328	20.466191
492.902886	20.636289
493.334429	20.803646
493.765956	20.945431
494.197466	21.091264
494.628960	21.232835
495.060439	21.398535
495.491901	21.593404
495.923347	21.809553
496.354776	22.056127
496.786190	22.328158
497.217587	22.631328
497.648968	22.956889
498.080332	23.301818
498.511681	23.656149
498.943013	24.000237
499.374328	24.337071
499.805628	24.654925
500.236911	24.971778
500.668177	25.241003
501.099427	25.483059
501.530661	25.708541
501.961878	25.915485
502.393079	26.099926
502.824264	26.278657
503.255431	26.440872
503.686583	26.600261
504.117717	26.781520
504.548835	26.986397
504.979937	27.207079
505.411022	27.448287
505.842090	27.732433
506.273142	28.044813
506.704177	28.362272
507.135195	28.708290
507.566197	29.034564
507.997182	29.347938
508.428150	29.618811
508.859102	29.860942
509.290036	30.050128
509.720954	30.193259
510.151855	30.312857
510.582739	30.412736
511.013607	30.505765
511.444457	30.596602
511.875291	30.720149
512.306107	30.859351
512.736907	31.041301
513.167690	31.253666
513.598456	31.491931
514.029205	31.771601
514.459936	32.051694
514.890651	32.343165
515.321349	32.610413
515.752030	32.862445
516.182693	33.061961
516.613340	33.223504
517.043969	33.374941
517.474582	33.464276
517.905177	33.510583
518.335755	33.534401
518.766315	33.519551
519.196859	33.481710
519.627385	33.430593
520.057894	33.371887
520.488386	33.313459
520.918860	33.271183
521.349318	33.263078
521.779757	33.286730
522.210180	33.345401
522.640585	33.450543
523.070973	33.597509
523.501343	33.774681
523.931696	33.985580
524.362031	34.209614
524.792349	34.432593
525.222650	34.638138
525.652933	34.826957
526.083198	34.974896
526.513446	35.087448
526.943677	35.158371
527.373890	35.204134
527.804085	35.251176
528.234262	35.275991
528.664422	35.313269
529.094565	35.374088
529.524689	35.477799
529.954796	35.629945
530.384885	35.810410
530.814957	36.034861
531.245011	36.315566
531.675047	36.624695
532.105065	36.961964
532.535065	37.308807
532.965048	37.655411
533.395013	38.004738
533.824959	38.327992
534.254888	38.629124
534.684799	38.877846
535.114693	39.092803
535.544568	39.267150
535.974425	39.407226
536.404264	39.510527
536.834086	39.572468
537.263889	39.608815
537.693674	39.614201
538.123441	39.626629
538.553190	39.634878
538.982921	39.657754
539.412634	39.713113
539.842329	39.793878
540.272006	39.921690
540.701664	40.095025
541.131304	40.284095
541.560926	40.511742
541.990530	40.789188
542.420116	41.092827
542.849683	41.399403
543.279232	41.695270
543.708763	41.974757
544.138275	42.250692
544.567769	42.485182
544.997245	42.663297
545.426702	42.826064
545.856141	42.956737
546.285562	43.064840
546.714964	43.143721
547.144347	43.224082
547.573713	43.305283
548.003059	43.424533
548.432387	43.556496
548.861697	43.728329
549.290988	43.933654
549.720260	44.195244
550.149514	44.492793
550.578750	44.822471
551.007966	45.198939
551.437164	45.604867
551.866344	46.025894
552.295504	46.455110
552.724646	46.862443
553.153769	47.254460
553.582874	47.604944
554.011960	47.896028
554.441027	48.144352
554.870075	48.347009
555.299104	48.478552
555.728115	48.548238
556.157106	48.586040
556.586079	48.586996
557.015033	48.550743
557.443968	48.507359
557.872884	48.466673
558.301781	48.450876
558.730659	48.436358
559.159518	48.452428
559.588358	48.501321
560.017180	48.584682
560.445982	48.706207
560.874765	48.852205
561.303528	49.030054
561.732273	49.233226
562.160999	49.448623
562.589705	49.677194
563.018393	49.899920
563.447061	50.129924
563.875710	50.359210
564.304340	50.585196
564.732950	50.784862
565.161542	50.974683
565.590114	51.167104
566.018666	51.335135
566.447200	51.510767
566.875714	51.674722
567.304208	51.837636
567.732684	52.007589
568.161140	52.168127
568.589576	52.336954
569.017993	52.522327
569.446391	52.722187
569.874769	52.947760
570.303128	53.220464
570.731467	53.510878
571.159787	53.822816
571.588087	54.155498
572.016368	54.535953
572.444629	54.929012
572.872870	55.334599
573.301092	55.759025
573.729294	56.156330
574.157476	56.546975
574.585639	56.897211
575.013782	57.205313
575.441906	57.461172
575.870009	57.660665
576.298093	57.811050
576.726157	57.886655
577.154202	57.901223
577.582226	57.878650
578.010231	57.822058
578.438216	57.739000
578.866181	57.633073
579.294126	57.532082
579.722051	57.432556
580.149957	57.354134
580.577842	57.309788
581.005707	57.271678
581.433553	57.281484
581.861378	57.304652
582.289184	57.362451
582.716969	57.435346
583.144734	57.519869
583.572479	57.617128
584.000205	57.733039
584.427910	57.863959
584.855594	58.022698
585.283259	58.172426
585.710904	58.339392
586.138528	58.506874
586.566132	58.673750
586.993716	58.852233
587.421280	59.019009
587.848823	59.189227
588.276346	59.353783
588.703849	59.523176
589.131332	59.669481
589.558794	59.805667
589.986236	59.945306
590.413657	60.087260
590.841058	60.202867
591.268438	60.328536
591.695799	60.447729
592.123138	60.578455
592.550458	60.732866
592.977756	60.909525
593.405034	61.109520
593.832292	61.319183
594.259529	61.582448
594.686746	61.853299
595.113942	62.162395
595.541117	62.475059
595.968272	62.808942
596.395406	63.157118
596.822519	63.476307
597.249612	63.770215
597.676684	64.040156
598.103735	64.255585
598.530766	64.411785
598.957775	64.513350
599.384764	64.564070
599.811733	64.575704
600.238680	64.535381
600.665606	64.480652
601.092512	64.388674
601.519397	64.294245
601.946261	64.188128
602.373104	64.106672
602.799926	64.045893
603.226727	64.012812
603.653507	63.999412
604.080266	64.017075
604.507004	64.054218
604.933721	64.125843
605.360417	64.200159
605.787092	64.277008
606.213746	64.355121
606.640379	64.432375
607.066991	64.503905
607.493581	64.565549
607.920150	64.650421
608.346699	64.716801
608.773226	64.791733
609.199731	64.863920
609.626216	64.940430
610.052679	65.055622
610.479121	65.171452
610.905542	65.297509
611.331941	65.455826
611.758319	65.640501
612.184676	65.853535
612.611011	66.082069
613.037325	66.294496
613.463617	66.523728
613.889888	66.733806
614.316138	66.949335
614.742366	67.160813
615.168573	67.351894
615.594758	67.517576
616.020921	67.673571
616.447063	67.803216
616.873184	67.941542
617.299283	68.079208
617.725360	68.214212
618.151416	68.362311
618.577450	68.524953
619.003462	68.720126
619.429453	68.932720
619.855422	69.162923
620.281369	69.430795
620.707295	69.689411
621.133199	69.942643
621.559081	70.205231
621.984941	70.450933
622.410779	70.670529
622.836596	70.854705
623.262391	70.975324
623.688163	71.066068
624.113914	71.109216
624.539644	71.106983
624.965351	71.059072
625.391036	70.966363
625.816699	70.840803
626.242340	70.699938
626.667960	70.537475
627.093557	70.378717
627.519132	70.217560
627.944685	70.059981
628.370216	69.908980
628.795725	69.791295
629.221212	69.664726
629.646677	69.559162
630.072119	69.444659
630.497540	69.327220
630.922938	69.203219
631.348314	69.045975
631.773668	68.871444
632.198999	68.675012
632.624308	68.448040
633.049595	68.197733
633.474860	67.914974
633.900102	67.640644
634.325322	67.342801
634.750520	67.048351
635.175695	66.771355
635.600848	66.523294
636.025978	66.312425
636.451086	66.156441
636.876171	66.043550
637.301234	65.973389
637.726275	65.942620
638.151293	65.969841
638.576288	66.038411
639.001261	66.135675
639.426211	66.272681
639.851139	66.434236
640.276044	66.606267
640.700927	66.784233
641.125787	66.957862
641.550624	67.125021
641.975438	67.281077
642.400230	67.412845
642.824999	67.539284
643.249745	67.637298
643.674469	67.735617
644.099169	67.825674
644.523847	67.935777
644.948502	68.056360
645.373135	68.171059
645.797744	68.301868
646.222330	68.468448
646.646894	68.649290
647.071435	68.842150
647.495953	69.057646
647.920447	69.281832
648.344919	69.511009
648.769368	69.731499
649.193794	69.950473
649.618197	70.137552
650.042576	70.313063
650.466933	70.483230
650.891267	70.626675
651.315577	70.744289
651.739864	70.837297
652.164129	70.915612
652.588370	70.966047
653.012587	70.990961
653.436782	71.008444
653.860953	71.016553
654.285102	71.000225
654.709226	70.992238
655.133328	70.958048
655.557406	70.934950
655.981461	70.898315
656.405493	70.866490
656.829501	70.817454
657.253486	70.766258
657.677448	70.686709
658.101386	70.584127
658.525301	70.469472
658.949192	70.334973
659.373060	70.162402
659.796904	69.964639
660.220725	69.737421
660.644522	69.488983
661.068296	69.229970
661.492046	68.951560
661.915772	68.683586
662.339475	68.406961
662.763154	68.158204
663.186810	67.939693
663.610442	67.740307
664.034050	67.590462
664.457635	67.487348
664.881196	67.444634
665.304733	67.464854
665.728247	67.548238
666.151736	67.699439
666.575202	67.913513
666.998644	68.194007
667.422062	68.541483
667.845457	68.928616
668.268827	69.375041
668.692174	69.845573
669.115496	70.339388
669.538795	70.850223
669.962070	71.373407
670.385321	71.887410
670.808547	72.391198
671.231750	72.874027
671.654929	73.332178
672.078084	73.760217
672.501214	74.134686
672.924321	74.497020
673.347404	74.831231
673.770462	75.121452
674.193496	75.371741
674.616506	75.595834
675.039492	75.777601
675.462454	75.948831
675.885391	76.079363
676.308305	76.174207
676.731194	76.269846
677.154058	76.339047
677.576899	76.405466
677.999715	76.456366
678.422507	76.487315
678.845274	76.513951
679.268017	76.542708
679.690736	76.559284
680.113430	76.567687
680.536100	76.570497
680.958746	76.594061
681.381367	76.617450
681.803963	76.642280
682.226535	76.690139
682.649083	76.728436
683.071605	76.771549
683.494104	76.816282
683.916578	76.866678
684.339027	76.938655
684.761451	77.010870
685.183851	77.084149
685.606227	77.175622
686.028577	77.246279
686.450903	77.313769
686.873204	77.390240
687.295481	77.449225
687.717733	77.490756
688.139959	77.521680
688.562162	77.532659
688.984339	77.539326
689.406492	77.522871
689.828619	77.452412
690.250722	77.366629
690.672800	77.225801
691.094853	77.059236
691.516881	76.872905
691.938884	76.660119
692.360863	76.410768
692.782816	76.151160
693.204744	75.878000
693.626647	75.596785
694.048526	75.309632
694.470379	75.034689
694.892207	74.781609
695.314010	74.545610
695.735788	74.364135
696.157540	74.217260
696.579268	74.130324
697.000970	74.094735
697.422648	74.110400
697.844300	74.181368
698.265926	74.319094
698.687528	74.532071
699.109104	74.793357
699.530655	75.113048
699.952181	75.484465
700.373681	75.908540
700.795156	76.374505
701.216606	76.878328
701.638030	77.414460
702.059429	77.960666
702.480803	78.518316
702.902151	79.087183
703.323473	79.635213
703.744770	80.156855
704.166042	80.640419
704.587288	81.084861
705.008509	81.492883
705.429704	81.863351
705.850873	82.188436
706.272017	82.456657
706.693135	82.706438
707.114228	82.906255
707.535295	83.064983
707.956336	83.192504
708.377352	83.289221
708.798342	83.366194
709.219306	83.408144
709.640245	83.443383
710.061157	83.477018
710.482044	83.483757
710.902905	83.488385
711.323741	83.506830
711.744550	83.506625
712.165334	83.534367
712.586092	83.561945
713.006823	83.599879
713.427529	83.658270
713.848209	83.730882
714.268863	83.816361
714.689492	83.900944
715.110094	84.000181
715.530670	84.114442
715.951220	84.257592
716.371744	84.415646
716.792242	84.609899
717.212714	84.828769
717.633159	85.061588
718.053579	85.314163
718.473973	85.571072
718.894340	85.840170
719.314681	86.118311
719.734996	86.379136
720.155285	86.630063
720.575547	86.862973
720.995784	87.081330
721.415994	87.256039
721.836177	87.392849
722.256335	87.504498
722.676466	87.558947
723.096570	87.560852
723.516649	87.523643
723.936701	87.446147
724.356726	87.285000
724.776725	87.070433
725.196698	86.788040
725.616644	86.462710
726.036564	86.072667
726.456457	85.642968
726.876324	85.181253
727.296164	84.704182
727.715977	84.219271
728.135764	83.734223
728.555525	83.260459
728.975258	82.786006
729.394966	82.336721
729.814646	81.924098
730.234300	81.535444
730.653927	81.217651
731.073527	80.928964
731.493101	80.702136
731.912648	80.536371
732.332168	80.441662
732.751661	80.411195
733.171128	80.454842
733.590568	80.559854
734.009980	80.725923
734.429366	80.975120
734.848726	81.273661
735.268058	81.635829
735.687363	82.037401
736.106641	82.477919
736.525893	82.945073
736.945117	83.425013
737.364314	83.935632
737.783485	84.453901
738.202628	84.982102
738.621744	85.513639
739.040834	86.027270
739.459896	86.520492
739.878931	86.988259
740.297939	87.397083
740.716919	87.745829
741.135873	88.058403
741.554799	88.308305
741.973698	88.502283
742.392570	88.639854
742.811415	88.708527
743.230232	88.729101
743.649022	88.663707
744.067785	88.559311
744.486521	88.414127
744.905229	88.214367
745.323909	87.956933
745.742563	87.663274
746.161189	87.332612
746.579787	86.989470
746.998358	86.629807
747.416902	86.243880
747.835418	85.858040
748.253907	85.461881
748.672368	85.073022
749.090802	84.692113
749.509208	84.334599
749.927586	84.011059
750.345937	83.722431
750.764261	83.468083
751.182556	83.253290
751.600824	83.061470
752.019065	82.939194
752.437277	82.873875
752.855462	82.844555
753.273620	82.873190
753.691749	82.972890
754.109851	83.095003
