Time1=100ms:Average1=5:Objective=10X:Aperture=1: (11/21/2018 2:47:34 PM)
11/21/2018 2:47:34 PM
Reflectance
10X
Ap#: 1
Avg1: 5.000000
Avg2: 0.000000
Int.Time1:100.000000

350.166136	94.291027
350.601937	94.891283
351.037728	94.461327
351.473509	94.843137
351.909281	94.482623
352.345042	94.588723
352.780794	94.274998
353.216536	94.282323
353.652267	94.038423
354.087989	94.010494
354.523701	93.915448
354.959403	93.643273
355.395095	93.875532
355.830777	93.279889
356.266449	92.995455
356.702110	92.734790
357.137762	92.233010
357.573404	92.102685
358.009035	91.563907
358.444656	91.812923
358.880268	92.083943
359.315869	92.195741
359.751459	91.914353
360.187040	91.791118
360.622610	92.041217
361.058170	91.978346
361.493720	92.036270
361.929260	92.107332
362.364789	92.710391
362.800308	92.380010
363.235816	92.289489
363.671314	92.562715
364.106802	92.976589
364.542279	92.963437
364.977746	92.928199
365.413203	93.454797
365.848649	93.245649
366.284084	93.025560
366.719509	93.178004
367.154924	93.354399
367.590328	93.450212
368.025721	93.701952
368.461104	93.963644
368.896477	93.814943
369.331838	93.544254
369.767189	94.161810
370.202530	94.429577
370.637859	94.760956
371.073178	95.108100
371.508486	95.530114
371.943784	95.192690
372.379071	94.775526
372.814347	94.694645
373.249612	94.813935
373.684866	95.073843
374.120110	95.160494
374.555343	95.080669
374.990565	95.134760
375.425776	95.047053
375.860976	95.138820
376.296165	95.668476
376.731343	95.799565
377.166511	95.874244
377.601667	95.120749
378.036812	95.104413
378.471946	95.654316
378.907070	95.227829
379.342182	95.024924
379.777283	95.316939
380.212373	95.459449
380.647452	95.385520
381.082520	95.319232
381.517576	94.984357
381.952622	93.871435
382.387656	93.305199
382.822679	93.772753
383.257691	93.472037
383.692692	93.313012
384.127681	93.188943
384.562659	92.692636
384.997626	92.215399
385.432581	92.029534
385.867525	92.756654
386.302458	92.772456
386.737379	93.302255
387.172289	93.135207
387.607188	93.180956
388.042075	92.954953
388.476951	92.821432
388.911815	92.823552
389.346668	92.334364
389.781509	91.969981
390.216338	91.892145
390.651157	91.824899
391.085963	91.860247
391.520758	92.259395
391.955541	91.634839
392.390313	91.602911
392.825073	91.644933
393.259821	91.670531
393.694558	91.533901
394.129283	91.526364
394.563996	91.449195
394.998698	91.556997
395.433388	92.278966
395.868066	92.619650
396.302732	92.541772
396.737386	92.135145
397.172029	92.261241
397.606659	91.697451
398.041278	91.522777
398.475885	91.400402
398.910480	91.059588
399.345063	89.760940
399.779634	89.016401
400.214194	87.355183
400.648741	85.885419
401.083276	84.374615
401.517799	82.073926
401.952310	79.807059
402.386809	77.251433
402.821296	74.809903
403.255771	72.233900
403.690234	69.496742
404.124684	66.299320
404.559123	63.202716
404.993549	59.939635
405.427963	56.890405
405.862365	53.914314
406.296754	50.990485
406.731131	48.302223
407.165496	45.835504
407.599849	43.473663
408.034190	41.351383
408.468518	39.301209
408.902833	37.429066
409.337137	35.788482
409.771428	34.246710
410.205706	32.767309
410.639973	31.455917
411.074226	30.387801
411.508467	29.399342
411.942696	28.531042
412.376912	27.732013
412.811116	26.997724
413.245307	26.370231
413.679486	25.899350
414.113652	25.460167
414.547805	24.987072
414.981946	24.654095
415.416074	24.373523
415.850190	24.235195
416.284293	24.048888
416.718383	23.951676
417.152460	23.823689
417.586525	23.832668
418.020577	23.855551
418.454616	23.826165
418.888643	23.852067
419.322656	23.942011
419.756657	24.028011
420.190645	24.146130
420.624620	24.312339
421.058582	24.488833
421.492531	24.663188
421.926468	24.871456
422.360391	25.096422
422.794301	25.333238
423.228199	25.545050
423.662083	25.795485
424.095955	26.046519
424.529813	26.344641
424.963658	26.640953
425.397491	26.900451
425.831310	27.195890
426.265116	27.541885
426.698909	27.825626
427.132689	28.118570
427.566455	28.438691
428.000209	28.781067
428.433949	29.126979
428.867676	29.456941
429.301389	29.790403
429.735090	30.140943
430.168777	30.477391
430.602451	30.812875
431.036111	31.120176
431.469759	31.461113
431.903392	31.829274
432.337013	32.153734
432.770620	32.464913
433.204213	32.798815
433.637794	33.153264
434.071360	33.457699
434.504914	33.775523
434.938453	34.078946
435.371979	34.416701
435.805492	34.762788
436.238991	35.091550
436.672477	35.429739
437.105949	35.768249
437.539407	36.091633
437.972852	36.352808
438.406283	36.666477
438.839700	36.968009
439.273104	37.232182
439.706494	37.493538
440.139871	37.787668
440.573233	38.058773
441.006582	38.303542
441.439917	38.564312
441.873238	38.796603
442.306546	39.046567
442.739839	39.280668
443.173119	39.508518
443.606385	39.710927
444.039636	39.928971
444.472874	40.173218
444.906099	40.373973
445.339309	40.601929
445.772505	40.847625
446.205687	41.099342
446.638855	41.316291
447.072009	41.499714
447.505149	41.716228
447.938275	41.905919
448.371387	42.099807
448.804485	42.258971
449.237569	42.403458
449.670638	42.550751
450.103694	42.691593
450.536735	42.848967
450.969762	42.991657
451.402774	43.137609
451.835773	43.226509
452.268757	43.380003
452.701727	43.517776
453.134683	43.626506
453.567624	43.742250
454.000551	43.868520
454.433464	43.973629
454.866362	44.083040
455.299246	44.217753
455.732116	44.340357
456.164971	44.448617
456.597811	44.552465
457.030638	44.665237
457.463449	44.808014
457.896246	44.866333
458.329029	44.949654
458.761797	45.013034
459.194551	45.057665
459.627290	45.097449
460.060014	45.149501
460.492724	45.187517
460.925419	45.206508
461.358099	45.258409
461.790765	45.282528
462.223416	45.285708
462.656052	45.291950
463.088674	45.287495
463.521281	45.285168
463.953873	45.272260
464.386450	45.231995
464.819012	45.206336
465.251560	45.174706
465.684093	45.110096
466.116611	45.056955
466.549114	45.017123
466.981602	44.960701
467.414075	44.885003
467.846533	44.780371
468.278977	44.678225
468.711405	44.566448
469.143818	44.461998
469.576216	44.325858
470.008600	44.172884
470.440968	44.024487
470.873321	43.818211
471.305659	43.658205
471.737982	43.477812
472.170289	43.271814
472.602582	43.052573
473.034859	42.832987
473.467122	42.594464
473.899369	42.364743
474.331600	42.118627
474.763817	41.860751
475.196018	41.597296
475.628204	41.326909
476.060375	41.056745
476.492530	40.785203
476.924670	40.499472
477.356795	40.199259
477.788904	39.940347
478.220998	39.653710
478.653076	39.364264
479.085139	39.085882
479.517186	38.805285
479.949219	38.521609
480.381235	38.255729
480.813236	37.996054
481.245221	37.757058
481.677191	37.507655
482.109146	37.254830
482.541084	37.002405
482.973008	36.761749
483.404915	36.538158
483.836807	36.306999
484.268683	36.095795
484.700544	35.890941
485.132388	35.703569
485.564217	35.535210
485.996031	35.386849
486.427828	35.232689
486.859610	35.087975
487.291376	34.964025
487.723126	34.874845
488.154860	34.761624
488.586579	34.687701
489.018281	34.632567
489.449968	34.595247
489.881639	34.584855
490.313293	34.580135
490.744932	34.592005
491.176555	34.597743
491.608162	34.635892
492.039753	34.719840
492.471328	34.778573
492.902886	34.865217
493.334429	34.970806
493.765956	35.079370
494.197466	35.208442
494.628960	35.355314
495.060439	35.506304
495.491901	35.665325
495.923347	35.840939
496.354776	36.018332
496.786190	36.196880
497.217587	36.394732
497.648968	36.582759
498.080332	36.777149
498.511681	36.964788
498.943013	37.161496
499.374328	37.365451
499.805628	37.586837
500.236911	37.830069
500.668177	38.060339
501.099427	38.284955
501.530661	38.525159
501.961878	38.750897
502.393079	38.955054
502.824264	39.156452
503.255431	39.333343
503.686583	39.496732
504.117717	39.656562
504.548835	39.803620
504.979937	39.934508
505.411022	40.038748
505.842090	40.164555
506.273142	40.274366
506.704177	40.359810
507.135195	40.443926
507.566197	40.498980
507.997182	40.544524
508.428150	40.569983
508.859102	40.592777
509.290036	40.579490
509.720954	40.563026
510.151855	40.544398
510.582739	40.499937
511.013607	40.476592
511.444457	40.423282
511.875291	40.380751
512.306107	40.330297
512.736907	40.264466
513.167690	40.193720
513.598456	40.095053
514.029205	40.004136
514.459936	39.897800
514.890651	39.801388
515.321349	39.698873
515.752030	39.618663
516.182693	39.537449
516.613340	39.455770
517.043969	39.409134
517.474582	39.369384
517.905177	39.348178
518.335755	39.330118
518.766315	39.335054
519.196859	39.355523
519.627385	39.373107
520.057894	39.428391
520.488386	39.479621
520.918860	39.564126
521.349318	39.669271
521.779757	39.811248
522.210180	39.970380
522.640585	40.177816
523.070973	40.409874
523.501343	40.668429
523.931696	40.964569
524.362031	41.265137
524.792349	41.618943
525.222650	41.988696
525.652933	42.379877
526.083198	42.797868
526.513446	43.254441
526.943677	43.741439
527.373890	44.264223
527.804085	44.825930
528.234262	45.400626
528.664422	46.009835
529.094565	46.643847
529.524689	47.298475
529.954796	47.995591
530.384885	48.688242
530.814957	49.398216
531.245011	50.116056
531.675047	50.864280
532.105065	51.623718
532.535065	52.392960
532.965048	53.188109
533.395013	53.989988
533.824959	54.804860
534.254888	55.627958
534.684799	56.490850
535.114693	57.356877
535.544568	58.227588
535.974425	59.087065
536.404264	59.954898
536.834086	60.822590
537.263889	61.684896
537.693674	62.538305
538.123441	63.396647
538.553190	64.242949
538.982921	65.095405
539.412634	65.945979
539.842329	66.761049
540.272006	67.589067
540.701664	68.382997
541.131304	69.152301
541.560926	69.911567
541.990530	70.662759
542.420116	71.400007
542.849683	72.115739
543.279232	72.797073
543.708763	73.487963
544.138275	74.157028
544.567769	74.831248
544.997245	75.472370
545.426702	76.118645
545.856141	76.743641
546.285562	77.356460
546.714964	77.942721
547.144347	78.534961
547.573713	79.115400
548.003059	79.667443
548.432387	80.199356
548.861697	80.706944
549.290988	81.192917
549.720260	81.673738
550.149514	82.123683
550.578750	82.548222
551.007966	82.997321
551.437164	83.409336
551.866344	83.835393
552.295504	84.240475
552.724646	84.634220
553.153769	85.042064
553.582874	85.423451
554.011960	85.802086
554.441027	86.171408
554.870075	86.541190
555.299104	86.890255
555.728115	87.212007
556.157106	87.530110
556.586079	87.821581
557.015033	88.059748
557.443968	88.300007
557.872884	88.525642
558.301781	88.745335
558.730659	88.916270
559.159518	89.108098
559.588358	89.285196
560.017180	89.452231
560.445982	89.606039
560.874765	89.764243
561.303528	89.917324
561.732273	90.066366
562.160999	90.220361
562.589705	90.381023
563.018393	90.527057
563.447061	90.675469
563.875710	90.830445
564.304340	90.962531
564.732950	91.092508
565.161542	91.206353
565.590114	91.313059
566.018666	91.432865
566.447200	91.539283
566.875714	91.643699
567.304208	91.751625
567.732684	91.854378
568.161140	91.951986
568.589576	92.053317
569.017993	92.147189
569.446391	92.230425
569.874769	92.324942
570.303128	92.445281
570.731467	92.540348
571.159787	92.623652
571.588087	92.701610
572.016368	92.797705
572.444629	92.874309
572.872870	92.941079
573.301092	93.016300
573.729294	93.079345
574.157476	93.124141
574.585639	93.156701
575.013782	93.191051
575.441906	93.216722
575.870009	93.238868
576.298093	93.262909
576.726157	93.277379
577.154202	93.282202
577.582226	93.274010
578.010231	93.282036
578.438216	93.282152
578.866181	93.279973
579.294126	93.257957
579.722051	93.232352
580.149957	93.207897
580.577842	93.179913
581.005707	93.144837
581.433553	93.114637
581.861378	93.062848
582.289184	93.032127
582.716969	92.992485
583.144734	92.960952
583.572479	92.938422
584.000205	92.902219
584.427910	92.882502
584.855594	92.869172
585.283259	92.844706
585.710904	92.819267
586.138528	92.819484
586.566132	92.805488
586.993716	92.801348
587.421280	92.793222
587.848823	92.797478
588.276346	92.799438
588.703849	92.803961
589.131332	92.790541
589.558794	92.771274
589.986236	92.745791
590.413657	92.730216
590.841058	92.709419
591.268438	92.673339
591.695799	92.633950
592.123138	92.604947
592.550458	92.574527
592.977756	92.545635
593.405034	92.522551
593.832292	92.486763
594.259529	92.458923
594.686746	92.424405
595.113942	92.395470
595.541117	92.349784
595.968272	92.325240
596.395406	92.279351
596.822519	92.219445
597.249612	92.177882
597.676684	92.109767
598.103735	92.034773
598.530766	91.970702
598.957775	91.889716
599.384764	91.793076
599.811733	91.702705
600.238680	91.590160
600.665606	91.468040
601.092512	91.326994
601.519397	91.178949
601.946261	91.019980
602.373104	90.849782
602.799926	90.670591
603.226727	90.487320
603.653507	90.275198
604.080266	90.051715
604.507004	89.821550
604.933721	89.587962
605.360417	89.329618
605.787092	89.054644
606.213746	88.759310
606.640379	88.441979
607.066991	88.115545
607.493581	87.778656
607.920150	87.426247
608.346699	87.060228
608.773226	86.685950
609.199731	86.268233
609.626216	85.840052
610.052679	85.387969
610.479121	84.919958
610.905542	84.425343
611.331941	83.921863
611.758319	83.378127
612.184676	82.827776
612.611011	82.262686
613.037325	81.661099
613.463617	81.039340
613.889888	80.395540
614.316138	79.731728
614.742366	79.047420
615.168573	78.335245
615.594758	77.606814
616.020921	76.861296
616.447063	76.099435
616.873184	75.327596
617.299283	74.545645
617.725360	73.748752
618.151416	72.937520
618.577450	72.113371
619.003462	71.294990
619.429453	70.478613
619.855422	69.657913
620.281369	68.850775
620.707295	68.018131
621.133199	67.183129
621.559081	66.358338
621.984941	65.528906
622.410779	64.706307
622.836596	63.886234
623.262391	63.073925
623.688163	62.262012
624.113914	61.458353
624.539644	60.648975
624.965351	59.846222
625.391036	59.047986
625.816699	58.237881
626.242340	57.429882
626.667960	56.632494
627.093557	55.836343
627.519132	55.046787
627.944685	54.252173
628.370216	53.466117
628.795725	52.693966
629.221212	51.914924
629.646677	51.158868
630.072119	50.419973
630.497540	49.691541
630.922938	48.980979
631.348314	48.289064
631.773668	47.617862
632.198999	46.970587
632.624308	46.342330
633.049595	45.736716
633.474860	45.151221
633.900102	44.595289
634.325322	44.073366
634.750520	43.559067
635.175695	43.075995
635.600848	42.622745
636.025978	42.192672
636.451086	41.785516
636.876171	41.404220
637.301234	41.041018
637.726275	40.701094
638.151293	40.396493
638.576288	40.101990
639.001261	39.835020
639.426211	39.596049
639.851139	39.379895
640.276044	39.190054
640.700927	39.021990
641.125787	38.876967
641.550624	38.755674
641.975438	38.663661
642.400230	38.598737
642.824999	38.543286
643.249745	38.522789
643.674469	38.523165
644.099169	38.545683
644.523847	38.588725
644.948502	38.657663
645.373135	38.743694
645.797744	38.853415
646.222330	38.985436
646.646894	39.131374
647.071435	39.302763
647.495953	39.483571
647.920447	39.690507
648.344919	39.910250
648.769368	40.137504
649.193794	40.380156
649.618197	40.632007
650.042576	40.898477
650.466933	41.193387
650.891267	41.498584
651.315577	41.810642
651.739864	42.140623
652.164129	42.482666
652.588370	42.827223
653.012587	43.178739
653.436782	43.547724
653.860953	43.923072
654.285102	44.316219
654.709226	44.721648
655.133328	45.127432
655.557406	45.552850
655.981461	45.987005
656.405493	46.415549
656.829501	46.858006
657.253486	47.301366
657.677448	47.733784
658.101386	48.170693
658.525301	48.609204
658.949192	49.032635
659.373060	49.459416
659.796904	49.880752
660.220725	50.296455
660.644522	50.705551
661.068296	51.105453
661.492046	51.497903
661.915772	51.898979
662.339475	52.289827
662.763154	52.671808
663.186810	53.046271
663.610442	53.404258
664.034050	53.755229
664.457635	54.093818
664.881196	54.429950
665.304733	54.755117
665.728247	55.068027
666.151736	55.384281
666.575202	55.683293
666.998644	55.980308
667.422062	56.265021
667.845457	56.531499
668.268827	56.803134
668.692174	57.056866
669.115496	57.304648
669.538795	57.545647
669.962070	57.777663
670.385321	57.999127
670.808547	58.230539
671.231750	58.429648
671.654929	58.624414
672.078084	58.822521
672.501214	58.992502
672.924321	59.166130
673.347404	59.324358
673.770462	59.468699
674.193496	59.601311
674.616506	59.726346
675.039492	59.831106
675.462454	59.929313
675.885391	60.022682
676.308305	60.095998
676.731194	60.169044
677.154058	60.229717
677.576899	60.290054
677.999715	60.334194
678.422507	60.372842
678.845274	60.421587
679.268017	60.458678
679.690736	60.497987
680.113430	60.528926
680.536100	60.564031
680.958746	60.612459
681.381367	60.650546
681.803963	60.692306
682.226535	60.735340
682.649083	60.785670
683.071605	60.844600
683.494104	60.902550
683.916578	60.956938
684.339027	61.045227
684.761451	61.131003
685.183851	61.217288
685.606227	61.331041
686.028577	61.441115
686.450903	61.570944
686.873204	61.715537
687.295481	61.878121
687.717733	62.052416
688.139959	62.234036
688.562162	62.435047
688.984339	62.659580
689.406492	62.898708
689.828619	63.145774
690.250722	63.417739
690.672800	63.696578
691.094853	63.998838
691.516881	64.334390
691.938884	64.675718
692.360863	65.022253
692.782816	65.388015
693.204744	65.766178
693.626647	66.154681
694.048526	66.551198
694.470379	66.958483
694.892207	67.379643
695.314010	67.812338
695.735788	68.252804
696.157540	68.699863
696.579268	69.154989
697.000970	69.619040
697.422648	70.080836
697.844300	70.547627
698.265926	71.027974
698.687528	71.508787
699.109104	71.990939
699.530655	72.477639
699.952181	72.981519
700.373681	73.485076
700.795156	74.001364
701.216606	74.527056
701.638030	75.048152
702.059429	75.563283
702.480803	76.094734
702.902151	76.631816
703.323473	77.166004
703.744770	77.699775
704.166042	78.227290
704.587288	78.739115
705.008509	79.260818
705.429704	79.789843
705.850873	80.297174
706.272017	80.795577
706.693135	81.295721
707.114228	81.773131
707.535295	82.247815
707.956336	82.706913
708.377352	83.158880
708.798342	83.604841
709.219306	84.016463
709.640245	84.427666
710.061157	84.828422
710.482044	85.212175
710.902905	85.577278
711.323741	85.936737
711.744550	86.277568
712.165334	86.619370
712.586092	86.946282
713.006823	87.260586
713.427529	87.567747
713.848209	87.854306
714.268863	88.131869
714.689492	88.411901
715.110094	88.685488
715.530670	88.944545
715.951220	89.197512
716.371744	89.440720
716.792242	89.686319
717.212714	89.931554
717.633159	90.173515
718.053579	90.402329
718.473973	90.609640
718.894340	90.835363
719.314681	91.057861
719.734996	91.269478
720.155285	91.485374
720.575547	91.694257
720.995784	91.902677
721.415994	92.111430
721.836177	92.300835
722.256335	92.517071
722.676466	92.713662
723.096570	92.905633
723.516649	93.091616
723.936701	93.303709
724.356726	93.487745
724.776725	93.674696
725.196698	93.856925
725.616644	94.039034
726.036564	94.199684
726.456457	94.356790
726.876324	94.514646
727.296164	94.673601
727.715977	94.828975
728.135764	94.973417
728.555525	95.117497
728.975258	95.250742
729.394966	95.380855
729.814646	95.511158
730.234300	95.633240
730.653927	95.757473
731.073527	95.863313
731.493101	95.977449
731.912648	96.082945
732.332168	96.188240
732.751661	96.273917
733.171128	96.369821
733.590568	96.460594
734.009980	96.552187
734.429366	96.632858
734.848726	96.715969
735.268058	96.787360
735.687363	96.869696
736.106641	96.943649
736.525893	97.022301
736.945117	97.077201
737.364314	97.150014
737.783485	97.215730
738.202628	97.274655
738.621744	97.329561
739.040834	97.391910
739.459896	97.466255
739.878931	97.537989
740.297939	97.590581
740.716919	97.633538
741.135873	97.694656
741.554799	97.744435
741.973698	97.811221
742.392570	97.872866
742.811415	97.941676
743.230232	98.006724
743.649022	98.062032
744.067785	98.140611
744.486521	98.224601
744.905229	98.311208
745.323909	98.395257
745.742563	98.493925
746.161189	98.594383
746.579787	98.703519
746.998358	98.813038
747.416902	98.930667
747.835418	99.058921
748.253907	99.204729
748.672368	99.342666
749.090802	99.493235
749.509208	99.641699
749.927586	99.797477
750.345937	99.958462
750.764261	100.124447
751.182556	100.302494
751.600824	100.486745
752.019065	100.672004
752.437277	100.848842
752.855462	101.045440
753.273620	101.249489
753.691749	101.473377
