Time1=100ms:Average1=5:Objective=10X:Aperture=1: (11/28/2018 10:02:29 AM)
11/28/2018 10:02:29 AM
Reflectance
10X
Ap#: 1
Avg1: 5.000000
Avg2: 0.000000
Int.Time1:100.000000

350.166136	66.773137
350.601937	66.339128
351.037728	66.526117
351.473509	66.278173
351.909281	66.333046
352.345042	66.689932
352.780794	66.655034
353.216536	66.322061
353.652267	66.316710
354.087989	66.584810
354.523701	66.485109
354.959403	65.920464
355.395095	65.990653
355.830777	66.031578
356.266449	66.534111
356.702110	66.319689
357.137762	66.548704
357.573404	66.645919
358.009035	66.669635
358.444656	66.223333
358.880268	66.321336
359.315869	66.432322
359.751459	66.723169
360.187040	66.476258
360.622610	66.476156
361.058170	66.741251
361.493720	66.984325
361.929260	67.134054
362.364789	67.286046
362.800308	67.289720
363.235816	67.370850
363.671314	67.661692
364.106802	67.711849
364.542279	67.554608
364.977746	67.669774
365.413203	67.593905
365.848649	67.233440
366.284084	67.047265
366.719509	67.059240
367.154924	66.971581
367.590328	66.595612
368.025721	66.908898
368.461104	67.249335
368.896477	66.819626
369.331838	66.340991
369.767189	66.254603
370.202530	66.266538
370.637859	66.376735
371.073178	66.289672
371.508486	65.974343
371.943784	65.985922
372.379071	66.038228
372.814347	65.863209
373.249612	66.068629
373.684866	66.527270
374.120110	66.530399
374.555343	66.515837
374.990565	66.666667
375.425776	66.622968
375.860976	66.809104
376.296165	66.853343
376.731343	66.669586
377.166511	66.415821
377.601667	66.722159
378.036812	66.777090
378.471946	66.631854
378.907070	66.756804
379.342182	66.840504
379.777283	67.000000
380.212373	67.319016
380.647452	67.104127
381.082520	67.359917
381.517576	66.984946
381.952622	67.028517
382.387656	67.314839
382.822679	67.747514
383.257691	67.477704
383.692692	67.819979
384.127681	67.663584
384.562659	68.213638
384.997626	68.211635
385.432581	68.380130
385.867525	68.200224
386.302458	68.575371
386.737379	68.199398
387.172289	68.160014
387.607188	68.192337
388.042075	68.172080
388.476951	68.417905
388.911815	68.145572
389.346668	68.053202
389.781509	68.204478
390.216338	68.483773
390.651157	68.247405
391.085963	67.703691
391.520758	67.601955
391.955541	67.891374
392.390313	67.651502
392.825073	67.921674
393.259821	67.770049
393.694558	67.292068
394.129283	67.306889
394.563996	67.172138
394.998698	67.200199
395.433388	66.978990
395.868066	66.890417
396.302732	67.031885
396.737386	67.150509
397.172029	66.798322
397.606659	66.298678
398.041278	65.365678
398.475885	65.197695
398.910480	64.735269
399.345063	64.444358
399.779634	63.740781
400.214194	62.644198
400.648741	61.472805
401.083276	60.130601
401.517799	58.602000
401.952310	56.580994
402.386809	54.729465
402.821296	52.581089
403.255771	50.241878
403.690234	47.987396
404.124684	45.862549
404.559123	43.614343
404.993549	41.306805
405.427963	38.942287
405.862365	36.898846
406.296754	34.811823
406.731131	32.825800
407.165496	31.081573
407.599849	29.293100
408.034190	27.531736
408.468518	26.080680
408.902833	24.721836
409.337137	23.400007
409.771428	22.106792
410.205706	21.071622
410.639973	20.115222
411.074226	19.266283
411.508467	18.427706
411.942696	17.687526
412.376912	17.034401
412.811116	16.385410
413.245307	15.808907
413.679486	15.364506
414.113652	14.884784
414.547805	14.505686
414.981946	14.191315
415.416074	13.946455
415.850190	13.656980
416.284293	13.380388
416.718383	13.137064
417.152460	12.944644
417.586525	12.758229
418.020577	12.593999
418.454616	12.402937
418.888643	12.267723
419.322656	12.143317
419.756657	12.029785
420.190645	11.919381
420.624620	11.807546
421.058582	11.729835
421.492531	11.642455
421.926468	11.562125
422.360391	11.512628
422.794301	11.468095
423.228199	11.412399
423.662083	11.356817
424.095955	11.322268
424.529813	11.285596
424.963658	11.297270
425.397491	11.277524
425.831310	11.268151
426.265116	11.262728
426.698909	11.260499
427.132689	11.264896
427.566455	11.289534
428.000209	11.310206
428.433949	11.297313
428.867676	11.300616
429.301389	11.294666
429.735090	11.329494
430.168777	11.358067
430.602451	11.371676
431.036111	11.350800
431.469759	11.364086
431.903392	11.385351
432.337013	11.378833
432.770620	11.383291
433.204213	11.396263
433.637794	11.428789
434.071360	11.472778
434.504914	11.495549
434.938453	11.536689
435.371979	11.556937
435.805492	11.583919
436.238991	11.616531
436.672477	11.670007
437.105949	11.719478
437.539407	11.750064
437.972852	11.780035
438.406283	11.799149
438.839700	11.824270
439.273104	11.839463
439.706494	11.876326
440.139871	11.899283
440.573233	11.916546
441.006582	11.922199
441.439917	11.922825
441.873238	11.934545
442.306546	11.927883
442.739839	11.934739
443.173119	11.932084
443.606385	11.942215
444.039636	11.950176
444.472874	11.971123
444.906099	11.980239
445.339309	12.000020
445.772505	12.031939
446.205687	12.072169
446.638855	12.098795
447.072009	12.106213
447.505149	12.109230
447.938275	12.119499
448.371387	12.128103
448.804485	12.130790
449.237569	12.126541
449.670638	12.111893
450.103694	12.094572
450.536735	12.087468
450.969762	12.095981
451.402774	12.098436
451.835773	12.097905
452.268757	12.105175
452.701727	12.112848
453.134683	12.108634
453.567624	12.130540
454.000551	12.147973
454.433464	12.177158
454.866362	12.215916
455.299246	12.273466
455.732116	12.335437
456.164971	12.414489
456.597811	12.491575
457.030638	12.574404
457.463449	12.649360
457.896246	12.741065
458.329029	12.818231
458.761797	12.890515
459.194551	12.965143
459.627290	13.029855
460.060014	13.094155
460.492724	13.174833
460.925419	13.262154
461.358099	13.365252
461.790765	13.468275
462.223416	13.584844
462.656052	13.716571
463.088674	13.860947
463.521281	14.009897
463.953873	14.165190
464.386450	14.321795
464.819012	14.492774
465.251560	14.666056
465.684093	14.845256
466.116611	15.027076
466.549114	15.218934
466.981602	15.394075
467.414075	15.579940
467.846533	15.765181
468.278977	15.951204
468.711405	16.124944
469.143818	16.299518
469.576216	16.477195
470.008600	16.653826
470.440968	16.814967
470.873321	17.001561
471.305659	17.172587
471.737982	17.338376
472.170289	17.509513
472.602582	17.669174
473.034859	17.818557
473.467122	17.981977
473.899369	18.142005
474.331600	18.292807
474.763817	18.442669
475.196018	18.605329
475.628204	18.774957
476.060375	18.946166
476.492530	19.139243
476.924670	19.317615
477.356795	19.490544
477.788904	19.656665
478.220998	19.818726
478.653076	19.971299
479.085139	20.105930
479.517186	20.223796
479.949219	20.327371
480.381235	20.418581
480.813236	20.495497
481.245221	20.581760
481.677191	20.667074
482.109146	20.747437
482.541084	20.837653
482.973008	20.930383
483.404915	21.026250
483.836807	21.129731
484.268683	21.242747
484.700544	21.359291
485.132388	21.499707
485.564217	21.630954
485.996031	21.773831
486.427828	21.913589
486.859610	22.036004
487.291376	22.162958
487.723126	22.295269
488.154860	22.419307
488.586579	22.539281
489.018281	22.655148
489.449968	22.769416
489.881639	22.895554
490.313293	23.037581
490.744932	23.197116
491.176555	23.377072
491.608162	23.566122
492.039753	23.769645
492.471328	23.980463
492.902886	24.203300
493.334429	24.422896
493.765956	24.636317
494.197466	24.848737
494.628960	25.044804
495.060439	25.226302
495.491901	25.395974
495.923347	25.557887
496.354776	25.724703
496.786190	25.893513
497.217587	26.073418
497.648968	26.269085
498.080332	26.480621
498.511681	26.701172
498.943013	26.965025
499.374328	27.245337
499.805628	27.568732
500.236911	27.926677
500.668177	28.303698
501.099427	28.683940
501.530661	29.072098
501.961878	29.466352
502.393079	29.850271
502.824264	30.217140
503.255431	30.539325
503.686583	30.849429
504.117717	31.116586
504.548835	31.351786
504.979937	31.565094
505.411022	31.755362
505.842090	31.949880
506.273142	32.126875
506.704177	32.308044
507.135195	32.511196
507.566197	32.739618
507.997182	32.983738
508.428150	33.240510
508.859102	33.545284
509.290036	33.869509
509.720954	34.206519
510.151855	34.551245
510.582739	34.901213
511.013607	35.245172
511.444457	35.590575
511.875291	35.925249
512.306107	36.225263
512.736907	36.515512
513.167690	36.777947
513.598456	37.009846
514.029205	37.221346
514.459936	37.412752
514.890651	37.594538
515.321349	37.746607
515.752030	37.904495
516.182693	38.063859
516.613340	38.230115
517.043969	38.416360
517.474582	38.646063
517.905177	38.907679
518.335755	39.213339
518.766315	39.569764
519.196859	39.964420
519.627385	40.419563
520.057894	40.914062
520.488386	41.448111
520.918860	42.019648
521.349318	42.616359
521.779757	43.253347
522.210180	43.912693
522.640585	44.594823
523.070973	45.277495
523.501343	45.970003
523.931696	46.671140
524.362031	47.363097
524.792349	48.069230
525.222650	48.774444
525.652933	49.482817
526.083198	50.183463
526.513446	50.882180
526.943677	51.599312
527.373890	52.317418
527.804085	53.047311
528.234262	53.789237
528.664422	54.562560
529.094565	55.354405
529.524689	56.166205
529.954796	57.008662
530.384885	57.865438
530.814957	58.751762
531.245011	59.674864
531.675047	60.591784
532.105065	61.525763
532.535065	62.477804
532.965048	63.435197
533.395013	64.392826
533.824959	65.337696
534.254888	66.265571
534.684799	67.213116
535.114693	68.146090
535.544568	69.044719
535.974425	69.913549
536.404264	70.792860
536.834086	71.647633
537.263889	72.477604
537.693674	73.286816
538.123441	74.074009
538.553190	74.853883
538.982921	75.615495
539.412634	76.353522
539.842329	77.090215
540.272006	77.808864
540.701664	78.503598
541.131304	79.191276
541.560926	79.860496
541.990530	80.500455
542.420116	81.119415
542.849683	81.712476
543.279232	82.268720
543.708763	82.794140
544.138275	83.275241
544.567769	83.717398
544.997245	84.114267
545.426702	84.479189
545.856141	84.803651
546.285562	85.086993
546.714964	85.343781
547.144347	85.580201
547.573713	85.817222
548.003059	86.023241
548.432387	86.226196
548.861697	86.418394
549.290988	86.608662
549.720260	86.787921
550.149514	86.974298
550.578750	87.182253
551.007966	87.401367
551.437164	87.610823
551.866344	87.836017
552.295504	88.077857
552.724646	88.337868
553.153769	88.595701
553.582874	88.861963
554.011960	89.146804
554.441027	89.419549
554.870075	89.690182
555.299104	89.963738
555.728115	90.231874
556.157106	90.490883
556.586079	90.758733
557.015033	91.003050
557.443968	91.245303
557.872884	91.477836
558.301781	91.721714
558.730659	91.952623
559.159518	92.162069
559.588358	92.353637
560.017180	92.542147
560.445982	92.741830
560.874765	92.900206
561.303528	93.057674
561.732273	93.199343
562.160999	93.309921
562.589705	93.426977
563.018393	93.519875
563.447061	93.595264
563.875710	93.639432
564.304340	93.682103
564.732950	93.730792
565.161542	93.739760
565.590114	93.760582
566.018666	93.763189
566.447200	93.776747
566.875714	93.779603
567.304208	93.767637
567.732684	93.747218
568.161140	93.723169
568.589576	93.704692
569.017993	93.685173
569.446391	93.664628
569.874769	93.638082
570.303128	93.625000
570.731467	93.592014
571.159787	93.540764
571.588087	93.496102
572.016368	93.442750
572.444629	93.394613
572.872870	93.351732
573.301092	93.308532
573.729294	93.230179
574.157476	93.196986
574.585639	93.129929
575.013782	93.063566
575.441906	93.031657
575.870009	92.961160
576.298093	92.920684
576.726157	92.886828
577.154202	92.850563
577.582226	92.815197
578.010231	92.774716
578.438216	92.751667
578.866181	92.715770
579.294126	92.684825
579.722051	92.650001
580.149957	92.614775
580.577842	92.576717
581.005707	92.545024
581.433553	92.503580
581.861378	92.459862
582.289184	92.395241
582.716969	92.318515
583.144734	92.236861
583.572479	92.136735
584.000205	92.042502
584.427910	91.930253
584.855594	91.789327
585.283259	91.650257
585.710904	91.479422
586.138528	91.294624
586.566132	91.089176
586.993716	90.874839
587.421280	90.613379
587.848823	90.353029
588.276346	90.061777
588.703849	89.726836
589.131332	89.387486
589.558794	89.002177
589.986236	88.594814
590.413657	88.154457
590.841058	87.677816
591.268438	87.187252
591.695799	86.669049
592.123138	86.129543
592.550458	85.561355
592.977756	84.979091
593.405034	84.382951
593.832292	83.790002
594.259529	83.203103
594.686746	82.636374
595.113942	82.067347
595.541117	81.522778
595.968272	80.998154
596.395406	80.493445
596.822519	80.023228
597.249612	79.575714
597.676684	79.184342
598.103735	78.824447
598.530766	78.476926
598.957775	78.192526
599.384764	77.936616
599.811733	77.723032
600.238680	77.545185
600.665606	77.395142
601.092512	77.270564
601.519397	77.169703
601.946261	77.095959
602.373104	77.036661
602.799926	76.985982
603.226727	76.932426
603.653507	76.900667
604.080266	76.883627
604.507004	76.852693
604.933721	76.815848
605.360417	76.768049
605.787092	76.725184
606.213746	76.668665
606.640379	76.594877
607.066991	76.500543
607.493581	76.383647
607.920150	76.227471
608.346699	76.038089
608.773226	75.816069
609.199731	75.559528
609.626216	75.267212
610.052679	74.921676
610.479121	74.540233
610.905542	74.106117
611.331941	73.641255
611.758319	73.146161
612.184676	72.600904
612.611011	72.031144
613.037325	71.416574
613.463617	70.786134
613.889888	70.125512
614.316138	69.441955
614.742366	68.747453
615.168573	68.049136
615.594758	67.341360
616.020921	66.631817
616.447063	65.938832
616.873184	65.260797
617.299283	64.576132
617.725360	63.907145
618.151416	63.263042
618.577450	62.637628
619.003462	62.023526
619.429453	61.419238
619.855422	60.833039
620.281369	60.264723
620.707295	59.705868
621.133199	59.159680
621.559081	58.634910
621.984941	58.123883
622.410779	57.630257
622.836596	57.144447
623.262391	56.694268
623.688163	56.254602
624.113914	55.834553
624.539644	55.440022
624.965351	55.060087
625.391036	54.704925
625.816699	54.371051
626.242340	54.066023
626.667960	53.775882
627.093557	53.506269
627.519132	53.255637
627.944685	53.039210
628.370216	52.843638
628.795725	52.672698
629.221212	52.524491
629.646677	52.412098
630.072119	52.323515
630.497540	52.267490
630.922938	52.262307
631.348314	52.293490
631.773668	52.364182
632.198999	52.481879
632.624308	52.668015
633.049595	52.908667
633.474860	53.205491
633.900102	53.564477
634.325322	53.987162
634.750520	54.465644
635.175695	55.005727
635.600848	55.604289
636.025978	56.255088
636.451086	56.943976
636.876171	57.676769
637.301234	58.445197
637.726275	59.230595
638.151293	60.047851
638.576288	60.880128
639.001261	61.723162
639.426211	62.576793
639.851139	63.431501
640.276044	64.285612
640.700927	65.132097
641.125787	65.968836
641.550624	66.768997
641.975438	67.559720
642.400230	68.313673
642.824999	69.021430
643.249745	69.688530
643.674469	70.307617
644.099169	70.856678
644.523847	71.346841
644.948502	71.773879
645.373135	72.140339
645.797744	72.426280
646.222330	72.636372
646.646894	72.764533
647.071435	72.826970
647.495953	72.797717
647.920447	72.703023
648.344919	72.522567
648.769368	72.275006
649.193794	71.943685
649.618197	71.560574
650.042576	71.110356
650.466933	70.606941
650.891267	70.060203
651.315577	69.461953
651.739864	68.836628
652.164129	68.180769
652.588370	67.493208
653.012587	66.783024
653.436782	66.048985
653.860953	65.326741
654.285102	64.585330
654.709226	63.848845
655.133328	63.107236
655.557406	62.393607
655.981461	61.689038
656.405493	61.012509
656.829501	60.366095
657.253486	59.753807
657.677448	59.174410
658.101386	58.645707
658.525301	58.159134
658.949192	57.702338
659.373060	57.296288
659.796904	56.928899
660.220725	56.595196
660.644522	56.308738
661.068296	56.039065
661.492046	55.804090
661.915772	55.593601
662.339475	55.424370
662.763154	55.271715
663.186810	55.148039
663.610442	55.040847
664.034050	54.952704
664.457635	54.878911
664.881196	54.811604
665.304733	54.750318
665.728247	54.702446
666.151736	54.659487
666.575202	54.634510
666.998644	54.602287
667.422062	54.586719
667.845457	54.582135
668.268827	54.588667
668.692174	54.596084
669.115496	54.607685
669.538795	54.612201
669.962070	54.630822
670.385321	54.652505
670.808547	54.677347
671.231750	54.696993
671.654929	54.710368
672.078084	54.734525
672.501214	54.742372
672.924321	54.765105
673.347404	54.780171
673.770462	54.801681
674.193496	54.836340
674.616506	54.884338
675.039492	54.934482
675.462454	54.987698
675.885391	55.042720
676.308305	55.120813
676.731194	55.211079
677.154058	55.309948
677.576899	55.426195
677.999715	55.565249
678.422507	55.723744
678.845274	55.904490
679.268017	56.112219
679.690736	56.328307
680.113430	56.569492
680.536100	56.820834
680.958746	57.102234
681.381367	57.396132
681.803963	57.719531
682.226535	58.057820
682.649083	58.414998
683.071605	58.780364
683.494104	59.154491
683.916578	59.545457
684.339027	59.941760
684.761451	60.348236
685.183851	60.751087
685.606227	61.166240
686.028577	61.570230
686.450903	61.977994
686.873204	62.367040
687.295481	62.742758
687.717733	63.108625
688.139959	63.467068
688.562162	63.821995
688.984339	64.174757
689.406492	64.498314
689.828619	64.817066
690.250722	65.119408
690.672800	65.410721
691.094853	65.683108
691.516881	65.948916
691.938884	66.182126
692.360863	66.401231
692.782816	66.620270
693.204744	66.816573
693.626647	66.993045
694.048526	67.139477
694.470379	67.270329
694.892207	67.375314
695.314010	67.473064
695.735788	67.556529
696.157540	67.623074
696.579268	67.678684
697.000970	67.717690
697.422648	67.746845
697.844300	67.756253
698.265926	67.753899
698.687528	67.746461
699.109104	67.741371
699.530655	67.712772
699.952181	67.699430
700.373681	67.683496
700.795156	67.658332
701.216606	67.624265
701.638030	67.583060
702.059429	67.527766
702.480803	67.465239
702.902151	67.388804
703.323473	67.308132
703.744770	67.209998
704.166042	67.104645
704.587288	66.976674
705.008509	66.849424
705.429704	66.698006
705.850873	66.526069
706.272017	66.346194
706.693135	66.166656
707.114228	65.978107
707.535295	65.791223
707.956336	65.600796
708.377352	65.401487
708.798342	65.185100
709.219306	64.981827
709.640245	64.793639
710.061157	64.608953
710.482044	64.434462
710.902905	64.282724
711.323741	64.144631
711.744550	64.025953
712.165334	63.908893
712.586092	63.829186
713.006823	63.759120
713.427529	63.709948
713.848209	63.678026
714.268863	63.671280
714.689492	63.681864
715.110094	63.718184
715.530670	63.771218
715.951220	63.853007
716.371744	63.953754
716.792242	64.088479
717.212714	64.226616
717.633159	64.394420
718.053579	64.584131
718.473973	64.793691
718.894340	65.028972
719.314681	65.280860
719.734996	65.532324
720.155285	65.809674
720.575547	66.092702
720.995784	66.380275
721.415994	66.676512
721.836177	66.989583
722.256335	67.289596
722.676466	67.573773
723.096570	67.869778
723.516649	68.144215
723.936701	68.405272
724.356726	68.657942
724.776725	68.888867
725.196698	69.114212
725.616644	69.326670
726.036564	69.514685
726.456457	69.696826
726.876324	69.867865
727.296164	70.026579
727.715977	70.171387
728.135764	70.308096
728.555525	70.432647
728.975258	70.543112
729.394966	70.635235
729.814646	70.712573
730.234300	70.786828
730.653927	70.852281
731.073527	70.900541
731.493101	70.949187
731.912648	70.978332
732.332168	71.000490
732.751661	71.028546
733.171128	71.035297
733.590568	71.038853
734.009980	71.034867
734.429366	71.023759
734.848726	71.026063
735.268058	71.023776
735.687363	71.024753
736.106641	71.006765
736.525893	71.006462
736.945117	71.004876
737.364314	71.012944
737.783485	71.022680
738.202628	71.026810
738.621744	71.034072
739.040834	71.062394
739.459896	71.083933
739.878931	71.122641
740.297939	71.153875
740.716919	71.201082
741.135873	71.244787
741.554799	71.307645
741.973698	71.376930
742.392570	71.472598
742.811415	71.565332
743.230232	71.675957
743.649022	71.804742
744.067785	71.955769
744.486521	72.106582
744.905229	72.270013
745.323909	72.459308
745.742563	72.653921
746.161189	72.875783
746.579787	73.112981
746.998358	73.359443
747.416902	73.613927
747.835418	73.858512
748.253907	74.120065
748.672368	74.378014
749.090802	74.655001
749.509208	74.924228
749.927586	75.202005
750.345937	75.465386
750.764261	75.724505
751.182556	75.999221
751.600824	76.264716
752.019065	76.516658
752.437277	76.764350
752.855462	76.997762
753.273620	77.229577
753.691749	77.439220
754.109851	77.656253
