Time1=100ms:Average1=5:Objective=10X:Aperture=1: (11/28/2018 10:12:39 AM)
11/28/2018 10:12:39 AM
Reflectance
10X
Ap#: 1
Avg1: 5.000000
Avg2: 0.000000
Int.Time1:100.000000

350.166136	76.936937
350.601937	76.820358
351.037728	76.955512
351.473509	76.638958
351.909281	76.626402
352.345042	76.897575
352.780794	76.906299
353.216536	76.607675
353.652267	76.395451
354.087989	76.670760
354.523701	76.719670
354.959403	76.455096
355.395095	76.474738
355.830777	76.669313
356.266449	77.050194
356.702110	77.178899
357.137762	77.457312
357.573404	77.049618
358.009035	76.723063
358.444656	76.836562
358.880268	76.681254
359.315869	76.968942
359.751459	76.964939
360.187040	76.722599
360.622610	76.656546
361.058170	76.783317
361.493720	76.772355
361.929260	76.779495
362.364789	77.345006
362.800308	77.116155
363.235816	77.347772
363.671314	77.656361
364.106802	77.589270
364.542279	77.677144
364.977746	77.709720
365.413203	77.126152
365.848649	77.125399
366.284084	77.049035
366.719509	77.331090
367.154924	77.273535
367.590328	76.996181
368.025721	77.224389
368.461104	77.657498
368.896477	77.515002
369.331838	77.396356
369.767189	77.178678
370.202530	76.964865
370.637859	77.060271
371.073178	77.441697
371.508486	77.223143
371.943784	76.909707
372.379071	76.689835
372.814347	76.609816
373.249612	76.746211
373.684866	77.016902
374.120110	76.767852
374.555343	76.975287
374.990565	77.031987
375.425776	77.014508
375.860976	76.663469
376.296165	76.653833
376.731343	76.626675
377.166511	76.382569
377.601667	76.658197
378.036812	76.349054
378.471946	76.396867
378.907070	76.901605
379.342182	76.679704
379.777283	76.869565
380.212373	76.567371
380.647452	76.403039
381.082520	76.521141
381.517576	76.412903
381.952622	76.436633
382.387656	76.276899
382.822679	76.411587
383.257691	76.595376
383.692692	76.847034
384.127681	76.627193
384.562659	76.510241
384.997626	76.652857
385.432581	76.958963
385.867525	76.988024
386.302458	77.095550
386.737379	76.819940
387.172289	76.760322
387.607188	77.114940
388.042075	77.204559
388.476951	77.490176
388.911815	77.553444
389.346668	77.948153
389.781509	78.115758
390.216338	78.270791
390.651157	78.229685
391.085963	78.054318
391.520758	78.142905
391.955541	78.072978
392.390313	78.353198
392.825073	78.334314
393.259821	78.329004
393.694558	78.566044
394.129283	78.647182
394.563996	78.695217
394.998698	78.512191
395.433388	78.259793
395.868066	78.441708
396.302732	78.230539
396.737386	78.210737
397.172029	77.959200
397.606659	77.819564
398.041278	77.370802
398.475885	77.146831
398.910480	76.441665
399.345063	75.853335
399.779634	74.750307
400.214194	73.584408
400.648741	71.885161
401.083276	70.383866
401.517799	68.092174
401.952310	65.935069
402.386809	63.464798
402.821296	60.824323
403.255771	58.358218
403.690234	55.725559
404.124684	52.933148
404.559123	50.226620
404.993549	47.367554
405.427963	44.722455
405.862365	41.888784
406.296754	39.521038
406.731131	37.117570
407.165496	34.842415
407.599849	32.746045
408.034190	30.708200
408.468518	28.933358
408.902833	27.255738
409.337137	25.712851
409.771428	24.253443
410.205706	22.847143
410.639973	21.635901
411.074226	20.566877
411.508467	19.544123
411.942696	18.612063
412.376912	17.804373
412.811116	17.082321
413.245307	16.422613
413.679486	15.863485
414.113652	15.331621
414.547805	14.803123
414.981946	14.384345
415.416074	14.005777
415.850190	13.616169
416.284293	13.282850
416.718383	12.953803
417.152460	12.658867
417.586525	12.398137
418.020577	12.127583
418.454616	11.893019
418.888643	11.647150
419.322656	11.480240
419.756657	11.304137
420.190645	11.116738
420.624620	10.923068
421.058582	10.766738
421.492531	10.617721
421.926468	10.459369
422.360391	10.329174
422.794301	10.206567
423.228199	10.097403
423.662083	10.001424
424.095955	9.922489
424.529813	9.828066
424.963658	9.767012
425.397491	9.692892
425.831310	9.636895
426.265116	9.569475
426.698909	9.502934
427.132689	9.436777
427.566455	9.407231
428.000209	9.348860
428.433949	9.292315
428.867676	9.232198
429.301389	9.188758
429.735090	9.162264
430.168777	9.123328
430.602451	9.082467
431.036111	9.028218
431.469759	8.995853
431.903392	8.948782
432.337013	8.932487
432.770620	8.893474
433.204213	8.863215
433.637794	8.827060
434.071360	8.820405
434.504914	8.803507
434.938453	8.783608
435.371979	8.764586
435.805492	8.762543
436.238991	8.750736
436.672477	8.759549
437.105949	8.775505
437.539407	8.765682
437.972852	8.758878
438.406283	8.737412
438.839700	8.750813
439.273104	8.732355
439.706494	8.729812
440.139871	8.730988
440.573233	8.733757
441.006582	8.731716
441.439917	8.732699
441.873238	8.746258
442.306546	8.737119
442.739839	8.747689
443.173119	8.756176
443.606385	8.751284
444.039636	8.758093
444.472874	8.771691
444.906099	8.787592
445.339309	8.825828
445.772505	8.854174
446.205687	8.890425
446.638855	8.908889
447.072009	8.960498
447.505149	8.999080
447.938275	9.045207
448.371387	9.095082
448.804485	9.143976
449.237569	9.187009
449.670638	9.244772
450.103694	9.271685
450.536735	9.298477
450.969762	9.342550
451.402774	9.391597
451.835773	9.440573
452.268757	9.474523
452.701727	9.531589
453.134683	9.594026
453.567624	9.656104
454.000551	9.725613
454.433464	9.781402
454.866362	9.855419
455.299246	9.919061
455.732116	9.992704
456.164971	10.067261
456.597811	10.123776
457.030638	10.215778
457.463449	10.294456
457.896246	10.369750
458.329029	10.440401
458.761797	10.498889
459.194551	10.553566
459.627290	10.610125
460.060014	10.671712
460.492724	10.727652
460.925419	10.794848
461.358099	10.868742
461.790765	10.939293
462.223416	11.020788
462.656052	11.096006
463.088674	11.165141
463.521281	11.260928
463.953873	11.344653
464.386450	11.433043
464.819012	11.519200
465.251560	11.615196
465.684093	11.702717
466.116611	11.788257
466.549114	11.880815
466.981602	11.981490
467.414075	12.079682
467.846533	12.186222
468.278977	12.291353
468.711405	12.394734
469.143818	12.499328
469.576216	12.600282
470.008600	12.709181
470.440968	12.799865
470.873321	12.891785
471.305659	12.990763
471.737982	13.086929
472.170289	13.184191
472.602582	13.281969
473.034859	13.381151
473.467122	13.489843
473.899369	13.605712
474.331600	13.717411
474.763817	13.824644
475.196018	13.942159
475.628204	14.058820
476.060375	14.181913
476.492530	14.314889
476.924670	14.436201
477.356795	14.557597
477.788904	14.681268
478.220998	14.801221
478.653076	14.912702
479.085139	15.024397
479.517186	15.138503
479.949219	15.242673
480.381235	15.342334
480.813236	15.437010
481.245221	15.537931
481.677191	15.646237
482.109146	15.765098
482.541084	15.891557
482.973008	16.030609
483.404915	16.172054
483.836807	16.317749
484.268683	16.480916
484.700544	16.646368
485.132388	16.807521
485.564217	16.969211
485.996031	17.138473
486.427828	17.291232
486.859610	17.443219
487.291376	17.588293
487.723126	17.743797
488.154860	17.885025
488.586579	18.025056
489.018281	18.164232
489.449968	18.304350
489.881639	18.448599
490.313293	18.597596
490.744932	18.755279
491.176555	18.910349
491.608162	19.063864
492.039753	19.218912
492.471328	19.379442
492.902886	19.521589
493.334429	19.661000
493.765956	19.783291
494.197466	19.908320
494.628960	20.028192
495.060439	20.135166
495.491901	20.239059
495.923347	20.346689
496.354776	20.451210
496.786190	20.571450
497.217587	20.708884
497.648968	20.850524
498.080332	20.996953
498.511681	21.164593
498.943013	21.343602
499.374328	21.527097
499.805628	21.722240
500.236911	21.913113
500.668177	22.115457
501.099427	22.288310
501.530661	22.462361
501.961878	22.645966
502.393079	22.808995
502.824264	22.970018
503.255431	23.112018
503.686583	23.258131
504.117717	23.398527
504.548835	23.530552
504.979937	23.675887
505.411022	23.834261
505.842090	24.001316
506.273142	24.184965
506.704177	24.380462
507.135195	24.590758
507.566197	24.815377
507.997182	25.047244
508.428150	25.290655
508.859102	25.555601
509.290036	25.833463
509.720954	26.110771
510.151855	26.392293
510.582739	26.686439
511.013607	26.986663
511.444457	27.288516
511.875291	27.601783
512.306107	27.924968
512.736907	28.262269
513.167690	28.613101
513.598456	28.980468
514.029205	29.363330
514.459936	29.781505
514.890651	30.214049
515.321349	30.656123
515.752030	31.128342
516.182693	31.616538
516.613340	32.120965
517.043969	32.631743
517.474582	33.163080
517.905177	33.696031
518.335755	34.233696
518.766315	34.791125
519.196859	35.337837
519.627385	35.901478
520.057894	36.483790
520.488386	37.070154
520.918860	37.673953
521.349318	38.301356
521.779757	38.964994
522.210180	39.638560
522.640585	40.331556
523.070973	41.072565
523.501343	41.842779
523.931696	42.635274
524.362031	43.449017
524.792349	44.303230
525.222650	45.170659
525.652933	46.058809
526.083198	46.967425
526.513446	47.888499
526.943677	48.829836
527.373890	49.772424
527.804085	50.714458
528.234262	51.678234
528.664422	52.642705
529.094565	53.603179
529.524689	54.563021
529.954796	55.533783
530.384885	56.501294
530.814957	57.466724
531.245011	58.431474
531.675047	59.397143
532.105065	60.344709
532.535065	61.289039
532.965048	62.233554
533.395013	63.171901
533.824959	64.098785
534.254888	65.021603
534.684799	65.954364
535.114693	66.867946
535.544568	67.757679
535.974425	68.636087
536.404264	69.484997
536.834086	70.314707
537.263889	71.117639
537.693674	71.908370
538.123441	72.666243
538.553190	73.412323
538.982921	74.132286
539.412634	74.822850
539.842329	75.512746
540.272006	76.187987
540.701664	76.825841
541.131304	77.467759
541.560926	78.078057
541.990530	78.673143
542.420116	79.272845
542.849683	79.847010
543.279232	80.399066
543.708763	80.941169
544.138275	81.463984
544.567769	81.993607
544.997245	82.494979
545.426702	82.980103
545.856141	83.477612
546.285562	83.954933
546.714964	84.403495
547.144347	84.849765
547.573713	85.273505
548.003059	85.675685
548.432387	86.070685
548.861697	86.437931
549.290988	86.775012
549.720260	87.093849
550.149514	87.389494
550.578750	87.660443
551.007966	87.916043
551.437164	88.150629
551.866344	88.364750
552.295504	88.562112
552.724646	88.758622
553.153769	88.918031
553.582874	89.061401
554.011960	89.206173
554.441027	89.325180
554.870075	89.443709
555.299104	89.557656
555.728115	89.650490
556.157106	89.725438
556.586079	89.809630
557.015033	89.897433
557.443968	89.965307
557.872884	90.033671
558.301781	90.113214
558.730659	90.188785
559.159518	90.250863
559.588358	90.314321
560.017180	90.384086
560.445982	90.474301
560.874765	90.571364
561.303528	90.664880
561.732273	90.750158
562.160999	90.858728
562.589705	90.970952
563.018393	91.090132
563.447061	91.219972
563.875710	91.347829
564.304340	91.476923
564.732950	91.625792
565.161542	91.751178
565.590114	91.897168
566.018666	92.035825
566.447200	92.175988
566.875714	92.314960
567.304208	92.448237
567.732684	92.580652
568.161140	92.694721
568.589576	92.799048
569.017993	92.888986
569.446391	92.976675
569.874769	93.045161
570.303128	93.091338
570.731467	93.139305
571.159787	93.156214
571.588087	93.156007
572.016368	93.149480
572.444629	93.129616
572.872870	93.098853
573.301092	93.050829
573.729294	92.987510
574.157476	92.912712
574.585639	92.826277
575.013782	92.736402
575.441906	92.641182
575.870009	92.544262
576.298093	92.447800
576.726157	92.346978
577.154202	92.252406
577.582226	92.153299
578.010231	92.057054
578.438216	91.990792
578.866181	91.920442
579.294126	91.852357
579.722051	91.799816
580.149957	91.747572
580.577842	91.717224
581.005707	91.681146
581.433553	91.665829
581.861378	91.648175
582.289184	91.646657
582.716969	91.659147
583.144734	91.682237
583.572479	91.712986
584.000205	91.737763
584.427910	91.766247
584.855594	91.790415
585.283259	91.823600
585.710904	91.835437
586.138528	91.836251
586.566132	91.837421
586.993716	91.823050
587.421280	91.787807
587.848823	91.748783
588.276346	91.685607
588.703849	91.586327
589.131332	91.471864
589.558794	91.314626
589.986236	91.134995
590.413657	90.913214
590.841058	90.660409
591.268438	90.368202
591.695799	90.045144
592.123138	89.693060
592.550458	89.290785
592.977756	88.851670
593.405034	88.389469
593.832292	87.882944
594.259529	87.356528
594.686746	86.794338
595.113942	86.226780
595.541117	85.630885
595.968272	85.003799
596.395406	84.350425
596.822519	83.697750
597.249612	83.038101
597.676684	82.383370
598.103735	81.725540
598.530766	81.068997
598.957775	80.432839
599.384764	79.811559
599.811733	79.199919
600.238680	78.615439
600.665606	78.046255
601.092512	77.494830
601.519397	76.967961
601.946261	76.490053
602.373104	76.031989
602.799926	75.589127
603.226727	75.178080
603.653507	74.808725
604.080266	74.470111
604.507004	74.149633
604.933721	73.841374
605.360417	73.549702
605.787092	73.296729
606.213746	73.061750
606.640379	72.839376
607.066991	72.640694
607.493581	72.467531
607.920150	72.309269
608.346699	72.141684
608.773226	71.987191
609.199731	71.832587
609.626216	71.690685
610.052679	71.524141
610.479121	71.364389
610.905542	71.181667
611.331941	70.988692
611.758319	70.759938
612.184676	70.519260
612.611011	70.246877
613.037325	69.944298
613.463617	69.603933
613.889888	69.226518
614.316138	68.810514
614.742366	68.362646
615.168573	67.860720
615.594758	67.321177
616.020921	66.775727
616.447063	66.183596
616.873184	65.572512
617.299283	64.919694
617.725360	64.267872
618.151416	63.606608
618.577450	62.936721
619.003462	62.268564
619.429453	61.625048
619.855422	60.988812
620.281369	60.379708
620.707295	59.791230
621.133199	59.251702
621.559081	58.755080
621.984941	58.300732
622.410779	57.918664
622.836596	57.569929
623.262391	57.288958
623.688163	57.052481
624.113914	56.883250
624.539644	56.780546
624.965351	56.738706
625.391036	56.749857
625.816699	56.825387
626.242340	56.949805
626.667960	57.132885
627.093557	57.377621
627.519132	57.662455
627.944685	57.986850
628.370216	58.371043
628.795725	58.790252
629.221212	59.220131
629.646677	59.692530
630.072119	60.169075
630.497540	60.682276
630.922938	61.196084
631.348314	61.722881
631.773668	62.248024
632.198999	62.753189
632.624308	63.233999
633.049595	63.700403
633.474860	64.129699
633.900102	64.521027
634.325322	64.850988
634.750520	65.146657
635.175695	65.395559
635.600848	65.586976
636.025978	65.741723
636.451086	65.840390
636.876171	65.900076
637.301234	65.918959
637.726275	65.892351
638.151293	65.833605
638.576288	65.744287
639.001261	65.633471
639.426211	65.508204
639.851139	65.352613
640.276044	65.174940
640.700927	65.002796
641.125787	64.820188
641.550624	64.608130
641.975438	64.395371
642.400230	64.196434
642.824999	63.984736
643.249745	63.798504
643.674469	63.619617
644.099169	63.457726
644.523847	63.318182
644.948502	63.212081
645.373135	63.154637
645.797744	63.132938
646.222330	63.153895
646.646894	63.219676
647.071435	63.344486
647.495953	63.515638
647.920447	63.738313
648.344919	64.005557
648.769368	64.333392
649.193794	64.701331
649.618197	65.124650
650.042576	65.580462
650.466933	66.090985
650.891267	66.631998
651.315577	67.198601
651.739864	67.795327
652.164129	68.400809
652.588370	69.026305
653.012587	69.647735
653.436782	70.285508
653.860953	70.927182
654.285102	71.562488
654.709226	72.203334
655.133328	72.841003
655.557406	73.472847
655.981461	74.095768
656.405493	74.698721
656.829501	75.272606
657.253486	75.811099
657.677448	76.311356
658.101386	76.783505
658.525301	77.204178
658.949192	77.581856
659.373060	77.919279
659.796904	78.206819
660.220725	78.442300
660.644522	78.637585
661.068296	78.779494
661.492046	78.880550
661.915772	78.937159
662.339475	78.964438
662.763154	78.955120
663.186810	78.924870
663.610442	78.853802
664.034050	78.763648
664.457635	78.656760
664.881196	78.530071
665.304733	78.388268
665.728247	78.245568
666.151736	78.106709
666.575202	77.962527
666.998644	77.802220
667.422062	77.650287
667.845457	77.501704
668.268827	77.356122
668.692174	77.214208
669.115496	77.084595
669.538795	76.954425
669.962070	76.855604
670.385321	76.780604
670.808547	76.724244
671.231750	76.679067
671.654929	76.659177
672.078084	76.653588
672.501214	76.662942
672.924321	76.690694
673.347404	76.741961
673.770462	76.824462
674.193496	76.928838
674.616506	77.048969
675.039492	77.178356
675.462454	77.312748
675.885391	77.453421
676.308305	77.606404
676.731194	77.765505
677.154058	77.931764
677.576899	78.098244
677.999715	78.264610
678.422507	78.428118
678.845274	78.589160
679.268017	78.760812
679.690736	78.904547
680.113430	79.052907
680.536100	79.193517
680.958746	79.322344
681.381367	79.442110
681.803963	79.550102
682.226535	79.645474
682.649083	79.735064
683.071605	79.812689
683.494104	79.859744
683.916578	79.904898
684.339027	79.934625
684.761451	79.945070
685.183851	79.959866
685.606227	79.954342
686.028577	79.942629
686.450903	79.924459
686.873204	79.878872
687.295481	79.811519
687.717733	79.746978
688.139959	79.689191
688.562162	79.624236
688.984339	79.559976
689.406492	79.497778
689.828619	79.433904
690.250722	79.360042
690.672800	79.309952
691.094853	79.272388
691.516881	79.257824
691.938884	79.250907
692.360863	79.249952
692.782816	79.288293
693.204744	79.334983
693.626647	79.407206
694.048526	79.505407
694.470379	79.621981
694.892207	79.759807
695.314010	79.920323
695.735788	80.092185
696.157540	80.280809
696.579268	80.489507
697.000970	80.704469
697.422648	80.943736
697.844300	81.193277
698.265926	81.452915
698.687528	81.731867
699.109104	82.015172
699.530655	82.295368
699.952181	82.597089
700.373681	82.920228
700.795156	83.232366
701.216606	83.537601
701.638030	83.866289
702.059429	84.182001
702.480803	84.497753
702.902151	84.801323
703.323473	85.114980
703.744770	85.399895
704.166042	85.669796
704.587288	85.908100
705.008509	86.123869
705.429704	86.317439
705.850873	86.483153
706.272017	86.621797
706.693135	86.727078
707.114228	86.793748
707.535295	86.838057
707.956336	86.854317
708.377352	86.835893
708.798342	86.786674
709.219306	86.708064
709.640245	86.635527
710.061157	86.532760
710.482044	86.417872
710.902905	86.295639
711.323741	86.154060
711.744550	86.012326
712.165334	85.878901
712.586092	85.763823
713.006823	85.652456
713.427529	85.547047
713.848209	85.467574
714.268863	85.413192
714.689492	85.369232
715.110094	85.359496
715.530670	85.355943
715.951220	85.390042
716.371744	85.442705
716.792242	85.527268
717.212714	85.620294
717.633159	85.747497
718.053579	85.907771
718.473973	86.077755
718.894340	86.270014
719.314681	86.490847
719.734996	86.719647
720.155285	86.977616
720.575547	87.252950
720.995784	87.545256
721.415994	87.853097
721.836177	88.186886
722.256335	88.521312
722.676466	88.843324
723.096570	89.170230
723.516649	89.497977
723.936701	89.814249
724.356726	90.116104
724.776725	90.390356
725.196698	90.639951
725.616644	90.857814
726.036564	91.026403
726.456457	91.171043
726.876324	91.267888
727.296164	91.317549
727.715977	91.323356
728.135764	91.283445
728.555525	91.213552
728.975258	91.100277
729.394966	90.943670
729.814646	90.766282
730.234300	90.566227
730.653927	90.349491
731.073527	90.104718
731.493101	89.869606
731.912648	89.611897
732.332168	89.356666
732.751661	89.113267
733.171128	88.867298
733.590568	88.619643
734.009980	88.383430
734.429366	88.154243
734.848726	87.936928
735.268058	87.725173
735.687363	87.519213
736.106641	87.334782
736.525893	87.139918
736.945117	86.968725
737.364314	86.810206
737.783485	86.671252
738.202628	86.540097
738.621744	86.421034
739.040834	86.321167
739.459896	86.231568
739.878931	86.162926
740.297939	86.097887
740.716919	86.051397
741.135873	86.004750
741.554799	85.965969
741.973698	85.936697
742.392570	85.915421
742.811415	85.879496
743.230232	85.846292
743.649022	85.806952
744.067785	85.752110
744.486521	85.660913
744.905229	85.563018
745.323909	85.438799
745.742563	85.300715
746.161189	85.157735
746.579787	85.000460
746.998358	84.816038
747.416902	84.615947
747.835418	84.414014
748.253907	84.216949
748.672368	84.029458
749.090802	83.839787
749.509208	83.669618
749.927586	83.506887
750.345937	83.370166
750.764261	83.247515
751.182556	83.159262
751.600824	83.081689
752.019065	83.029996
752.437277	83.007278
752.855462	83.015626
753.273620	83.035094
753.691749	83.084306
754.109851	83.173098
754.527925	83.276729
754.945971	83.408500
755.363989	83.568224
