Time1=100ms:Average1=5:Objective=10X:Aperture=1: (11/28/2018 10:18:11 AM)
11/28/2018 10:18:11 AM
Reflectance
10X
Ap#: 1
Avg1: 5.000000
Avg2: 0.000000
Int.Time1:100.000000

350.166136	72.440622
350.601937	72.209625
351.037728	72.196885
351.473509	72.097009
351.909281	71.915444
352.345042	72.055488
352.780794	72.116559
353.216536	72.402313
353.652267	72.449694
354.087989	72.610068
354.523701	72.643416
354.959403	72.495830
355.395095	72.824266
355.830777	72.876422
356.266449	73.108872
356.702110	72.547636
357.137762	72.724056
357.573404	72.790325
358.009035	72.662511
358.444656	72.748371
358.880268	72.251496
359.315869	72.368070
359.751459	72.557766
360.187040	72.233131
360.622610	72.227183
361.058170	72.182941
361.493720	72.132170
361.929260	72.046084
362.364789	72.020725
362.800308	71.802403
363.235816	72.119652
363.671314	72.263682
364.106802	72.153136
364.542279	72.056473
364.977746	72.241456
365.413203	72.085400
365.848649	72.405243
366.284084	72.402195
366.719509	72.354556
367.154924	72.477798
367.590328	72.262190
368.025721	72.252747
368.461104	72.448980
368.896477	72.132016
369.331838	71.824663
369.767189	71.786779
370.202530	72.338561
370.637859	72.307152
371.073178	72.479397
371.508486	72.405969
371.943784	71.964891
372.379071	72.128584
372.814347	71.815176
373.249612	72.060617
373.684866	72.477784
374.120110	72.601548
374.555343	72.833275
374.990565	72.941793
375.425776	72.828177
375.860976	73.253684
376.296165	73.241162
376.731343	72.834749
377.166511	72.602380
377.601667	72.873040
378.036812	72.792259
378.471946	72.689295
378.907070	73.142010
379.342182	72.646675
379.777283	72.660870
380.212373	72.731209
380.647452	72.474529
381.082520	72.653833
381.517576	72.473118
381.952622	72.559662
382.387656	72.586639
382.822679	72.831820
383.257691	72.976015
383.692692	72.988207
384.127681	72.858501
384.562659	73.217527
384.997626	72.967374
385.432581	73.218143
385.867525	73.007668
386.302458	73.456364
386.737379	73.270305
387.172289	73.359603
387.607188	73.412188
388.042075	73.545291
388.476951	73.680164
388.911815	73.710553
389.346668	73.551339
389.781509	73.629066
390.216338	73.715348
390.651157	73.673108
391.085963	73.690406
391.520758	74.233232
391.955541	74.331596
392.390313	74.097700
392.825073	74.048239
393.259821	74.097042
393.694558	74.084932
394.129283	74.121086
394.563996	73.937677
394.998698	74.033836
395.433388	73.913402
395.868066	74.080633
396.302732	74.090032
396.737386	73.749847
397.172029	73.093367
397.606659	72.768814
398.041278	72.066771
398.475885	72.135903
398.910480	71.898356
399.345063	71.625623
399.779634	70.874309
400.214194	69.561939
400.648741	68.326929
401.083276	66.967314
401.517799	64.983565
401.952310	62.989516
402.386809	60.853977
402.821296	58.602587
403.255771	56.217152
403.690234	53.536959
404.124684	51.201627
404.559123	48.552148
404.993549	45.636920
405.427963	42.930206
405.862365	40.490369
406.296754	38.259505
406.731131	36.072230
407.165496	33.936966
407.599849	31.907429
408.034190	29.986276
408.468518	28.232770
408.902833	26.700026
409.337137	25.181137
409.771428	23.746727
410.205706	22.490265
410.639973	21.374951
411.074226	20.405696
411.508467	19.459047
411.942696	18.556305
412.376912	17.703695
412.811116	16.956824
413.245307	16.292814
413.679486	15.741724
414.113652	15.157411
414.547805	14.650646
414.981946	14.240338
415.416074	13.843371
415.850190	13.460343
416.284293	13.091322
416.718383	12.737454
417.152460	12.480561
417.586525	12.172688
418.020577	11.890984
418.454616	11.656945
418.888643	11.440993
419.322656	11.252667
419.756657	11.087555
420.190645	10.888225
420.624620	10.709911
421.058582	10.564981
421.492531	10.417267
421.926468	10.265491
422.360391	10.095102
422.794301	9.967770
423.228199	9.868708
423.662083	9.778662
424.095955	9.700318
424.529813	9.596542
424.963658	9.524106
425.397491	9.433094
425.831310	9.387669
426.265116	9.325321
426.698909	9.277741
427.132689	9.216059
427.566455	9.161601
428.000209	9.110227
428.433949	9.049058
428.867676	9.008419
429.301389	8.957769
429.735090	8.923535
430.168777	8.906469
430.602451	8.869768
431.036111	8.814281
431.469759	8.784563
431.903392	8.734990
432.337013	8.694066
432.770620	8.625958
433.204213	8.575958
433.637794	8.547204
434.071360	8.516700
434.504914	8.494860
434.938453	8.467319
435.371979	8.437182
435.805492	8.429155
436.238991	8.417181
436.672477	8.405428
437.105949	8.393603
437.539407	8.382289
437.972852	8.373409
438.406283	8.363380
438.839700	8.363796
439.273104	8.366901
439.706494	8.349535
440.139871	8.341413
440.573233	8.347098
441.006582	8.351107
441.439917	8.357323
441.873238	8.361623
442.306546	8.354194
442.739839	8.373812
443.173119	8.372143
443.606385	8.376456
444.039636	8.381465
444.472874	8.393366
444.906099	8.400297
445.339309	8.434613
445.772505	8.455306
446.205687	8.483418
446.638855	8.500652
447.072009	8.521965
447.505149	8.549688
447.938275	8.576079
448.371387	8.613854
448.804485	8.651079
449.237569	8.677142
449.670638	8.714906
450.103694	8.737008
450.536735	8.753847
450.969762	8.784620
451.402774	8.821691
451.835773	8.843424
452.268757	8.870888
452.701727	8.889404
453.134683	8.924661
453.567624	8.963858
454.000551	9.011050
454.433464	9.046677
454.866362	9.084939
455.299246	9.135107
455.732116	9.177992
456.164971	9.219900
456.597811	9.266923
457.030638	9.306539
457.463449	9.356388
457.896246	9.414395
458.329029	9.456465
458.761797	9.505928
459.194551	9.555426
459.627290	9.617131
460.060014	9.686636
460.492724	9.749746
460.925419	9.803145
461.358099	9.859964
461.790765	9.915188
462.223416	9.968311
462.656052	10.022653
463.088674	10.065236
463.521281	10.115577
463.953873	10.163864
464.386450	10.216668
464.819012	10.273957
465.251560	10.331061
465.684093	10.397678
466.116611	10.464862
466.549114	10.525074
466.981602	10.580643
467.414075	10.639805
467.846533	10.703454
468.278977	10.767376
468.711405	10.824517
469.143818	10.872474
469.576216	10.930902
470.008600	10.994643
470.440968	11.057096
470.873321	11.119488
471.305659	11.185483
471.737982	11.269244
472.170289	11.344761
472.602582	11.428452
473.034859	11.500061
473.467122	11.568720
473.899369	11.637933
474.331600	11.703519
474.763817	11.771499
475.196018	11.833929
475.628204	11.904251
476.060375	11.968716
476.492530	12.036902
476.924670	12.111588
477.356795	12.195525
477.788904	12.266672
478.220998	12.347320
478.653076	12.440725
479.085139	12.521926
479.517186	12.606814
479.949219	12.708498
480.381235	12.810263
480.813236	12.898956
481.245221	12.989903
481.677191	13.078400
482.109146	13.167779
482.541084	13.268011
482.973008	13.354137
483.404915	13.434994
483.836807	13.510977
484.268683	13.599811
484.700544	13.685001
485.132388	13.761369
485.564217	13.834898
485.996031	13.914780
486.427828	13.993611
486.859610	14.074314
487.291376	14.157756
487.723126	14.243480
488.154860	14.328635
488.586579	14.420782
489.018281	14.509100
489.449968	14.597215
489.881639	14.694008
490.313293	14.791569
490.744932	14.891379
491.176555	14.997847
491.608162	15.096961
492.039753	15.196533
492.471328	15.313156
492.902886	15.423499
493.334429	15.538861
493.765956	15.650754
494.197466	15.778442
494.628960	15.906811
495.060439	16.030893
495.491901	16.150357
495.923347	16.275594
496.354776	16.399568
496.786190	16.524894
497.217587	16.662688
497.648968	16.778333
498.080332	16.893829
498.511681	17.011041
498.943013	17.134610
499.374328	17.258802
499.805628	17.377651
500.236911	17.508730
500.668177	17.647091
501.099427	17.788501
501.530661	17.925095
501.961878	18.070993
502.393079	18.208228
502.824264	18.354826
503.255431	18.489246
503.686583	18.611323
504.117717	18.727611
504.548835	18.842953
504.979937	18.948277
505.411022	19.044176
505.842090	19.127178
506.273142	19.200911
506.704177	19.259112
507.135195	19.313877
507.566197	19.363785
507.997182	19.396751
508.428150	19.436034
508.859102	19.468740
509.290036	19.493558
509.720954	19.522341
510.151855	19.544573
510.582739	19.552656
511.013607	19.569761
511.444457	19.578656
511.875291	19.577887
512.306107	19.580366
512.736907	19.574030
513.167690	19.573764
513.598456	19.550385
514.029205	19.520677
514.459936	19.483407
514.890651	19.450070
515.321349	19.406676
515.752030	19.379447
516.182693	19.342638
516.613340	19.313607
517.043969	19.309776
517.474582	19.298196
517.905177	19.305716
518.335755	19.318907
518.766315	19.353052
519.196859	19.403909
519.627385	19.480951
520.057894	19.572032
520.488386	19.685587
520.918860	19.818210
521.349318	19.989840
521.779757	20.179003
522.210180	20.414332
522.640585	20.673499
523.070973	20.953171
523.501343	21.272288
523.931696	21.631767
524.362031	22.013730
524.792349	22.441429
525.222650	22.910833
525.652933	23.405172
526.083198	23.951336
526.513446	24.539696
526.943677	25.179524
527.373890	25.852023
527.804085	26.575059
528.234262	27.352438
528.664422	28.176300
529.094565	29.036194
529.524689	29.961298
529.954796	30.928099
530.384885	31.929814
530.814957	32.986013
531.245011	34.071650
531.675047	35.201560
532.105065	36.372781
532.535065	37.577123
532.965048	38.833891
533.395013	40.123188
533.824959	41.429414
534.254888	42.761643
534.684799	44.144536
535.114693	45.542729
535.544568	46.927706
535.974425	48.315789
536.404264	49.707691
536.834086	51.104573
537.263889	52.479776
537.693674	53.843884
538.123441	55.203645
538.553190	56.537284
538.982921	57.873036
539.412634	59.173957
539.842329	60.449079
540.272006	61.712746
540.701664	62.955734
541.131304	64.180724
541.560926	65.361939
541.990530	66.518129
542.420116	67.641096
542.849683	68.706283
543.279232	69.734092
543.708763	70.718814
544.138275	71.656005
544.567769	72.578267
544.997245	73.452169
545.426702	74.285701
545.856141	75.096228
546.285562	75.872050
546.714964	76.606379
547.144347	77.331488
547.573713	78.050476
548.003059	78.718183
548.432387	79.378096
548.861697	80.017678
549.290988	80.640703
549.720260	81.260205
550.149514	81.849394
550.578750	82.430974
551.007966	82.995758
551.437164	83.528172
551.866344	84.058436
552.295504	84.555475
552.724646	85.024288
553.153769	85.483743
553.582874	85.908580
554.011960	86.318372
554.441027	86.682931
554.870075	87.032342
555.299104	87.358231
555.728115	87.664796
556.157106	87.948127
556.586079	88.212606
557.015033	88.460624
557.443968	88.688054
557.872884	88.886372
558.301781	89.092508
558.730659	89.265644
559.159518	89.426226
559.588358	89.559585
560.017180	89.707223
560.445982	89.843269
560.874765	89.969788
561.303528	90.100950
561.732273	90.218996
562.160999	90.342929
562.589705	90.475746
563.018393	90.589605
563.447061	90.716037
563.875710	90.822945
564.304340	90.945802
564.732950	91.078893
565.161542	91.205445
565.590114	91.345547
566.018666	91.504753
566.447200	91.664222
566.875714	91.837903
567.304208	92.012186
567.732684	92.194203
568.161140	92.362769
568.589576	92.545548
569.017993	92.714325
569.446391	92.880348
569.874769	93.063056
570.303128	93.215171
570.731467	93.376457
571.159787	93.519361
571.588087	93.644494
572.016368	93.776151
572.444629	93.890534
572.872870	93.989444
573.301092	94.079871
573.729294	94.160396
574.157476	94.223312
574.585639	94.255450
575.013782	94.296671
575.441906	94.328060
575.870009	94.325796
576.298093	94.327500
576.726157	94.316873
577.154202	94.310749
577.582226	94.297406
578.010231	94.276362
578.438216	94.263005
578.866181	94.231689
579.294126	94.207105
579.722051	94.189555
580.149957	94.166722
580.577842	94.145052
581.005707	94.126866
581.433553	94.120240
581.861378	94.091951
582.289184	94.076191
582.716969	94.076169
583.144734	94.069374
583.572479	94.096894
584.000205	94.098250
584.427910	94.115170
584.855594	94.129666
585.283259	94.151268
585.710904	94.165789
586.138528	94.192583
586.566132	94.212250
586.993716	94.221954
587.421280	94.223727
587.848823	94.243669
588.276346	94.241020
588.703849	94.213722
589.131332	94.196857
589.558794	94.166521
589.986236	94.107500
590.413657	94.045483
590.841058	93.954576
591.268438	93.857783
591.695799	93.746255
592.123138	93.640040
592.550458	93.489236
592.977756	93.329095
593.405034	93.142167
593.832292	92.952009
594.259529	92.753639
594.686746	92.542374
595.113942	92.325029
595.541117	92.094992
595.968272	91.854971
596.395406	91.584495
596.822519	91.309896
597.249612	91.039620
597.676684	90.769168
598.103735	90.489998
598.530766	90.207624
598.957775	89.935991
599.384764	89.663545
599.811733	89.395655
600.238680	89.132714
600.665606	88.856761
601.092512	88.607979
601.519397	88.332240
601.946261	88.089238
602.373104	87.850106
602.799926	87.605126
603.226727	87.364638
603.653507	87.122285
604.080266	86.892836
604.507004	86.659093
604.933721	86.409961
605.360417	86.158165
605.787092	85.917901
606.213746	85.672616
606.640379	85.433109
607.066991	85.192003
607.493581	84.965989
607.920150	84.717789
608.346699	84.461836
608.773226	84.199635
609.199731	83.928184
609.626216	83.663537
610.052679	83.376808
610.479121	83.086160
610.905542	82.758717
611.331941	82.425624
611.758319	82.079065
612.184676	81.702886
612.611011	81.293800
613.037325	80.863110
613.463617	80.420622
613.889888	79.952189
614.316138	79.423252
614.742366	78.894636
615.168573	78.329015
615.594758	77.724819
616.020921	77.103775
616.447063	76.462327
616.873184	75.796473
617.299283	75.105023
617.725360	74.380067
618.151416	73.649468
618.577450	72.891186
619.003462	72.126948
619.429453	71.343870
619.855422	70.548610
620.281369	69.736878
620.707295	68.909748
621.133199	68.100448
621.559081	67.295528
621.984941	66.488557
622.410779	65.693824
622.836596	64.895545
623.262391	64.107978
623.688163	63.333217
624.113914	62.576404
624.539644	61.847853
624.965351	61.129604
625.391036	60.434849
625.816699	59.767596
626.242340	59.122329
626.667960	58.487332
627.093557	57.878509
627.519132	57.296729
627.944685	56.736480
628.370216	56.194004
628.795725	55.675157
629.221212	55.166280
629.646677	54.680758
630.072119	54.222739
630.497540	53.777451
630.922938	53.367554
631.348314	52.968897
631.773668	52.600829
632.198999	52.245506
632.624308	51.924236
633.049595	51.621867
633.474860	51.343876
633.900102	51.081161
634.325322	50.849714
634.750520	50.631494
635.175695	50.443176
635.600848	50.270802
636.025978	50.121009
636.451086	49.982597
636.876171	49.866988
637.301234	49.768774
637.726275	49.671464
638.151293	49.594385
638.576288	49.534028
639.001261	49.490231
639.426211	49.462891
639.851139	49.462420
640.276044	49.491130
640.700927	49.547323
641.125787	49.642334
641.550624	49.760262
641.975438	49.913004
642.400230	50.118676
642.824999	50.364799
643.249745	50.654242
643.674469	50.993644
644.099169	51.373789
644.523847	51.806350
644.948502	52.279853
645.373135	52.808309
645.797744	53.357093
646.222330	53.950829
646.646894	54.570461
647.071435	55.216108
647.495953	55.862469
647.920447	56.529373
648.344919	57.187671
648.769368	57.844140
649.193794	58.492947
649.618197	59.145812
650.042576	59.778081
650.466933	60.400785
650.891267	61.002510
651.315577	61.564756
651.739864	62.116967
652.164129	62.640501
652.588370	63.126939
653.012587	63.570952
653.436782	63.964178
653.860953	64.329459
654.285102	64.637333
654.709226	64.900172
655.133328	65.112286
655.557406	65.258261
655.981461	65.355821
656.405493	65.399928
656.829501	65.379632
657.253486	65.294723
657.677448	65.158147
658.101386	64.974641
658.525301	64.728297
658.949192	64.447134
659.373060	64.124966
659.796904	63.765784
660.220725	63.372604
660.644522	62.954671
661.068296	62.512448
661.492046	62.065083
661.915772	61.604425
662.339475	61.143583
662.763154	60.682528
663.186810	60.224762
663.610442	59.768969
664.034050	59.331356
664.457635	58.914086
664.881196	58.501530
665.304733	58.100713
665.728247	57.735454
666.151736	57.396013
666.575202	57.081854
666.998644	56.776750
667.422062	56.506568
667.845457	56.268997
668.268827	56.062977
668.692174	55.896022
669.115496	55.760181
669.538795	55.651648
669.962070	55.594181
670.385321	55.578662
670.808547	55.588006
671.231750	55.634245
671.654929	55.719197
672.078084	55.830214
672.501214	55.962668
672.924321	56.122929
673.347404	56.317211
673.770462	56.533877
674.193496	56.769207
674.616506	57.009931
675.039492	57.263463
675.462454	57.509715
675.885391	57.749630
676.308305	57.994724
676.731194	58.240501
677.154058	58.472714
677.576899	58.691463
677.999715	58.910760
678.422507	59.119306
678.845274	59.299356
679.268017	59.472973
679.690736	59.630381
680.113430	59.781674
680.536100	59.906489
680.958746	60.032641
681.381367	60.138792
681.803963	60.233680
682.226535	60.306568
682.649083	60.369637
683.071605	60.416079
683.494104	60.440802
683.916578	60.464490
684.339027	60.468072
684.761451	60.469055
685.183851	60.465108
685.606227	60.449451
686.028577	60.436097
686.450903	60.422033
686.873204	60.406893
687.295481	60.390917
687.717733	60.393210
688.139959	60.401815
688.562162	60.441147
688.984339	60.494534
689.406492	60.566866
689.828619	60.657627
690.250722	60.769724
690.672800	60.916238
691.094853	61.081416
691.516881	61.284877
691.938884	61.509896
692.360863	61.758219
692.782816	62.046914
693.204744	62.350001
693.626647	62.690098
694.048526	63.031299
694.470379	63.407711
694.892207	63.790580
695.314010	64.207567
695.735788	64.638339
696.157540	65.081650
696.579268	65.544554
697.000970	66.013941
697.422648	66.487022
697.844300	66.955442
698.265926	67.413637
698.687528	67.882352
699.109104	68.347730
699.530655	68.794512
699.952181	69.238817
700.373681	69.678514
700.795156	70.091936
701.216606	70.486843
701.638030	70.866667
702.059429	71.227714
702.480803	71.568761
702.902151	71.881909
703.323473	72.175501
703.744770	72.436971
704.166042	72.666754
704.587288	72.849427
705.008509	73.015668
705.429704	73.144166
705.850873	73.236840
706.272017	73.304207
706.693135	73.339343
707.114228	73.348364
707.535295	73.324114
707.956336	73.282675
708.377352	73.201062
708.798342	73.082167
709.219306	72.955165
709.640245	72.812033
710.061157	72.651699
710.482044	72.486646
710.902905	72.307682
711.323741	72.145004
711.744550	71.980375
712.165334	71.813389
712.586092	71.667810
713.006823	71.525958
713.427529	71.398372
713.848209	71.286604
714.268863	71.186134
714.689492	71.091284
715.110094	71.016600
715.530670	70.938722
715.951220	70.882952
716.371744	70.834744
716.792242	70.809383
717.212714	70.785053
717.633159	70.775123
718.053579	70.776054
718.473973	70.786287
718.894340	70.800835
719.314681	70.822495
719.734996	70.844714
720.155285	70.893389
720.575547	70.952030
720.995784	71.012651
721.415994	71.099884
721.836177	71.213205
722.256335	71.327726
722.676466	71.453263
723.096570	71.598204
723.516649	71.759179
723.936701	71.949124
724.356726	72.122672
724.776725	72.306563
725.196698	72.500457
725.616644	72.694334
726.036564	72.875404
726.456457	73.055285
726.876324	73.239824
727.296164	73.424890
727.715977	73.603233
728.135764	73.764758
728.555525	73.928799
728.975258	74.080631
729.394966	74.232192
729.814646	74.377231
730.234300	74.525914
730.653927	74.672545
731.073527	74.804593
731.493101	74.940754
731.912648	75.063850
732.332168	75.199443
732.751661	75.328386
733.171128	75.439360
733.590568	75.541951
734.009980	75.650152
734.429366	75.733179
734.848726	75.808670
735.268058	75.860575
735.687363	75.909824
736.106641	75.939490
736.525893	75.952331
736.945117	75.945929
737.364314	75.937311
737.783485	75.917806
738.202628	75.877505
738.621744	75.830169
739.040834	75.785881
739.459896	75.733665
739.878931	75.681392
740.297939	75.622617
740.716919	75.573322
741.135873	75.532831
741.554799	75.510526
741.973698	75.491969
742.392570	75.479555
742.811415	75.468257
743.230232	75.463887
743.649022	75.484883
744.067785	75.521541
744.486521	75.563810
744.905229	75.620585
745.323909	75.684793
745.742563	75.767003
746.161189	75.861593
746.579787	75.968479
746.998358	76.074510
747.416902	76.186970
747.835418	76.309209
748.253907	76.447176
748.672368	76.584323
749.090802	76.730663
749.509208	76.883477
749.927586	77.038601
750.345937	77.202066
750.764261	77.369100
751.182556	77.545012
751.600824	77.717064
752.019065	77.889904
752.437277	78.054127
752.855462	78.225513
753.273620	78.392594
753.691749	78.557466
754.109851	78.717923
754.527925	78.858502
754.945971	79.008565
755.363989	79.149760
755.781980	79.277280
