Time1=100ms:Average1=5:Objective=10X:Aperture=1: (11/28/2018 10:27:40 AM)
11/28/2018 10:27:40 AM
Reflectance
10X
Ap#: 1
Avg1: 5.000000
Avg2: 0.000000
Int.Time1:100.000000

350.166136	28.894349
350.601937	28.898967
351.037728	29.119697
351.473509	29.111321
351.909281	29.197584
352.345042	29.122317
352.780794	29.296807
353.216536	29.341160
353.652267	29.413823
354.087989	29.591300
354.523701	29.798823
354.959403	29.900799
355.395095	29.794551
355.830777	29.866808
356.266449	30.143160
356.702110	30.592802
357.137762	30.832522
357.573404	30.428597
358.009035	30.543188
358.444656	30.482906
358.880268	30.347414
359.315869	30.399573
359.751459	30.404140
360.187040	30.158872
360.622610	30.166101
361.058170	30.197798
361.493720	30.744567
361.929260	30.624274
362.364789	30.739682
362.800308	30.796618
363.235816	30.836144
363.671314	30.774698
364.106802	30.724818
364.542279	30.616232
364.977746	30.980914
365.413203	30.900071
365.848649	31.331916
366.284084	30.978934
366.719509	31.063491
367.154924	30.941385
367.590328	30.659917
368.025721	30.866714
368.461104	30.905058
368.896477	30.894811
369.331838	31.009594
369.767189	30.790812
370.202530	30.482783
370.637859	30.284660
371.073178	30.405050
371.508486	30.438956
371.943784	30.346745
372.379071	30.208514
372.814347	29.986077
373.249612	30.264762
373.684866	30.275309
374.120110	29.938245
374.555343	29.907762
374.990565	29.549030
375.425776	29.645167
375.860976	29.554373
376.296165	29.532727
376.731343	29.468430
377.166511	29.278964
377.601667	29.378779
378.036812	29.195362
378.471946	28.668407
378.907070	28.672366
379.342182	28.509344
379.777283	28.678261
380.212373	28.697610
380.647452	28.673804
381.082520	29.064971
381.517576	28.903226
381.952622	29.016973
382.387656	28.856624
382.822679	28.811068
383.257691	28.876959
383.692692	28.876171
384.127681	28.844325
384.562659	28.675136
384.997626	28.430865
385.432581	28.673866
385.867525	28.827432
386.302458	28.803036
386.737379	28.749463
387.172289	28.876135
387.607188	28.979172
388.042075	28.811381
388.476951	29.079105
388.911815	29.054971
389.346668	28.913927
389.781509	29.091677
390.216338	29.242732
390.651157	29.187410
391.085963	29.218868
391.520758	29.491068
391.955541	29.687237
392.390313	29.469532
392.825073	29.355408
393.259821	29.531551
393.694558	29.407823
394.129283	29.478079
394.563996	29.078487
394.998698	29.034666
395.433388	28.885128
395.868066	28.892641
396.302732	29.077927
396.737386	28.956945
397.172029	28.812248
397.606659	28.735493
398.041278	28.813899
398.475885	29.103914
398.910480	28.841161
399.345063	28.460100
399.779634	28.203749
400.214194	27.784061
400.648741	27.194798
401.083276	26.899488
401.517799	26.393454
401.952310	25.755834
402.386809	24.843546
402.821296	24.098494
403.255771	23.070951
403.690234	22.306120
404.124684	21.597174
404.559123	20.894395
404.993549	20.047092
405.427963	19.315727
405.862365	18.912481
406.296754	18.358283
406.731131	17.662143
407.165496	17.185327
407.599849	16.778482
408.034190	16.385521
408.468518	15.940033
408.902833	15.631263
409.337137	15.319314
409.771428	14.832561
410.205706	14.470350
410.639973	14.150120
411.074226	13.904440
411.508467	13.661864
411.942696	13.407678
412.376912	13.269618
412.811116	13.205255
413.245307	13.168838
413.679486	13.154910
414.113652	13.190194
414.547805	13.141986
414.981946	13.174075
415.416074	13.200556
415.850190	13.233098
416.284293	13.248269
416.718383	13.273661
417.152460	13.330565
417.586525	13.397002
418.020577	13.415314
418.454616	13.477980
418.888643	13.530608
419.322656	13.553456
419.756657	13.617180
420.190645	13.637342
420.624620	13.648781
421.058582	13.656027
421.492531	13.661970
421.926468	13.707120
422.360391	13.718033
422.794301	13.747035
423.228199	13.837606
423.662083	13.958764
424.095955	14.083967
424.529813	14.211400
424.963658	14.338142
425.397491	14.435513
425.831310	14.544483
426.265116	14.621652
426.698909	14.685464
427.132689	14.768901
427.566455	14.838948
428.000209	14.915003
428.433949	14.974388
428.867676	15.063943
429.301389	15.138432
429.735090	15.226614
430.168777	15.301449
430.602451	15.343979
431.036111	15.346187
431.469759	15.364026
431.903392	15.369894
432.337013	15.369860
432.770620	15.395315
433.204213	15.405579
433.637794	15.454706
434.071360	15.536402
434.504914	15.613983
434.938453	15.727932
435.371979	15.810879
435.805492	15.925805
436.238991	16.043663
436.672477	16.142315
437.105949	16.225287
437.539407	16.284319
437.972852	16.339349
438.406283	16.379358
438.839700	16.418583
439.273104	16.464267
439.706494	16.526808
440.139871	16.610401
440.573233	16.654057
441.006582	16.714778
441.439917	16.769965
441.873238	16.810487
442.306546	16.806045
442.739839	16.822019
443.173119	16.795437
443.606385	16.774044
444.039636	16.750941
444.472874	16.740694
444.906099	16.750276
445.339309	16.780781
445.772505	16.826811
446.205687	16.866438
446.638855	16.917999
447.072009	16.968429
447.505149	17.026268
447.938275	17.105316
448.371387	17.161203
448.804485	17.224295
449.237569	17.272669
449.670638	17.304258
450.103694	17.299893
450.536735	17.296471
450.969762	17.296493
451.402774	17.307991
451.835773	17.319438
452.268757	17.342866
452.701727	17.363410
453.134683	17.382438
453.567624	17.386011
454.000551	17.412215
454.433464	17.412624
454.866362	17.401178
455.299246	17.384525
455.732116	17.370396
456.164971	17.339208
456.597811	17.323347
457.030638	17.318447
457.463449	17.295939
457.896246	17.288731
458.329029	17.251845
458.761797	17.222945
459.194551	17.182692
459.627290	17.138959
460.060014	17.107285
460.492724	17.094048
460.925419	17.066757
461.358099	17.016390
461.790765	16.971177
462.223416	16.922073
462.656052	16.867016
463.088674	16.805802
463.521281	16.752933
463.953873	16.672880
464.386450	16.601340
464.819012	16.514469
465.251560	16.440315
465.684093	16.370009
466.116611	16.291961
466.549114	16.216321
466.981602	16.138599
467.414075	16.055108
467.846533	15.971400
468.278977	15.877598
468.711405	15.789661
469.143818	15.686566
469.576216	15.588353
470.008600	15.479011
470.440968	15.354505
470.873321	15.254849
471.305659	15.151736
471.737982	15.057899
472.170289	14.957074
472.602582	14.866161
473.034859	14.791483
473.467122	14.713201
473.899369	14.636538
474.331600	14.564599
474.763817	14.524507
475.196018	14.494276
475.628204	14.483737
476.060375	14.487135
476.492530	14.507959
476.924670	14.548489
477.356795	14.610800
477.788904	14.674835
478.220998	14.756112
478.653076	14.847735
479.085139	14.951452
479.517186	15.067105
479.949219	15.210198
480.381235	15.373648
480.813236	15.554623
481.245221	15.764206
481.677191	15.995953
482.109146	16.230927
482.541084	16.482108
482.973008	16.741293
483.404915	16.985738
483.836807	17.230177
484.268683	17.466265
484.700544	17.690704
485.132388	17.922806
485.564217	18.133688
485.996031	18.356461
486.427828	18.568900
486.859610	18.786817
487.291376	19.002222
487.723126	19.225752
488.154860	19.452644
488.586579	19.692369
489.018281	19.934961
489.449968	20.177504
489.881639	20.451833
490.313293	20.729956
490.744932	21.032965
491.176555	21.334213
491.608162	21.619360
492.039753	21.891258
492.471328	22.149439
492.902886	22.382474
493.334429	22.585533
493.765956	22.764725
494.197466	22.926206
494.628960	23.086177
495.060439	23.256706
495.491901	23.442945
495.923347	23.649040
496.354776	23.857702
496.786190	24.111594
497.217587	24.360804
497.648968	24.610352
498.080332	24.860694
498.511681	25.082083
498.943013	25.291766
499.374328	25.451006
499.805628	25.591456
500.236911	25.696409
500.668177	25.776793
501.099427	25.835339
501.530661	25.862211
501.961878	25.854765
502.393079	25.841068
502.824264	25.831433
503.255431	25.805181
503.686583	25.793723
504.117717	25.782926
504.548835	25.791092
504.979937	25.840030
505.411022	25.910592
505.842090	26.009157
506.273142	26.133810
506.704177	26.281328
507.135195	26.447602
507.566197	26.607738
507.997182	26.741810
508.428150	26.845897
508.859102	26.918066
509.290036	26.954093
509.720954	26.966438
510.151855	26.942468
510.582739	26.924729
511.013607	26.908438
511.444457	26.897994
511.875291	26.924324
512.306107	26.988505
512.736907	27.113402
513.167690	27.271991
513.598456	27.463269
514.029205	27.676806
514.459936	27.903637
514.890651	28.132868
515.321349	28.357047
515.752030	28.555588
516.182693	28.724993
516.613340	28.849292
517.043969	28.927574
517.474582	28.962816
517.905177	28.945250
518.335755	28.872965
518.766315	28.767588
519.196859	28.624449
519.627385	28.451570
520.057894	28.243878
520.488386	28.031161
520.918860	27.827136
521.349318	27.632790
521.779757	27.464905
522.210180	27.325794
522.640585	27.222962
523.070973	27.159552
523.501343	27.136306
523.931696	27.141509
524.362031	27.156926
524.792349	27.198756
525.222650	27.239313
525.652933	27.269859
526.083198	27.278329
526.513446	27.270687
526.943677	27.249428
527.373890	27.213162
527.804085	27.166621
528.234262	27.127002
528.664422	27.105670
529.094565	27.105718
529.524689	27.132482
529.954796	27.204866
530.384885	27.309225
530.814957	27.457836
531.245011	27.644324
531.675047	27.871712
532.105065	28.115203
532.535065	28.361641
532.965048	28.605588
533.395013	28.848543
533.824959	29.063695
534.254888	29.245488
534.684799	29.369566
535.114693	29.454975
535.544568	29.499424
535.974425	29.483277
536.404264	29.410070
536.834086	29.283402
537.263889	29.101467
537.693674	28.877052
538.123441	28.607076
538.553190	28.299406
538.982921	27.962134
539.412634	27.608909
539.842329	27.240928
540.272006	26.861982
540.701664	26.478215
541.131304	26.100081
541.560926	25.719424
541.990530	25.331760
542.420116	24.943979
542.849683	24.552052
543.279232	24.149074
543.708763	23.738770
544.138275	23.316479
544.567769	22.895430
544.997245	22.461500
545.426702	22.035535
545.856141	21.621210
546.285562	21.230772
546.714964	20.861337
547.144347	20.518781
547.573713	20.220631
548.003059	19.986296
548.432387	19.801505
548.861697	19.655690
549.290988	19.572051
549.720260	19.546920
550.149514	19.577325
550.578750	19.663470
551.007966	19.803079
551.437164	19.979085
551.866344	20.194423
552.295504	20.437803
552.724646	20.690132
553.153769	20.952464
553.582874	21.209477
554.011960	21.452940
554.441027	21.673137
554.870075	21.867210
555.299104	22.035029
555.728115	22.164078
556.157106	22.256863
556.586079	22.314840
557.015033	22.341843
557.443968	22.340733
557.872884	22.306321
558.301781	22.249093
558.730659	22.167072
559.159518	22.065145
559.588358	21.945296
560.017180	21.816020
560.445982	21.674882
560.874765	21.512125
561.303528	21.331414
561.732273	21.126194
562.160999	20.907883
562.589705	20.669038
563.018393	20.411362
563.447061	20.134547
563.875710	19.826804
564.304340	19.503489
564.732950	19.168218
565.161542	18.819523
565.590114	18.464205
566.018666	18.103060
566.447200	17.749197
566.875714	17.404869
567.304208	17.070993
567.732684	16.747707
568.161140	16.447154
568.589576	16.166818
569.017993	15.917594
569.446391	15.696950
569.874769	15.509698
570.303128	15.351956
570.731467	15.224641
571.159787	15.134556
571.588087	15.076683
572.016368	15.051497
572.444629	15.059344
572.872870	15.092331
573.301092	15.145282
573.729294	15.215064
574.157476	15.302361
574.585639	15.403449
575.013782	15.511443
575.441906	15.623221
575.870009	15.728767
576.298093	15.831056
576.726157	15.927279
577.154202	16.031145
577.582226	16.130830
578.010231	16.231835
578.438216	16.332426
578.866181	16.430434
579.294126	16.540177
579.722051	16.648574
580.149957	16.765537
580.577842	16.888244
581.005707	17.022133
581.433553	17.157646
581.861378	17.306686
582.289184	17.453849
582.716969	17.604551
583.144734	17.752777
583.572479	17.898297
584.000205	18.043800
584.427910	18.185573
584.855594	18.315373
585.283259	18.440987
585.710904	18.558013
586.138528	18.661327
586.566132	18.748505
586.993716	18.824133
587.421280	18.885980
587.848823	18.922735
588.276346	18.943236
588.703849	18.937218
589.131332	18.913248
589.558794	18.867026
589.986236	18.796797
590.413657	18.698471
590.841058	18.580160
591.268438	18.440623
591.695799	18.282957
592.123138	18.111932
592.550458	17.919741
592.977756	17.718726
593.405034	17.503942
593.832292	17.282268
594.259529	17.051376
594.686746	16.819039
595.113942	16.573786
595.541117	16.326789
595.968272	16.066513
596.395406	15.796240
596.822519	15.523013
597.249612	15.232815
597.676684	14.935400
598.103735	14.631251
598.530766	14.315628
598.957775	13.996234
599.384764	13.677406
599.811733	13.364239
600.238680	13.054466
600.665606	12.755589
601.092512	12.481948
601.519397	12.221135
601.946261	11.986774
602.373104	11.781051
602.799926	11.600818
603.226727	11.447292
603.653507	11.322906
604.080266	11.222780
604.507004	11.145917
604.933721	11.090679
605.360417	11.055875
605.787092	11.041959
606.213746	11.044396
606.640379	11.058895
607.066991	11.089087
607.493581	11.131980
607.920150	11.186012
608.346699	11.250588
608.773226	11.326866
609.199731	11.416161
609.626216	11.522877
610.052679	11.639951
610.479121	11.771747
610.905542	11.915057
611.331941	12.073210
611.758319	12.238455
612.184676	12.411233
612.611011	12.591981
613.037325	12.783726
613.463617	12.976153
613.889888	13.163241
614.316138	13.346360
614.742366	13.529933
615.168573	13.704492
615.594758	13.874344
616.020921	14.039593
616.447063	14.197958
616.873184	14.351711
617.299283	14.498847
617.725360	14.641620
618.151416	14.785377
618.577450	14.929233
619.003462	15.070460
619.429453	15.211466
619.855422	15.359141
620.281369	15.504688
620.707295	15.645896
621.133199	15.782174
621.559081	15.914290
621.984941	16.038774
622.410779	16.147171
622.836596	16.240193
623.262391	16.317134
623.688163	16.373139
624.113914	16.410210
624.539644	16.427499
624.965351	16.428215
625.391036	16.409492
625.816699	16.372379
626.242340	16.315042
626.667960	16.243849
627.093557	16.167829
627.519132	16.079556
627.944685	15.984944
628.370216	15.890026
628.795725	15.782345
629.221212	15.666714
629.646677	15.555302
630.072119	15.434088
630.497540	15.307724
630.922938	15.178805
631.348314	15.044103
631.773668	14.906151
632.198999	14.765033
632.624308	14.619052
633.049595	14.473412
633.474860	14.330321
633.900102	14.190337
634.325322	14.058598
634.750520	13.936839
635.175695	13.817656
635.600848	13.716658
636.025978	13.625976
636.451086	13.555732
636.876171	13.503825
637.301234	13.467110
637.726275	13.448810
638.151293	13.446387
638.576288	13.464672
639.001261	13.502035
639.426211	13.555064
639.851139	13.621586
640.276044	13.698554
640.700927	13.785068
641.125787	13.881315
641.550624	13.979829
641.975438	14.093005
642.400230	14.208251
642.824999	14.320410
643.249745	14.436711
643.674469	14.557094
644.099169	14.679989
644.523847	14.801839
644.948502	14.926023
645.373135	15.057510
645.797744	15.190403
646.222330	15.321474
646.646894	15.453693
647.071435	15.588648
647.495953	15.720072
647.920447	15.849132
648.344919	15.980287
648.769368	16.109584
649.193794	16.233972
649.618197	16.353786
650.042576	16.467323
650.466933	16.578593
650.891267	16.682452
651.315577	16.777929
651.739864	16.866399
652.164129	16.948076
652.588370	17.020598
653.012587	17.098302
653.436782	17.168483
653.860953	17.242922
654.285102	17.317193
654.709226	17.397529
655.133328	17.472402
655.557406	17.555465
655.981461	17.638308
656.405493	17.731532
656.829501	17.824848
657.253486	17.917306
657.677448	18.013977
658.101386	18.113077
658.525301	18.204831
658.949192	18.300839
659.373060	18.394286
659.796904	18.483696
660.220725	18.570162
660.644522	18.652124
661.068296	18.732856
661.492046	18.812848
661.915772	18.897047
662.339475	18.985948
662.763154	19.072559
663.186810	19.173262
663.610442	19.283255
664.034050	19.409541
664.457635	19.556694
664.881196	19.718881
665.304733	19.897387
665.728247	20.095748
666.151736	20.308789
666.575202	20.538276
666.998644	20.778703
667.422062	21.023103
667.845457	21.275992
668.268827	21.528900
668.692174	21.782997
669.115496	22.033092
669.538795	22.261610
669.962070	22.478952
670.385321	22.679831
670.808547	22.856808
671.231750	22.999109
671.654929	23.118626
672.078084	23.206642
672.501214	23.261602
672.924321	23.287561
673.347404	23.282959
673.770462	23.250937
674.193496	23.191060
674.616506	23.105948
675.039492	22.991102
675.462454	22.851348
675.885391	22.693542
676.308305	22.512107
676.731194	22.311394
677.154058	22.090915
677.576899	21.850206
677.999715	21.590332
678.422507	21.312909
678.845274	21.023061
679.268017	20.721996
679.690736	20.410689
680.113430	20.091510
680.536100	19.771790
680.958746	19.448371
681.381367	19.132296
681.803963	18.818702
682.226535	18.515619
682.649083	18.234967
683.071605	17.970893
683.494104	17.722493
683.916578	17.498229
684.339027	17.302836
684.761451	17.134069
685.183851	16.988045
685.606227	16.866426
686.028577	16.765401
686.450903	16.684955
686.873204	16.625523
687.295481	16.586434
687.717733	16.559555
688.139959	16.550236
688.562162	16.550775
688.984339	16.561170
689.406492	16.580859
689.828619	16.608477
690.250722	16.638984
690.672800	16.673845
691.094853	16.712702
691.516881	16.761621
691.938884	16.811755
692.360863	16.861394
692.782816	16.918655
693.204744	16.979229
693.626647	17.048283
694.048526	17.124006
694.470379	17.202794
694.892207	17.291621
695.314010	17.389200
695.735788	17.490170
696.157540	17.597105
696.579268	17.717228
697.000970	17.843847
697.422648	17.976397
697.844300	18.114611
698.265926	18.257533
698.687528	18.405841
699.109104	18.557356
699.530655	18.706688
699.952181	18.858541
700.373681	19.008741
700.795156	19.154464
701.216606	19.289030
701.638030	19.425502
702.059429	19.548917
702.480803	19.661523
702.902151	19.756000
703.323473	19.838863
703.744770	19.901055
704.166042	19.951845
704.587288	19.975282
705.008509	19.984917
705.429704	19.978110
705.850873	19.954540
706.272017	19.914587
706.693135	19.855261
707.114228	19.782540
707.535295	19.701165
707.956336	19.603780
708.377352	19.499128
708.798342	19.385135
709.219306	19.271179
709.640245	19.152760
710.061157	19.030197
710.482044	18.914155
710.902905	18.802522
711.323741	18.698136
711.744550	18.595497
712.165334	18.498385
712.586092	18.413125
713.006823	18.329564
713.427529	18.252939
713.848209	18.185321
714.268863	18.128001
714.689492	18.070050
715.110094	18.019621
715.530670	17.973400
715.951220	17.937931
716.371744	17.903477
716.792242	17.882322
717.212714	17.861126
717.633159	17.856988
718.053579	17.860458
718.473973	17.871799
718.894340	17.890190
719.314681	17.914235
719.734996	17.943736
720.155285	17.977269
720.575547	18.020775
720.995784	18.070377
721.415994	18.118476
721.836177	18.172954
722.256335	18.220527
722.676466	18.259800
723.096570	18.303379
723.516649	18.335297
723.936701	18.356024
724.356726	18.362033
724.776725	18.363884
725.196698	18.359787
725.616644	18.342168
726.036564	18.318877
726.456457	18.290147
726.876324	18.258193
727.296164	18.223467
727.715977	18.185322
728.135764	18.149568
728.555525	18.115189
728.975258	18.081900
729.394966	18.060539
729.814646	18.039027
730.234300	18.023470
730.653927	18.009600
731.073527	17.996629
731.493101	17.992091
731.912648	17.986515
732.332168	17.989359
732.751661	18.002270
733.171128	18.016985
733.590568	18.030713
734.009980	18.051714
734.429366	18.069880
734.848726	18.092800
735.268058	18.115813
735.687363	18.149039
736.106641	18.179161
736.525893	18.210749
736.945117	18.246345
737.364314	18.288878
737.783485	18.330893
738.202628	18.368073
738.621744	18.412468
739.040834	18.455693
739.459896	18.497578
739.878931	18.539295
740.297939	18.577398
740.716919	18.617011
741.135873	18.651385
741.554799	18.681401
741.973698	18.702752
742.392570	18.712442
742.811415	18.719393
743.230232	18.723704
743.649022	18.725303
744.067785	18.721967
744.486521	18.708042
744.905229	18.695019
745.323909	18.680245
745.742563	18.660845
746.161189	18.645844
746.579787	18.636801
746.998358	18.623436
747.416902	18.620006
747.835418	18.617594
748.253907	18.625841
748.672368	18.636777
749.090802	18.655201
749.509208	18.684822
749.927586	18.720354
750.345937	18.759119
750.764261	18.805075
751.182556	18.866318
751.600824	18.936534
752.019065	19.012087
752.437277	19.094633
752.855462	19.182633
753.273620	19.279059
753.691749	19.377412
754.109851	19.485735
