Time1=100ms:Average1=5:Objective=10X:Aperture=1: (11/28/2018 10:28:54 AM)
11/28/2018 10:28:54 AM
Reflectance
10X
Ap#: 1
Avg1: 5.000000
Avg2: 0.000000
Int.Time1:100.000000

350.166136	25.872236
350.601937	26.144285
351.037728	26.409087
351.473509	26.240466
351.909281	26.134599
352.345042	26.522422
352.780794	26.635840
353.216536	26.642719
353.652267	27.016623
354.087989	27.100509
354.523701	27.013968
354.959403	26.714073
355.395095	26.805396
355.830777	26.770751
356.266449	26.952987
356.702110	27.090685
357.137762	27.134389
357.573404	26.978481
358.009035	26.892253
358.444656	26.948139
358.880268	27.078682
359.315869	27.160274
359.751459	27.219199
360.187040	27.177794
360.622610	27.370959
361.058170	27.199499
361.493720	27.565016
361.929260	27.400196
362.364789	27.791674
362.800308	27.601246
363.235816	27.445411
363.671314	27.558635
364.106802	27.553740
364.542279	27.313088
364.977746	27.572126
365.413203	27.719702
365.848649	27.683316
366.284084	27.686316
366.719509	27.902240
367.154924	27.779751
367.590328	27.604583
368.025721	28.101737
368.461104	28.420586
368.896477	28.220967
369.331838	28.210545
369.767189	28.186919
370.202530	28.371156
370.637859	28.404498
371.073178	28.265825
371.508486	28.135090
371.943784	28.139393
372.379071	27.914857
372.814347	27.871563
373.249612	28.113569
373.684866	28.184353
374.120110	27.929025
374.555343	27.897668
374.990565	27.547632
375.425776	27.407796
375.860976	27.208511
376.296165	27.047602
376.731343	27.209038
377.166511	26.995100
377.601667	27.039341
378.036812	27.251329
378.471946	26.927763
378.907070	26.927774
379.342182	26.675359
379.777283	26.669565
380.212373	26.714583
380.647452	26.921084
381.082520	27.337573
381.517576	26.847312
381.952622	26.716637
382.387656	26.886181
382.822679	27.133593
383.257691	26.920080
383.692692	26.595560
384.127681	26.303051
384.562659	26.566416
384.997626	26.721906
385.432581	26.626350
385.867525	26.372017
386.302458	26.690238
386.737379	26.617963
387.172289	26.443378
387.607188	26.450673
388.042075	26.591824
388.476951	26.883649
388.911815	26.883271
389.346668	26.956964
389.781509	27.148289
390.216338	26.825558
390.651157	26.816302
391.085963	26.780459
391.520758	26.659926
391.955541	26.946360
392.390313	26.926305
392.825073	26.960249
393.259821	27.025895
393.694558	26.861546
394.129283	26.705637
394.563996	26.503916
394.998698	26.662796
395.433388	26.590168
395.868066	26.430013
396.302732	26.525504
396.737386	26.585436
397.172029	26.572743
397.606659	26.527559
398.041278	26.348025
398.475885	26.441486
398.910480	26.315789
399.345063	26.231297
399.779634	25.960356
400.214194	25.544749
400.648741	25.391664
401.083276	25.333718
401.517799	24.722009
401.952310	23.956713
402.386809	23.402868
402.821296	22.836073
403.255771	22.264692
403.690234	21.778131
404.124684	21.361666
404.559123	20.813819
404.993549	20.155404
405.427963	19.567038
405.862365	19.056224
406.296754	18.660745
406.731131	18.189265
407.165496	17.940144
407.599849	17.498615
408.034190	17.106016
408.468518	16.782328
408.902833	16.499256
409.337137	16.188770
409.771428	15.809950
410.205706	15.548874
410.639973	15.302344
411.074226	15.157880
411.508467	14.994181
411.942696	14.830275
412.376912	14.758515
412.811116	14.701877
413.245307	14.669708
413.679486	14.655430
414.113652	14.694736
414.547805	14.673195
414.981946	14.794918
415.416074	14.906301
415.850190	15.013032
416.284293	15.054488
416.718383	15.137657
417.152460	15.260171
417.586525	15.335238
418.020577	15.409829
418.454616	15.524192
418.888643	15.639156
419.322656	15.726235
419.756657	15.775147
420.190645	15.814860
420.624620	15.813426
421.058582	15.878328
421.492531	15.949910
421.926468	16.014614
422.360391	16.077304
422.794301	16.203078
423.228199	16.329861
423.662083	16.481879
424.095955	16.634453
424.529813	16.784546
424.963658	16.963631
425.397491	17.114307
425.831310	17.261093
426.265116	17.416762
426.698909	17.551668
427.132689	17.701918
427.566455	17.805794
428.000209	17.945140
428.433949	18.066152
428.867676	18.196025
429.301389	18.296488
429.735090	18.439325
430.168777	18.540628
430.602451	18.574918
431.036111	18.602658
431.469759	18.637146
431.903392	18.654652
432.337013	18.666936
432.770620	18.701909
433.204213	18.767427
433.637794	18.853108
434.071360	18.968362
434.504914	19.075953
434.938453	19.203099
435.371979	19.353848
435.805492	19.513646
436.238991	19.652274
436.672477	19.784389
437.105949	19.921338
437.539407	20.024515
437.972852	20.113162
438.406283	20.184567
438.839700	20.275447
439.273104	20.374299
439.706494	20.477606
440.139871	20.573908
440.573233	20.669939
441.006582	20.772123
441.439917	20.859581
441.873238	20.925520
442.306546	20.954671
442.739839	20.964260
443.173119	20.966779
443.606385	20.952366
444.039636	20.975427
444.472874	21.011062
444.906099	21.071518
445.339309	21.149473
445.772505	21.257877
446.205687	21.352622
446.638855	21.457818
447.072009	21.584605
447.505149	21.687193
447.938275	21.795415
448.371387	21.890346
448.804485	21.948648
449.237569	22.006135
449.670638	22.039960
450.103694	22.066999
450.536735	22.060932
450.969762	22.081121
451.402774	22.115335
451.835773	22.153315
452.268757	22.187129
452.701727	22.249901
453.134683	22.307627
453.567624	22.374103
454.000551	22.429514
454.433464	22.468308
454.866362	22.482192
455.299246	22.466823
455.732116	22.459734
456.164971	22.460694
456.597811	22.446101
457.030638	22.459873
457.463449	22.456518
457.896246	22.457818
458.329029	22.444164
458.761797	22.438326
459.194551	22.392689
459.627290	22.359351
460.060014	22.322402
460.492724	22.273331
460.925419	22.230854
461.358099	22.189229
461.790765	22.132521
462.223416	22.060450
462.656052	21.973999
463.088674	21.879010
463.521281	21.778973
463.953873	21.676045
464.386450	21.564318
464.819012	21.453178
465.251560	21.359092
465.684093	21.258081
466.116611	21.138276
466.549114	21.021168
466.981602	20.896536
467.414075	20.770418
467.846533	20.636821
468.278977	20.491879
468.711405	20.334597
469.143818	20.173109
469.576216	19.995292
470.008600	19.812763
470.440968	19.615766
470.873321	19.423959
471.305659	19.229816
471.737982	19.041463
472.170289	18.846669
472.602582	18.680611
473.034859	18.527797
473.467122	18.391726
473.899369	18.263495
474.331600	18.165904
474.763817	18.077092
475.196018	18.018036
475.628204	17.993749
476.060375	17.987586
476.492530	18.007445
476.924670	18.026666
477.356795	18.054756
477.788904	18.095201
478.220998	18.140736
478.653076	18.182226
479.085139	18.235916
479.517186	18.315710
479.949219	18.428812
480.381235	18.571855
480.813236	18.752767
481.245221	18.981882
481.677191	19.237088
482.109146	19.534042
482.541084	19.842106
482.973008	20.156673
483.404915	20.476669
483.836807	20.786473
484.268683	21.087367
484.700544	21.371522
485.132388	21.644771
485.564217	21.901123
485.996031	22.151283
486.427828	22.397149
486.859610	22.635972
487.291376	22.891207
487.723126	23.136750
488.154860	23.408258
488.586579	23.694032
489.018281	24.009764
489.449968	24.340883
489.881639	24.698575
490.313293	25.094604
490.744932	25.517400
491.176555	25.936062
491.608162	26.344533
492.039753	26.728540
492.471328	27.103349
492.902886	27.426663
493.334429	27.694089
493.765956	27.916967
494.197466	28.110101
494.628960	28.283451
495.060439	28.466491
495.491901	28.659433
495.923347	28.890742
496.354776	29.150282
496.786190	29.437334
497.217587	29.757735
497.648968	30.091369
498.080332	30.444238
498.511681	30.781193
498.943013	31.101397
499.374328	31.392612
499.805628	31.645806
500.236911	31.865439
500.668177	32.035936
501.099427	32.171483
501.530661	32.259314
501.961878	32.298626
502.393079	32.302083
502.824264	32.286155
503.255431	32.242730
503.686583	32.188842
504.117717	32.132132
504.548835	32.095485
504.979937	32.087549
505.411022	32.123101
505.842090	32.188867
506.273142	32.303033
506.704177	32.456761
507.135195	32.639803
507.566197	32.825067
507.997182	32.999001
508.428150	33.135479
508.859102	33.244109
509.290036	33.290837
509.720954	33.283270
510.151855	33.241538
510.582739	33.166074
511.013607	33.086600
511.444457	33.000078
511.875291	32.947057
512.306107	32.932778
512.736907	32.970953
513.167690	33.043797
513.598456	33.156588
514.029205	33.307723
514.459936	33.474890
514.890651	33.639872
515.321349	33.817236
515.752030	33.977842
516.182693	34.130117
516.613340	34.245945
517.043969	34.328006
517.474582	34.381420
517.905177	34.389249
518.335755	34.354878
518.766315	34.290403
519.196859	34.178130
519.627385	34.038260
520.057894	33.866814
520.488386	33.677849
520.918860	33.492030
521.349318	33.302754
521.779757	33.124216
522.210180	32.964151
522.640585	32.829581
523.070973	32.747482
523.501343	32.693283
523.931696	32.671197
524.362031	32.651533
524.792349	32.651512
525.222650	32.639819
525.652933	32.599831
526.083198	32.532359
526.513446	32.451929
526.943677	32.339575
527.373890	32.195716
527.804085	32.044803
528.234262	31.895540
528.664422	31.752711
529.094565	31.630534
529.524689	31.530979
529.954796	31.476091
530.384885	31.457172
530.814957	31.466521
531.245011	31.526516
531.675047	31.623769
532.105065	31.739363
532.535065	31.883534
532.965048	32.029350
533.395013	32.177105
533.824959	32.316525
534.254888	32.449389
534.684799	32.551971
535.114693	32.644567
535.544568	32.711518
535.974425	32.741339
536.404264	32.745049
536.834086	32.707954
537.263889	32.622870
537.693674	32.512166
538.123441	32.366045
538.553190	32.202424
538.982921	32.018500
539.412634	31.826253
539.842329	31.622702
540.272006	31.414251
540.701664	31.206359
541.131304	31.004506
541.560926	30.806230
541.990530	30.593109
542.420116	30.374210
542.849683	30.132053
543.279232	29.859265
543.708763	29.567684
544.138275	29.244500
544.567769	28.887978
544.997245	28.493501
545.426702	28.073729
545.856141	27.617462
546.285562	27.153969
546.714964	26.676176
547.144347	26.200643
547.573713	25.730671
548.003059	25.279261
548.432387	24.855180
548.861697	24.446533
549.290988	24.080334
549.720260	23.742553
550.149514	23.444570
550.578750	23.195824
551.007966	22.990975
551.437164	22.820767
551.866344	22.681350
552.295504	22.583940
552.724646	22.509338
553.153769	22.448606
553.582874	22.417576
554.011960	22.393040
554.441027	22.364744
554.870075	22.335465
555.299104	22.310987
555.728115	22.276917
556.157106	22.239788
556.586079	22.203074
557.015033	22.167396
557.443968	22.134287
557.872884	22.103302
558.301781	22.082594
558.730659	22.063715
559.159518	22.062769
559.588358	22.061801
560.017180	22.075830
560.445982	22.093930
560.874765	22.106678
561.303528	22.126262
561.732273	22.136055
562.160999	22.144744
562.589705	22.144333
563.018393	22.124200
563.447061	22.091454
563.875710	22.044505
564.304340	21.975648
564.732950	21.887724
565.161542	21.773841
565.590114	21.641681
566.018666	21.485589
566.447200	21.314447
566.875714	21.115645
567.304208	20.910706
567.732684	20.691903
568.161140	20.462422
568.589576	20.225463
569.017993	19.989429
569.446391	19.756659
569.874769	19.525734
570.303128	19.295860
570.731467	19.083541
571.159787	18.879768
571.588087	18.685035
572.016368	18.509106
572.444629	18.351951
572.872870	18.206793
573.301092	18.075717
573.729294	17.952872
574.157476	17.837984
574.585639	17.725839
575.013782	17.613625
575.441906	17.505269
575.870009	17.386141
576.298093	17.270830
576.726157	17.155604
577.154202	17.036958
577.582226	16.920355
578.010231	16.821112
578.438216	16.728847
578.866181	16.654873
579.294126	16.593531
579.722051	16.553557
580.149957	16.543434
580.577842	16.547408
581.005707	16.582507
581.433553	16.646097
581.861378	16.732493
582.289184	16.842060
582.716969	16.968317
583.144734	17.126197
583.572479	17.306475
584.000205	17.496606
584.427910	17.699316
584.855594	17.913941
585.283259	18.142693
585.710904	18.372048
586.138528	18.610849
586.566132	18.847086
586.993716	19.082540
587.421280	19.311814
587.848823	19.537968
588.276346	19.754307
588.703849	19.945313
589.131332	20.129761
589.558794	20.296038
589.986236	20.441957
590.413657	20.563832
590.841058	20.662883
591.268438	20.736008
591.695799	20.790536
592.123138	20.820260
592.550458	20.828903
592.977756	20.825286
593.405034	20.798958
593.832292	20.760446
594.259529	20.703103
594.686746	20.629244
595.113942	20.538663
595.541117	20.431150
595.968272	20.301046
596.395406	20.142011
596.822519	19.951620
597.249612	19.730753
597.676684	19.488199
598.103735	19.212560
598.530766	18.902316
598.957775	18.570585
599.384764	18.211234
599.811733	17.840170
600.238680	17.457625
600.665606	17.072015
601.092512	16.685527
601.519397	16.303024
601.946261	15.938123
602.373104	15.589226
602.799926	15.253141
603.226727	14.933215
603.653507	14.636841
604.080266	14.364051
604.507004	14.104863
604.933721	13.866299
605.360417	13.648361
605.787092	13.448646
606.213746	13.264470
606.640379	13.090772
607.066991	12.932386
607.493581	12.791697
607.920150	12.663822
608.346699	12.557851
608.773226	12.465273
609.199731	12.397699
609.626216	12.349101
610.052679	12.318291
610.479121	12.316734
610.905542	12.333191
611.331941	12.376907
611.758319	12.437950
612.184676	12.516213
612.611011	12.616900
613.037325	12.734629
613.463617	12.863774
613.889888	13.007034
614.316138	13.159034
614.742366	13.323135
615.168573	13.494400
615.594758	13.670529
616.020921	13.853191
616.447063	14.050185
616.873184	14.250382
617.299283	14.458082
617.725360	14.674493
618.151416	14.903171
618.577450	15.137200
619.003462	15.376053
619.429453	15.617230
619.855422	15.865833
620.281369	16.119812
620.707295	16.369211
621.133199	16.616558
621.559081	16.853952
621.984941	17.081677
622.410779	17.289453
622.836596	17.474435
623.262391	17.646392
623.688163	17.790018
624.113914	17.904089
624.539644	17.992454
624.965351	18.059086
625.391036	18.102686
625.816699	18.111906
626.242340	18.098285
626.667960	18.063680
627.093557	18.006846
627.519132	17.925109
627.944685	17.826065
628.370216	17.714077
628.795725	17.582961
629.221212	17.437805
629.646677	17.274968
630.072119	17.099513
630.497540	16.908285
630.922938	16.698053
631.348314	16.480183
631.773668	16.245477
632.198999	16.002864
632.624308	15.754157
633.049595	15.501176
633.474860	15.243754
633.900102	14.987599
634.325322	14.738881
634.750520	14.501195
635.175695	14.275201
635.600848	14.067487
636.025978	13.882736
636.451086	13.719760
636.876171	13.581164
637.301234	13.469255
637.726275	13.383535
638.151293	13.322922
638.576288	13.289319
639.001261	13.286084
639.426211	13.301193
639.851139	13.338060
640.276044	13.392574
640.700927	13.471803
641.125787	13.562272
641.550624	13.661150
641.975438	13.768837
642.400230	13.883945
642.824999	13.995744
643.249745	14.109837
643.674469	14.228596
644.099169	14.354143
644.523847	14.472250
644.948502	14.592789
645.373135	14.719851
645.797744	14.836860
646.222330	14.956353
646.646894	15.068666
647.071435	15.177146
647.495953	15.272654
647.920447	15.362281
648.344919	15.442801
648.769368	15.510899
649.193794	15.564893
649.618197	15.599618
650.042576	15.619034
650.466933	15.631159
650.891267	15.622139
651.315577	15.599997
651.739864	15.559790
652.164129	15.507175
652.588370	15.440934
653.012587	15.371231
653.436782	15.290597
653.860953	15.200642
654.285102	15.114174
654.709226	15.023708
655.133328	14.939303
655.557406	14.860177
655.981461	14.792858
656.405493	14.736112
656.829501	14.685692
657.253486	14.642597
657.677448	14.615426
658.101386	14.598763
658.525301	14.590288
658.949192	14.595377
659.373060	14.615980
659.796904	14.649725
660.220725	14.691972
660.644522	14.753547
661.068296	14.823194
661.492046	14.906222
661.915772	15.007099
662.339475	15.126271
662.763154	15.266917
663.186810	15.426782
663.610442	15.597898
664.034050	15.796206
664.457635	16.018695
664.881196	16.265973
665.304733	16.531796
665.728247	16.819790
666.151736	17.125321
666.575202	17.452018
666.998644	17.795370
667.422062	18.144468
667.845457	18.514238
668.268827	18.885915
668.692174	19.260146
669.115496	19.630763
669.538795	19.990053
669.962070	20.343792
670.385321	20.678238
670.808547	20.987958
671.231750	21.273502
671.654929	21.526750
672.078084	21.750482
672.501214	21.929536
672.924321	22.076180
673.347404	22.188893
673.770462	22.262284
674.193496	22.307238
674.616506	22.315914
675.039492	22.288158
675.462454	22.226156
675.885391	22.121779
676.308305	21.993815
676.731194	21.842664
677.154058	21.659915
677.576899	21.444377
677.999715	21.200124
678.422507	20.932872
678.845274	20.647580
679.268017	20.339430
679.690736	20.007165
680.113430	19.660994
680.536100	19.300428
680.958746	18.924056
681.381367	18.543282
681.803963	18.150943
682.226535	17.758038
682.649083	17.366825
683.071605	16.979456
683.494104	16.603820
683.916578	16.238114
684.339027	15.882777
684.761451	15.549107
685.183851	15.233500
685.606227	14.938279
686.028577	14.657228
686.450903	14.398532
686.873204	14.159136
687.295481	13.933859
687.717733	13.733343
688.139959	13.552153
688.562162	13.386486
688.984339	13.241952
689.406492	13.113796
689.828619	12.994626
690.250722	12.891714
690.672800	12.799285
691.094853	12.719777
691.516881	12.654107
691.938884	12.598142
692.360863	12.550664
692.782816	12.512419
693.204744	12.485393
693.626647	12.469928
694.048526	12.465326
694.470379	12.468407
694.892207	12.488484
695.314010	12.521788
695.735788	12.568234
696.157540	12.621432
696.579268	12.686281
697.000970	12.757389
697.422648	12.843499
697.844300	12.934215
698.265926	13.033862
698.687528	13.140689
699.109104	13.256083
699.530655	13.365847
699.952181	13.482522
700.373681	13.596163
700.795156	13.703427
701.216606	13.804554
701.638030	13.898926
702.059429	13.987000
702.480803	14.057433
702.902151	14.119771
703.323473	14.166913
703.744770	14.201968
704.166042	14.224720
704.587288	14.224047
705.008509	14.210209
705.429704	14.184752
705.850873	14.151619
706.272017	14.099732
706.693135	14.033993
707.114228	13.956255
707.535295	13.873106
707.956336	13.778884
708.377352	13.673860
708.798342	13.560657
709.219306	13.441295
709.640245	13.318382
710.061157	13.196472
710.482044	13.070780
710.902905	12.944983
711.323741	12.821858
711.744550	12.696725
712.165334	12.574491
712.586092	12.462616
713.006823	12.354681
713.427529	12.256298
713.848209	12.165306
714.268863	12.087399
714.689492	12.020757
715.110094	11.966303
715.530670	11.925057
715.951220	11.896821
716.371744	11.882771
716.792242	11.882749
717.212714	11.888442
717.633159	11.911012
718.053579	11.943138
718.473973	11.982850
718.894340	12.029239
719.314681	12.081440
719.734996	12.141490
720.155285	12.204785
720.575547	12.269989
720.995784	12.334581
721.415994	12.397502
721.836177	12.461482
722.256335	12.518581
722.676466	12.571388
723.096570	12.620468
723.516649	12.661549
723.936701	12.691684
724.356726	12.708972
724.776725	12.718494
725.196698	12.716527
725.616644	12.702240
726.036564	12.673797
726.456457	12.633932
726.876324	12.587614
727.296164	12.527496
727.715977	12.461872
728.135764	12.385217
728.555525	12.303301
728.975258	12.213901
729.394966	12.119847
729.814646	12.029303
730.234300	11.939662
730.653927	11.851569
731.073527	11.762404
731.493101	11.675177
731.912648	11.591752
732.332168	11.518236
732.751661	11.452499
733.171128	11.390662
733.590568	11.332685
734.009980	11.281912
734.429366	11.238549
734.848726	11.197720
735.268058	11.168665
735.687363	11.142112
736.106641	11.120535
736.525893	11.102731
736.945117	11.092425
737.364314	11.086324
737.783485	11.082139
738.202628	11.080424
738.621744	11.082046
739.040834	11.090036
739.459896	11.101207
739.878931	11.109755
740.297939	11.122729
740.716919	11.134402
741.135873	11.149114
741.554799	11.164012
741.973698	11.177023
742.392570	11.192654
742.811415	11.200873
743.230232	11.206774
743.649022	11.213038
744.067785	11.219833
744.486521	11.224456
744.905229	11.228492
745.323909	11.228460
745.742563	11.225880
746.161189	11.225261
746.579787	11.223155
746.998358	11.223722
747.416902	11.225292
747.835418	11.229505
748.253907	11.233338
748.672368	11.235954
749.090802	11.240593
749.509208	11.250849
749.927586	11.261735
750.345937	11.276203
750.764261	11.294885
751.182556	11.317394
751.600824	11.340031
752.019065	11.362416
752.437277	11.384078
752.855462	11.409352
753.273620	11.435458
753.691749	11.460405
754.109851	11.482321
