Time1=100ms:Average1=5:Objective=10X:Aperture=1: (11/28/2018 10:32:59 AM)
11/28/2018 10:32:59 AM
Reflectance
10X
Ap#: 1
Avg1: 5.000000
Avg2: 0.000000
Int.Time1:100.000000

350.166136	80.163800
350.601937	80.305703
351.037728	80.440582
351.473509	79.826892
351.909281	80.362381
352.345042	80.544408
352.780794	80.605479
353.216536	80.620291
353.652267	80.472441
354.087989	81.012103
354.523701	81.050690
354.959403	80.879642
355.395095	80.989331
355.830777	81.388374
356.266449	81.344998
356.702110	81.422018
357.137762	81.633195
357.573404	81.575671
358.009035	81.585040
358.444656	81.594216
358.880268	81.718317
359.315869	81.543116
359.751459	81.720046
360.187040	81.729739
360.622610	81.818182
361.058170	81.974403
361.493720	81.323477
361.929260	81.316424
362.364789	81.927818
362.800308	81.673342
363.235816	81.643884
363.671314	81.663113
364.106802	81.346598
364.542279	81.539691
364.977746	81.926320
365.413203	81.644224
365.848649	82.102373
366.284084	82.377412
366.719509	82.387320
367.154924	82.557726
367.590328	82.236433
368.025721	82.506203
368.461104	82.697427
368.896477	82.633251
369.331838	82.290291
369.767189	82.421533
370.202530	82.554981
370.637859	82.683184
371.073178	82.763458
371.508486	82.511563
371.943784	82.549752
372.379071	82.597741
372.814347	82.457362
373.249612	82.842710
373.684866	83.132950
374.120110	83.317387
374.555343	83.536373
374.990565	83.910156
375.425776	83.936375
375.860976	83.849307
376.296165	84.082954
376.731343	84.131710
377.166511	83.802940
377.601667	84.386226
378.036812	84.386714
378.471946	84.194952
378.907070	84.455687
379.342182	83.998262
379.777283	84.034783
380.212373	84.005888
380.647452	84.139181
381.082520	84.453420
381.517576	84.430108
381.952622	84.569656
382.387656	84.383372
382.822679	84.383917
383.257691	84.344965
383.692692	84.495317
384.127681	84.536261
384.562659	84.685853
384.997626	84.869670
385.432581	84.984881
385.867525	84.991815
386.302458	85.520869
386.737379	85.165449
387.172289	84.880932
387.607188	84.657581
388.042075	84.548805
388.476951	84.392619
388.911815	84.306074
389.346668	84.149441
389.781509	84.089565
390.216338	84.026369
390.651157	83.874779
391.085963	83.595392
391.520758	83.577688
391.955541	83.579956
392.390313	83.582340
392.825073	83.914615
393.259821	84.195089
393.694558	84.286791
394.129283	84.008351
394.563996	83.611065
394.998698	83.496434
395.433388	83.229455
395.868066	83.144587
396.302732	83.138414
396.737386	82.773848
397.172029	82.193900
397.606659	81.725909
398.041278	80.701333
398.475885	80.357640
398.910480	79.738022
399.345063	78.892612
399.779634	78.023202
400.214194	76.645555
400.648741	75.225392
401.083276	73.804026
401.517799	71.812714
401.952310	69.885019
402.386809	67.291395
402.821296	64.649084
403.255771	62.043120
403.690234	59.273873
404.124684	56.406894
404.559123	53.399305
404.993549	50.485048
405.427963	47.667651
405.862365	44.993634
406.296754	42.453769
406.731131	39.696193
407.165496	37.418063
407.599849	35.186496
408.034190	33.224211
408.468518	31.282778
408.902833	29.572027
409.337137	28.006298
409.771428	26.479599
410.205706	25.071228
410.639973	23.811712
411.074226	22.633082
411.508467	21.606806
411.942696	20.670610
412.376912	19.891665
412.811116	19.118315
413.245307	18.331779
413.679486	17.736448
414.113652	17.180059
414.547805	16.656466
414.981946	16.217624
415.416074	15.782513
415.850190	15.401668
416.284293	15.009266
416.718383	14.646418
417.152460	14.371901
417.586525	14.103096
418.020577	13.847823
418.454616	13.573136
418.888643	13.334969
419.322656	13.128789
419.756657	12.920977
420.190645	12.754941
420.624620	12.552983
421.058582	12.430646
421.492531	12.253609
421.926468	12.116305
422.360391	11.975862
422.794301	11.866976
423.228199	11.741928
423.662083	11.656885
424.095955	11.583792
424.529813	11.498071
424.963658	11.451062
425.397491	11.374773
425.831310	11.292106
426.265116	11.225652
426.698909	11.174331
427.132689	11.117024
427.566455	11.074769
428.000209	11.024352
428.433949	10.946957
428.867676	10.894378
429.301389	10.855666
429.735090	10.834161
430.168777	10.804569
430.602451	10.757855
431.036111	10.690402
431.469759	10.660783
431.903392	10.634140
432.337013	10.606854
432.770620	10.562601
433.204213	10.512397
433.637794	10.478869
434.071360	10.468401
434.504914	10.418665
434.938453	10.398450
435.371979	10.367578
435.805492	10.362151
436.238991	10.332456
436.672477	10.343492
437.105949	10.349068
437.539407	10.340947
437.972852	10.348471
438.406283	10.313734
438.839700	10.306439
439.273104	10.302643
439.706494	10.301148
440.139871	10.296007
440.573233	10.289633
441.006582	10.267853
441.439917	10.272302
441.873238	10.275042
442.306546	10.270193
442.739839	10.277407
443.173119	10.273028
443.606385	10.269882
444.039636	10.267471
444.472874	10.268274
444.906099	10.253419
445.339309	10.248724
445.772505	10.242006
446.205687	10.245066
446.638855	10.263430
447.072009	10.282128
447.505149	10.287052
447.938275	10.301420
448.371387	10.313254
448.804485	10.317707
449.237569	10.321831
449.670638	10.332605
450.103694	10.328281
450.536735	10.315046
450.969762	10.317019
451.402774	10.313707
451.835773	10.338001
452.268757	10.338335
452.701727	10.349446
453.134683	10.352351
453.567624	10.365099
454.000551	10.385209
454.433464	10.407938
454.866362	10.413052
455.299246	10.431067
455.732116	10.458696
456.164971	10.457732
456.597811	10.475718
457.030638	10.494002
457.463449	10.512887
457.896246	10.541215
458.329029	10.579354
458.761797	10.615190
459.194551	10.640538
459.627290	10.658534
460.060014	10.675894
460.492724	10.683500
460.925419	10.689668
461.358099	10.719175
461.790765	10.738052
462.223416	10.756386
462.656052	10.776276
463.088674	10.802989
463.521281	10.828635
463.953873	10.844924
464.386450	10.870299
464.819012	10.893471
465.251560	10.907153
465.684093	10.934707
466.116611	10.955857
466.549114	10.980672
466.981602	11.001518
467.414075	11.015686
467.846533	11.028549
468.278977	11.048116
468.711405	11.072303
469.143818	11.082778
469.576216	11.121028
470.008600	11.140263
470.440968	11.160453
470.873321	11.178823
471.305659	11.202325
471.737982	11.221617
472.170289	11.235433
472.602582	11.264061
473.034859	11.303998
473.467122	11.348421
473.899369	11.393686
474.331600	11.436045
474.763817	11.468507
475.196018	11.521157
475.628204	11.580871
476.060375	11.631823
476.492530	11.687936
476.924670	11.739636
477.356795	11.800686
477.788904	11.852270
478.220998	11.918719
478.653076	11.989173
479.085139	12.050291
479.517186	12.121828
479.949219	12.191809
480.381235	12.270603
480.813236	12.345026
481.245221	12.434212
481.677191	12.522976
482.109146	12.609796
482.541084	12.705785
482.973008	12.800380
483.404915	12.896364
483.836807	13.007219
484.268683	13.118227
484.700544	13.236063
485.132388	13.347568
485.564217	13.466392
485.996031	13.580046
486.427828	13.694160
486.859610	13.802395
487.291376	13.915265
487.723126	14.036407
488.154860	14.159392
488.586579	14.273958
489.018281	14.379510
489.449968	14.487679
489.881639	14.599335
490.313293	14.716232
490.744932	14.841515
491.176555	14.964179
491.608162	15.082878
492.039753	15.209279
492.471328	15.339716
492.902886	15.461557
493.334429	15.587886
493.765956	15.712085
494.197466	15.853913
494.628960	15.997694
495.060439	16.156199
495.491901	16.323727
495.923347	16.502719
496.354776	16.685205
496.786190	16.904335
497.217587	17.137183
497.648968	17.386357
498.080332	17.645511
498.511681	17.937021
498.943013	18.250935
499.374328	18.587336
499.805628	18.924179
500.236911	19.290953
500.668177	19.677836
501.099427	20.074435
501.530661	20.478976
501.961878	20.886663
502.393079	21.323761
502.824264	21.769354
503.255431	22.222222
503.686583	22.686652
504.117717	23.155048
504.548835	23.635749
504.979937	24.127442
505.411022	24.623719
505.842090	25.132286
506.273142	25.652922
506.704177	26.195920
507.135195	26.753147
507.566197	27.325177
507.997182	27.913455
508.428150	28.508484
508.859102	29.129643
509.290036	29.769318
509.720954	30.422297
510.151855	31.082669
510.582739	31.744357
511.013607	32.436377
511.444457	33.137467
511.875291	33.853746
512.306107	34.584103
512.736907	35.335115
513.167690	36.108973
513.598456	36.894170
514.029205	37.706711
514.459936	38.532720
514.890651	39.375957
515.321349	40.238877
515.752030	41.116354
516.182693	42.010176
516.613340	42.897981
517.043969	43.792166
517.474582	44.688335
517.905177	45.576905
518.335755	46.471122
518.766315	47.352202
519.196859	48.229277
519.627385	49.085621
520.057894	49.905478
520.488386	50.723832
520.918860	51.518360
521.349318	52.295445
521.779757	53.066732
522.210180	53.819623
522.640585	54.573607
523.070973	55.308869
523.501343	56.037752
523.931696	56.771976
524.362031	57.476829
524.792349	58.188604
525.222650	58.883132
525.652933	59.562524
526.083198	60.233145
526.513446	60.905200
526.943677	61.555810
527.373890	62.197087
527.804085	62.847152
528.234262	63.497464
528.664422	64.153314
529.094565	64.799411
529.524689	65.438827
529.954796	66.107189
530.384885	66.766541
530.814957	67.441840
531.245011	68.121283
531.675047	68.803809
532.105065	69.498989
532.535065	70.196973
532.965048	70.904118
533.395013	71.647643
533.824959	72.370866
534.254888	73.111263
534.684799	73.875243
535.114693	74.645042
535.544568	75.405344
535.974425	76.130437
536.404264	76.875883
536.834086	77.593140
537.263889	78.283375
537.693674	78.944411
538.123441	79.599145
538.553190	80.231313
538.982921	80.828804
539.412634	81.385774
539.842329	81.912763
540.272006	82.423777
540.701664	82.880558
541.131304	83.320492
541.560926	83.735934
541.990530	84.129093
542.420116	84.486586
542.849683	84.818656
543.279232	85.098797
543.708763	85.379507
544.138275	85.625974
544.567769	85.872018
544.997245	86.080484
545.426702	86.275383
545.856141	86.457458
546.285562	86.644564
546.714964	86.797916
547.144347	86.974967
547.573713	87.136131
548.003059	87.294533
548.432387	87.465184
548.861697	87.623143
549.290988	87.795397
549.720260	87.951213
550.149514	88.121042
550.578750	88.303612
551.007966	88.500646
551.437164	88.678444
551.866344	88.865173
552.295504	89.062684
552.724646	89.271209
553.153769	89.486233
553.582874	89.708367
554.011960	89.933490
554.441027	90.136996
554.870075	90.339797
555.299104	90.539001
555.728115	90.740634
556.157106	90.928682
556.586079	91.114950
557.015033	91.278393
557.443968	91.414481
557.872884	91.552693
558.301781	91.684402
558.730659	91.788425
559.159518	91.863731
559.588358	91.928728
560.017180	91.991048
560.445982	92.034068
560.874765	92.058237
561.303528	92.064672
561.732273	92.035072
562.160999	91.989373
562.589705	91.944373
563.018393	91.881319
563.447061	91.812109
563.875710	91.709188
564.304340	91.605742
564.732950	91.508812
565.161542	91.377332
565.590114	91.256762
566.018666	91.129205
566.447200	90.998609
566.875714	90.850624
567.304208	90.713368
567.732684	90.567841
568.161140	90.415987
568.589576	90.254491
569.017993	90.106914
569.446391	89.950399
569.874769	89.804320
570.303128	89.649521
570.731467	89.503828
571.159787	89.313376
571.588087	89.150755
572.016368	88.981066
572.444629	88.833670
572.872870	88.683500
573.301092	88.541730
573.729294	88.385975
574.157476	88.262841
574.585639	88.128996
575.013782	88.025373
575.441906	87.946733
575.870009	87.862624
576.298093	87.823039
576.726157	87.781249
577.154202	87.783365
577.582226	87.795482
578.010231	87.822357
578.438216	87.882752
578.866181	87.945906
579.294126	88.035966
579.722051	88.128988
580.149957	88.249574
580.577842	88.357643
581.005707	88.487672
581.433553	88.620020
581.861378	88.745767
582.289184	88.857736
582.716969	88.974934
583.144734	89.087986
583.572479	89.195965
584.000205	89.294292
584.427910	89.392746
584.855594	89.437955
585.283259	89.482656
585.710904	89.494433
586.138528	89.464030
586.566132	89.408765
586.993716	89.342892
587.421280	89.227789
587.848823	89.086793
588.276346	88.910343
588.703849	88.685560
589.131332	88.435335
589.558794	88.123214
589.986236	87.797097
590.413657	87.402417
590.841058	86.968140
591.268438	86.496937
591.695799	85.989681
592.123138	85.459101
592.550458	84.873048
592.977756	84.271824
593.405034	83.622162
593.832292	82.966714
594.259529	82.280460
594.686746	81.570208
595.113942	80.850333
595.541117	80.114320
595.968272	79.364619
596.395406	78.594801
596.822519	77.835072
597.249612	77.084273
597.676684	76.349940
598.103735	75.644575
598.530766	74.963706
598.957775	74.324052
599.384764	73.711072
599.811733	73.135865
600.238680	72.597993
600.665606	72.092830
601.092512	71.641102
601.519397	71.208408
601.946261	70.822619
602.373104	70.475970
602.799926	70.156885
603.226727	69.845922
603.653507	69.571911
604.080266	69.323903
604.507004	69.081309
604.933721	68.849050
605.360417	68.614046
605.787092	68.382112
606.213746	68.154646
606.640379	67.932618
607.066991	67.696355
607.493581	67.458378
607.920150	67.207290
608.346699	66.938229
608.773226	66.655553
609.199731	66.373455
609.626216	66.079658
610.052679	65.746329
610.479121	65.420482
610.905542	65.070681
611.331941	64.709865
611.758319	64.321812
612.184676	63.913496
612.611011	63.496324
613.037325	63.058456
613.463617	62.616266
613.889888	62.162499
614.316138	61.691564
614.742366	61.224891
615.168573	60.743662
615.594758	60.249139
616.020921	59.768691
616.447063	59.296094
616.873184	58.840439
617.299283	58.386114
617.725360	57.940517
618.151416	57.517020
618.577450	57.122029
619.003462	56.762803
619.429453	56.411852
619.855422	56.095510
620.281369	55.826794
620.707295	55.597350
621.133199	55.422459
621.559081	55.302513
621.984941	55.224554
622.410779	55.189812
622.836596	55.191722
623.262391	55.260533
623.688163	55.339450
624.113914	55.468100
624.539644	55.623742
624.965351	55.809575
625.391036	56.013562
625.816699	56.249703
626.242340	56.498673
626.667960	56.737983
627.093557	56.979841
627.519132	57.211056
627.944685	57.427471
628.370216	57.645417
628.795725	57.850717
629.221212	58.033739
629.646677	58.198588
630.072119	58.336366
630.497540	58.463969
630.922938	58.584968
631.348314	58.689273
631.773668	58.764590
632.198999	58.823812
632.624308	58.887762
633.049595	58.947302
633.474860	58.990662
633.900102	59.033748
634.325322	59.064398
634.750520	59.091642
635.175695	59.119501
635.600848	59.135166
636.025978	59.164464
636.451086	59.183546
636.876171	59.197598
637.301234	59.198000
637.726275	59.182989
638.151293	59.167947
638.576288	59.148246
639.001261	59.114208
639.426211	59.078609
639.851139	59.047750
640.276044	59.022982
640.700927	59.012155
641.125787	59.019157
641.550624	59.023938
641.975438	59.056861
642.400230	59.105487
642.824999	59.172622
643.249745	59.267980
643.674469	59.397612
644.099169	59.539611
644.523847	59.707034
644.948502	59.910430
645.373135	60.140118
645.797744	60.390602
646.222330	60.663178
646.646894	60.948091
647.071435	61.252886
647.495953	61.564791
647.920447	61.891909
648.344919	62.232310
648.769368	62.580915
649.193794	62.926225
649.618197	63.281266
650.042576	63.640830
650.466933	64.027415
650.891267	64.421639
651.315577	64.821747
651.739864	65.233435
652.164129	65.653804
652.588370	66.084939
653.012587	66.509257
653.436782	66.943411
653.860953	67.388989
654.285102	67.828457
654.709226	68.264843
655.133328	68.693744
655.557406	69.126852
655.981461	69.557611
656.405493	69.987681
656.829501	70.389115
657.253486	70.787190
657.677448	71.174745
658.101386	71.567683
658.525301	71.940601
658.949192	72.308430
659.373060	72.668396
659.796904	73.020721
660.220725	73.354726
660.644522	73.696788
661.068296	74.027297
661.492046	74.339604
661.915772	74.649761
662.339475	74.965454
662.763154	75.268604
663.186810	75.568892
663.610442	75.845983
664.034050	76.120975
664.457635	76.379443
664.881196	76.622408
665.304733	76.853403
665.728247	77.071565
666.151736	77.276292
666.575202	77.472180
666.998644	77.641021
667.422062	77.805942
667.845457	77.963967
668.268827	78.097350
668.692174	78.215812
669.115496	78.315007
669.538795	78.381945
669.962070	78.447680
670.385321	78.496704
670.808547	78.526804
671.231750	78.518084
671.654929	78.501341
672.078084	78.457161
672.501214	78.382428
672.924321	78.292911
673.347404	78.193200
673.770462	78.068099
674.193496	77.931388
674.616506	77.795184
675.039492	77.649106
675.462454	77.483088
675.885391	77.316592
676.308305	77.166248
676.731194	77.019496
677.154058	76.877949
677.576899	76.740998
677.999715	76.619293
678.422507	76.505300
678.845274	76.401587
679.268017	76.322061
679.690736	76.235444
680.113430	76.159088
680.536100	76.091313
680.958746	76.040827
681.381367	75.997547
681.803963	75.962049
682.226535	75.934460
682.649083	75.929968
683.071605	75.921544
683.494104	75.925200
683.916578	75.934982
684.339027	75.957584
684.761451	75.992197
685.183851	76.034889
685.606227	76.086603
686.028577	76.146076
686.450903	76.210896
686.873204	76.273075
687.295481	76.332305
687.717733	76.396205
688.139959	76.468805
688.562162	76.548333
688.984339	76.622556
689.406492	76.692696
689.828619	76.761357
690.250722	76.824036
690.672800	76.894813
691.094853	76.954962
691.516881	77.032913
691.938884	77.097640
692.360863	77.150864
692.782816	77.225160
693.204744	77.295933
693.626647	77.365196
694.048526	77.431273
694.470379	77.506392
694.892207	77.575926
695.314010	77.659858
695.735788	77.750499
696.157540	77.844292
696.579268	77.938605
697.000970	78.041563
697.422648	78.151843
697.844300	78.255688
698.265926	78.366274
698.687528	78.477150
699.109104	78.593589
699.530655	78.700388
699.952181	78.825873
700.373681	78.949860
700.795156	79.070684
701.216606	79.182072
701.638030	79.293266
702.059429	79.405230
702.480803	79.507380
702.902151	79.599667
703.323473	79.689105
703.744770	79.774546
704.166042	79.859567
704.587288	79.908256
705.008509	79.961495
705.429704	80.017532
705.850873	80.043898
706.272017	80.079837
706.693135	80.103229
707.114228	80.129728
707.535295	80.159323
707.956336	80.194434
708.377352	80.218123
708.798342	80.215858
709.219306	80.228832
709.640245	80.254657
710.061157	80.277322
710.482044	80.294499
710.902905	80.323764
711.323741	80.350053
711.744550	80.383541
712.165334	80.416633
712.586092	80.473643
713.006823	80.520172
713.427529	80.584712
713.848209	80.649264
714.268863	80.714663
714.689492	80.789258
715.110094	80.864978
715.530670	80.949607
715.951220	81.039715
716.371744	81.142505
716.792242	81.254500
717.212714	81.359408
717.633159	81.480244
718.053579	81.618691
718.473973	81.756341
718.894340	81.911319
719.314681	82.062694
719.734996	82.230033
720.155285	82.410089
720.575547	82.589106
720.995784	82.773303
721.415994	82.970749
721.836177	83.187117
722.256335	83.404873
722.676466	83.615916
723.096570	83.835481
723.516649	84.060940
723.936701	84.281167
724.356726	84.501518
724.776725	84.713819
725.196698	84.921702
725.616644	85.088917
726.036564	85.245405
726.456457	85.380698
726.876324	85.491238
727.296164	85.589261
727.715977	85.651221
728.135764	85.699375
728.555525	85.713044
728.975258	85.702415
729.394966	85.669405
729.814646	85.601317
730.234300	85.518719
730.653927	85.414924
731.073527	85.269484
731.493101	85.122712
731.912648	84.952464
732.332168	84.768622
732.751661	84.560805
733.171128	84.322982
733.590568	84.078978
734.009980	83.810175
734.429366	83.529172
734.848726	83.243079
735.268058	82.932156
735.687363	82.609382
736.106641	82.275293
736.525893	81.928610
736.945117	81.579036
737.364314	81.219788
737.783485	80.861003
738.202628	80.493844
738.621744	80.146688
739.040834	79.817764
739.459896	79.489251
739.878931	79.195829
740.297939	78.902846
740.716919	78.649132
741.135873	78.407801
741.554799	78.196335
741.973698	78.019066
742.392570	77.856374
742.811415	77.723908
743.230232	77.619990
743.649022	77.561067
744.067785	77.527188
744.486521	77.515035
744.905229	77.528877
745.323909	77.566892
745.742563	77.637666
746.161189	77.735739
746.579787	77.836300
746.998358	77.963824
747.416902	78.096380
747.835418	78.240657
748.253907	78.385371
748.672368	78.533413
749.090802	78.686744
749.509208	78.845579
749.927586	79.009517
750.345937	79.167063
750.764261	79.334617
751.182556	79.496594
751.600824	79.656673
752.019065	79.798248
752.437277	79.947229
752.855462	80.087441
753.273620	80.225083
753.691749	80.356187
754.109851	80.475265
