Time1=100ms:Average1=5:Objective=10X:Aperture=1: (11/28/2018 11:05:41 AM)
11/28/2018 11:05:41 AM
Reflectance
10X
Ap#: 1
Avg1: 5.000000
Avg2: 0.000000
Int.Time1:100.000000

350.166136	84.185094
350.601937	84.446124
351.037728	85.199208
351.473509	85.020139
351.909281	85.202761
352.345042	85.735474
352.780794	85.988484
353.216536	85.964605
353.652267	85.809274
354.087989	85.800737
354.523701	85.777036
354.959403	85.637784
355.395095	85.733181
355.830777	85.560554
356.266449	85.657476
356.702110	85.965067
357.137762	86.658409
357.573404	86.955362
358.009035	87.105966
358.444656	87.324824
358.880268	87.166205
359.315869	87.487764
359.751459	87.697386
360.187040	87.923956
360.622610	87.622790
361.058170	88.078403
361.493720	87.566797
361.929260	87.496651
362.364789	87.966768
362.800308	88.019582
363.235816	88.309959
363.671314	88.672708
364.106802	88.665838
364.542279	88.341325
364.977746	88.575233
365.413203	88.430191
365.848649	88.398866
366.284084	88.024429
366.719509	88.461879
367.154924	88.774423
367.590328	88.951061
368.025721	89.259128
368.461104	89.556344
368.896477	89.542887
369.331838	89.639996
369.767189	89.400316
370.202530	89.257864
370.637859	89.202249
371.073178	89.032088
371.508486	88.960642
371.943784	88.711219
372.379071	88.948740
372.814347	88.774800
373.249612	88.947918
373.684866	89.240286
374.120110	89.458120
374.555343	89.366516
374.990565	89.800734
375.425776	90.019227
375.860976	89.927618
376.296165	90.243262
376.731343	90.314388
377.166511	89.945747
377.601667	89.634627
378.036812	89.425508
378.471946	88.825065
378.907070	89.035241
379.342182	88.613646
379.777283	88.895652
380.212373	88.500173
380.647452	88.387152
381.082520	88.346511
381.517576	88.000000
381.952622	88.420781
382.387656	88.436609
382.822679	88.214440
383.257691	88.596415
383.692692	88.961152
384.127681	88.814936
384.562659	89.058854
384.997626	88.926290
385.432581	88.863931
385.867525	88.558628
386.302458	88.875474
386.737379	88.723679
387.172289	88.590029
387.607188	88.446044
388.042075	88.250921
388.476951	88.057406
388.911815	87.860536
389.346668	87.724500
389.781509	87.418673
390.216338	87.195740
390.651157	86.777487
391.085963	87.093248
391.520758	87.276710
391.955541	87.346561
392.390313	87.183146
392.825073	87.335070
393.259821	87.211933
393.694558	87.293743
394.129283	86.881002
394.563996	86.577237
394.998698	86.490297
395.433388	86.048623
395.868066	86.072561
396.302732	86.367926
396.737386	85.950853
397.172029	85.333279
397.606659	84.843706
398.041278	83.819703
398.475885	83.405524
398.910480	82.916372
399.345063	82.399470
399.779634	81.572680
400.214194	80.294805
400.648741	78.875998
401.083276	77.411790
401.517799	75.568222
401.952310	73.226243
402.386809	70.205346
402.821296	67.461409
403.255771	64.820234
403.690234	62.089815
404.124684	59.200878
404.559123	55.942489
404.993549	52.623028
405.427963	49.634055
405.862365	46.759621
406.296754	44.073280
406.731131	41.316736
407.165496	38.878037
407.599849	36.577522
408.034190	34.347839
408.468518	32.326376
408.902833	30.436333
409.337137	28.630436
409.771428	26.968293
410.205706	25.484300
410.639973	24.200380
411.074226	23.028318
411.508467	21.957542
411.942696	20.941114
412.376912	20.058989
412.811116	19.243812
413.245307	18.433853
413.679486	17.765098
414.113652	17.139334
414.547805	16.567342
414.981946	16.065447
415.416074	15.596767
415.850190	15.205031
416.284293	14.790250
416.718383	14.415645
417.152460	14.069026
417.586525	13.775882
418.020577	13.498199
418.454616	13.276773
418.888643	13.030643
419.322656	12.805039
419.756657	12.592505
420.190645	12.404259
420.624620	12.186696
421.058582	12.007548
421.492531	11.840029
421.926468	11.699970
422.360391	11.559006
422.794301	11.451076
423.228199	11.331836
423.662083	11.239841
424.095955	11.140944
424.529813	11.039906
424.963658	10.968604
425.397491	10.878195
425.831310	10.797339
426.265116	10.719259
426.698909	10.667537
427.132689	10.611467
427.566455	10.561219
428.000209	10.508297
428.433949	10.447160
428.867676	10.419820
429.301389	10.361842
429.735090	10.338431
430.168777	10.295303
430.602451	10.253081
431.036111	10.190457
431.469759	10.145252
431.903392	10.087905
432.337013	10.048009
432.770620	10.016542
433.204213	9.979622
433.637794	9.955479
434.071360	9.938542
434.504914	9.926654
434.938453	9.924518
435.371979	9.879941
435.805492	9.863376
436.238991	9.819990
436.672477	9.806546
437.105949	9.796023
437.539407	9.788899
437.972852	9.771198
438.406283	9.750849
438.839700	9.750404
439.273104	9.735785
439.706494	9.713153
440.139871	9.697042
440.573233	9.695928
441.006582	9.667104
441.439917	9.660695
441.873238	9.641509
442.306546	9.616580
442.739839	9.628757
443.173119	9.612619
443.606385	9.606073
444.039636	9.603876
444.472874	9.597782
444.906099	9.594712
445.339309	9.601473
445.772505	9.613615
446.205687	9.611178
446.638855	9.613562
447.072009	9.622881
447.505149	9.626940
447.938275	9.621267
448.371387	9.619865
448.804485	9.632239
449.237569	9.631080
449.670638	9.631859
450.103694	9.634253
450.536735	9.622825
450.969762	9.607441
451.402774	9.607575
451.835773	9.603180
452.268757	9.589853
452.701727	9.585834
453.134683	9.583499
453.567624	9.583590
454.000551	9.568393
454.433464	9.575223
454.866362	9.563052
455.299246	9.563572
455.732116	9.561546
456.164971	9.548738
456.597811	9.529507
457.030638	9.522373
457.463449	9.511033
457.896246	9.506553
458.329029	9.501693
458.761797	9.501794
459.194551	9.491931
459.627290	9.488452
460.060014	9.482792
460.492724	9.480347
460.925419	9.475138
461.358099	9.486637
461.790765	9.488449
462.223416	9.486361
462.656052	9.495231
463.088674	9.513501
463.521281	9.521015
463.953873	9.526272
464.386450	9.539649
464.819012	9.560125
465.251560	9.577496
465.684093	9.604545
466.116611	9.621605
466.549114	9.643752
466.981602	9.658534
467.414075	9.682429
467.846533	9.691544
468.278977	9.700448
468.711405	9.713048
469.143818	9.728598
469.576216	9.740409
470.008600	9.759720
470.440968	9.767200
470.873321	9.779140
471.305659	9.803668
471.737982	9.818432
472.170289	9.820243
472.602582	9.840601
473.034859	9.857195
473.467122	9.875578
473.899369	9.891597
474.331600	9.908698
474.763817	9.916044
475.196018	9.932329
475.628204	9.959215
476.060375	9.977818
476.492530	10.007027
476.924670	10.038313
477.356795	10.077764
477.788904	10.112788
478.220998	10.150045
478.653076	10.199294
479.085139	10.242736
479.517186	10.300504
479.949219	10.361447
480.381235	10.424988
480.813236	10.485564
481.245221	10.570583
481.677191	10.659776
482.109146	10.750247
482.541084	10.848406
482.973008	10.947911
483.404915	11.052703
483.836807	11.170974
484.268683	11.296585
484.700544	11.410403
485.132388	11.541494
485.564217	11.685351
485.996031	11.827143
486.427828	11.970091
486.859610	12.122408
487.291376	12.265358
487.723126	12.422853
488.154860	12.585194
488.586579	12.746762
489.018281	12.894835
489.449968	13.041900
489.881639	13.182741
490.313293	13.324252
490.744932	13.471107
491.176555	13.620777
491.608162	13.765032
492.039753	13.896145
492.471328	14.029262
492.902886	14.151750
493.334429	14.272517
493.765956	14.384600
494.197466	14.499127
494.628960	14.607237
495.060439	14.707379
495.491901	14.805002
495.923347	14.905382
496.354776	15.003143
496.786190	15.102561
497.217587	15.199582
497.648968	15.289298
498.080332	15.388941
498.511681	15.485739
498.943013	15.585105
499.374328	15.675624
499.805628	15.769745
500.236911	15.859575
500.668177	15.959964
501.099427	16.045611
501.530661	16.134640
501.961878	16.213577
502.393079	16.299625
502.824264	16.394280
503.255431	16.477342
503.686583	16.562818
504.117717	16.649243
504.548835	16.729473
504.979937	16.818337
505.411022	16.911390
505.842090	17.003146
506.273142	17.102810
506.704177	17.204595
507.135195	17.316326
507.566197	17.433344
507.997182	17.549553
508.428150	17.677674
508.859102	17.815454
509.290036	17.948640
509.720954	18.083006
510.151855	18.221408
510.582739	18.364887
511.013607	18.521687
511.444457	18.675258
511.875291	18.836331
512.306107	19.002389
512.736907	19.190968
513.167690	19.390443
513.598456	19.605202
514.029205	19.840597
514.459936	20.101311
514.890651	20.374722
515.321349	20.679800
515.752030	21.017982
516.182693	21.379006
516.613340	21.790655
517.043969	22.238114
517.474582	22.724149
517.905177	23.251416
518.335755	23.810433
518.766315	24.422609
519.196859	25.072050
519.627385	25.754283
520.057894	26.468403
520.488386	27.218205
520.918860	27.995053
521.349318	28.800049
521.779757	29.651173
522.210180	30.543360
522.640585	31.457112
523.070973	32.428586
523.501343	33.432227
523.931696	34.466699
524.362031	35.528174
524.792349	36.628421
525.222650	37.764427
525.652933	38.927053
526.083198	40.122206
526.513446	41.345877
526.943677	42.596548
527.373890	43.858829
527.804085	45.145441
528.234262	46.456938
528.664422	47.792432
529.094565	49.133816
529.524689	50.482735
529.954796	51.835509
530.384885	53.182892
530.814957	54.529678
531.245011	55.867047
531.675047	57.214833
532.105065	58.536061
532.535065	59.867758
532.965048	61.198190
533.395013	62.507954
533.824959	63.799220
534.254888	65.095614
534.684799	66.417061
535.114693	67.719391
535.544568	68.982825
535.974425	70.222782
536.404264	71.437075
536.834086	72.623283
537.263889	73.787690
537.693674	74.910787
538.123441	76.016940
538.553190	77.090643
538.982921	78.124783
539.412634	79.115413
539.842329	80.084152
540.272006	81.014099
540.701664	81.908626
541.131304	82.766411
541.560926	83.577805
541.990530	84.345313
542.420116	85.079109
542.849683	85.775441
543.279232	86.419932
543.708763	87.046894
544.138275	87.623571
544.567769	88.191419
544.997245	88.706050
545.426702	89.195017
545.856141	89.642936
546.285562	90.069140
546.714964	90.472892
547.144347	90.874151
547.573713	91.240584
548.003059	91.590796
548.432387	91.941421
548.861697	92.254189
549.290988	92.589721
549.720260	92.887142
550.149514	93.176959
550.578750	93.457084
551.007966	93.745218
551.437164	94.001770
551.866344	94.256630
552.295504	94.505139
552.724646	94.750777
553.153769	94.971903
553.582874	95.194115
554.011960	95.411785
554.441027	95.606426
554.870075	95.819482
555.299104	96.046311
555.728115	96.264205
556.157106	96.463047
556.586079	96.664299
557.015033	96.848786
557.443968	97.030222
557.872884	97.208382
558.301781	97.389499
558.730659	97.554564
559.159518	97.723848
559.588358	97.885545
560.017180	98.056983
560.445982	98.211160
560.874765	98.358392
561.303528	98.477207
561.732273	98.582984
562.160999	98.691010
562.589705	98.780944
563.018393	98.872364
563.447061	98.959173
563.875710	99.019445
564.304340	99.074360
564.732950	99.134442
565.161542	99.170620
565.590114	99.215349
566.018666	99.250872
566.447200	99.295934
566.875714	99.343587
567.304208	99.382755
567.732684	99.427769
568.161140	99.446317
568.589576	99.461276
569.017993	99.469659
569.446391	99.494187
569.874769	99.534925
570.303128	99.564440
570.731467	99.590128
571.159787	99.596184
571.588087	99.600618
572.016368	99.629819
572.444629	99.635777
572.872870	99.642372
573.301092	99.649240
573.729294	99.650679
574.157476	99.677939
574.585639	99.696313
575.013782	99.725292
575.441906	99.760919
575.870009	99.786187
576.298093	99.832145
576.726157	99.869716
577.154202	99.930666
577.582226	99.992538
578.010231	100.060235
578.438216	100.129419
578.866181	100.194578
579.294126	100.265691
579.722051	100.339522
580.149957	100.403498
580.577842	100.461717
581.005707	100.519599
581.433553	100.574212
581.861378	100.610485
582.289184	100.650598
582.716969	100.665380
583.144734	100.665618
583.572479	100.675546
584.000205	100.680161
584.427910	100.675184
584.855594	100.647929
585.283259	100.608347
585.710904	100.567277
586.138528	100.511024
586.566132	100.440435
586.993716	100.371381
587.421280	100.274304
587.848823	100.170056
588.276346	100.046060
588.703849	99.912242
589.131332	99.784161
589.558794	99.619878
589.986236	99.466882
590.413657	99.279735
590.841058	99.083484
591.268438	98.886913
591.695799	98.692077
592.123138	98.487878
592.550458	98.268796
592.977756	98.043833
593.405034	97.801474
593.832292	97.567746
594.259529	97.342078
594.686746	97.119088
595.113942	96.900076
595.541117	96.679996
595.968272	96.465903
596.395406	96.252476
596.822519	96.049678
597.249612	95.833896
597.676684	95.634060
598.103735	95.453474
598.530766	95.261233
598.957775	95.086949
599.384764	94.910173
599.811733	94.737676
600.238680	94.559543
600.665606	94.382887
601.092512	94.229067
601.519397	94.052777
601.946261	93.894907
602.373104	93.726871
602.799926	93.549893
603.226727	93.354788
603.653507	93.166643
604.080266	92.968181
604.507004	92.731112
604.933721	92.472739
605.360417	92.201582
605.787092	91.896135
606.213746	91.587604
606.640379	91.243447
607.066991	90.869959
607.493581	90.473557
607.920150	90.039814
608.346699	89.563476
608.773226	89.049103
609.199731	88.509370
609.626216	87.934168
610.052679	87.291898
610.479121	86.641003
610.905542	85.934492
611.331941	85.188689
611.758319	84.412600
612.184676	83.588002
612.611011	82.733159
613.037325	81.832452
613.463617	80.896414
613.889888	79.910628
614.316138	78.882566
614.742366	77.829329
615.168573	76.738454
615.594758	75.602947
616.020921	74.465543
616.447063	73.305522
616.873184	72.138648
617.299283	70.956268
617.725360	69.788215
618.151416	68.619444
618.577450	67.477366
619.003462	66.361831
619.429453	65.261215
619.855422	64.205965
620.281369	63.198897
620.707295	62.216465
621.133199	61.289242
621.559081	60.414718
621.984941	59.586385
622.410779	58.820369
622.836596	58.093855
623.262391	57.427931
623.688163	56.804656
624.113914	56.243489
624.539644	55.719892
624.965351	55.240794
625.391036	54.815798
625.816699	54.420460
626.242340	54.072205
626.667960	53.759897
627.093557	53.487735
627.519132	53.233008
627.944685	53.013419
628.370216	52.825996
628.795725	52.673392
629.221212	52.543428
629.646677	52.434811
630.072119	52.345846
630.497540	52.282784
630.922938	52.242951
631.348314	52.233452
631.773668	52.231979
632.198999	52.245167
632.624308	52.269886
633.049595	52.305293
633.474860	52.337161
633.900102	52.392428
634.325322	52.447088
634.750520	52.513334
635.175695	52.594892
635.600848	52.670026
636.025978	52.775410
636.451086	52.894654
636.876171	53.032518
637.301234	53.193854
637.726275	53.381395
638.151293	53.599940
638.576288	53.842196
639.001261	54.127140
639.426211	54.449502
639.851139	54.812516
640.276044	55.225167
640.700927	55.691988
641.125787	56.209716
641.550624	56.756812
641.975438	57.354328
642.400230	57.990224
642.824999	58.661632
643.249745	59.374281
643.674469	60.119900
644.099169	60.881857
644.523847	61.674521
644.948502	62.471836
645.373135	63.295425
645.797744	64.123575
646.222330	64.959477
646.646894	65.800241
647.071435	66.631068
647.495953	67.455417
647.920447	68.261896
648.344919	69.040694
648.769368	69.811242
649.193794	70.543572
649.618197	71.261484
650.042576	71.940466
650.466933	72.591952
650.891267	73.197030
651.315577	73.758925
651.739864	74.275952
652.164129	74.743873
652.588370	75.162854
653.012587	75.517572
653.436782	75.807211
653.860953	76.066007
654.285102	76.256141
654.709226	76.409689
655.133328	76.505704
655.557406	76.558874
655.981461	76.589235
656.405493	76.579639
656.829501	76.528460
657.253486	76.439731
657.677448	76.316759
658.101386	76.182923
658.525301	76.012366
658.949192	75.817785
659.373060	75.604037
659.796904	75.371182
660.220725	75.120591
660.644522	74.849666
661.068296	74.568404
661.492046	74.285954
661.915772	73.992178
662.339475	73.699171
662.763154	73.404739
663.186810	73.112114
663.610442	72.811261
664.034050	72.519524
664.457635	72.225437
664.881196	71.947501
665.304733	71.666837
665.728247	71.397126
666.151736	71.144092
666.575202	70.906190
666.998644	70.657053
667.422062	70.430205
667.845457	70.208615
668.268827	70.000330
668.692174	69.802364
669.115496	69.603443
669.538795	69.401818
669.962070	69.215959
670.385321	69.045210
670.808547	68.874695
671.231750	68.704363
671.654929	68.545500
672.078084	68.391936
672.501214	68.245442
672.924321	68.100060
673.347404	67.968375
673.770462	67.853314
674.193496	67.751951
674.616506	67.659510
675.039492	67.573802
675.462454	67.482762
675.885391	67.385293
676.308305	67.304270
676.731194	67.233608
677.154058	67.173944
677.576899	67.120421
677.999715	67.065423
678.422507	67.016689
678.845274	66.972023
679.268017	66.947175
679.690736	66.918053
680.113430	66.899819
680.536100	66.881854
680.958746	66.872810
681.381367	66.862240
681.803963	66.863357
682.226535	66.870195
682.649083	66.890386
683.071605	66.905313
683.494104	66.928157
683.916578	66.961938
684.339027	67.003103
684.761451	67.057687
685.183851	67.123388
685.606227	67.189758
686.028577	67.269746
686.450903	67.365489
686.873204	67.464845
687.295481	67.562785
687.717733	67.670060
688.139959	67.787217
688.562162	67.937745
688.984339	68.095176
689.406492	68.255685
689.828619	68.420476
690.250722	68.579809
690.672800	68.757155
691.094853	68.933683
691.516881	69.125288
691.938884	69.319465
692.360863	69.510090
692.782816	69.718165
693.204744	69.918216
693.626647	70.131640
694.048526	70.341252
694.470379	70.559720
694.892207	70.774555
695.314010	70.996776
695.735788	71.212951
696.157540	71.434104
696.579268	71.654124
697.000970	71.868410
697.422648	72.084953
697.844300	72.288482
698.265926	72.485334
698.687528	72.681970
699.109104	72.886168
699.530655	73.068010
699.952181	73.257975
700.373681	73.441162
700.795156	73.621912
701.216606	73.807363
701.638030	73.970611
702.059429	74.140522
702.480803	74.311590
702.902151	74.477483
703.323473	74.660062
703.744770	74.831083
704.166042	75.017832
704.587288	75.195324
705.008509	75.379491
705.429704	75.556406
705.850873	75.730988
706.272017	75.916598
706.693135	76.098574
707.114228	76.278937
707.535295	76.465681
707.956336	76.650043
708.377352	76.816922
708.798342	76.971845
709.219306	77.128013
709.640245	77.277120
710.061157	77.424397
710.482044	77.557756
710.902905	77.691734
711.323741	77.806443
711.744550	77.913804
712.165334	77.997549
712.586092	78.082496
713.006823	78.142291
713.427529	78.197677
713.848209	78.233032
714.268863	78.245539
714.689492	78.252957
715.110094	78.239119
715.530670	78.200666
715.951220	78.149231
716.371744	78.069257
716.792242	77.978816
717.212714	77.849565
717.633159	77.708359
718.053579	77.545701
718.473973	77.366486
718.894340	77.161144
719.314681	76.940482
719.734996	76.701576
720.155285	76.451761
720.575547	76.180982
720.995784	75.893214
721.415994	75.607722
721.836177	75.328343
722.256335	75.034066
722.676466	74.726640
723.096570	74.415365
723.516649	74.117467
723.936701	73.820547
724.356726	73.532332
724.776725	73.259507
725.196698	73.003512
725.616644	72.750857
726.036564	72.520131
726.456457	72.312364
726.876324	72.137688
727.296164	71.976740
727.715977	71.836568
728.135764	71.721433
728.555525	71.633651
728.975258	71.568058
729.394966	71.528937
729.814646	71.505801
730.234300	71.513362
730.653927	71.536235
731.073527	71.564089
731.493101	71.629320
731.912648	71.698639
732.332168	71.782398
732.751661	71.876865
733.171128	71.973822
733.590568	72.080985
734.009980	72.196781
734.429366	72.308088
734.848726	72.423082
735.268058	72.529843
735.687363	72.651552
736.106641	72.768844
736.525893	72.879579
736.945117	72.988971
737.364314	73.102916
737.783485	73.215591
738.202628	73.313815
738.621744	73.409662
739.040834	73.502470
739.459896	73.588947
739.878931	73.665504
740.297939	73.736973
740.716919	73.818613
741.135873	73.879504
741.554799	73.953172
741.973698	74.018596
742.392570	74.087795
742.811415	74.151008
743.230232	74.206543
743.649022	74.280031
744.067785	74.364974
744.486521	74.424417
744.905229	74.499074
745.323909	74.576743
745.742563	74.660379
746.161189	74.761430
746.579787	74.868510
746.998358	74.973520
747.416902	75.078870
747.835418	75.184900
748.253907	75.308071
748.672368	75.421878
749.090802	75.534865
749.509208	75.654076
749.927586	75.770339
750.345937	75.874513
750.764261	75.970968
751.182556	76.069270
751.600824	76.171567
752.019065	76.259119
752.437277	76.336654
752.855462	76.405504
753.273620	76.468821
753.691749	76.503648
754.109851	76.554699
754.527925	76.567593
754.945971	76.578701
755.363989	76.573705
