Time1=100ms:Average1=5:Objective=10X:Aperture=1: (11/28/2018 11:08:35 AM)
11/28/2018 11:08:35 AM
Reflectance
10X
Ap#: 1
Avg1: 5.000000
Avg2: 0.000000
Int.Time1:100.000000

350.166136	73.480753
350.601937	73.662551
351.037728	73.969538
351.473509	73.682406
351.909281	73.675582
352.345042	74.149363
352.780794	74.070843
353.216536	74.058174
353.652267	74.295713
354.087989	74.881600
354.523701	74.936309
354.959403	74.690545
355.395095	74.755313
355.830777	74.931640
356.266449	75.424178
356.702110	75.476359
357.137762	75.794037
357.573404	75.795839
358.009035	75.894924
358.444656	75.613675
358.880268	75.922122
359.315869	75.642965
359.751459	75.475065
360.187040	75.526598
360.622610	75.370602
361.058170	75.548197
361.493720	75.543285
361.929260	75.779227
362.364789	76.210470
362.800308	76.119270
363.235816	76.051837
363.671314	76.270434
364.106802	76.008172
364.542279	76.238679
364.977746	76.378162
365.413203	76.293409
365.848649	76.204392
366.284084	76.119667
366.719509	76.135659
367.154924	75.950266
367.590328	75.521805
368.025721	75.762141
368.461104	76.051464
368.896477	75.617720
369.331838	75.310272
369.767189	75.311240
370.202530	75.037238
370.637859	75.320682
371.073178	75.425215
371.508486	75.303255
371.943784	75.371513
372.379071	75.073849
372.814347	75.400278
373.249612	75.883992
373.684866	76.258930
374.120110	76.202488
374.555343	76.479290
374.990565	76.498864
375.425776	76.507604
375.860976	76.349525
376.296165	76.496325
376.731343	76.530344
377.166511	76.522576
377.601667	76.824674
378.036812	76.628018
378.471946	76.388164
378.907070	76.509072
379.342182	75.949587
379.777283	76.626087
380.212373	76.723242
380.647452	76.541185
381.082520	76.753180
381.517576	76.369892
381.952622	76.652020
382.387656	76.925071
382.822679	77.120623
383.257691	77.184172
383.692692	77.419355
384.127681	77.206327
384.562659	77.391755
384.997626	77.058519
385.432581	77.157667
385.867525	77.289567
386.302458	77.216281
386.737379	77.060593
387.172289	76.606133
387.607188	76.394960
388.042075	76.124775
388.476951	75.901247
388.911815	75.771971
389.346668	75.762453
389.781509	75.952683
390.216338	75.938134
390.651157	75.521053
391.085963	75.271168
391.520758	75.513987
391.955541	75.651589
392.390313	75.700856
392.825073	75.981175
393.259821	75.412721
393.694558	75.182176
394.129283	74.972860
394.563996	74.762540
394.998698	74.805109
395.433388	74.313782
395.868066	74.142404
396.302732	74.291108
396.737386	74.048330
397.172029	73.675638
397.606659	73.484573
398.041278	72.711261
398.475885	72.656467
398.910480	72.051766
399.345063	71.325592
399.779634	70.647664
400.214194	69.543090
400.648741	68.515371
401.083276	67.360560
401.517799	65.644451
401.952310	63.824822
402.386809	61.561278
402.821296	59.430661
403.255771	56.829312
403.690234	54.323266
404.124684	51.857303
404.559123	49.294959
404.993549	46.562279
405.427963	44.078744
405.862365	41.667009
406.296754	39.283663
406.731131	37.003597
407.165496	34.971529
407.599849	33.056872
408.034190	31.211402
408.468518	29.399534
408.902833	27.895054
409.337137	26.525256
409.771428	25.065460
410.205706	23.836940
410.639973	22.795476
411.074226	21.714006
411.508467	20.879650
411.942696	20.070828
412.376912	19.351408
412.811116	18.711116
413.245307	18.084785
413.679486	17.486958
414.113652	16.952680
414.547805	16.490030
414.981946	16.070553
415.416074	15.743613
415.850190	15.403523
416.284293	15.055375
416.718383	14.765197
417.152460	14.486700
417.586525	14.254961
418.020577	14.021128
418.454616	13.788144
418.888643	13.571278
419.322656	13.376003
419.756657	13.242251
420.190645	13.085999
420.624620	12.924783
421.058582	12.804491
421.492531	12.666613
421.926468	12.556174
422.360391	12.408540
422.794301	12.284471
423.228199	12.183205
423.662083	12.095289
424.095955	12.009704
424.529813	11.918625
424.963658	11.843448
425.397491	11.749203
425.831310	11.676310
426.265116	11.601378
426.698909	11.515894
427.132689	11.474273
427.566455	11.415993
428.000209	11.362065
428.433949	11.312257
428.867676	11.231478
429.301389	11.161233
429.735090	11.133664
430.168777	11.078578
430.602451	11.032205
431.036111	10.959720
431.469759	10.925455
431.903392	10.889442
432.337013	10.836967
432.770620	10.783871
433.204213	10.731259
433.637794	10.708220
434.071360	10.679184
434.504914	10.616549
434.938453	10.571791
435.371979	10.536071
435.805492	10.520020
436.238991	10.491954
436.672477	10.469964
437.105949	10.447950
437.539407	10.417751
437.972852	10.405486
438.406283	10.358728
438.839700	10.317021
439.273104	10.267980
439.706494	10.223734
440.139871	10.186494
440.573233	10.138031
441.006582	10.080262
441.439917	10.043126
441.873238	10.003846
442.306546	9.973922
442.739839	9.951589
443.173119	9.903992
443.606385	9.887393
444.039636	9.859827
444.472874	9.842112
444.906099	9.808436
445.339309	9.771326
445.772505	9.752374
446.205687	9.734215
446.638855	9.707340
447.072009	9.670401
447.505149	9.643425
447.938275	9.636408
448.371387	9.633213
448.804485	9.616481
449.237569	9.597150
449.670638	9.589026
450.103694	9.559725
450.536735	9.530028
450.969762	9.500743
451.402774	9.481049
451.835773	9.456983
452.268757	9.435307
452.701727	9.409327
453.134683	9.385352
453.567624	9.369115
454.000551	9.353377
454.433464	9.346047
454.866362	9.318753
455.299246	9.297298
455.732116	9.276300
456.164971	9.247463
456.597811	9.219972
457.030638	9.184195
457.463449	9.146115
457.896246	9.113139
458.329029	9.076114
458.761797	9.057262
459.194551	9.019539
459.627290	8.983594
460.060014	8.958196
460.492724	8.929649
460.925419	8.909280
461.358099	8.895465
461.790765	8.872179
462.223416	8.854743
462.656052	8.845945
463.088674	8.829220
463.521281	8.818861
463.953873	8.811104
464.386450	8.811456
464.819012	8.807292
465.251560	8.815935
465.684093	8.823592
466.116611	8.836706
466.549114	8.856238
466.981602	8.867839
467.414075	8.881243
467.846533	8.901112
468.278977	8.920165
468.711405	8.941713
469.143818	8.959933
469.576216	8.989713
470.008600	9.012881
470.440968	9.038481
470.873321	9.063716
471.305659	9.094841
471.737982	9.120974
472.170289	9.129152
472.602582	9.151935
473.034859	9.167872
473.467122	9.191895
473.899369	9.215612
474.331600	9.224150
474.763817	9.235553
475.196018	9.253775
475.628204	9.279299
476.060375	9.294966
476.492530	9.322408
476.924670	9.361615
477.356795	9.391781
477.788904	9.423171
478.220998	9.452641
478.653076	9.484194
479.085139	9.510322
479.517186	9.539416
479.949219	9.561777
480.381235	9.591069
480.813236	9.617117
481.245221	9.649421
481.677191	9.688704
482.109146	9.732248
482.541084	9.785306
482.973008	9.844961
483.404915	9.910576
483.836807	9.984148
484.268683	10.074591
484.700544	10.154240
485.132388	10.251398
485.564217	10.349141
485.996031	10.445789
486.427828	10.550030
486.859610	10.636815
487.291376	10.725081
487.723126	10.824991
488.154860	10.917078
488.586579	11.009061
489.018281	11.095828
489.449968	11.194088
489.881639	11.286428
490.313293	11.377215
490.744932	11.481890
491.176555	11.587937
491.608162	11.695196
492.039753	11.804473
492.471328	11.921398
492.902886	12.029621
493.334429	12.124871
493.765956	12.207737
494.197466	12.289379
494.628960	12.359466
495.060439	12.413351
495.491901	12.455937
495.923347	12.496363
496.354776	12.519621
496.786190	12.543294
497.217587	12.562174
497.648968	12.588652
498.080332	12.616142
498.511681	12.635306
498.943013	12.673987
499.374328	12.719003
499.805628	12.764921
500.236911	12.824445
500.668177	12.897742
501.099427	12.969107
501.530661	13.045030
501.961878	13.109909
502.393079	13.176980
502.824264	13.234852
503.255431	13.287165
503.686583	13.332954
504.117717	13.363760
504.548835	13.386020
504.979937	13.415607
505.411022	13.449565
505.842090	13.486805
506.273142	13.535914
506.704177	13.609331
507.135195	13.701098
507.566197	13.802664
507.997182	13.925311
508.428150	14.072055
508.859102	14.233630
509.290036	14.409302
509.720954	14.603507
510.151855	14.805404
510.582739	15.011648
511.013607	15.208214
511.444457	15.412981
511.875291	15.622217
512.306107	15.824860
512.736907	16.027436
513.167690	16.230349
513.598456	16.441219
514.029205	16.659126
514.459936	16.880842
514.890651	17.119046
515.321349	17.387208
515.752030	17.689508
516.182693	18.027976
516.613340	18.404819
517.043969	18.831152
517.474582	19.302596
517.905177	19.833175
518.335755	20.406572
518.766315	21.021279
519.196859	21.676285
519.627385	22.373608
520.057894	23.100095
520.488386	23.862236
520.918860	24.666124
521.349318	25.504128
521.779757	26.369615
522.210180	27.283432
522.640585	28.227631
523.070973	29.214079
523.501343	30.239111
523.931696	31.304720
524.362031	32.400579
524.792349	33.534403
525.222650	34.706474
525.652933	35.914524
526.083198	37.175175
526.513446	38.463930
526.943677	39.792760
527.373890	41.144108
527.804085	42.525475
528.234262	43.930599
528.664422	45.368053
529.094565	46.809268
529.524689	48.257495
529.954796	49.710708
530.384885	51.161191
530.814957	52.630857
531.245011	54.085695
531.675047	55.520599
532.105065	56.958446
532.535065	58.401055
532.965048	59.836757
533.395013	61.253260
533.824959	62.661289
534.254888	64.062591
534.684799	65.482553
535.114693	66.897753
535.544568	68.271042
535.974425	69.623764
536.404264	70.956419
536.834086	72.263163
537.263889	73.533031
537.693674	74.778741
538.123441	75.995940
538.553190	77.173848
538.982921	78.326672
539.412634	79.424895
539.842329	80.507729
540.272006	81.533517
540.701664	82.523537
541.131304	83.483480
541.560926	84.391527
541.990530	85.256700
542.420116	86.082855
542.849683	86.859090
543.279232	87.590756
543.708763	88.281526
544.138275	88.927297
544.567769	89.543554
544.997245	90.122644
545.426702	90.678512
545.856141	91.192347
546.285562	91.693416
546.714964	92.173871
547.144347	92.631314
547.573713	93.075046
548.003059	93.495801
548.432387	93.915968
548.861697	94.324386
549.290988	94.719132
549.720260	95.089615
550.149514	95.462401
550.578750	95.829721
551.007966	96.188501
551.437164	96.523690
551.866344	96.867008
552.295504	97.196496
552.724646	97.529274
553.153769	97.846196
553.582874	98.165395
554.011960	98.477485
554.441027	98.774624
554.870075	99.086431
555.299104	99.398546
555.728115	99.705766
556.157106	100.010541
556.586079	100.322101
557.015033	100.621071
557.443968	100.900823
557.872884	101.184277
558.301781	101.492684
558.730659	101.753717
559.159518	102.017911
559.588358	102.265028
560.017180	102.512427
560.445982	102.772162
560.874765	103.012756
561.303528	103.228140
561.732273	103.434817
562.160999	103.634047
562.589705	103.824534
563.018393	104.006451
563.447061	104.176179
563.875710	104.319918
564.304340	104.485092
564.732950	104.645123
565.161542	104.782851
565.590114	104.938483
566.018666	105.067893
566.447200	105.205370
566.875714	105.342363
567.304208	105.486265
567.732684	105.617725
568.161140	105.757491
568.589576	105.887790
569.017993	106.018717
569.446391	106.130434
569.874769	106.261216
570.303128	106.378204
570.731467	106.488851
571.159787	106.571609
571.588087	106.631421
572.016368	106.701931
572.444629	106.764016
572.872870	106.814384
573.301092	106.852745
573.729294	106.856154
574.157476	106.880977
574.585639	106.883947
575.013782	106.885114
575.441906	106.873795
575.870009	106.850106
576.298093	106.824728
576.726157	106.788477
577.154202	106.760158
577.582226	106.716221
578.010231	106.687661
578.438216	106.654925
578.866181	106.610057
579.294126	106.573675
579.722051	106.528153
580.149957	106.486578
580.577842	106.423736
581.005707	106.365660
581.433553	106.285365
581.861378	106.195589
582.289184	106.090477
582.716969	105.995846
583.144734	105.883900
583.572479	105.776159
584.000205	105.659982
584.427910	105.550930
584.855594	105.405592
585.283259	105.275470
585.710904	105.119456
586.138528	104.961438
586.566132	104.791139
586.993716	104.620963
587.421280	104.409924
587.848823	104.211159
588.276346	103.981484
588.703849	103.737981
589.131332	103.488971
589.558794	103.217859
589.986236	102.944673
590.413657	102.645905
590.841058	102.318091
591.268438	101.970009
591.695799	101.628461
592.123138	101.263357
592.550458	100.889424
592.977756	100.510224
593.405034	100.127430
593.832292	99.752562
594.259529	99.376191
594.686746	98.995695
595.113942	98.620916
595.541117	98.254448
595.968272	97.876739
596.395406	97.498401
596.822519	97.134151
597.249612	96.765757
597.676684	96.418223
598.103735	96.090008
598.530766	95.748919
598.957775	95.444424
599.384764	95.115297
599.811733	94.818504
600.238680	94.521125
600.665606	94.237693
601.092512	93.956681
601.519397	93.668094
601.946261	93.405684
602.373104	93.140569
602.799926	92.879395
603.226727	92.595421
603.653507	92.325639
604.080266	92.062701
604.507004	91.789422
604.933721	91.498780
605.360417	91.218658
605.787092	90.922590
606.213746	90.619594
606.640379	90.295789
607.066991	89.956356
607.493581	89.622223
607.920150	89.255711
608.346699	88.867342
608.773226	88.458119
609.199731	88.045499
609.626216	87.603664
610.052679	87.122783
610.479121	86.644796
610.905542	86.114074
611.331941	85.561444
611.758319	84.975398
612.184676	84.350464
612.611011	83.705196
613.037325	83.001351
613.463617	82.271461
613.889888	81.481086
614.316138	80.645101
614.742366	79.777602
615.168573	78.847291
615.594758	77.886087
616.020921	76.879514
616.447063	75.836922
616.873184	74.757742
617.299283	73.631034
617.725360	72.493561
618.151416	71.315368
618.577450	70.110913
619.003462	68.899349
619.429453	67.664357
619.855422	66.415127
620.281369	65.165356
620.707295	63.908643
621.133199	62.669570
621.559081	61.441240
621.984941	60.215579
622.410779	59.005852
622.836596	57.808282
623.262391	56.633878
623.688163	55.468031
624.113914	54.323796
624.539644	53.212072
624.965351	52.118178
625.391036	51.036029
625.816699	49.978597
626.242340	48.943091
626.667960	47.921782
627.093557	46.929280
627.519132	45.962810
627.944685	45.018089
628.370216	44.109808
628.795725	43.219906
629.221212	42.365720
629.646677	41.555392
630.072119	40.780802
630.497540	40.050530
630.922938	39.357382
631.348314	38.724870
631.773668	38.128675
632.198999	37.581533
632.624308	37.091214
633.049595	36.657334
633.474860	36.274251
633.900102	35.943750
634.325322	35.664039
634.750520	35.434159
635.175695	35.264365
635.600848	35.141742
636.025978	35.067101
636.451086	35.054981
636.876171	35.085754
637.301234	35.169565
637.726275	35.299508
638.151293	35.484972
638.576288	35.734745
639.001261	36.032634
639.426211	36.403861
639.851139	36.835502
640.276044	37.337509
640.700927	37.903559
641.125787	38.537535
641.550624	39.239960
641.975438	40.008138
642.400230	40.846059
642.824999	41.741622
643.249745	42.698249
643.674469	43.718056
644.099169	44.787888
644.523847	45.893840
644.948502	47.049148
645.373135	48.238137
645.797744	49.442662
646.222330	50.670182
646.646894	51.909202
647.071435	53.137904
647.495953	54.366950
647.920447	55.575934
648.344919	56.757280
648.769368	57.907151
649.193794	59.013672
649.618197	60.085435
650.042576	61.110765
650.466933	62.090762
650.891267	63.016469
651.315577	63.884433
651.739864	64.695408
652.164129	65.459002
652.588370	66.152660
653.012587	66.783724
653.436782	67.352761
653.860953	67.875480
654.285102	68.337251
654.709226	68.729303
655.133328	69.059236
655.557406	69.329695
655.981461	69.535349
656.405493	69.684127
656.829501	69.754096
657.253486	69.750764
657.677448	69.697839
658.101386	69.587903
658.525301	69.419941
658.949192	69.202344
659.373060	68.945435
659.796904	68.641762
660.220725	68.302804
660.644522	67.929978
661.068296	67.526498
661.492046	67.098141
661.915772	66.658473
662.339475	66.210542
662.763154	65.734953
663.186810	65.253612
663.610442	64.767050
664.034050	64.277728
664.457635	63.779591
664.881196	63.273179
665.304733	62.759019
665.728247	62.244185
666.151736	61.725467
666.575202	61.201544
666.998644	60.659713
667.422062	60.118958
667.845457	59.578751
668.268827	59.034629
668.692174	58.485238
669.115496	57.932253
669.538795	57.376482
669.962070	56.835982
670.385321	56.294851
670.808547	55.750108
671.231750	55.212544
671.654929	54.678385
672.078084	54.156329
672.501214	53.625416
672.924321	53.099278
673.347404	52.583860
673.770462	52.067440
674.193496	51.570288
674.616506	51.080052
675.039492	50.580061
675.462454	50.094767
675.885391	49.617942
676.308305	49.159789
676.731194	48.705377
677.154058	48.264910
677.576899	47.837337
677.999715	47.422292
678.422507	47.020670
678.845274	46.637001
679.268017	46.276550
679.690736	45.929309
680.113430	45.609024
680.536100	45.306576
680.958746	45.038899
681.381367	44.783683
681.803963	44.557082
682.226535	44.364483
682.649083	44.193082
683.071605	44.040632
683.494104	43.904203
683.916578	43.803609
684.339027	43.726073
684.761451	43.672242
685.183851	43.645584
685.606227	43.635234
686.028577	43.654048
686.450903	43.694555
686.873204	43.761235
687.295481	43.832046
687.717733	43.925906
688.139959	44.062091
688.562162	44.212327
688.984339	44.387797
689.406492	44.579858
689.828619	44.802653
690.250722	45.038236
690.672800	45.294120
691.094853	45.569030
691.516881	45.866571
691.938884	46.174559
692.360863	46.494831
692.782816	46.831039
693.204744	47.171419
693.626647	47.521011
694.048526	47.858930
694.470379	48.205842
694.892207	48.548836
695.314010	48.885132
695.735788	49.220087
696.157540	49.545484
696.579268	49.876764
697.000970	50.189154
697.422648	50.492748
697.844300	50.783635
698.265926	51.057767
698.687528	51.327822
699.109104	51.576730
699.530655	51.807789
699.952181	52.038505
700.373681	52.262321
700.795156	52.474135
701.216606	52.661671
701.638030	52.849836
702.059429	53.027313
702.480803	53.194837
702.902151	53.341459
703.323473	53.476750
703.744770	53.614196
704.166042	53.746351
704.587288	53.864996
705.008509	53.972015
705.429704	54.071004
705.850873	54.158588
706.272017	54.240299
706.693135	54.316106
707.114228	54.387455
707.535295	54.458073
707.956336	54.521451
708.377352	54.577669
708.798342	54.616019
709.219306	54.657925
709.640245	54.694346
710.061157	54.730221
710.482044	54.765750
710.902905	54.804079
711.323741	54.839185
711.744550	54.870283
712.165334	54.895324
712.586092	54.926817
713.006823	54.939069
713.427529	54.951475
713.848209	54.955361
714.268863	54.957204
714.689492	54.939822
715.110094	54.901403
715.530670	54.850139
715.951220	54.783607
716.371744	54.700996
716.792242	54.592501
717.212714	54.454457
717.633159	54.302983
718.053579	54.137243
718.473973	53.949605
718.894340	53.743382
719.314681	53.520406
719.734996	53.270192
720.155285	53.010827
720.575547	52.737393
720.995784	52.447153
721.415994	52.148592
721.836177	51.839847
722.256335	51.517613
722.676466	51.175686
723.096570	50.823319
723.516649	50.459401
723.936701	50.091707
724.356726	49.718574
724.776725	49.344275
725.196698	48.978511
725.616644	48.615490
726.036564	48.265430
726.456457	47.925670
726.876324	47.610873
727.296164	47.306528
727.715977	47.028853
728.135764	46.782255
728.555525	46.563775
728.975258	46.373327
729.394966	46.220429
729.814646	46.103883
730.234300	46.016712
730.653927	45.962046
731.073527	45.934419
731.493101	45.938167
731.912648	45.966546
732.332168	46.022426
732.751661	46.122836
733.171128	46.239313
733.590568	46.375729
734.009980	46.537127
734.429366	46.718348
734.848726	46.928619
735.268058	47.145579
735.687363	47.402101
736.106641	47.676320
736.525893	47.973371
736.945117	48.284907
737.364314	48.609808
737.783485	48.953351
738.202628	49.298519
738.621744	49.652785
739.040834	50.020235
739.459896	50.390333
739.878931	50.764073
740.297939	51.127565
740.716919	51.486831
741.135873	51.836389
741.554799	52.186705
741.973698	52.528154
742.392570	52.852589
742.811415	53.161673
743.230232	53.451754
743.649022	53.728608
744.067785	53.996782
744.486521	54.242250
744.905229	54.478317
745.323909	54.702483
745.742563	54.914763
746.161189	55.121310
746.579787	55.322978
746.998358	55.514241
747.416902	55.690432
747.835418	55.863931
748.253907	56.042352
748.672368	56.203867
749.090802	56.364346
749.509208	56.513253
749.927586	56.660255
750.345937	56.806093
750.764261	56.940421
751.182556	57.092855
751.600824	57.244654
752.019065	57.377443
752.437277	57.512397
752.855462	57.650769
753.273620	57.793034
753.691749	57.929545
754.109851	58.068756
