Time1=100ms:Average1=5:Objective=10X:Aperture=1: (11/21/2018 2:23:13 PM)
11/21/2018 2:23:13 PM
Reflectance
10X
Ap#: 1
Avg1: 5.000000
Avg2: 0.000000
Int.Time1:100.000000

350.166136	74.486285
350.601937	74.225515
351.037728	74.090775
351.473509	73.931373
351.909281	73.728647
352.345042	73.792831
352.780794	74.079558
353.216536	74.329805
353.652267	75.044563
354.087989	74.626275
354.523701	74.693797
354.959403	74.326325
355.395095	74.641338
355.830777	74.287411
356.266449	73.483501
356.702110	73.085253
357.137762	73.158772
357.573404	73.251029
358.009035	72.920337
358.444656	72.928719
358.880268	72.542704
359.315869	72.943934
359.751459	72.712163
360.187040	73.108834
360.622610	73.503435
361.058170	73.464567
361.493720	73.240686
361.929260	73.294673
362.364789	73.518372
362.800308	73.171697
363.235816	73.299152
363.671314	73.310379
364.106802	74.040921
364.542279	73.805066
364.977746	73.997833
365.413203	74.244975
365.848649	74.100079
366.284084	73.667525
366.719509	73.857242
367.154924	73.516342
367.590328	73.682655
368.025721	73.043564
368.461104	73.325430
368.896477	73.409203
369.331838	73.191405
369.767189	74.246765
370.202530	74.724948
370.637859	74.611554
371.073178	74.613928
371.508486	75.092086
371.943784	74.920540
372.379071	74.791418
372.814347	74.364050
373.249612	74.386382
373.684866	74.378035
374.120110	74.222222
374.555343	74.769870
374.990565	74.950456
375.425776	74.839029
375.860976	74.706057
376.296165	74.849531
376.731343	74.747974
377.166511	74.967768
377.601667	75.012321
378.036812	75.009850
378.471946	75.610958
378.907070	75.306222
379.342182	75.671977
379.777283	75.840110
380.212373	75.247622
380.647452	75.222886
381.082520	74.902076
381.517576	75.273758
381.952622	75.079749
382.387656	74.582774
382.822679	74.880245
383.257691	74.327162
383.692692	74.080777
384.127681	74.712644
384.562659	74.286797
384.997626	73.868682
385.432581	73.826202
385.867525	73.745247
386.302458	73.755098
386.737379	73.989154
387.172289	73.661223
387.607188	73.501517
388.042075	73.038058
388.476951	72.908216
388.911815	72.686230
389.346668	72.233155
389.781509	72.382739
390.216338	72.558749
390.651157	72.874380
391.085963	72.274260
391.520758	72.739200
391.955541	72.193759
392.390313	72.308266
392.825073	71.991431
393.259821	71.626009
393.694558	71.961838
394.129283	71.979648
394.563996	72.108088
394.998698	72.075996
395.433388	71.982074
395.868066	72.089538
396.302732	71.697937
396.737386	71.090841
397.172029	70.624303
397.606659	69.578870
398.041278	69.572006
398.475885	69.216724
398.910480	68.762687
399.345063	68.539376
399.779634	67.915403
400.214194	66.583402
400.648741	65.646673
401.083276	64.341754
401.517799	62.593407
401.952310	61.105730
402.386809	59.558520
402.821296	57.998486
403.255771	55.897454
403.690234	53.534593
404.124684	50.979418
404.559123	48.503117
404.993549	45.998079
405.427963	43.340429
405.862365	41.176330
406.296754	38.830581
406.731131	36.744080
407.165496	34.751404
407.599849	32.933670
408.034190	31.092116
408.468518	29.594405
408.902833	28.116468
409.337137	26.659945
409.771428	25.355441
410.205706	24.067831
410.639973	23.076515
411.074226	22.064775
411.508467	21.182791
411.942696	20.348124
412.376912	19.598902
412.811116	18.989911
413.245307	18.380966
413.679486	17.844305
414.113652	17.305119
414.547805	16.793075
414.981946	16.345379
415.416074	15.888493
415.850190	15.514620
416.284293	15.146364
416.718383	14.861553
417.152460	14.549507
417.586525	14.339366
418.020577	14.166093
418.454616	13.892049
418.888643	13.717582
419.322656	13.484266
419.756657	13.323830
420.190645	13.138805
420.624620	12.938390
421.058582	12.757245
421.492531	12.621810
421.926468	12.463597
422.360391	12.340744
422.794301	12.248327
423.228199	12.187332
423.662083	12.151550
424.095955	12.094037
424.529813	12.052873
424.963658	11.998723
425.397491	11.933929
425.831310	11.865134
426.265116	11.749802
426.698909	11.659481
427.132689	11.587702
427.566455	11.526756
428.000209	11.517732
428.433949	11.489703
428.867676	11.468087
429.301389	11.438455
429.735090	11.420032
430.168777	11.357173
430.602451	11.302357
431.036111	11.210118
431.469759	11.120744
431.903392	11.061461
432.337013	10.961491
432.770620	10.884292
433.204213	10.817829
433.637794	10.776733
434.071360	10.723988
434.504914	10.687522
434.938453	10.661111
435.371979	10.636669
435.805492	10.630638
436.238991	10.606109
436.672477	10.567122
437.105949	10.526060
437.539407	10.465416
437.972852	10.421276
438.406283	10.372436
438.839700	10.344200
439.273104	10.304364
439.706494	10.286896
440.139871	10.273778
440.573233	10.263725
441.006582	10.244788
441.439917	10.192832
441.873238	10.158250
442.306546	10.100284
442.739839	10.024104
443.173119	9.931503
443.606385	9.867532
444.039636	9.804173
444.472874	9.751305
444.906099	9.694474
445.339309	9.668917
445.772505	9.653901
446.205687	9.643823
446.638855	9.637250
447.072009	9.629402
447.505149	9.644464
447.938275	9.648288
448.371387	9.641563
448.804485	9.623463
449.237569	9.586315
449.670638	9.572531
450.103694	9.545595
450.536735	9.513870
450.969762	9.486678
451.402774	9.446715
451.835773	9.421017
452.268757	9.407455
452.701727	9.391838
453.134683	9.398572
453.567624	9.394112
454.000551	9.382386
454.433464	9.365072
454.866362	9.352691
455.299246	9.335173
455.732116	9.317913
456.164971	9.305110
456.597811	9.307737
457.030638	9.298974
457.463449	9.308057
457.896246	9.311929
458.329029	9.316218
458.761797	9.305983
459.194551	9.318017
459.627290	9.320233
460.060014	9.326680
460.492724	9.335375
460.925419	9.338376
461.358099	9.351251
461.790765	9.355930
462.223416	9.360812
462.656052	9.365509
463.088674	9.367800
463.521281	9.354550
463.953873	9.359760
464.386450	9.353130
464.819012	9.358114
465.251560	9.365805
465.684093	9.369642
466.116611	9.390040
466.549114	9.396328
466.981602	9.419598
467.414075	9.435252
467.846533	9.449041
468.278977	9.458026
468.711405	9.473846
469.143818	9.491959
469.576216	9.508975
470.008600	9.517727
470.440968	9.518580
470.873321	9.513552
471.305659	9.491034
471.737982	9.482178
472.170289	9.482493
472.602582	9.471906
473.034859	9.464640
473.467122	9.446780
473.899369	9.446176
474.331600	9.454413
474.763817	9.462018
475.196018	9.483848
475.628204	9.511944
476.060375	9.536977
476.492530	9.563104
476.924670	9.601274
477.356795	9.636634
477.788904	9.679348
478.220998	9.713044
478.653076	9.743506
479.085139	9.770064
479.517186	9.797678
479.949219	9.828331
480.381235	9.876642
480.813236	9.926862
481.245221	10.008465
481.677191	10.099408
482.109146	10.187141
482.541084	10.288716
482.973008	10.384873
483.404915	10.485227
483.836807	10.582920
484.268683	10.678370
484.700544	10.780585
485.132388	10.879501
485.564217	10.966169
485.996031	11.053144
486.427828	11.134934
486.859610	11.227728
487.291376	11.317372
487.723126	11.414791
488.154860	11.520888
488.586579	11.629735
489.018281	11.763302
489.449968	11.913092
489.881639	12.081739
490.313293	12.258435
490.744932	12.448064
491.176555	12.650328
491.608162	12.859028
492.039753	13.064445
492.471328	13.266142
492.902886	13.452400
493.334429	13.636436
493.765956	13.788626
494.197466	13.950092
494.628960	14.090036
495.060439	14.248596
495.491901	14.431966
495.923347	14.618754
496.354776	14.824302
496.786190	15.044850
497.217587	15.288884
497.648968	15.536422
498.080332	15.793209
498.511681	16.043769
498.943013	16.300590
499.374328	16.537965
499.805628	16.776497
500.236911	16.986796
500.668177	17.181997
501.099427	17.363752
501.530661	17.524517
501.961878	17.673835
502.393079	17.809173
502.824264	17.940439
503.255431	18.069773
503.686583	18.197972
504.117717	18.339561
504.548835	18.492894
504.979937	18.662673
505.411022	18.850299
505.842090	19.069530
506.273142	19.317505
506.704177	19.567059
507.135195	19.839758
507.566197	20.110876
507.997182	20.378745
508.428150	20.613856
508.859102	20.827447
509.290036	21.020262
509.720954	21.191466
510.151855	21.348627
510.582739	21.481477
511.013607	21.621083
511.444457	21.765997
511.875291	21.928755
512.306107	22.107378
512.736907	22.325897
513.167690	22.571598
513.598456	22.846806
514.029205	23.143960
514.459936	23.451500
514.890651	23.764953
515.321349	24.072640
515.752030	24.366368
516.182693	24.639342
516.613340	24.882217
517.043969	25.108419
517.474582	25.302253
517.905177	25.475163
518.335755	25.621441
518.766315	25.749670
519.196859	25.857984
519.627385	25.942796
520.057894	26.028689
520.488386	26.118306
520.918860	26.222544
521.349318	26.344635
521.779757	26.509940
522.210180	26.702350
522.640585	26.937095
523.070973	27.206336
523.501343	27.509845
523.931696	27.859305
524.362031	28.222318
524.792349	28.587358
525.222650	28.947959
525.652933	29.301345
526.083198	29.614029
526.513446	29.887669
526.943677	30.126355
527.373890	30.336571
527.804085	30.536893
528.234262	30.713547
528.664422	30.902428
529.094565	31.109251
529.524689	31.350126
529.954796	31.635571
530.384885	31.957497
530.814957	32.327107
531.245011	32.725165
531.675047	33.167812
532.105065	33.629317
532.535065	34.102588
532.965048	34.581693
533.395013	35.042804
533.824959	35.470515
534.254888	35.855894
534.684799	36.186727
535.114693	36.468344
535.544568	36.703715
535.974425	36.888153
536.404264	37.031479
536.834086	37.124901
537.263889	37.187347
537.693674	37.225710
538.123441	37.271304
538.553190	37.311970
538.982921	37.369005
539.412634	37.465975
539.842329	37.587954
540.272006	37.754544
540.701664	37.959076
541.131304	38.182891
541.560926	38.447206
541.990530	38.730248
542.420116	39.020959
542.849683	39.300423
543.279232	39.558588
543.708763	39.792328
544.138275	39.996147
544.567769	40.166363
544.997245	40.297010
545.426702	40.399174
545.856141	40.478582
546.285562	40.532975
546.714964	40.591404
547.144347	40.660823
547.573713	40.748542
548.003059	40.872417
548.432387	41.035638
548.861697	41.234439
549.290988	41.471972
549.720260	41.742405
550.149514	42.046617
550.578750	42.370123
551.007966	42.723155
551.437164	43.070514
551.866344	43.434010
552.295504	43.779056
552.724646	44.095539
553.153769	44.392064
553.582874	44.654417
554.011960	44.868408
554.441027	45.045716
554.870075	45.190998
555.299104	45.297322
555.728115	45.362433
556.157106	45.403480
556.586079	45.418314
557.015033	45.425923
557.443968	45.410406
557.872884	45.402377
558.301781	45.394357
558.730659	45.370985
559.159518	45.369253
559.588358	45.394703
560.017180	45.432076
560.445982	45.476429
560.874765	45.548592
561.303528	45.644510
561.732273	45.750810
562.160999	45.867246
562.589705	45.999962
563.018393	46.156236
563.447061	46.330443
563.875710	46.523043
564.304340	46.727453
564.732950	46.948740
565.161542	47.165207
565.590114	47.397014
566.018666	47.621351
566.447200	47.852168
566.875714	48.081846
567.304208	48.318757
567.732684	48.539630
568.161140	48.751698
568.589576	48.961901
569.017993	49.187412
569.446391	49.400426
569.874769	49.642597
570.303128	49.894224
570.731467	50.177612
571.159787	50.479520
571.588087	50.807149
572.016368	51.197389
572.444629	51.604969
572.872870	52.027663
573.301092	52.470615
573.729294	52.908447
574.157476	53.338140
574.585639	53.746823
575.013782	54.124695
575.441906	54.469128
575.870009	54.759552
576.298093	55.003426
576.726157	55.186937
577.154202	55.310798
577.582226	55.381521
578.010231	55.416890
578.438216	55.432172
578.866181	55.411768
579.294126	55.386951
579.722051	55.356098
580.149957	55.334582
580.577842	55.327179
581.005707	55.332566
581.433553	55.368392
581.861378	55.423323
582.289184	55.501924
582.716969	55.610685
583.144734	55.744317
583.572479	55.908798
584.000205	56.087007
584.427910	56.287613
584.855594	56.514524
585.283259	56.740112
585.710904	56.983326
586.138528	57.251386
586.566132	57.512998
586.993716	57.810991
587.421280	58.105885
587.848823	58.415050
588.276346	58.720117
588.703849	59.004872
589.131332	59.281212
589.558794	59.540956
589.986236	59.779271
590.413657	60.003513
590.841058	60.207291
591.268438	60.396782
591.695799	60.572755
592.123138	60.765892
592.550458	60.974018
592.977756	61.204937
593.405034	61.463265
593.832292	61.743670
594.259529	62.061356
594.686746	62.415796
595.113942	62.809303
595.541117	63.209755
595.968272	63.648440
596.395406	64.072013
596.822519	64.490213
597.249612	64.896577
597.676684	65.269833
598.103735	65.598145
598.530766	65.885302
598.957775	66.113185
599.384764	66.281110
599.811733	66.409014
600.238680	66.477483
600.665606	66.509072
601.092512	66.505561
601.519397	66.489621
601.946261	66.468956
602.373104	66.453371
602.799926	66.458170
603.226727	66.480109
603.653507	66.529694
604.080266	66.611303
604.507004	66.719052
604.933721	66.849814
605.360417	66.983712
605.787092	67.118127
606.213746	67.258272
606.640379	67.378492
607.066991	67.495423
607.493581	67.619108
607.920150	67.722520
608.346699	67.807322
608.773226	67.908450
609.199731	67.980245
609.626216	68.055199
610.052679	68.130860
610.479121	68.206810
610.905542	68.282973
611.331941	68.362863
611.758319	68.440544
612.184676	68.528995
612.611011	68.608569
613.037325	68.676759
613.463617	68.743663
613.889888	68.784839
614.316138	68.807612
614.742366	68.814985
615.168573	68.812018
615.594758	68.788651
616.020921	68.745500
616.447063	68.715695
616.873184	68.674997
617.299283	68.641849
617.725360	68.629059
618.151416	68.634242
618.577450	68.645620
619.003462	68.709734
619.429453	68.793332
619.855422	68.912861
620.281369	69.064771
620.707295	69.230892
621.133199	69.398718
621.559081	69.576098
621.984941	69.750229
622.410779	69.927637
622.836596	70.090869
623.262391	70.220904
623.688163	70.324614
624.113914	70.409552
624.539644	70.456491
624.965351	70.491255
625.391036	70.511481
625.816699	70.516334
626.242340	70.514181
626.667960	70.494212
627.093557	70.499513
627.519132	70.502610
627.944685	70.507619
628.370216	70.528329
628.795725	70.573737
629.221212	70.596955
629.646677	70.615777
630.072119	70.651100
630.497540	70.654344
630.922938	70.622780
631.348314	70.564633
631.773668	70.492955
632.198999	70.369804
632.624308	70.206571
633.049595	70.002828
633.474860	69.764529
633.900102	69.510095
634.325322	69.244517
634.750520	68.972496
635.175695	68.695891
635.600848	68.437210
636.025978	68.208801
636.451086	68.027212
636.876171	67.882960
637.301234	67.780456
637.726275	67.733657
638.151293	67.734597
638.576288	67.759483
639.001261	67.824735
639.426211	67.936660
639.851139	68.083561
640.276044	68.242109
640.700927	68.424576
641.125787	68.627763
641.550624	68.822699
641.975438	69.022753
642.400230	69.228683
642.824999	69.432704
643.249745	69.610956
643.674469	69.808224
644.099169	70.012912
644.523847	70.231722
644.948502	70.454939
645.373135	70.703040
645.797744	70.965986
646.222330	71.276850
646.646894	71.593020
647.071435	71.935542
647.495953	72.294924
647.920447	72.676244
648.344919	73.066315
648.769368	73.454235
649.193794	73.843246
649.618197	74.191017
650.042576	74.522668
650.466933	74.834695
650.891267	75.116124
651.315577	75.348299
651.739864	75.537892
652.164129	75.682305
652.588370	75.763865
653.012587	75.796877
653.436782	75.783784
653.860953	75.729826
654.285102	75.618627
654.709226	75.476221
655.133328	75.284010
655.557406	75.059323
655.981461	74.803372
656.405493	74.523532
656.829501	74.209797
657.253486	73.879896
657.677448	73.516654
658.101386	73.137216
658.525301	72.714196
658.949192	72.280133
659.373060	71.809540
659.796904	71.316197
660.220725	70.789084
660.644522	70.241268
661.068296	69.670979
661.492046	69.078411
661.915772	68.495437
662.339475	67.907559
662.763154	67.348686
663.186810	66.817239
663.610442	66.318650
664.034050	65.860784
664.457635	65.465944
664.881196	65.153536
665.304733	64.931079
665.728247	64.788916
666.151736	64.738594
666.575202	64.777271
666.998644	64.904799
667.422062	65.112375
667.845457	65.403289
668.268827	65.757886
668.692174	66.188117
669.115496	66.666587
669.538795	67.187249
669.962070	67.744595
670.385321	68.313938
670.808547	68.877385
671.231750	69.431844
671.654929	69.972378
672.078084	70.493438
672.501214	70.961552
672.924321	71.419545
673.347404	71.848764
673.770462	72.252723
674.193496	72.615441
674.616506	72.953505
675.039492	73.247332
675.462454	73.507455
675.885391	73.738839
676.308305	73.933854
676.731194	74.103804
677.154058	74.253401
677.576899	74.384704
677.999715	74.490092
678.422507	74.542469
678.845274	74.579581
679.268017	74.599034
679.690736	74.601661
680.113430	74.570620
680.536100	74.533729
680.958746	74.469732
681.381367	74.405780
681.803963	74.314278
682.226535	74.218869
682.649083	74.109081
683.071605	73.998901
683.494104	73.878660
683.916578	73.773824
684.339027	73.681201
684.761451	73.607699
685.183851	73.533675
685.606227	73.489273
686.028577	73.434733
686.450903	73.396697
686.873204	73.356866
687.295481	73.327327
687.717733	73.302467
688.139959	73.271238
688.562162	73.248830
688.984339	73.216433
689.406492	73.185150
689.828619	73.140699
690.250722	73.077520
690.672800	72.994032
691.094853	72.894372
691.516881	72.797173
691.938884	72.683285
692.360863	72.548621
692.782816	72.408300
693.204744	72.278935
693.626647	72.149158
694.048526	72.042736
694.470379	71.950669
694.892207	71.893716
695.314010	71.868820
695.735788	71.900068
696.157540	71.962973
696.579268	72.083117
697.000970	72.249334
697.422648	72.475573
697.844300	72.750318
698.265926	73.072222
698.687528	73.449405
699.109104	73.863278
699.530655	74.301903
699.952181	74.777772
700.373681	75.276619
700.795156	75.795753
701.216606	76.319165
701.638030	76.839068
702.059429	77.356223
702.480803	77.846027
702.902151	78.306189
703.323473	78.733533
703.744770	79.109161
704.166042	79.430518
704.587288	79.710905
705.008509	79.945129
705.429704	80.136884
705.850873	80.279698
706.272017	80.356705
706.693135	80.398444
707.114228	80.384616
707.535295	80.332843
707.956336	80.249414
708.377352	80.131053
708.798342	79.982120
709.219306	79.799864
709.640245	79.618304
710.061157	79.426298
710.482044	79.215444
710.902905	79.011766
711.323741	78.820745
711.744550	78.632982
712.165334	78.483337
712.586092	78.352892
713.006823	78.249451
713.427529	78.183475
713.848209	78.143426
714.268863	78.146943
714.689492	78.187719
715.110094	78.258939
715.530670	78.374710
715.951220	78.532677
716.371744	78.731771
716.792242	78.973134
717.212714	79.271231
717.633159	79.587680
718.053579	79.941069
718.473973	80.301410
718.894340	80.681118
719.314681	81.081171
719.734996	81.475046
720.155285	81.868897
720.575547	82.230008
720.995784	82.566980
721.415994	82.867975
721.836177	83.125149
722.256335	83.358447
722.676466	83.519680
723.096570	83.624974
723.516649	83.669486
723.936701	83.645788
724.356726	83.544924
724.776725	83.370949
725.196698	83.121183
725.616644	82.815967
726.036564	82.440956
726.456457	82.007486
726.876324	81.534020
727.296164	81.017068
727.715977	80.479713
728.135764	79.931384
728.555525	79.375323
728.975258	78.823564
729.394966	78.281401
729.814646	77.764787
730.234300	77.263711
730.653927	76.811220
731.073527	76.378197
731.493101	76.007722
731.912648	75.684680
732.332168	75.426005
732.751661	75.224143
733.171128	75.090215
733.590568	75.030678
734.009980	75.039434
734.429366	75.123256
734.848726	75.264070
735.268058	75.460368
735.687363	75.719261
736.106641	76.028512
736.525893	76.370428
736.945117	76.754066
737.364314	77.192422
737.783485	77.656185
738.202628	78.153057
738.621744	78.652692
739.040834	79.174986
739.459896	79.693055
739.878931	80.197863
740.297939	80.687827
740.716919	81.137952
741.135873	81.565206
741.554799	81.959282
741.973698	82.303011
742.392570	82.602228
742.811415	82.858012
743.230232	83.052374
743.649022	83.202654
744.067785	83.311815
744.486521	83.369450
744.905229	83.377524
745.323909	83.348802
745.742563	83.278373
746.161189	83.182844
746.579787	83.070892
746.998358	82.926041
747.416902	82.767305
747.835418	82.601266
748.253907	82.440883
748.672368	82.265295
749.090802	82.102684
749.509208	81.967440
749.927586	81.839905
750.345937	81.717094
750.764261	81.628281
751.182556	81.562302
751.600824	81.528712
752.019065	81.526328
752.437277	81.576079
752.855462	81.661234
753.273620	81.785294
753.691749	81.953575
754.109851	82.142094
754.527925	82.358612
754.945971	82.613750
755.363989	82.887157
755.781980	83.183569
