Time1=100ms:Average1=5:Objective=10X:Aperture=1: (11/28/2018 11:11:26 AM)
11/28/2018 11:11:26 AM
Reflectance
10X
Ap#: 1
Avg1: 5.000000
Avg2: 0.000000
Int.Time1:100.000000

350.166136	37.428337
350.601937	37.683715
351.037728	37.888306
351.473509	37.595338
351.909281	37.946506
352.345042	38.125982
352.780794	38.248124
353.216536	38.408971
353.652267	38.460192
354.087989	38.598491
354.523701	38.724414
354.959403	38.495303
355.395095	38.585663
355.830777	38.581635
356.266449	38.679746
356.702110	39.026112
357.137762	39.511634
357.573404	39.365108
358.009035	39.430098
358.444656	39.301973
358.880268	39.546307
359.315869	39.565720
359.751459	39.548577
360.187040	39.709032
360.622610	39.891052
361.058170	40.132462
361.493720	40.016031
361.929260	40.225060
362.364789	40.494908
362.800308	40.373832
363.235816	40.466892
363.671314	40.396233
364.106802	40.371292
364.542279	40.427988
364.977746	40.577008
365.413203	40.405741
365.848649	40.444563
366.284084	40.201806
366.719509	39.909679
367.154924	39.840142
367.590328	39.923617
368.025721	40.145339
368.461104	40.283940
368.896477	40.001765
369.331838	39.846844
369.767189	40.250745
370.202530	40.112153
370.637859	40.063258
371.073178	39.856216
371.508486	39.759141
371.943784	39.845312
372.379071	39.652476
372.814347	39.453533
373.249612	39.514022
373.684866	39.519080
374.120110	39.236323
374.555343	39.001044
374.990565	38.961720
375.425776	38.979199
375.860976	38.868056
376.296165	39.009450
376.731343	38.926351
377.166511	38.790690
377.601667	38.903005
378.036812	39.046291
378.471946	38.755440
378.907070	38.738660
379.342182	38.635376
379.777283	38.939130
380.212373	39.028403
380.647452	38.931100
381.082520	39.128567
381.517576	38.632258
381.952622	38.700784
382.387656	38.769337
382.822679	38.720277
383.257691	38.392934
383.692692	38.397503
384.127681	38.248768
384.562659	38.570564
384.997626	38.486104
385.432581	38.488121
385.867525	38.511243
386.302458	38.711625
386.737379	38.650623
387.172289	38.821312
387.607188	39.076026
388.042075	39.017911
388.476951	39.133778
388.911815	39.090601
389.346668	38.952897
389.781509	38.833967
390.216338	38.801555
390.651157	38.899671
391.085963	38.669806
391.520758	38.776542
391.955541	38.817891
392.390313	38.559678
392.825073	38.557862
393.259821	38.313919
393.694558	38.152274
394.129283	38.020877
394.563996	37.785369
394.998698	38.016255
395.433388	37.862715
395.868066	37.651855
396.302732	37.855472
396.737386	37.948236
397.172029	37.953500
397.606659	37.894779
398.041278	37.592570
398.475885	37.532287
398.910480	37.341673
399.345063	37.176590
399.779634	36.689459
400.214194	36.368092
400.648741	35.534289
401.083276	34.869038
401.517799	34.215679
401.952310	33.097734
402.386809	31.900261
402.821296	31.007437
403.255771	29.995819
403.690234	28.832179
404.124684	27.685597
404.559123	26.688322
404.993549	25.319049
405.427963	24.172215
405.862365	23.202185
406.296754	22.223286
406.731131	21.186380
407.165496	20.295637
407.599849	19.460516
408.034190	18.508406
408.468518	17.713355
408.902833	17.008250
409.337137	16.403282
409.771428	15.769667
410.205706	15.160448
410.639973	14.611377
411.074226	14.139353
411.508467	13.742124
411.942696	13.422748
412.376912	13.173194
412.811116	12.959601
413.245307	12.802127
413.679486	12.603407
414.113652	12.492223
414.547805	12.389266
414.981946	12.301863
415.416074	12.237793
415.850190	12.182204
416.284293	12.141660
416.718383	12.132525
417.152460	12.170359
417.586525	12.204000
418.020577	12.218003
418.454616	12.264199
418.888643	12.295772
419.322656	12.343120
419.756657	12.360874
420.190645	12.361848
420.624620	12.377802
421.058582	12.422932
421.492531	12.462703
421.926468	12.517511
422.360391	12.593506
422.794301	12.720581
423.228199	12.845901
423.662083	13.014312
424.095955	13.178345
424.529813	13.361012
424.963658	13.577804
425.397491	13.735513
425.831310	13.873738
426.265116	13.996799
426.698909	14.139584
427.132689	14.317432
427.566455	14.503296
428.000209	14.679742
428.433949	14.867703
428.867676	15.079898
429.301389	15.275090
429.735090	15.489176
430.168777	15.649049
430.602451	15.792881
431.036111	15.895444
431.469759	16.023652
431.903392	16.123309
432.337013	16.226009
432.770620	16.354031
433.204213	16.506554
433.637794	16.705584
434.071360	16.915540
434.504914	17.112977
434.938453	17.361478
435.371979	17.605820
435.805492	17.847034
436.238991	18.046937
436.672477	18.258080
437.105949	18.442220
437.539407	18.615711
437.972852	18.775796
438.406283	18.913409
438.839700	19.094744
439.273104	19.287200
439.706494	19.502243
440.139871	19.705687
440.573233	19.898354
441.006582	20.093710
441.439917	20.272810
441.873238	20.431906
442.306546	20.549189
442.739839	20.656633
443.173119	20.713167
443.606385	20.795197
444.039636	20.877425
444.472874	20.981228
444.906099	21.093119
445.339309	21.239425
445.772505	21.406333
446.205687	21.561540
446.638855	21.733549
447.072009	21.903011
447.505149	22.071363
447.938275	22.244907
448.371387	22.392883
448.804485	22.527518
449.237569	22.661122
449.670638	22.800537
450.103694	22.906278
450.536735	23.006798
450.969762	23.112321
451.402774	23.237472
451.835773	23.383629
452.268757	23.518163
452.701727	23.654655
453.134683	23.795174
453.567624	23.935894
454.000551	24.055265
454.433464	24.142537
454.866362	24.212261
455.299246	24.279093
455.732116	24.343247
456.164971	24.396588
456.597811	24.474264
457.030638	24.550018
457.463449	24.640274
457.896246	24.730549
458.329029	24.812912
458.761797	24.881362
459.194551	24.956158
459.627290	25.045416
460.060014	25.113508
460.492724	25.199289
460.925419	25.294241
461.358099	25.381017
461.790765	25.470148
462.223416	25.554632
462.656052	25.632046
463.088674	25.692545
463.521281	25.749777
463.953873	25.812695
464.386450	25.878532
464.819012	25.946557
465.251560	26.002433
465.684093	26.074438
466.116611	26.147603
466.549114	26.191540
466.981602	26.233843
467.414075	26.289700
467.846533	26.358332
468.278977	26.406870
468.711405	26.445467
469.143818	26.469798
469.576216	26.496978
470.008600	26.515994
470.440968	26.520181
470.873321	26.498859
471.305659	26.492027
471.737982	26.474692
472.170289	26.460810
472.602582	26.430517
473.034859	26.384014
473.467122	26.352325
473.899369	26.300947
474.331600	26.246425
474.763817	26.186979
475.196018	26.135475
475.628204	26.105807
476.060375	26.074112
476.492530	26.052712
476.924670	26.031314
477.356795	26.000840
477.788904	25.952815
478.220998	25.886279
478.653076	25.817093
479.085139	25.714719
479.517186	25.616824
479.949219	25.540066
480.381235	25.465290
480.813236	25.384282
481.245221	25.312781
481.677191	25.258058
482.109146	25.197953
482.541084	25.131632
482.973008	25.055705
483.404915	24.960932
483.836807	24.852901
484.268683	24.733346
484.700544	24.592610
485.132388	24.449183
485.564217	24.293177
485.996031	24.141081
486.427828	23.992303
486.859610	23.830215
487.291376	23.677673
487.723126	23.523075
488.154860	23.379081
488.586579	23.239387
489.018281	23.106000
489.449968	22.986074
489.881639	22.892975
490.313293	22.819161
490.744932	22.759327
491.176555	22.725455
491.608162	22.704961
492.039753	22.686375
492.471328	22.693470
492.902886	22.688435
493.334429	22.683233
493.765956	22.686439
494.197466	22.697907
494.628960	22.731400
495.060439	22.800310
495.491901	22.905539
495.923347	23.059758
496.354776	23.252041
496.786190	23.484666
497.217587	23.746007
497.648968	24.025002
498.080332	24.315905
498.511681	24.584442
498.943013	24.857556
499.374328	25.100633
499.805628	25.338112
500.236911	25.566608
500.668177	25.784131
501.099427	25.984822
501.530661	26.197175
501.961878	26.406458
502.393079	26.613551
502.824264	26.824587
503.255431	27.025485
503.686583	27.234247
504.117717	27.445071
504.548835	27.665744
504.979937	27.902632
505.411022	28.156643
505.842090	28.420887
506.273142	28.699731
506.704177	28.984222
507.135195	29.269756
507.566197	29.557923
507.997182	29.811509
508.428150	30.029556
508.859102	30.226599
509.290036	30.382753
509.720954	30.505507
510.151855	30.611915
510.582739	30.702510
511.013607	30.802266
511.444457	30.894720
511.875291	31.039014
512.306107	31.200446
512.736907	31.407558
513.167690	31.629966
513.598456	31.853120
514.029205	32.081935
514.459936	32.286890
514.890651	32.450084
515.321349	32.566025
515.752030	32.637626
516.182693	32.653461
516.613340	32.618132
517.043969	32.523778
517.474582	32.394255
517.905177	32.199828
518.335755	31.962692
518.766315	31.697713
519.196859	31.401993
519.627385	31.092083
520.057894	30.759962
520.488386	30.428142
520.918860	30.089821
521.349318	29.770754
521.779757	29.461535
522.210180	29.173021
522.640585	28.900854
523.070973	28.653594
523.501343	28.416215
523.931696	28.197461
524.362031	27.970421
524.792349	27.756205
525.222650	27.519267
525.652933	27.256836
526.083198	26.975024
526.513446	26.661227
526.943677	26.353372
527.373890	26.021907
527.804085	25.701763
528.234262	25.395127
528.664422	25.116351
529.094565	24.859209
529.524689	24.634186
529.954796	24.438834
530.384885	24.285440
530.814957	24.162917
531.245011	24.069401
531.675047	23.996290
532.105065	23.929526
532.535065	23.866621
532.965048	23.809492
533.395013	23.746727
533.824959	23.667763
534.254888	23.573047
534.684799	23.448121
535.114693	23.316220
535.544568	23.160079
535.974425	22.994985
536.404264	22.812400
536.834086	22.613849
537.263889	22.408397
537.693674	22.210355
538.123441	22.020359
538.553190	21.841078
538.982921	21.685012
539.412634	21.553675
539.842329	21.465520
540.272006	21.413601
540.701664	21.406312
541.131304	21.449496
541.560926	21.536664
541.990530	21.661843
542.420116	21.826139
542.849683	22.016441
543.279232	22.226220
543.708763	22.449643
544.138275	22.673686
544.567769	22.897419
544.997245	23.098555
545.426702	23.290027
545.856141	23.456177
546.285562	23.598650
546.714964	23.719640
547.144347	23.826053
547.573713	23.920145
548.003059	24.009075
548.432387	24.086361
548.861697	24.158719
549.290988	24.225034
549.720260	24.300395
550.149514	24.374400
550.578750	24.449597
551.007966	24.523594
551.437164	24.577900
551.866344	24.625199
552.295504	24.660513
552.724646	24.664962
553.153769	24.639104
553.582874	24.570055
554.011960	24.464470
554.441027	24.308863
554.870075	24.109887
555.299104	23.867949
555.728115	23.581256
556.157106	23.271832
556.586079	22.933609
557.015033	22.573296
557.443968	22.203539
557.872884	21.845979
558.301781	21.508850
558.730659	21.181272
559.159518	20.898046
559.588358	20.637244
560.017180	20.433645
560.445982	20.264738
560.874765	20.140133
561.303528	20.061439
561.732273	20.016193
562.160999	20.009515
562.589705	20.038394
563.018393	20.090426
563.447061	20.170960
563.875710	20.273656
564.304340	20.397461
564.732950	20.540808
565.161542	20.690058
565.590114	20.844946
566.018666	21.006619
566.447200	21.170226
566.875714	21.331204
567.304208	21.485235
567.732684	21.639792
568.161140	21.786404
568.589576	21.926789
569.017993	22.059785
569.446391	22.185751
569.874769	22.317736
570.303128	22.442247
570.731467	22.570350
571.159787	22.687051
571.588087	22.807497
572.016368	22.934986
572.444629	23.045741
572.872870	23.155249
573.301092	23.248717
573.729294	23.318475
574.157476	23.367598
574.585639	23.377984
575.013782	23.366485
575.441906	23.316698
575.870009	23.224889
576.298093	23.108498
576.726157	22.955784
577.154202	22.773599
577.582226	22.565326
578.010231	22.340996
578.438216	22.102776
578.866181	21.866225
579.294126	21.630789
579.722051	21.407958
580.149957	21.208248
580.577842	21.031463
581.005707	20.872361
581.433553	20.734226
581.861378	20.625952
582.289184	20.552012
582.716969	20.499079
583.144734	20.471202
583.572479	20.481733
584.000205	20.510467
584.427910	20.561566
584.855594	20.635509
585.283259	20.731492
585.710904	20.851736
586.138528	20.987892
586.566132	21.128426
586.993716	21.291560
587.421280	21.462377
587.848823	21.640334
588.276346	21.816520
588.703849	21.991707
589.131332	22.160738
589.558794	22.306449
589.986236	22.446171
590.413657	22.569477
590.841058	22.672517
591.268438	22.754182
591.695799	22.826112
592.123138	22.879689
592.550458	22.921535
592.977756	22.944690
593.405034	22.950076
593.832292	22.947776
594.259529	22.937962
594.686746	22.919098
595.113942	22.888983
595.541117	22.849590
595.968272	22.794213
596.395406	22.728380
596.822519	22.636547
597.249612	22.529019
597.676684	22.408880
598.103735	22.264151
598.530766	22.093342
598.957775	21.903266
599.384764	21.700086
599.811733	21.491856
600.238680	21.277797
600.665606	21.059646
601.092512	20.850747
601.519397	20.647410
601.946261	20.462202
602.373104	20.306725
602.799926	20.176086
603.226727	20.067438
603.653507	19.984869
604.080266	19.930429
604.507004	19.900256
604.933721	19.892164
605.360417	19.903086
605.787092	19.927467
606.213746	19.970142
606.640379	20.026867
607.066991	20.096374
607.493581	20.179025
607.920150	20.272933
608.346699	20.375152
608.773226	20.490317
609.199731	20.619838
609.626216	20.760576
610.052679	20.910718
610.479121	21.073795
610.905542	21.242859
611.331941	21.419707
611.758319	21.604072
612.184676	21.793134
612.611011	21.978455
613.037325	22.159186
613.463617	22.326862
613.889888	22.478835
614.316138	22.615562
614.742366	22.740949
615.168573	22.847597
615.594758	22.928508
616.020921	22.991191
616.447063	23.042197
616.873184	23.076807
617.299283	23.096572
617.725360	23.107875
618.151416	23.110599
618.577450	23.107083
619.003462	23.107141
619.429453	23.098413
619.855422	23.092027
620.281369	23.080984
620.707295	23.053763
621.133199	23.031448
621.559081	22.996870
621.984941	22.943714
622.410779	22.884288
622.836596	22.797118
623.262391	22.701178
623.688163	22.586053
624.113914	22.456986
624.539644	22.319389
624.965351	22.172852
625.391036	22.018221
625.816699	21.857279
626.242340	21.696580
626.667960	21.545096
627.093557	21.406149
627.519132	21.278797
627.944685	21.162341
628.370216	21.057322
628.795725	20.965678
629.221212	20.891802
629.646677	20.821675
630.072119	20.764797
630.497540	20.712890
630.922938	20.669200
631.348314	20.620330
631.773668	20.571684
632.198999	20.519734
632.624308	20.471388
633.049595	20.415234
633.474860	20.355358
633.900102	20.305340
634.325322	20.248631
634.750520	20.196984
635.175695	20.142725
635.600848	20.093214
636.025978	20.060967
636.451086	20.026782
636.876171	20.000490
637.301234	19.984167
637.726275	19.967749
638.151293	19.957484
638.576288	19.951647
639.001261	19.950726
639.426211	19.954760
639.851139	19.952348
640.276044	19.955925
640.700927	19.955395
641.125787	19.951631
641.550624	19.946900
641.975438	19.942173
642.400230	19.934447
642.824999	19.926171
643.249745	19.916823
643.674469	19.909698
644.099169	19.908537
644.523847	19.920300
644.948502	19.940964
645.373135	19.974766
645.797744	20.014953
646.222330	20.070225
646.646894	20.139490
647.071435	20.221324
647.495953	20.313236
647.920447	20.415330
648.344919	20.537893
648.769368	20.662036
649.193794	20.785399
649.618197	20.923765
650.042576	21.061777
650.466933	21.197961
650.891267	21.338726
651.315577	21.471465
651.739864	21.607762
652.164129	21.732195
652.588370	21.850350
653.012587	21.965634
653.436782	22.064761
653.860953	22.158924
654.285102	22.248820
654.709226	22.321713
655.133328	22.387238
655.557406	22.446595
655.981461	22.500127
656.405493	22.545698
656.829501	22.575497
657.253486	22.587970
657.677448	22.583620
658.101386	22.565736
658.525301	22.526352
658.949192	22.469143
659.373060	22.392771
659.796904	22.296666
660.220725	22.180938
660.644522	22.048168
661.068296	21.900928
661.492046	21.737715
661.915772	21.568805
662.339475	21.400136
662.763154	21.226297
663.186810	21.057281
663.610442	20.897382
664.034050	20.745890
664.457635	20.613579
664.881196	20.492794
665.304733	20.396777
665.728247	20.321039
666.151736	20.269834
666.575202	20.242036
666.998644	20.242300
667.422062	20.260134
667.845457	20.302550
668.268827	20.365053
668.692174	20.439716
669.115496	20.526321
669.538795	20.618648
669.962070	20.723948
670.385321	20.833708
670.808547	20.942690
671.231750	21.045570
671.654929	21.150880
672.078084	21.256084
672.501214	21.354163
672.924321	21.443389
673.347404	21.526931
673.770462	21.609962
674.193496	21.687267
674.616506	21.753112
675.039492	21.812529
675.462454	21.861563
675.885391	21.899763
676.308305	21.932485
676.731194	21.953748
677.154058	21.966512
677.576899	21.965623
677.999715	21.952476
678.422507	21.928643
678.845274	21.898643
679.268017	21.852716
679.690736	21.793620
680.113430	21.714604
680.536100	21.619738
680.958746	21.516288
681.381367	21.393424
681.803963	21.262004
682.226535	21.119561
682.649083	20.960778
683.071605	20.799063
683.494104	20.629966
683.916578	20.462082
684.339027	20.293705
684.761451	20.120246
685.183851	19.945454
685.606227	19.768354
686.028577	19.588812
686.450903	19.413302
686.873204	19.232812
687.295481	19.050116
687.717733	18.871588
688.139959	18.693493
688.562162	18.510258
688.984339	18.327788
689.406492	18.144094
689.828619	17.963018
690.250722	17.777555
690.672800	17.592918
691.094853	17.407391
691.516881	17.226500
691.938884	17.040393
692.360863	16.859609
692.782816	16.687058
693.204744	16.518331
693.626647	16.368056
694.048526	16.224964
694.470379	16.097016
694.892207	15.983658
695.314010	15.887574
695.735788	15.819784
696.157540	15.767810
696.579268	15.735635
697.000970	15.716913
697.422648	15.721473
697.844300	15.746874
698.265926	15.789748
698.687528	15.857368
699.109104	15.942074
699.530655	16.039665
699.952181	16.150939
700.373681	16.275507
700.795156	16.402325
701.216606	16.533790
701.638030	16.673691
702.059429	16.812625
702.480803	16.950337
702.902151	17.080700
703.323473	17.209072
703.744770	17.328952
704.166042	17.438749
704.587288	17.536133
705.008509	17.624606
705.429704	17.701868
705.850873	17.765953
706.272017	17.825918
706.693135	17.869210
707.114228	17.898718
707.535295	17.920076
707.956336	17.935739
708.377352	17.941775
708.798342	17.935334
709.219306	17.927962
709.640245	17.919911
710.061157	17.910286
710.482044	17.898705
710.902905	17.887408
711.323741	17.880098
711.744550	17.868492
712.165334	17.859329
712.586092	17.858070
713.006823	17.858672
713.427529	17.862730
713.848209	17.883095
714.268863	17.900630
714.689492	17.926103
715.110094	17.960666
715.530670	17.998564
715.951220	18.047247
716.371744	18.101651
716.792242	18.162719
717.212714	18.228395
717.633159	18.297750
718.053579	18.371981
718.473973	18.448940
718.894340	18.521449
719.314681	18.591813
719.734996	18.658085
720.155285	18.725088
720.575547	18.783470
720.995784	18.822882
721.415994	18.854221
721.836177	18.878602
722.256335	18.879487
722.676466	18.860489
723.096570	18.829136
723.516649	18.775155
723.936701	18.699621
724.356726	18.601800
724.776725	18.485996
725.196698	18.356155
725.616644	18.203557
726.036564	18.034430
726.456457	17.854425
726.876324	17.658560
727.296164	17.459110
727.715977	17.248423
728.135764	17.033837
728.555525	16.815779
728.975258	16.593232
729.394966	16.374387
729.814646	16.160191
730.234300	15.953499
730.653927	15.756180
731.073527	15.565021
731.493101	15.389629
731.912648	15.229068
732.332168	15.076875
732.751661	14.943946
733.171128	14.824960
733.590568	14.725137
734.009980	14.645595
734.429366	14.583125
734.848726	14.532088
735.268058	14.498322
735.687363	14.482181
736.106641	14.477459
736.525893	14.485897
736.945117	14.504180
737.364314	14.530719
737.783485	14.565054
738.202628	14.603636
738.621744	14.644262
739.040834	14.691926
739.459896	14.739630
739.878931	14.785548
740.297939	14.830999
740.716919	14.873175
741.135873	14.909151
741.554799	14.941946
741.973698	14.968584
742.392570	14.986589
742.811415	14.999987
743.230232	15.003095
743.649022	15.001798
744.067785	14.993078
744.486521	14.971258
744.905229	14.940068
745.323909	14.906560
745.742563	14.864673
746.161189	14.816797
746.579787	14.762324
746.998358	14.704387
747.416902	14.633585
747.835418	14.569194
748.253907	14.502025
748.672368	14.431888
749.090802	14.363055
749.509208	14.299094
749.927586	14.240354
750.345937	14.187209
750.764261	14.141784
751.182556	14.107324
751.600824	14.081379
752.019065	14.059719
752.437277	14.045635
752.855462	14.046531
753.273620	14.050787
753.691749	14.070913
754.109851	14.100028
