Time1=100ms:Average1=5:Objective=10X:Aperture=1: (11/28/2018 9:28:52 AM)
11/28/2018 9:28:52 AM
Reflectance
10X
Ap#: 1
Avg1: 5.000000
Avg2: 0.000000
Int.Time1:100.000000

350.166136	60.132918
350.601937	59.942763
351.037728	59.766842
351.473509	59.633517
351.909281	59.857270
352.345042	59.541095
352.780794	59.432522
353.216536	59.698005
353.652267	59.769182
354.087989	59.571970
354.523701	59.686994
354.959403	59.727977
355.395095	59.840043
355.830777	59.547942
356.266449	59.663565
356.702110	59.629165
357.137762	59.773829
357.573404	59.905196
358.009035	59.683900
358.444656	59.921415
358.880268	60.041112
359.315869	60.096368
359.751459	59.921833
360.187040	60.005343
360.622610	59.433378
361.058170	59.432962
361.493720	59.139975
361.929260	58.812616
362.364789	58.674688
362.800308	58.718609
363.235816	58.689255
363.671314	58.784205
364.106802	58.681943
364.542279	58.581924
364.977746	58.820926
365.413203	58.652822
365.848649	58.514042
366.284084	58.389440
366.719509	58.320043
367.154924	57.958064
367.590328	58.084203
368.025721	57.902655
368.461104	57.703155
368.896477	57.796221
369.331838	57.742875
369.767189	57.848090
370.202530	57.968198
370.637859	57.556298
371.073178	57.485082
371.508486	57.524761
371.943784	57.560077
372.379071	57.510730
372.814347	57.660583
373.249612	57.771338
373.684866	57.537359
374.120110	58.019941
374.555343	57.798566
374.990565	58.248864
375.425776	58.661212
375.860976	58.655858
376.296165	58.464345
376.731343	58.526863
377.166511	58.348450
377.601667	58.331891
378.036812	58.239571
378.471946	58.511467
378.907070	58.547341
379.342182	58.923635
379.777283	59.112959
380.212373	59.020083
380.647452	59.384456
381.082520	59.420540
381.517576	59.617373
381.952622	59.758099
382.387656	59.774662
382.822679	59.819121
383.257691	59.633028
383.692692	59.364863
384.127681	59.748481
384.562659	59.794872
384.997626	59.528270
385.432581	59.509411
385.867525	59.460152
386.302458	59.203683
386.737379	59.221486
387.172289	59.231291
387.607188	59.055518
388.042075	59.224204
388.476951	59.321029
388.911815	59.049639
389.346668	59.176093
389.781509	59.434122
390.216338	59.300169
390.651157	59.288904
391.085963	59.552931
391.520758	59.974726
391.955541	59.305544
392.390313	59.595705
392.825073	59.544732
393.259821	59.179410
393.694558	59.112890
394.129283	59.006573
394.563996	58.936755
394.998698	58.951130
395.433388	58.944926
395.868066	58.637399
396.302732	58.818673
396.737386	58.761658
397.172029	58.824011
397.606659	58.411044
398.041278	57.909433
398.475885	57.849506
398.910480	57.361926
399.345063	56.737924
399.779634	56.536087
400.214194	55.547504
400.648741	54.610009
401.083276	53.513415
401.517799	52.135263
401.952310	50.627860
402.386809	49.299831
402.821296	47.695582
403.255771	46.020646
403.690234	44.213249
404.124684	42.246178
404.559123	40.173536
404.993549	38.105046
405.427963	36.071821
405.862365	33.990426
406.296754	32.111394
406.731131	30.528885
407.165496	28.800404
407.599849	27.281406
408.034190	25.827229
408.468518	24.468271
408.902833	23.178461
409.337137	22.089248
409.771428	21.054557
410.205706	20.088419
410.639973	19.188701
411.074226	18.409845
411.508467	17.672519
411.942696	17.062741
412.376912	16.446320
412.811116	15.895152
413.245307	15.316881
413.679486	14.872917
414.113652	14.490912
414.547805	14.095701
414.981946	13.724257
415.416074	13.338305
415.850190	13.005261
416.284293	12.683210
416.718383	12.406089
417.152460	12.133407
417.586525	11.909518
418.020577	11.697000
418.454616	11.486600
418.888643	11.308998
419.322656	11.161838
419.756657	10.977573
420.190645	10.805066
420.624620	10.680265
421.058582	10.524048
421.492531	10.371665
421.926468	10.231085
422.360391	10.131996
422.794301	10.032206
423.228199	9.886716
423.662083	9.790890
424.095955	9.703524
424.529813	9.612303
424.963658	9.544769
425.397491	9.459057
425.831310	9.392286
426.265116	9.335052
426.698909	9.267979
427.132689	9.185762
427.566455	9.118233
428.000209	9.057003
428.433949	9.033232
428.867676	9.006054
429.301389	8.972787
429.735090	8.927957
430.168777	8.882331
430.602451	8.833245
431.036111	8.780790
431.469759	8.726565
431.903392	8.678319
432.337013	8.634817
432.770620	8.562757
433.204213	8.527751
433.637794	8.503592
434.071360	8.461253
434.504914	8.446480
434.938453	8.430105
435.371979	8.409128
435.805492	8.378887
436.238991	8.354221
436.672477	8.352344
437.105949	8.331393
437.539407	8.299842
437.972852	8.268619
438.406283	8.234493
438.839700	8.206924
439.273104	8.194393
439.706494	8.163660
440.139871	8.157602
440.573233	8.154212
441.006582	8.139231
441.439917	8.139839
441.873238	8.107060
442.306546	8.092120
442.739839	8.086815
443.173119	8.099002
443.606385	8.084735
444.039636	8.089449
444.472874	8.092282
444.906099	8.104671
445.339309	8.119267
445.772505	8.145387
446.205687	8.190314
446.638855	8.222110
447.072009	8.241890
447.505149	8.276503
447.938275	8.289617
448.371387	8.314611
448.804485	8.327474
449.237569	8.330619
449.670638	8.323263
450.103694	8.330437
450.536735	8.324958
450.969762	8.322059
451.402774	8.323572
451.835773	8.336163
452.268757	8.352428
452.701727	8.354445
453.134683	8.373336
453.567624	8.374299
454.000551	8.391947
454.433464	8.399750
454.866362	8.403790
455.299246	8.413316
455.732116	8.412221
456.164971	8.404373
456.597811	8.399278
457.030638	8.399870
457.463449	8.406440
457.896246	8.415840
458.329029	8.426461
458.761797	8.433056
459.194551	8.429457
459.627290	8.428473
460.060014	8.414031
460.492724	8.416805
460.925419	8.411619
461.358099	8.417753
461.790765	8.412104
462.223416	8.408735
462.656052	8.422268
463.088674	8.433597
463.521281	8.434807
463.953873	8.448375
464.386450	8.474429
464.819012	8.506278
465.251560	8.532225
465.684093	8.556349
466.116611	8.590238
466.549114	8.623270
466.981602	8.657078
467.414075	8.686850
467.846533	8.709673
468.278977	8.726621
468.711405	8.744294
469.143818	8.766854
469.576216	8.783352
470.008600	8.779814
470.440968	8.781430
470.873321	8.778010
471.305659	8.772359
471.737982	8.762172
472.170289	8.763874
472.602582	8.767359
473.034859	8.771923
473.467122	8.788075
473.899369	8.793493
474.331600	8.811889
474.763817	8.818077
475.196018	8.836575
475.628204	8.854310
476.060375	8.870518
476.492530	8.888128
476.924670	8.907516
477.356795	8.924095
477.788904	8.938957
478.220998	8.945536
478.653076	8.957404
479.085139	8.981289
479.517186	9.002296
479.949219	9.035987
480.381235	9.078355
480.813236	9.118805
481.245221	9.177340
481.677191	9.238825
482.109146	9.303328
482.541084	9.363369
482.973008	9.425989
483.404915	9.496616
483.836807	9.564996
484.268683	9.642145
484.700544	9.711576
485.132388	9.785310
485.564217	9.849335
485.996031	9.926237
486.427828	10.003476
486.859610	10.080400
487.291376	10.180602
487.723126	10.276885
488.154860	10.395987
488.586579	10.510762
489.018281	10.639190
489.449968	10.777636
489.881639	10.911660
490.313293	11.043914
490.744932	11.170110
491.176555	11.298149
491.608162	11.424953
492.039753	11.537249
492.471328	11.629739
492.902886	11.710534
493.334429	11.778582
493.765956	11.839399
494.197466	11.896425
494.628960	11.952258
495.060439	12.012293
495.491901	12.079007
495.923347	12.153916
496.354776	12.235872
496.786190	12.336644
497.217587	12.446738
497.648968	12.556804
498.080332	12.680573
498.511681	12.811656
498.943013	12.951029
499.374328	13.080187
499.805628	13.214578
500.236911	13.341952
500.668177	13.447949
501.099427	13.553760
501.530661	13.640105
501.961878	13.735090
502.393079	13.817885
502.824264	13.888955
503.255431	13.969951
503.686583	14.054759
504.117717	14.150884
504.548835	14.255486
504.979937	14.369423
505.411022	14.492979
505.842090	14.630860
506.273142	14.785981
506.704177	14.940562
507.135195	15.091075
507.566197	15.245441
507.997182	15.386229
508.428150	15.515873
508.859102	15.632331
509.290036	15.740592
509.720954	15.828369
510.151855	15.892607
510.582739	15.945422
511.013607	15.987525
511.444457	16.012242
511.875291	16.037233
512.306107	16.060558
512.736907	16.089185
513.167690	16.118725
513.598456	16.159249
514.029205	16.215805
514.459936	16.287659
514.890651	16.376559
515.321349	16.477394
515.752030	16.596132
516.182693	16.735966
516.613340	16.888539
517.043969	17.058098
517.474582	17.237431
517.905177	17.425878
518.335755	17.618797
518.766315	17.822810
519.196859	18.048157
519.627385	18.283576
520.057894	18.541996
520.488386	18.825634
520.918860	19.122370
521.349318	19.463834
521.779757	19.841085
522.210180	20.264488
522.640585	20.727942
523.070973	21.242820
523.501343	21.806272
523.931696	22.416407
524.362031	23.076350
524.792349	23.793483
525.222650	24.548862
525.652933	25.343659
526.083198	26.178393
526.513446	27.053457
526.943677	27.981390
527.373890	28.936668
527.804085	29.917880
528.234262	30.943708
528.664422	31.986417
529.094565	33.066847
529.524689	34.172978
529.954796	35.323957
530.384885	36.498133
530.814957	37.707067
531.245011	38.950947
531.675047	40.229043
532.105065	41.546473
532.535065	42.900650
532.965048	44.271007
533.395013	45.679576
533.824959	47.110722
534.254888	48.581078
534.684799	50.091950
535.114693	51.607742
535.544568	53.113575
535.974425	54.596601
536.404264	56.083408
536.834086	57.526564
537.263889	58.955947
537.693674	60.333438
538.123441	61.681386
538.553190	63.006362
538.982921	64.283849
539.412634	65.522483
539.842329	66.745664
540.272006	67.914833
540.701664	69.048788
541.131304	70.147781
541.560926	71.221784
541.990530	72.266416
542.420116	73.260975
542.849683	74.227752
543.279232	75.151798
543.708763	76.033315
544.138275	76.888510
544.567769	77.677465
544.997245	78.446368
545.426702	79.170902
545.856141	79.864540
546.285562	80.544869
546.714964	81.192490
547.144347	81.818919
547.573713	82.419134
548.003059	82.959345
548.432387	83.504997
548.861697	84.023133
549.290988	84.548248
549.720260	85.046284
550.149514	85.556427
550.578750	86.041156
551.007966	86.522530
551.437164	86.982722
551.866344	87.450330
552.295504	87.913253
552.724646	88.374825
553.153769	88.800448
553.582874	89.243387
554.011960	89.675594
554.441027	90.101431
554.870075	90.492674
555.299104	90.867408
555.728115	91.240349
556.157106	91.603209
556.586079	91.911205
557.015033	92.224505
557.443968	92.520151
557.872884	92.814415
558.301781	93.069754
558.730659	93.335462
559.159518	93.564762
559.588358	93.796124
560.017180	93.992450
560.445982	94.177629
560.874765	94.361755
561.303528	94.556804
561.732273	94.728472
562.160999	94.902210
562.589705	95.058840
563.018393	95.212480
563.447061	95.356717
563.875710	95.485534
564.304340	95.621934
564.732950	95.751159
565.161542	95.864798
565.590114	95.988466
566.018666	96.111415
566.447200	96.228579
566.875714	96.339296
567.304208	96.452430
567.732684	96.545647
568.161140	96.646334
568.589576	96.734202
569.017993	96.824537
569.446391	96.887879
569.874769	96.971444
570.303128	97.023199
570.731467	97.067914
571.159787	97.111509
571.588087	97.146069
572.016368	97.163449
572.444629	97.177791
572.872870	97.186213
573.301092	97.190789
573.729294	97.193140
574.157476	97.164434
574.585639	97.142250
575.013782	97.103131
575.441906	97.071138
575.870009	97.028846
576.298093	96.975346
576.726157	96.936407
577.154202	96.888832
577.582226	96.846886
578.010231	96.803598
578.438216	96.770378
578.866181	96.733896
579.294126	96.698758
579.722051	96.661219
580.149957	96.627631
580.577842	96.593565
581.005707	96.571399
581.433553	96.533081
581.861378	96.514681
582.289184	96.491434
582.716969	96.450950
583.144734	96.414007
583.572479	96.382856
584.000205	96.332986
584.427910	96.294195
584.855594	96.234231
585.283259	96.173675
585.710904	96.100841
586.138528	96.022631
586.566132	95.936690
586.993716	95.832827
587.421280	95.743783
587.848823	95.627932
588.276346	95.504171
588.703849	95.354636
589.131332	95.195368
589.558794	95.028271
589.986236	94.830355
590.413657	94.643251
590.841058	94.428584
591.268438	94.198556
591.695799	93.964183
592.123138	93.724853
592.550458	93.476594
592.977756	93.244188
593.405034	93.004733
593.832292	92.755330
594.259529	92.505402
594.686746	92.258710
595.113942	92.014992
595.541117	91.774538
595.968272	91.563850
596.395406	91.350481
596.822519	91.156517
597.249612	90.986852
597.676684	90.796710
598.103735	90.639610
598.530766	90.483436
598.957775	90.356915
599.384764	90.219394
599.811733	90.103963
600.238680	90.002650
600.665606	89.902149
601.092512	89.798693
601.519397	89.705758
601.946261	89.635833
602.373104	89.558086
602.799926	89.485152
603.226727	89.406065
603.653507	89.316676
604.080266	89.230780
604.507004	89.129286
604.933721	89.014447
605.360417	88.875359
605.787092	88.711625
606.213746	88.522166
606.640379	88.302265
607.066991	88.062388
607.493581	87.791849
607.920150	87.493487
608.346699	87.144804
608.773226	86.762214
609.199731	86.341838
609.626216	85.883461
610.052679	85.375987
610.479121	84.821384
610.905542	84.232556
611.331941	83.597379
611.758319	82.928308
612.184676	82.211346
612.611011	81.436802
613.037325	80.603939
613.463617	79.717746
613.889888	78.769960
614.316138	77.782229
614.742366	76.729917
615.168573	75.623782
615.594758	74.484654
616.020921	73.308296
616.447063	72.090011
616.873184	70.834889
617.299283	69.559662
617.725360	68.268607
618.151416	66.945887
618.577450	65.614393
619.003462	64.278738
619.429453	62.930398
619.855422	61.580228
620.281369	60.233240
620.707295	58.899016
621.133199	57.563215
621.559081	56.244667
621.984941	54.933448
622.410779	53.635869
622.836596	52.352550
623.262391	51.091482
623.688163	49.844420
624.113914	48.626673
624.539644	47.423757
624.965351	46.244486
625.391036	45.078676
625.816699	43.951764
626.242340	42.860553
626.667960	41.805035
627.093557	40.784170
627.519132	39.790509
627.944685	38.847232
628.370216	37.943318
628.795725	37.096758
629.221212	36.288682
629.646677	35.543106
630.072119	34.861756
630.497540	34.234386
630.922938	33.674893
631.348314	33.184685
631.773668	32.760270
632.198999	32.407364
632.624308	32.126564
633.049595	31.920119
633.474860	31.788181
633.900102	31.726063
634.325322	31.735360
634.750520	31.824156
635.175695	31.977670
635.600848	32.197376
636.025978	32.493005
636.451086	32.860065
636.876171	33.293318
637.301234	33.788418
637.726275	34.355080
638.151293	34.979123
638.576288	35.664614
639.001261	36.418843
639.426211	37.219306
639.851139	38.081651
640.276044	38.997198
640.700927	39.962583
641.125787	40.969523
641.550624	42.022606
641.975438	43.091299
642.400230	44.188866
642.824999	45.299997
643.249745	46.418855
643.674469	47.534997
644.099169	48.650654
644.523847	49.743201
644.948502	50.820704
645.373135	51.877424
645.797744	52.890637
646.222330	53.860175
646.646894	54.785768
647.071435	55.653068
647.495953	56.465083
647.920447	57.216637
648.344919	57.900448
648.769368	58.526218
649.193794	59.079281
649.618197	59.549020
650.042576	59.961226
650.466933	60.296855
650.891267	60.563262
651.315577	60.765689
651.739864	60.903352
652.164129	60.973206
652.588370	60.984026
653.012587	60.934029
653.436782	60.821929
653.860953	60.671212
654.285102	60.478662
654.709226	60.229438
655.133328	59.946836
655.557406	59.634499
655.981461	59.295519
656.405493	58.929450
656.829501	58.538104
657.253486	58.118525
657.677448	57.686976
658.101386	57.248812
658.525301	56.783121
658.949192	56.320169
659.373060	55.851959
659.796904	55.380470
660.220725	54.915616
660.644522	54.463120
661.068296	53.998233
661.492046	53.546521
661.915772	53.102601
662.339475	52.656867
662.763154	52.225245
663.186810	51.795005
663.610442	51.380393
664.034050	50.968173
664.457635	50.556448
664.881196	50.155968
665.304733	49.754184
665.728247	49.365263
666.151736	48.978658
666.575202	48.599478
666.998644	48.219443
667.422062	47.834924
667.845457	47.460584
668.268827	47.093701
668.692174	46.724626
669.115496	46.362273
669.538795	46.000396
669.962070	45.645227
670.385321	45.290282
670.808547	44.946729
671.231750	44.609435
671.654929	44.285800
672.078084	43.964185
672.501214	43.651866
672.924321	43.355829
673.347404	43.070022
673.770462	42.794028
674.193496	42.535389
674.616506	42.294261
675.039492	42.054985
675.462454	41.848195
675.885391	41.658618
676.308305	41.498805
676.731194	41.358481
677.154058	41.237229
677.576899	41.148560
677.999715	41.089478
678.422507	41.052757
678.845274	41.046091
679.268017	41.064056
679.690736	41.106204
680.113430	41.181224
680.536100	41.284129
680.958746	41.414110
681.381367	41.567016
681.803963	41.741766
682.226535	41.943048
682.649083	42.157822
683.071605	42.386745
683.494104	42.643349
683.916578	42.916725
684.339027	43.197394
684.761451	43.492714
685.183851	43.804604
685.606227	44.128828
686.028577	44.458815
686.450903	44.794079
686.873204	45.141139
687.295481	45.502560
687.717733	45.865938
688.139959	46.239757
688.562162	46.612085
688.984339	46.986252
689.406492	47.354179
689.828619	47.720996
690.250722	48.084522
690.672800	48.441312
691.094853	48.783077
691.516881	49.119455
691.938884	49.445536
692.360863	49.750912
692.782816	50.050057
693.204744	50.336489
693.626647	50.610892
694.048526	50.861661
694.470379	51.103874
694.892207	51.332844
695.314010	51.538837
695.735788	51.732446
696.157540	51.920978
696.579268	52.091784
697.000970	52.252826
697.422648	52.408290
697.844300	52.552491
698.265926	52.705238
698.687528	52.850556
699.109104	53.000104
699.530655	53.144948
699.952181	53.296260
700.373681	53.442745
700.795156	53.592592
701.216606	53.747960
701.638030	53.915029
702.059429	54.088171
702.480803	54.257635
702.902151	54.428071
703.323473	54.613215
703.744770	54.790221
704.166042	54.958047
704.587288	55.133992
705.008509	55.292754
705.429704	55.460980
705.850873	55.617246
706.272017	55.747732
706.693135	55.860462
707.114228	55.962158
707.535295	56.030891
707.956336	56.091286
708.377352	56.129044
708.798342	56.158645
709.219306	56.159032
709.640245	56.140655
710.061157	56.092264
710.482044	56.025359
710.902905	55.939834
711.323741	55.821321
711.744550	55.691854
712.165334	55.527392
712.586092	55.349146
713.006823	55.140300
713.427529	54.920448
713.848209	54.678654
714.268863	54.420223
714.689492	54.137325
715.110094	53.834703
715.530670	53.527042
715.951220	53.205122
716.371744	52.862142
716.792242	52.516164
717.212714	52.163778
717.633159	51.799824
718.053579	51.441256
718.473973	51.076132
718.894340	50.726490
719.314681	50.378120
719.734996	50.041404
720.155285	49.720914
720.575547	49.430787
720.995784	49.141823
721.415994	48.871450
721.836177	48.621223
722.256335	48.403693
722.676466	48.209361
723.096570	48.050590
723.516649	47.915119
723.936701	47.813211
724.356726	47.748850
724.776725	47.714109
725.196698	47.719999
725.616644	47.748544
726.036564	47.815258
726.456457	47.908734
726.876324	48.042169
727.296164	48.198182
727.715977	48.381038
728.135764	48.586166
728.555525	48.817439
728.975258	49.063142
729.394966	49.326875
729.814646	49.601579
730.234300	49.893066
730.653927	50.190496
731.073527	50.490287
731.493101	50.791367
731.912648	51.079045
732.332168	51.383521
732.751661	51.685261
733.171128	51.966786
733.590568	52.241455
734.009980	52.513433
734.429366	52.781454
734.848726	53.034773
735.268058	53.275619
735.687363	53.503669
736.106641	53.721213
736.525893	53.933629
736.945117	54.129064
737.364314	54.302660
737.783485	54.457106
738.202628	54.595782
738.621744	54.727911
739.040834	54.846897
739.459896	54.955010
739.878931	55.043208
740.297939	55.129585
740.716919	55.205787
741.135873	55.275633
741.554799	55.332637
741.973698	55.399409
742.392570	55.468370
742.811415	55.539614
743.230232	55.617890
743.649022	55.701327
744.067785	55.803860
744.486521	55.902572
744.905229	56.015629
745.323909	56.125854
745.742563	56.251910
746.161189	56.397843
746.579787	56.545478
746.998358	56.693962
747.416902	56.858382
747.835418	57.018379
748.253907	57.173617
748.672368	57.345183
749.090802	57.514931
749.509208	57.670422
749.927586	57.831212
750.345937	57.990988
750.764261	58.144152
751.182556	58.278738
751.600824	58.415948
752.019065	58.533358
752.437277	58.642076
752.855462	58.732148
753.273620	58.806162
753.691749	58.850085
754.109851	58.888399
754.527925	58.901296
754.945971	58.877531
755.363989	58.831661
755.781980	58.760632
756.199943	58.665509
756.617877	58.548477
757.035784	58.396056
