Time1=100ms:Average1=5:Objective=10X:Aperture=1: (11/28/2018 9:27:23 AM)
11/28/2018 9:27:23 AM
Reflectance
10X
Ap#: 1
Avg1: 5.000000
Avg2: 0.000000
Int.Time1:100.000000

350.166136	66.240431
350.601937	66.195473
351.037728	66.281036
351.473509	66.118128
351.909281	65.878680
352.345042	65.734516
352.780794	66.193769
353.216536	66.061478
353.652267	66.387161
354.087989	66.317500
354.523701	66.243929
354.959403	66.105206
355.395095	65.995687
355.830777	65.835501
356.266449	65.506442
356.702110	65.514153
357.137762	65.814037
357.573404	65.611305
358.009035	65.371908
358.444656	65.377746
358.880268	65.233712
359.315869	64.861247
359.751459	64.691775
360.187040	64.698548
360.622610	64.293935
361.058170	64.016958
361.493720	63.935587
361.929260	63.830727
362.364789	63.947625
362.800308	64.202680
363.235816	64.324565
363.671314	64.007487
364.106802	63.922196
364.542279	63.848809
364.977746	63.955032
365.413203	64.172879
365.848649	64.193032
366.284084	64.138909
366.719509	64.167996
367.154924	64.009555
367.590328	64.054484
368.025721	64.380531
368.461104	64.163582
368.896477	64.012008
369.331838	63.919527
369.767189	64.318001
370.202530	64.346290
370.637859	64.109782
371.073178	64.478764
371.508486	64.624419
371.943784	64.585161
372.379071	64.500307
372.814347	64.619165
373.249612	64.919213
373.684866	64.781963
374.120110	65.252755
374.555343	65.028851
374.990565	64.837469
375.425776	64.798050
375.860976	64.705370
376.296165	64.466256
376.731343	64.592721
377.166511	64.559039
377.601667	64.812251
378.036812	64.843344
378.471946	65.010818
378.907070	64.937311
379.342182	64.832412
379.777283	65.020790
380.212373	65.174861
380.647452	65.073053
381.082520	65.103044
381.517576	64.951741
381.952622	65.079914
382.387656	65.141481
382.822679	65.064599
383.257691	64.974706
383.692692	64.725969
384.127681	64.890068
384.562659	64.606838
384.997626	64.483992
385.432581	64.279022
385.867525	64.739045
386.302458	64.890442
386.737379	64.711882
387.172289	64.703886
387.607188	64.598849
388.042075	65.122961
388.476951	65.704368
388.911815	65.456088
389.346668	65.574878
389.781509	65.523649
390.216338	65.328836
390.651157	65.489932
391.085963	65.398566
391.520758	65.400168
391.955541	64.983645
392.390313	64.989096
392.825073	64.934304
393.259821	64.427175
393.694558	64.390529
394.129283	64.581080
394.563996	64.411299
394.998698	64.469747
395.433388	64.531101
395.868066	64.535100
396.302732	64.729434
396.737386	64.571264
397.172029	64.544151
397.606659	64.038767
398.041278	63.672049
398.475885	63.231793
398.910480	62.805000
399.345063	61.828274
399.779634	61.144543
400.214194	60.212060
400.648741	59.106028
401.083276	57.919328
401.517799	56.690254
401.952310	54.959232
402.386809	53.620022
402.821296	51.764444
403.255771	49.886477
403.690234	47.848829
404.124684	45.442203
404.559123	43.212964
404.993549	41.106028
405.427963	39.055390
405.862365	36.994377
406.296754	34.948756
406.731131	33.199530
407.165496	31.293880
407.599849	29.652409
408.034190	28.111990
408.468518	26.614021
408.902833	25.263250
409.337137	24.022405
409.771428	22.872054
410.205706	21.739783
410.639973	20.745523
411.074226	19.935163
411.508467	19.113364
411.942696	18.431945
412.376912	17.804286
412.811116	17.188156
413.245307	16.599997
413.679486	16.074256
414.113652	15.582795
414.547805	15.147830
414.981946	14.712222
415.416074	14.322584
415.850190	13.937618
416.284293	13.589090
416.718383	13.308148
417.152460	13.026125
417.586525	12.790652
418.020577	12.544664
418.454616	12.324493
418.888643	12.123546
419.322656	11.945269
419.756657	11.736807
420.190645	11.567874
420.624620	11.412298
421.058582	11.253704
421.492531	11.088395
421.926468	10.934165
422.360391	10.802148
422.794301	10.683836
423.228199	10.556265
423.662083	10.435014
424.095955	10.342303
424.529813	10.243392
424.963658	10.169549
425.397491	10.116264
425.831310	10.023852
426.265116	9.959878
426.698909	9.880568
427.132689	9.802130
427.566455	9.738782
428.000209	9.655960
428.433949	9.577760
428.867676	9.512114
429.301389	9.471816
429.735090	9.427401
430.168777	9.356333
430.602451	9.305629
431.036111	9.254095
431.469759	9.200810
431.903392	9.129505
432.337013	9.061789
432.770620	9.000283
433.204213	8.966801
433.637794	8.907198
434.071360	8.856870
434.504914	8.825917
434.938453	8.804985
435.371979	8.786633
435.805492	8.766010
436.238991	8.741593
436.672477	8.732568
437.105949	8.726622
437.539407	8.707100
437.972852	8.695924
438.406283	8.662631
438.839700	8.613403
439.273104	8.596622
439.706494	8.582888
440.139871	8.582121
440.573233	8.590848
441.006582	8.590755
441.439917	8.599903
441.873238	8.600568
442.306546	8.612958
442.739839	8.615245
443.173119	8.609779
443.606385	8.621053
444.039636	8.615250
444.472874	8.617387
444.906099	8.633409
445.339309	8.659132
445.772505	8.687544
446.205687	8.697000
446.638855	8.710282
447.072009	8.731611
447.505149	8.763724
447.938275	8.767974
448.371387	8.780231
448.804485	8.796756
449.237569	8.793598
449.670638	8.786542
450.103694	8.777802
450.536735	8.759490
450.969762	8.736072
451.402774	8.722809
451.835773	8.721243
452.268757	8.722065
452.701727	8.713962
453.134683	8.695851
453.567624	8.692144
454.000551	8.679773
454.433464	8.667902
454.866362	8.658710
455.299246	8.657205
455.732116	8.639573
456.164971	8.622556
456.597811	8.625073
457.030638	8.610811
457.463449	8.615059
457.896246	8.616631
458.329029	8.618242
458.761797	8.615457
459.194551	8.598728
459.627290	8.594591
460.060014	8.588532
460.492724	8.585723
460.925419	8.574197
461.358099	8.572711
461.790765	8.567195
462.223416	8.554858
462.656052	8.559248
463.088674	8.565482
463.521281	8.568973
463.953873	8.584951
464.386450	8.614177
464.819012	8.640642
465.251560	8.665682
465.684093	8.691832
466.116611	8.726075
466.549114	8.762355
466.981602	8.778020
467.414075	8.806872
467.846533	8.829775
468.278977	8.844462
468.711405	8.859671
469.143818	8.880952
469.576216	8.898132
470.008600	8.899947
470.440968	8.912363
470.873321	8.916857
471.305659	8.918486
471.737982	8.917994
472.170289	8.926089
472.602582	8.935808
473.034859	8.949252
473.467122	8.958361
473.899369	8.969046
474.331600	8.980546
474.763817	8.986812
475.196018	9.000349
475.628204	9.014513
476.060375	9.044100
476.492530	9.072781
476.924670	9.105589
477.356795	9.140476
477.788904	9.182005
478.220998	9.228771
478.653076	9.275832
479.085139	9.339238
479.517186	9.391052
479.949219	9.444216
480.381235	9.507113
480.813236	9.566921
481.245221	9.632915
481.677191	9.692492
482.109146	9.762483
482.541084	9.825797
482.973008	9.894587
483.404915	9.967629
483.836807	10.044915
484.268683	10.131839
484.700544	10.222340
485.132388	10.318875
485.564217	10.401271
485.996031	10.497336
486.427828	10.605307
486.859610	10.705614
487.291376	10.816124
487.723126	10.915350
488.154860	11.023896
488.586579	11.124279
489.018281	11.226270
489.449968	11.318268
489.881639	11.407198
490.313293	11.500118
490.744932	11.595649
491.176555	11.685604
491.608162	11.767721
492.039753	11.864413
492.471328	11.940000
492.902886	12.025864
493.334429	12.116821
493.765956	12.214755
494.197466	12.305143
494.628960	12.394395
495.060439	12.490494
495.491901	12.577353
495.923347	12.658390
496.354776	12.738875
496.786190	12.817364
497.217587	12.889935
497.648968	12.958527
498.080332	13.025669
498.511681	13.085361
498.943013	13.165460
499.374328	13.239893
499.805628	13.312418
500.236911	13.402905
500.668177	13.498591
501.099427	13.610852
501.530661	13.729013
501.961878	13.864973
502.393079	14.006960
502.824264	14.150382
503.255431	14.304014
503.686583	14.458949
504.117717	14.599706
504.548835	14.739169
504.979937	14.882070
505.411022	15.009821
505.842090	15.138926
506.273142	15.258174
506.704177	15.372193
507.135195	15.472211
507.566197	15.576825
507.997182	15.683458
508.428150	15.788701
508.859102	15.899809
509.290036	16.017937
509.720954	16.144561
510.151855	16.273366
510.582739	16.406341
511.013607	16.546010
511.444457	16.680621
511.875291	16.819524
512.306107	16.952010
512.736907	17.085509
513.167690	17.206693
513.598456	17.323278
514.029205	17.428789
514.459936	17.522154
514.890651	17.604626
515.321349	17.674572
515.752030	17.751745
516.182693	17.834838
516.613340	17.922293
517.043969	18.019151
517.474582	18.151781
517.905177	18.301107
518.335755	18.483132
518.766315	18.701794
519.196859	18.960142
519.627385	19.268167
520.057894	19.619814
520.488386	20.024696
520.918860	20.465737
521.349318	20.954363
521.779757	21.501163
522.210180	22.088424
522.640585	22.725785
523.070973	23.413364
523.501343	24.145226
523.931696	24.919383
524.362031	25.736274
524.792349	26.603869
525.222650	27.512302
525.652933	28.473233
526.083198	29.485304
526.513446	30.540579
526.943677	31.646976
527.373890	32.791060
527.804085	33.986600
528.234262	35.220181
528.664422	36.493918
529.094565	37.790323
529.524689	39.107373
529.954796	40.440883
530.384885	41.811458
530.814957	43.186455
531.245011	44.576636
531.675047	45.963837
532.105065	47.354879
532.535065	48.747548
532.965048	50.144394
533.395013	51.514773
533.824959	52.877054
534.254888	54.245860
534.684799	55.628762
535.114693	56.984288
535.544568	58.316636
535.974425	59.624326
536.404264	60.903867
536.834086	62.157737
537.263889	63.379049
537.693674	64.557536
538.123441	65.711991
538.553190	66.840045
538.982921	67.915631
539.412634	68.951275
539.842329	69.965600
540.272006	70.946553
540.701664	71.868100
541.131304	72.767331
541.560926	73.660787
541.990530	74.504576
542.420116	75.317032
542.849683	76.094644
543.279232	76.859389
543.708763	77.569588
544.138275	78.262619
544.567769	78.920417
544.997245	79.569657
545.426702	80.174893
545.856141	80.774535
546.285562	81.345465
546.714964	81.899927
547.144347	82.431831
547.573713	82.940482
548.003059	83.418009
548.432387	83.888196
548.861697	84.335251
549.290988	84.766218
549.720260	85.176457
550.149514	85.572395
550.578750	85.957901
551.007966	86.322366
551.437164	86.659683
551.866344	86.994020
552.295504	87.289520
552.724646	87.596543
553.153769	87.870882
553.582874	88.131950
554.011960	88.406424
554.441027	88.638503
554.870075	88.840728
555.299104	89.047131
555.728115	89.235551
556.157106	89.423248
556.586079	89.568846
557.015033	89.732077
557.443968	89.876059
557.872884	90.017291
558.301781	90.131717
558.730659	90.275835
559.159518	90.404728
559.588358	90.538203
560.017180	90.667339
560.445982	90.796509
560.874765	90.951330
561.303528	91.098631
561.732273	91.245289
562.160999	91.411657
562.589705	91.575177
563.018393	91.750224
563.447061	91.944342
563.875710	92.130166
564.304340	92.319217
564.732950	92.513658
565.161542	92.708553
565.590114	92.939962
566.018666	93.147956
566.447200	93.361903
566.875714	93.576625
567.304208	93.771321
567.732684	93.972579
568.161140	94.171709
568.589576	94.341063
569.017993	94.507230
569.446391	94.655835
569.874769	94.803886
570.303128	94.915438
570.731467	95.006903
571.159787	95.095202
571.588087	95.171235
572.016368	95.225325
572.444629	95.248599
572.872870	95.282230
573.301092	95.295867
573.729294	95.294701
574.157476	95.261268
574.585639	95.215785
575.013782	95.172613
575.441906	95.115108
575.870009	95.067037
576.298093	95.001837
576.726157	94.934845
577.154202	94.853471
577.582226	94.793632
578.010231	94.739111
578.438216	94.700998
578.866181	94.659583
579.294126	94.640499
579.722051	94.626726
580.149957	94.644093
580.577842	94.671467
581.005707	94.716554
581.433553	94.762925
581.861378	94.848180
582.289184	94.938413
582.716969	95.032257
583.144734	95.144461
583.572479	95.276126
584.000205	95.399965
584.427910	95.539604
584.855594	95.680443
585.283259	95.813629
585.710904	95.947880
586.138528	96.054706
586.566132	96.159965
586.993716	96.252920
587.421280	96.329459
587.848823	96.396551
588.276346	96.428777
588.703849	96.444615
589.131332	96.429890
589.558794	96.399151
589.986236	96.321197
590.413657	96.235713
590.841058	96.110991
591.268438	95.947981
591.695799	95.747202
592.123138	95.540530
592.550458	95.288090
592.977756	95.035084
593.405034	94.733103
593.832292	94.434127
594.259529	94.103967
594.686746	93.765430
595.113942	93.400618
595.541117	93.033441
595.968272	92.684137
596.395406	92.309371
596.822519	91.927942
597.249612	91.562848
597.676684	91.173979
598.103735	90.771642
598.530766	90.382021
598.957775	90.009175
599.384764	89.631994
599.811733	89.261453
600.238680	88.902776
600.665606	88.551134
601.092512	88.204488
601.519397	87.849882
601.946261	87.514723
602.373104	87.186022
602.799926	86.865263
603.226727	86.540762
603.653507	86.219988
604.080266	85.905058
604.507004	85.605672
604.933721	85.311526
605.360417	84.991565
605.787092	84.682970
606.213746	84.347985
606.640379	84.021923
607.066991	83.671269
607.493581	83.318143
607.920150	82.953896
608.346699	82.568334
608.773226	82.175285
609.199731	81.736801
609.626216	81.297558
610.052679	80.824575
610.479121	80.333642
610.905542	79.807601
611.331941	79.265518
611.758319	78.685844
612.184676	78.063384
612.611011	77.392472
613.037325	76.694489
613.463617	75.957194
613.889888	75.166450
614.316138	74.330867
614.742366	73.463962
615.168573	72.550502
615.594758	71.591965
616.020921	70.597274
616.447063	69.576079
616.873184	68.523370
617.299283	67.453731
617.725360	66.334711
618.151416	65.210131
618.577450	64.084317
619.003462	62.940273
619.429453	61.805360
619.855422	60.662452
620.281369	59.533690
620.707295	58.422004
621.133199	57.319648
621.559081	56.250521
621.984941	55.190496
622.410779	54.173853
622.836596	53.182830
623.262391	52.238852
623.688163	51.334716
624.113914	50.476235
624.539644	49.662723
624.965351	48.898041
625.391036	48.183918
625.816699	47.534595
626.242340	46.921114
626.667960	46.357507
627.093557	45.847611
627.519132	45.381815
627.944685	44.967367
628.370216	44.591667
628.795725	44.265854
629.221212	43.976928
629.646677	43.736774
630.072119	43.522325
630.497540	43.346693
630.922938	43.218753
631.348314	43.113204
631.773668	43.035578
632.198999	42.995280
632.624308	42.973023
633.049595	42.979214
633.474860	43.009649
633.900102	43.061138
634.325322	43.139573
634.750520	43.230151
635.175695	43.349667
635.600848	43.481315
636.025978	43.629122
636.451086	43.793341
636.876171	43.967501
637.301234	44.169411
637.726275	44.380767
638.151293	44.613537
638.576288	44.862484
639.001261	45.128815
639.426211	45.419237
639.851139	45.727426
640.276044	46.061791
640.700927	46.427029
641.125787	46.816801
641.550624	47.234096
641.975438	47.680238
642.400230	48.155502
642.824999	48.653602
643.249745	49.190607
643.674469	49.753045
644.099169	50.344550
644.523847	50.957130
644.948502	51.595189
645.373135	52.260117
645.797744	52.943831
646.222330	53.641167
646.646894	54.344160
647.071435	55.055976
647.495953	55.759501
647.920447	56.465243
648.344919	57.164435
648.769368	57.854758
649.193794	58.541176
649.618197	59.207353
650.042576	59.859491
650.466933	60.488886
650.891267	61.094233
651.315577	61.669515
651.739864	62.224355
652.164129	62.743376
652.588370	63.231867
653.012587	63.685599
653.436782	64.104414
653.860953	64.485861
654.285102	64.834841
654.709226	65.145991
655.133328	65.417286
655.557406	65.640543
655.981461	65.836608
656.405493	65.990554
656.829501	66.099750
657.253486	66.162910
657.677448	66.185124
658.101386	66.177559
658.525301	66.105632
658.949192	66.002876
659.373060	65.859229
659.796904	65.685577
660.220725	65.473171
660.644522	65.235064
661.068296	64.958374
661.492046	64.649728
661.915772	64.321797
662.339475	63.963764
662.763154	63.582093
663.186810	63.180085
663.610442	62.760249
664.034050	62.336868
664.457635	61.907281
664.881196	61.469732
665.304733	61.027630
665.728247	60.586452
666.151736	60.148853
666.575202	59.718164
666.998644	59.297256
667.422062	58.882230
667.845457	58.474285
668.268827	58.080273
668.692174	57.710601
669.115496	57.342765
669.538795	56.996119
669.962070	56.666527
670.385321	56.350399
670.808547	56.051881
671.231750	55.769017
671.654929	55.510929
672.078084	55.264524
672.501214	55.037724
672.924321	54.830128
673.347404	54.642730
673.770462	54.464720
674.193496	54.324104
674.616506	54.202629
675.039492	54.091392
675.462454	54.005595
675.885391	53.943362
676.308305	53.905312
676.731194	53.879770
677.154058	53.869379
677.576899	53.874121
677.999715	53.884192
678.422507	53.914979
678.845274	53.955627
679.268017	54.003544
679.690736	54.054063
680.113430	54.108784
680.536100	54.162943
680.958746	54.224573
681.381367	54.288644
681.803963	54.353270
682.226535	54.425338
682.649083	54.495536
683.071605	54.564620
683.494104	54.642754
683.916578	54.728384
684.339027	54.815695
684.761451	54.909901
685.183851	55.013091
685.606227	55.120304
686.028577	55.241636
686.450903	55.369137
686.873204	55.518573
687.295481	55.661335
687.717733	55.809397
688.139959	55.963052
688.562162	56.129985
688.984339	56.301112
689.406492	56.478997
689.828619	56.675805
690.250722	56.878101
690.672800	57.087418
691.094853	57.315421
691.516881	57.545825
691.938884	57.786297
692.360863	58.034731
692.782816	58.303050
693.204744	58.582923
693.626647	58.869483
694.048526	59.158746
694.470379	59.469675
694.892207	59.790233
695.314010	60.113995
695.735788	60.453531
696.157540	60.801312
696.579268	61.169417
697.000970	61.533506
697.422648	61.900315
697.844300	62.278879
698.265926	62.671682
698.687528	63.064871
699.109104	63.456690
699.530655	63.842855
699.952181	64.235728
700.373681	64.619483
700.795156	65.009844
701.216606	65.402249
701.638030	65.777036
702.059429	66.152994
702.480803	66.512528
702.902151	66.854340
703.323473	67.189029
703.744770	67.507021
704.166042	67.802430
704.587288	68.077950
705.008509	68.324895
705.429704	68.566111
705.850873	68.776026
706.272017	68.959078
706.693135	69.121767
707.114228	69.269184
707.535295	69.373611
707.956336	69.452679
708.377352	69.507798
708.798342	69.540204
709.219306	69.550101
709.640245	69.525304
710.061157	69.487373
710.482044	69.433796
710.902905	69.361984
711.323741	69.265698
711.744550	69.167666
712.165334	69.053324
712.586092	68.944167
713.006823	68.818003
713.427529	68.699292
713.848209	68.568703
714.268863	68.443727
714.689492	68.314192
715.110094	68.183310
715.530670	68.052620
715.951220	67.920031
716.371744	67.779411
716.792242	67.648193
717.212714	67.493112
717.633159	67.359164
718.053579	67.226563
718.473973	67.092566
718.894340	66.964846
719.314681	66.828881
719.734996	66.695462
720.155285	66.562123
720.575547	66.432927
720.995784	66.311506
721.415994	66.182541
721.836177	66.057967
722.256335	65.939992
722.676466	65.817188
723.096570	65.699958
723.516649	65.578929
723.936701	65.459741
724.356726	65.345755
724.776725	65.227265
725.196698	65.111524
725.616644	64.982140
726.036564	64.843333
726.456457	64.695076
726.876324	64.553282
727.296164	64.406848
727.715977	64.259370
728.135764	64.110824
728.555525	63.962559
728.975258	63.819930
729.394966	63.683710
729.814646	63.537878
730.234300	63.425019
730.653927	63.297723
731.073527	63.191517
731.493101	63.079083
731.912648	62.969064
732.332168	62.880184
732.751661	62.805262
733.171128	62.735108
733.590568	62.686261
734.009980	62.644722
734.429366	62.633422
734.848726	62.629546
735.268058	62.631402
735.687363	62.665099
736.106641	62.711746
736.525893	62.784209
736.945117	62.872639
737.364314	62.969309
737.783485	63.076185
738.202628	63.199637
738.621744	63.338418
739.040834	63.501821
739.459896	63.693707
739.878931	63.887905
740.297939	64.088869
740.716919	64.315115
741.135873	64.552385
741.554799	64.810499
741.973698	65.074391
742.392570	65.353144
742.811415	65.643600
743.230232	65.941972
743.649022	66.247575
744.067785	66.559330
744.486521	66.863968
744.905229	67.164398
745.323909	67.469233
745.742563	67.762494
746.161189	68.051612
746.579787	68.323348
746.998358	68.580311
747.416902	68.838001
747.835418	69.068085
748.253907	69.286791
748.672368	69.483394
749.090802	69.667400
749.509208	69.814857
749.927586	69.952335
750.345937	70.070583
750.764261	70.180525
751.182556	70.266100
751.600824	70.357219
752.019065	70.433165
752.437277	70.489422
752.855462	70.545288
753.273620	70.605872
753.691749	70.639135
754.109851	70.678547
754.527925	70.704570
754.945971	70.719311
755.363989	70.732310
755.781980	70.733612
756.199943	70.727618
756.617877	70.719338
