Time1=100ms:Average1=5:Objective=10X:Aperture=1: (11/21/2018 3:05:22 PM)
11/21/2018 3:05:22 PM
Reflectance
10X
Ap#: 1
Avg1: 5.000000
Avg2: 0.000000
Int.Time1:100.000000

350.166136	96.039052
350.601937	96.623052
351.037728	96.970885
351.473509	97.274510
351.909281	97.182407
352.345042	97.096870
352.780794	96.999309
353.216536	97.447819
353.652267	97.593583
354.087989	97.396297
354.523701	97.175030
354.959403	96.880861
355.395095	97.170278
355.830777	97.416865
356.266449	96.957123
356.702110	96.721796
357.137762	96.410709
357.573404	96.061140
358.009035	95.781953
358.444656	95.911364
358.880268	95.734505
359.315869	95.790193
359.751459	95.482988
360.187040	96.310395
360.622610	96.947988
361.058170	96.761811
361.493720	96.934753
361.929260	96.776096
362.364789	97.125642
362.800308	96.694706
363.235816	96.736344
363.671314	96.832268
364.106802	96.842416
364.542279	96.787228
364.977746	96.946715
365.413203	97.306664
365.848649	97.201345
366.284084	96.928869
366.719509	96.860500
367.154924	97.047497
367.590328	97.212647
368.025721	97.171299
368.461104	97.273266
368.896477	97.723899
369.331838	97.131875
369.767189	97.560012
370.202530	97.680642
370.637859	98.067729
371.073178	98.316230
371.508486	98.486809
371.943784	98.152563
372.379071	97.924116
372.814347	97.713550
373.249612	97.832542
373.684866	97.640995
374.120110	97.935802
374.555343	98.158963
374.990565	98.028141
375.425776	98.147598
375.860976	97.934987
376.296165	98.322644
376.731343	98.122159
377.166511	98.333829
377.601667	98.265155
378.036812	98.118597
378.471946	97.979898
378.907070	97.746203
379.342182	97.536898
379.777283	97.697658
380.212373	97.430617
380.647452	97.158813
381.082520	97.346259
381.517576	97.379742
381.952622	96.964717
382.387656	96.738922
382.822679	96.905537
383.257691	96.640580
383.692692	96.751762
384.127681	96.922200
384.562659	96.588001
384.997626	96.079358
385.432581	96.260886
385.867525	96.872624
386.302458	96.794081
386.737379	97.079250
387.172289	96.534371
387.607188	95.874431
388.042075	95.759751
388.476951	95.641921
388.911815	95.109105
389.346668	94.902071
389.781509	94.774859
390.216338	94.822582
390.651157	94.892901
391.085963	94.885725
391.520758	95.295661
391.955541	94.904518
392.390313	94.775145
392.825073	94.551043
393.259821	94.536685
393.694558	94.525750
394.129283	94.634598
394.563996	94.401259
394.998698	94.754402
395.433388	95.023807
395.868066	94.689520
396.302732	94.474004
396.737386	94.136262
397.172029	94.054255
397.606659	93.230513
398.041278	92.771859
398.475885	92.742377
398.910480	92.151202
399.345063	91.327962
399.779634	90.300312
400.214194	88.707524
400.648741	87.146400
401.083276	85.516533
401.517799	83.672328
401.952310	81.395529
402.386809	79.147772
402.821296	76.489243
403.255771	73.605320
403.690234	70.328411
404.124684	66.951231
404.559123	63.589008
404.993549	60.087804
405.427963	56.515940
405.862365	53.152765
406.296754	50.067964
406.731131	47.055046
407.165496	44.261156
407.599849	41.588257
408.034190	39.039763
408.468518	36.682672
408.902833	34.527366
409.337137	32.527627
409.771428	30.689218
410.205706	28.852373
410.639973	27.334656
411.074226	25.982366
411.508467	24.757097
411.942696	23.598848
412.376912	22.534406
412.811116	21.562808
413.245307	20.723923
413.679486	19.948961
414.113652	19.219828
414.547805	18.518062
414.981946	17.872614
415.416074	17.289538
415.850190	16.784546
416.284293	16.363545
416.718383	15.950484
417.152460	15.537709
417.586525	15.233643
418.020577	14.953287
418.454616	14.634366
418.888643	14.398687
419.322656	14.188197
419.756657	13.976353
420.190645	13.742831
420.624620	13.539729
421.058582	13.349508
421.492531	13.171285
421.926468	13.027876
422.360391	12.870225
422.794301	12.766071
423.228199	12.667312
423.662083	12.591787
424.095955	12.468943
424.529813	12.351139
424.963658	12.283875
425.397491	12.181956
425.831310	12.087800
426.265116	12.018687
426.698909	11.927092
427.132689	11.865722
427.566455	11.803659
428.000209	11.771851
428.433949	11.727945
428.867676	11.691898
429.301389	11.672328
429.735090	11.626450
430.168777	11.602708
430.602451	11.583069
431.036111	11.536115
431.469759	11.489710
431.903392	11.463468
432.337013	11.429435
432.770620	11.391012
433.204213	11.355692
433.637794	11.368715
434.071360	11.372867
434.504914	11.349692
434.938453	11.341186
435.371979	11.335815
435.805492	11.349613
436.238991	11.346392
436.672477	11.346997
437.105949	11.363171
437.539407	11.367595
437.972852	11.384029
438.406283	11.394933
438.839700	11.421169
439.273104	11.444135
439.706494	11.440941
440.139871	11.463588
440.573233	11.468304
441.006582	11.459667
441.439917	11.450502
441.873238	11.460949
442.306546	11.462674
442.739839	11.449589
443.173119	11.435806
443.606385	11.413376
444.039636	11.395909
444.472874	11.379193
444.906099	11.373298
445.339309	11.365103
445.772505	11.349640
446.205687	11.369235
446.638855	11.371227
447.072009	11.356703
447.505149	11.345263
447.938275	11.358728
448.371387	11.360845
448.804485	11.354721
449.237569	11.342628
449.670638	11.341768
450.103694	11.330278
450.536735	11.305356
450.969762	11.287766
451.402774	11.259281
451.835773	11.209506
452.268757	11.202984
452.701727	11.178483
453.134683	11.173347
453.567624	11.156562
454.000551	11.141103
454.433464	11.132619
454.866362	11.119816
455.299246	11.094179
455.732116	11.082151
456.164971	11.064381
456.597811	11.052450
457.030638	11.029771
457.463449	11.019839
457.896246	11.008619
458.329029	10.992265
458.761797	10.975854
459.194551	10.965078
459.627290	10.924846
460.060014	10.902696
460.492724	10.875078
460.925419	10.859366
461.358099	10.848730
461.790765	10.833344
462.223416	10.826769
462.656052	10.805934
463.088674	10.776713
463.521281	10.761999
463.953873	10.768836
464.386450	10.755718
464.819012	10.760381
465.251560	10.780431
465.684093	10.768304
466.116611	10.790481
466.549114	10.810402
466.981602	10.847380
467.414075	10.873206
467.846533	10.915368
468.278977	10.957512
468.711405	11.018091
469.143818	11.086192
469.576216	11.162998
470.008600	11.243733
470.440968	11.328209
470.873321	11.419570
471.305659	11.506790
471.737982	11.608769
472.170289	11.728037
472.602582	11.834125
473.034859	11.956578
473.467122	12.077494
473.899369	12.203182
474.331600	12.328919
474.763817	12.462519
475.196018	12.611327
475.628204	12.763944
476.060375	12.929731
476.492530	13.108025
476.924670	13.287005
477.356795	13.462710
477.788904	13.665694
478.220998	13.855569
478.653076	14.043168
479.085139	14.242951
479.517186	14.434800
479.949219	14.608764
480.381235	14.787773
480.813236	14.975373
481.245221	15.162088
481.677191	15.347754
482.109146	15.516426
482.541084	15.695943
482.973008	15.862500
483.404915	16.036449
483.836807	16.211942
484.268683	16.388125
484.700544	16.552711
485.132388	16.711973
485.564217	16.864237
485.996031	17.021543
486.427828	17.167367
486.859610	17.312284
487.291376	17.458458
487.723126	17.595324
488.154860	17.731586
488.586579	17.864131
489.018281	18.003079
489.449968	18.146436
489.881639	18.289648
490.313293	18.429816
490.744932	18.566310
491.176555	18.701787
491.608162	18.845078
492.039753	18.991703
492.471328	19.131193
492.902886	19.270588
493.334429	19.415402
493.765956	19.543784
494.197466	19.672998
494.628960	19.796754
495.060439	19.931796
495.491901	20.070317
495.923347	20.196631
496.354776	20.337545
496.786190	20.478165
497.217587	20.633947
497.648968	20.786507
498.080332	20.968379
498.511681	21.147530
498.943013	21.333609
499.374328	21.529571
499.805628	21.731432
500.236911	21.934040
500.668177	22.133797
501.099427	22.340054
501.530661	22.538011
501.961878	22.737164
502.393079	22.923671
502.824264	23.101923
503.255431	23.282964
503.686583	23.449335
504.117717	23.633352
504.548835	23.812155
504.979937	23.985338
505.411022	24.162837
505.842090	24.342261
506.273142	24.519422
506.704177	24.709557
507.135195	24.907616
507.566197	25.104116
507.997182	25.297565
508.428150	25.495086
508.859102	25.679228
509.290036	25.861689
509.720954	26.035720
510.151855	26.211596
510.582739	26.373073
511.013607	26.545529
511.444457	26.702666
511.875291	26.867408
512.306107	27.039848
512.736907	27.210225
513.167690	27.389574
513.598456	27.583563
514.029205	27.786737
514.459936	28.008385
514.890651	28.246884
515.321349	28.500546
515.752030	28.788536
516.182693	29.093070
516.613340	29.419937
517.043969	29.787447
517.474582	30.165703
517.905177	30.573525
518.335755	31.011566
518.766315	31.462495
519.196859	31.930587
519.627385	32.417428
520.057894	32.908327
520.488386	33.409170
520.918860	33.936527
521.349318	34.498463
521.779757	35.067282
522.210180	35.674427
522.640585	36.305055
523.070973	36.967098
523.501343	37.641114
523.931696	38.341722
524.362031	39.039284
524.792349	39.778774
525.222650	40.526381
525.652933	41.296758
526.083198	42.068503
526.513446	42.856520
526.943677	43.651419
527.373890	44.451799
527.804085	45.264191
528.234262	46.077183
528.664422	46.890958
529.094565	47.679508
529.524689	48.477535
529.954796	49.287546
530.384885	50.090332
530.814957	50.891279
531.245011	51.680472
531.675047	52.461632
532.105065	53.268287
532.535065	54.079424
532.965048	54.892085
533.395013	55.723899
533.824959	56.554321
534.254888	57.380913
534.684799	58.230543
535.114693	59.085209
535.544568	59.934249
535.974425	60.773323
536.404264	61.602181
536.834086	62.413415
537.263889	63.221609
537.693674	64.019851
538.123441	64.796413
538.553190	65.550648
538.982921	66.284554
539.412634	67.011280
539.842329	67.717166
540.272006	68.414377
540.701664	69.094428
541.131304	69.744825
541.560926	70.384972
541.990530	71.009101
542.420116	71.627624
542.849683	72.230677
543.279232	72.807127
543.708763	73.371656
544.138275	73.908141
544.567769	74.440043
544.997245	74.945999
545.426702	75.435278
545.856141	75.894850
546.285562	76.357344
546.714964	76.785533
547.144347	77.224930
547.573713	77.644710
548.003059	78.049922
548.432387	78.450644
548.861697	78.837497
549.290988	79.229507
549.720260	79.611275
550.149514	79.978801
550.578750	80.339137
551.007966	80.720624
551.437164	81.092253
551.866344	81.489526
552.295504	81.876716
552.724646	82.268143
553.153769	82.673186
553.582874	83.078853
554.011960	83.478283
554.441027	83.874264
554.870075	84.273943
555.299104	84.673245
555.728115	85.067821
556.157106	85.463951
556.586079	85.839028
557.015033	86.211732
557.443968	86.583332
557.872884	86.946468
558.301781	87.311161
558.730659	87.632784
559.159518	87.987007
559.588358	88.320538
560.017180	88.649578
560.445982	88.955382
560.874765	89.260181
561.303528	89.562727
561.732273	89.837468
562.160999	90.118844
562.589705	90.386683
563.018393	90.659297
563.447061	90.913403
563.875710	91.166272
564.304340	91.402077
564.732950	91.632355
565.161542	91.855937
565.590114	92.079031
566.018666	92.299623
566.447200	92.497389
566.875714	92.700650
567.304208	92.911950
567.732684	93.126604
568.161140	93.314545
568.589576	93.498937
569.017993	93.684185
569.446391	93.854427
569.874769	94.026943
570.303128	94.189487
570.731467	94.354009
571.159787	94.500064
571.588087	94.632753
572.016368	94.794071
572.444629	94.920494
572.872870	95.040534
573.301092	95.184089
573.729294	95.297300
574.157476	95.407189
574.585639	95.510984
575.013782	95.626314
575.441906	95.731693
575.870009	95.840651
576.298093	95.948398
576.726157	96.077543
577.154202	96.183474
577.582226	96.295498
578.010231	96.413295
578.438216	96.520420
578.866181	96.631554
579.294126	96.737086
579.722051	96.854735
580.149957	96.965953
580.577842	97.071683
581.005707	97.159536
581.433553	97.271705
581.861378	97.378480
582.289184	97.494863
582.716969	97.605682
583.144734	97.702299
583.572479	97.816068
584.000205	97.906145
584.427910	98.006821
584.855594	98.125642
585.283259	98.208215
585.710904	98.289408
586.138528	98.377732
586.566132	98.416105
586.993716	98.478985
587.421280	98.523817
587.848823	98.555988
588.276346	98.577260
588.703849	98.585774
589.131332	98.572407
589.558794	98.523985
589.986236	98.448707
590.413657	98.387640
590.841058	98.300583
591.268438	98.189687
591.695799	98.055788
592.123138	97.920856
592.550458	97.768538
592.977756	97.607752
593.405034	97.430889
593.832292	97.238583
594.259529	97.049749
594.686746	96.851511
595.113942	96.648130
595.541117	96.429639
595.968272	96.219999
596.395406	96.008577
596.822519	95.785373
597.249612	95.571797
597.676684	95.362222
598.103735	95.133900
598.530766	94.934258
598.957775	94.727116
599.384764	94.514357
599.811733	94.340151
600.238680	94.151171
600.665606	93.971076
601.092512	93.783006
601.519397	93.603739
601.946261	93.418921
602.373104	93.235530
602.799926	93.083138
603.226727	92.936682
603.653507	92.773826
604.080266	92.612110
604.507004	92.462265
604.933721	92.315456
605.360417	92.150109
605.787092	91.993597
606.213746	91.837273
606.640379	91.669336
607.066991	91.516944
607.493581	91.358491
607.920150	91.198910
608.346699	91.021492
608.773226	90.853145
609.199731	90.671732
609.626216	90.488604
610.052679	90.286513
610.479121	90.080010
610.905542	89.846518
611.331941	89.615987
611.758319	89.360624
612.184676	89.106850
612.611011	88.827023
613.037325	88.521840
613.463617	88.219297
613.889888	87.888772
614.316138	87.546502
614.742366	87.181116
615.168573	86.805677
615.594758	86.403234
616.020921	85.970638
616.447063	85.521859
616.873184	85.056787
617.299283	84.575655
617.725360	84.069225
618.151416	83.554952
618.577450	83.019814
619.003462	82.474694
619.429453	81.910833
619.855422	81.351836
620.281369	80.790750
620.707295	80.200899
621.133199	79.590472
621.559081	78.989002
621.984941	78.366332
622.410779	77.718665
622.836596	77.063045
623.262391	76.399081
623.688163	75.717238
624.113914	75.023639
624.539644	74.311371
624.965351	73.593155
625.391036	72.856643
625.816699	72.111156
626.242340	71.350837
626.667960	70.564950
627.093557	69.788390
627.519132	69.006859
627.944685	68.217451
628.370216	67.429418
628.795725	66.665600
629.221212	65.896747
629.646677	65.157443
630.072119	64.442541
630.497540	63.746166
630.922938	63.084263
631.348314	62.446745
631.773668	61.853720
632.198999	61.298419
632.624308	60.777766
633.049595	60.281920
633.474860	59.815861
633.900102	59.406431
634.325322	59.038753
634.750520	58.708674
635.175695	58.417532
635.600848	58.175851
636.025978	57.980816
636.451086	57.826081
636.876171	57.704374
637.301234	57.625707
637.726275	57.583988
638.151293	57.583001
638.576288	57.618129
639.001261	57.692943
639.426211	57.792342
639.851139	57.937077
640.276044	58.119596
640.700927	58.334306
641.125787	58.576888
641.550624	58.850019
641.975438	59.139325
642.400230	59.459628
642.824999	59.789411
643.249745	60.131091
643.674469	60.490220
644.099169	60.846178
644.523847	61.216400
644.948502	61.583558
645.373135	61.939608
645.797744	62.297969
646.222330	62.654119
646.646894	62.995530
647.071435	63.322958
647.495953	63.653298
647.920447	63.961758
648.344919	64.250702
648.769368	64.525521
649.193794	64.789348
649.618197	65.019500
650.042576	65.247454
650.466933	65.474659
650.891267	65.696290
651.315577	65.906270
651.739864	66.109106
652.164129	66.304194
652.588370	66.506045
653.012587	66.697604
653.436782	66.894260
653.860953	67.088145
654.285102	67.302683
654.709226	67.526270
655.133328	67.748185
655.557406	67.990722
655.981461	68.250708
656.405493	68.537839
656.829501	68.827253
657.253486	69.148649
657.677448	69.468368
658.101386	69.815992
658.525301	70.180972
658.949192	70.546813
659.373060	70.923736
659.796904	71.300358
660.220725	71.690381
660.644522	72.065231
661.068296	72.437489
661.492046	72.813021
661.915772	73.196011
662.339475	73.550250
662.763154	73.920419
663.186810	74.270285
663.610442	74.595396
664.034050	74.905633
664.457635	75.195103
664.881196	75.478932
665.304733	75.748041
665.728247	75.995886
666.151736	76.237670
666.575202	76.455860
666.998644	76.664652
667.422062	76.846606
667.845457	77.007774
668.268827	77.148514
668.692174	77.264821
669.115496	77.356270
669.538795	77.411065
669.962070	77.462920
670.385321	77.472375
670.808547	77.468867
671.231750	77.429443
671.654929	77.376515
672.078084	77.312680
672.501214	77.210832
672.924321	77.123728
673.347404	77.022719
673.770462	76.912411
674.193496	76.797617
674.616506	76.685051
675.039492	76.558666
675.462454	76.456546
675.885391	76.349953
676.308305	76.254259
676.731194	76.170151
677.154058	76.093134
677.576899	76.037107
677.999715	75.989710
678.422507	75.955407
678.845274	75.922510
679.268017	75.917171
679.690736	75.908222
680.113430	75.910159
680.536100	75.934431
680.958746	75.972807
681.381367	76.043520
681.803963	76.115247
682.226535	76.200022
682.649083	76.311813
683.071605	76.426799
683.494104	76.565659
683.916578	76.719502
684.339027	76.899948
684.761451	77.088722
685.183851	77.287634
685.606227	77.525945
686.028577	77.758139
686.450903	78.006556
686.873204	78.264162
687.295481	78.534263
687.717733	78.805270
688.139959	79.072029
688.562162	79.344798
688.984339	79.622576
689.406492	79.896796
689.828619	80.162359
690.250722	80.421317
690.672800	80.666415
691.094853	80.900612
691.516881	81.123666
691.938884	81.359136
692.360863	81.555860
692.782816	81.749377
693.204744	81.938558
693.626647	82.101741
694.048526	82.252836
694.470379	82.381501
694.892207	82.509162
695.314010	82.621048
695.735788	82.719135
696.157540	82.796577
696.579268	82.866094
697.000970	82.924722
697.422648	82.965778
697.844300	82.987813
698.265926	83.006441
698.687528	83.011221
699.109104	83.001497
699.530655	82.981669
699.952181	82.962513
700.373681	82.939666
700.795156	82.914998
701.216606	82.905353
701.638030	82.887752
702.059429	82.857430
702.480803	82.854551
702.902151	82.851617
703.323473	82.863208
703.744770	82.871791
704.166042	82.894624
704.587288	82.920563
705.008509	82.962189
705.429704	83.022165
705.850873	83.092742
706.272017	83.163472
706.693135	83.255089
707.114228	83.355997
707.535295	83.466445
707.956336	83.590586
708.377352	83.715843
708.798342	83.855827
709.219306	83.999541
709.640245	84.144507
710.061157	84.290918
710.482044	84.436803
710.902905	84.583735
711.323741	84.718992
711.744550	84.857455
712.165334	85.002261
712.586092	85.135186
713.006823	85.262727
713.427529	85.390478
713.848209	85.507669
714.268863	85.615958
714.689492	85.717287
715.110094	85.822224
715.530670	85.901144
715.951220	85.989590
716.371744	86.073172
716.792242	86.151060
717.212714	86.224057
717.633159	86.305779
718.053579	86.374841
718.473973	86.440614
718.894340	86.504537
719.314681	86.572542
719.734996	86.634734
720.155285	86.687040
720.575547	86.742798
720.995784	86.802081
721.415994	86.859061
721.836177	86.910801
722.256335	86.973640
722.676466	87.027742
723.096570	87.088191
723.516649	87.147045
723.936701	87.221959
724.356726	87.300601
724.776725	87.373143
725.196698	87.447416
725.616644	87.536816
726.036564	87.626289
726.456457	87.713381
726.876324	87.797515
727.296164	87.883520
727.715977	87.981376
728.135764	88.071234
728.555525	88.162414
728.975258	88.247939
729.394966	88.311048
729.814646	88.378785
730.234300	88.439209
730.653927	88.492655
731.073527	88.519931
731.493101	88.543019
731.912648	88.562717
732.332168	88.567734
732.751661	88.562166
733.171128	88.558428
733.590568	88.540028
734.009980	88.495940
734.429366	88.460261
734.848726	88.401080
735.268058	88.336874
735.687363	88.279588
736.106641	88.210827
736.525893	88.125526
736.945117	88.035152
737.364314	87.956541
737.783485	87.867213
738.202628	87.775375
738.621744	87.670297
739.040834	87.564342
739.459896	87.469158
739.878931	87.383229
740.297939	87.282077
740.716919	87.171564
741.135873	87.077536
741.554799	86.985917
741.973698	86.900056
742.392570	86.814662
742.811415	86.740855
743.230232	86.661461
743.649022	86.595603
744.067785	86.534404
744.486521	86.481121
744.905229	86.433731
745.323909	86.385219
745.742563	86.344143
746.161189	86.301806
746.579787	86.274286
746.998358	86.249212
747.416902	86.228553
747.835418	86.220035
748.253907	86.216380
748.672368	86.206942
749.090802	86.208562
749.509208	86.222853
749.927586	86.238484
750.345937	86.265126
750.764261	86.285353
751.182556	86.313646
751.600824	86.354370
752.019065	86.410360
752.437277	86.455870
752.855462	86.515971
753.273620	86.586524
753.691749	86.665475
754.109851	86.735535
