Time1=100ms:Average1=5:Objective=10X:Aperture=1: (11/21/2018 11:17:20 AM)
11/21/2018 11:17:20 AM
Reflectance
10X
Ap#: 1
Avg1: 5.000000
Avg2: 0.000000
Int.Time1:100.000000

350.166136	84.862209
350.601937	85.267768
351.037728	85.338078
351.473509	85.252199
351.909281	84.841101
352.345042	85.228665
352.780794	85.252608
353.216536	85.727412
353.652267	86.209719
354.087989	85.766834
354.523701	85.680751
354.959403	85.554311
355.395095	85.806188
355.830777	85.995311
356.266449	86.431853
356.702110	86.064660
357.137762	86.821469
357.573404	86.081787
358.009035	85.532917
358.444656	85.682005
358.880268	85.874486
359.315869	86.172076
359.751459	85.929958
360.187040	85.993821
360.622610	86.258124
361.058170	85.898361
361.493720	85.400103
361.929260	85.823517
362.364789	85.430804
362.800308	85.312243
363.235816	85.271398
363.671314	85.050277
364.106802	84.755159
364.542279	84.718664
364.977746	85.100021
365.413203	85.579905
365.848649	84.763971
366.284084	84.386846
366.719509	84.269893
367.154924	84.289968
367.590328	83.775207
368.025721	84.009009
368.461104	84.220240
368.896477	84.384600
369.331838	84.387797
369.767189	83.253880
370.202530	83.406515
370.637859	82.430247
371.073178	82.680036
371.508486	83.380653
371.943784	83.260583
372.379071	83.252230
372.814347	83.331638
373.249612	83.553837
373.684866	83.173417
374.120110	83.446322
374.555343	82.974203
374.990565	83.418907
375.425776	83.261241
375.860976	84.068924
376.296165	83.512942
376.731343	82.833951
377.166511	83.035176
377.601667	82.994695
378.036812	83.022463
378.471946	82.925367
378.907070	82.901296
379.342182	83.240446
379.777283	83.182406
380.212373	82.583656
380.647452	82.565269
381.082520	82.763730
381.517576	82.669166
381.952622	82.836710
382.387656	82.969171
382.822679	83.295126
383.257691	83.915524
383.692692	84.326425
384.127681	84.716245
384.562659	84.773540
384.997626	84.490282
385.432581	84.207413
385.867525	84.394372
386.302458	84.497111
386.737379	84.228056
387.172289	84.145625
387.607188	83.517871
388.042075	83.832685
388.476951	83.649635
388.911815	84.030344
389.346668	84.298647
389.781509	84.533464
390.216338	85.141348
390.651157	85.445139
391.085963	85.876814
391.520758	85.721276
391.955541	86.155505
392.390313	85.543341
392.825073	85.428016
393.259821	85.272532
393.694558	86.103462
394.129283	85.824616
394.563996	86.177106
394.998698	86.272575
395.433388	85.867647
395.868066	85.765073
396.302732	85.811140
396.737386	85.671889
397.172029	85.436281
397.606659	85.424729
398.041278	85.145032
398.475885	85.081842
398.910480	85.042185
399.345063	84.327618
399.779634	83.591520
400.214194	82.565472
400.648741	81.587186
401.083276	80.278062
401.517799	79.071672
401.952310	76.586223
402.386809	74.163066
402.821296	71.358866
403.255771	69.357642
403.690234	66.806029
404.124684	63.609262
404.559123	60.345631
404.993549	57.486654
405.427963	54.495683
405.862365	52.096934
406.296754	49.338571
406.731131	47.147846
407.165496	44.796270
407.599849	42.663717
408.034190	40.712669
408.468518	38.862659
408.902833	37.196579
409.337137	35.645936
409.771428	34.188719
410.205706	32.778437
410.639973	31.554085
411.074226	30.494400
411.508467	29.599200
411.942696	28.675674
412.376912	27.863608
412.811116	27.255306
413.245307	26.653115
413.679486	26.175142
414.113652	25.632641
414.547805	25.131314
414.981946	24.672287
415.416074	24.415512
415.850190	24.111081
416.284293	23.791607
416.718383	23.450742
417.152460	23.154227
417.586525	22.955850
418.020577	22.788757
418.454616	22.703699
418.888643	22.547721
419.322656	22.364557
419.756657	22.276769
420.190645	22.162858
420.624620	22.017889
421.058582	21.905085
421.492531	21.814259
421.926468	21.736548
422.360391	21.642445
422.794301	21.544333
423.228199	21.491789
423.662083	21.460581
424.095955	21.434807
424.529813	21.406522
424.963658	21.347567
425.397491	21.307561
425.831310	21.310742
426.265116	21.276051
426.698909	21.223661
427.132689	21.168173
427.566455	21.146553
428.000209	21.137256
428.433949	21.101839
428.867676	21.067925
429.301389	21.062625
429.735090	21.063105
430.168777	21.033453
430.602451	21.018961
431.036111	20.967348
431.469759	20.937019
431.903392	20.859087
432.337013	20.834163
432.770620	20.788929
433.204213	20.735766
433.637794	20.705678
434.071360	20.695624
434.504914	20.683038
434.938453	20.649954
435.371979	20.617832
435.805492	20.596411
436.238991	20.554986
436.672477	20.526921
437.105949	20.506329
437.539407	20.460745
437.972852	20.416261
438.406283	20.379365
438.839700	20.331819
439.273104	20.247474
439.706494	20.184292
440.139871	20.156406
440.573233	20.116420
441.006582	20.054772
441.439917	19.989383
441.873238	19.920354
442.306546	19.842353
442.739839	19.745008
443.173119	19.641554
443.606385	19.567279
444.039636	19.491875
444.472874	19.421074
444.906099	19.324839
445.339309	19.263666
445.772505	19.163615
446.205687	19.106683
446.638855	19.030136
447.072009	18.936388
447.505149	18.869543
447.938275	18.783766
448.371387	18.695943
448.804485	18.603325
449.237569	18.505777
449.670638	18.426692
450.103694	18.304964
450.536735	18.205257
450.969762	18.107802
451.402774	17.992527
451.835773	17.868692
452.268757	17.771772
452.701727	17.675306
453.134683	17.559232
453.567624	17.428175
454.000551	17.312295
454.433464	17.218235
454.866362	17.122141
455.299246	17.024090
455.732116	16.906715
456.164971	16.788250
456.597811	16.689868
457.030638	16.572144
457.463449	16.456036
457.896246	16.341043
458.329029	16.238554
458.761797	16.132903
459.194551	16.031144
459.627290	15.915452
460.060014	15.815055
460.492724	15.707523
460.925419	15.597406
461.358099	15.496230
461.790765	15.416287
462.223416	15.338690
462.656052	15.263411
463.088674	15.196123
463.521281	15.143280
463.953873	15.084386
464.386450	15.026229
464.819012	15.006715
465.251560	14.993521
465.684093	14.982225
466.116611	14.987500
466.549114	14.993419
466.981602	15.016484
467.414075	15.038330
467.846533	15.058922
468.278977	15.085938
468.711405	15.125756
469.143818	15.195759
469.576216	15.284380
470.008600	15.360415
470.440968	15.458658
470.873321	15.557714
471.305659	15.674991
471.737982	15.809332
472.170289	15.925359
472.602582	16.063743
473.034859	16.191418
473.467122	16.332847
473.899369	16.478367
474.331600	16.622409
474.763817	16.779311
475.196018	16.927361
475.628204	17.085395
476.060375	17.246827
476.492530	17.404241
476.924670	17.561436
477.356795	17.717298
477.788904	17.879884
478.220998	18.036271
478.653076	18.193357
479.085139	18.345088
479.517186	18.499661
479.949219	18.644291
480.381235	18.771050
480.813236	18.887171
481.245221	19.011897
481.677191	19.132323
482.109146	19.247865
482.541084	19.348185
482.973008	19.430167
483.404915	19.512813
483.836807	19.599537
484.268683	19.663655
484.700544	19.717157
485.132388	19.768449
485.564217	19.804245
485.996031	19.836033
486.427828	19.872651
486.859610	19.885761
487.291376	19.896914
487.723126	19.900751
488.154860	19.882231
488.586579	19.858155
489.018281	19.840757
489.449968	19.801212
489.881639	19.763974
490.313293	19.716713
490.744932	19.665743
491.176555	19.608739
491.608162	19.533991
492.039753	19.454770
492.471328	19.358902
492.902886	19.239741
493.334429	19.128489
493.765956	19.014928
494.197466	18.902045
494.628960	18.768627
495.060439	18.635408
495.491901	18.497599
495.923347	18.358172
496.354776	18.219925
496.786190	18.093965
497.217587	17.952453
497.648968	17.818757
498.080332	17.678572
498.511681	17.530145
498.943013	17.387280
499.374328	17.247218
499.805628	17.101551
500.236911	16.975224
500.668177	16.845168
501.099427	16.725274
501.530661	16.629251
501.961878	16.549971
502.393079	16.462816
502.824264	16.414919
503.255431	16.373603
503.686583	16.357242
504.117717	16.364000
504.548835	16.387978
504.979937	16.438377
505.411022	16.501724
505.842090	16.588218
506.273142	16.703324
506.704177	16.840100
507.135195	17.008323
507.566197	17.205217
507.997182	17.444740
508.428150	17.702596
508.859102	17.999626
509.290036	18.326997
509.720954	18.707206
510.151855	19.095882
510.582739	19.533489
511.013607	19.993015
511.444457	20.499559
511.875291	21.029136
512.306107	21.611362
512.736907	22.205841
513.167690	22.846455
513.598456	23.522462
514.029205	24.245172
514.459936	25.005490
514.890651	25.801943
515.321349	26.625810
515.752030	27.488247
516.182693	28.375952
516.613340	29.307435
517.043969	30.262915
517.474582	31.247304
517.905177	32.247962
518.335755	33.268619
518.766315	34.306621
519.196859	35.351113
519.627385	36.411485
520.057894	37.477423
520.488386	38.549368
520.918860	39.626424
521.349318	40.712200
521.779757	41.835402
522.210180	42.964986
522.640585	44.099895
523.070973	45.228273
523.501343	46.371307
523.931696	47.503080
524.362031	48.656930
524.792349	49.791768
525.222650	50.938773
525.652933	52.075757
526.083198	53.211391
526.513446	54.314665
526.943677	55.404631
527.373890	56.491729
527.804085	57.561707
528.234262	58.615544
528.664422	59.665471
529.094565	60.705809
529.524689	61.734097
529.954796	62.723630
530.384885	63.691679
530.814957	64.627424
531.245011	65.572018
531.675047	66.504504
532.105065	67.415707
532.535065	68.322880
532.965048	69.212465
533.395013	70.069704
533.824959	70.909799
534.254888	71.727386
534.684799	72.549495
535.114693	73.348353
535.544568	74.125047
535.974425	74.882540
536.404264	75.594118
536.834086	76.294158
537.263889	76.993237
537.693674	77.664697
538.123441	78.329197
538.553190	78.939830
538.982921	79.548363
539.412634	80.133339
539.842329	80.738182
540.272006	81.305608
540.701664	81.845905
541.131304	82.374886
541.560926	82.879259
541.990530	83.371481
542.420116	83.855183
542.849683	84.296602
543.279232	84.763268
543.708763	85.198013
544.138275	85.632513
544.567769	86.025144
544.997245	86.403158
545.426702	86.767286
545.856141	87.139958
546.285562	87.500629
546.714964	87.844597
547.144347	88.185647
547.573713	88.533994
548.003059	88.852439
548.432387	89.160415
548.861697	89.459490
549.290988	89.767562
549.720260	90.086127
550.149514	90.374078
550.578750	90.655876
551.007966	90.920608
551.437164	91.198840
551.866344	91.479858
552.295504	91.727584
552.724646	91.993164
553.153769	92.242782
553.582874	92.503604
554.011960	92.747314
554.441027	92.996838
554.870075	93.234014
555.299104	93.452792
555.728115	93.656604
556.157106	93.883349
556.586079	94.067437
557.015033	94.255866
557.443968	94.434325
557.872884	94.595653
558.301781	94.757630
558.730659	94.925519
559.159518	95.050360
559.588358	95.181605
560.017180	95.318462
560.445982	95.435966
560.874765	95.534335
561.303528	95.637699
561.732273	95.757076
562.160999	95.872677
562.589705	95.979112
563.018393	96.070155
563.447061	96.174726
563.875710	96.272774
564.304340	96.381928
564.732950	96.470253
565.161542	96.574380
565.590114	96.671449
566.018666	96.769330
566.447200	96.854208
566.875714	96.932477
567.304208	97.032946
567.732684	97.117337
568.161140	97.208238
568.589576	97.308019
569.017993	97.390156
569.446391	97.463474
569.874769	97.562002
570.303128	97.645586
570.731467	97.736843
571.159787	97.825383
571.588087	97.908807
572.016368	97.977218
572.444629	98.060557
572.872870	98.122324
573.301092	98.170696
573.729294	98.214621
574.157476	98.271623
574.585639	98.308260
575.013782	98.323456
575.441906	98.357169
575.870009	98.376264
576.298093	98.400121
576.726157	98.420170
577.154202	98.426938
577.582226	98.441161
578.010231	98.440524
578.438216	98.433616
578.866181	98.423262
579.294126	98.404011
579.722051	98.403530
580.149957	98.403055
580.577842	98.380899
581.005707	98.369438
581.433553	98.352312
581.861378	98.336379
582.289184	98.336069
582.716969	98.330369
583.144734	98.304145
583.572479	98.306111
584.000205	98.279965
584.427910	98.276268
584.855594	98.260059
585.283259	98.226469
585.710904	98.196798
586.138528	98.162738
586.566132	98.143829
586.993716	98.122317
587.421280	98.087215
587.848823	98.083083
588.276346	98.062531
588.703849	98.006400
589.131332	97.951579
589.558794	97.904065
589.986236	97.829320
590.413657	97.775208
590.841058	97.703027
591.268438	97.617808
591.695799	97.532950
592.123138	97.441223
592.550458	97.362065
592.977756	97.255802
593.405034	97.141779
593.832292	97.040475
594.259529	96.914680
594.686746	96.793625
595.113942	96.653304
595.541117	96.495357
595.968272	96.341517
596.395406	96.187988
596.822519	96.019828
597.249612	95.867825
597.676684	95.697946
598.103735	95.520492
598.530766	95.378012
598.957775	95.218321
599.384764	95.056489
599.811733	94.882498
600.238680	94.709314
600.665606	94.543772
601.092512	94.357072
601.519397	94.169840
601.946261	94.000803
602.373104	93.816685
602.799926	93.616192
603.226727	93.440446
603.653507	93.235356
604.080266	93.021536
604.507004	92.824026
604.933721	92.595489
605.360417	92.385523
605.787092	92.151150
606.213746	91.909307
606.640379	91.664396
607.066991	91.395806
607.493581	91.119829
607.920150	90.837564
608.346699	90.555241
608.773226	90.261250
609.199731	89.951887
609.626216	89.621635
610.052679	89.278923
610.479121	88.920120
610.905542	88.549085
611.331941	88.167463
611.758319	87.733230
612.184676	87.293825
612.611011	86.848487
613.037325	86.373758
613.463617	85.870882
613.889888	85.341074
614.316138	84.779259
614.742366	84.199688
615.168573	83.585016
615.594758	82.944880
616.020921	82.295441
616.447063	81.607241
616.873184	80.906476
617.299283	80.169401
617.725360	79.419028
618.151416	78.669806
618.577450	77.881233
619.003462	77.068210
619.429453	76.251034
619.855422	75.420864
620.281369	74.579739
620.707295	73.738573
621.133199	72.865939
621.559081	71.978434
621.984941	71.091184
622.410779	70.183005
622.836596	69.269248
623.262391	68.346711
623.688163	67.400443
624.113914	66.444690
624.539644	65.468464
624.965351	64.495227
625.391036	63.494192
625.816699	62.462193
626.242340	61.423176
626.667960	60.361033
627.093557	59.265112
627.519132	58.168511
627.944685	57.049397
628.370216	55.915414
628.795725	54.773118
629.221212	53.609938
629.646677	52.440865
630.072119	51.260252
630.497540	50.092211
630.922938	48.918410
631.348314	47.741115
631.773668	46.578956
632.198999	45.430145
632.624308	44.300347
633.049595	43.183155
633.474860	42.087911
633.900102	41.007412
634.325322	39.955655
634.750520	38.935558
635.175695	37.941430
635.600848	36.979793
636.025978	36.051569
636.451086	35.146909
636.876171	34.287037
637.301234	33.455572
637.726275	32.665343
638.151293	31.910670
638.576288	31.200520
639.001261	30.534035
639.426211	29.912265
639.851139	29.332596
640.276044	28.811287
640.700927	28.333634
641.125787	27.911164
641.550624	27.544363
641.975438	27.235348
642.400230	26.981793
642.824999	26.786721
643.249745	26.654702
643.674469	26.579982
644.099169	26.558945
644.523847	26.601455
644.948502	26.689729
645.373135	26.837396
645.797744	27.033820
646.222330	27.286770
646.646894	27.597281
647.071435	27.947843
647.495953	28.354070
647.920447	28.798898
648.344919	29.279655
648.769368	29.805982
649.193794	30.368547
649.618197	30.974120
650.042576	31.597540
650.466933	32.256494
650.891267	32.949020
651.315577	33.662287
651.739864	34.386421
652.164129	35.130001
652.588370	35.890391
653.012587	36.676861
653.436782	37.465544
653.860953	38.275744
654.285102	39.089585
654.709226	39.906985
655.133328	40.732728
655.557406	41.563351
655.981461	42.395018
656.405493	43.228583
656.829501	44.058361
657.253486	44.885155
657.677448	45.701283
658.101386	46.516588
658.525301	47.316879
658.949192	48.119793
659.373060	48.892589
659.796904	49.651307
660.220725	50.400327
660.644522	51.125629
661.068296	51.841690
661.492046	52.543313
661.915772	53.236780
662.339475	53.902277
662.763154	54.551589
663.186810	55.187305
663.610442	55.797213
664.034050	56.387635
664.457635	56.971359
664.881196	57.541690
665.304733	58.094497
665.728247	58.627039
666.151736	59.131642
666.575202	59.633887
666.998644	60.117358
667.422062	60.598511
667.845457	61.056086
668.268827	61.501006
668.692174	61.933723
669.115496	62.367282
669.538795	62.770479
669.962070	63.168801
670.385321	63.565742
670.808547	63.939466
671.231750	64.308186
671.654929	64.671289
672.078084	65.002221
672.501214	65.342620
672.924321	65.660456
673.347404	65.976863
673.770462	66.288974
674.193496	66.590708
674.616506	66.873707
675.039492	67.139160
675.462454	67.404261
675.885391	67.652077
676.308305	67.895263
676.731194	68.134796
677.154058	68.352400
677.576899	68.547669
677.999715	68.743969
678.422507	68.942946
678.845274	69.124234
679.268017	69.306188
679.690736	69.476055
680.113430	69.632972
680.536100	69.787192
680.958746	69.943042
681.381367	70.099623
681.803963	70.246158
682.226535	70.387916
682.649083	70.538183
683.071605	70.687410
683.494104	70.824801
683.916578	70.975425
684.339027	71.117908
684.761451	71.252757
685.183851	71.386865
685.606227	71.518484
686.028577	71.659504
686.450903	71.793241
686.873204	71.923819
687.295481	72.062370
687.717733	72.197889
688.139959	72.326877
688.562162	72.447003
688.984339	72.561905
689.406492	72.677713
689.828619	72.793053
690.250722	72.922060
690.672800	73.059413
691.094853	73.209495
691.516881	73.338407
691.938884	73.481905
692.360863	73.633238
692.782816	73.789444
693.204744	73.954629
693.626647	74.116930
694.048526	74.288457
694.470379	74.449654
694.892207	74.615683
695.314010	74.790489
695.735788	74.973121
696.157540	75.148244
696.579268	75.340273
697.000970	75.534272
697.422648	75.727981
697.844300	75.922801
698.265926	76.123086
698.687528	76.318470
699.109104	76.505758
699.530655	76.694598
699.952181	76.880057
700.373681	77.054329
700.795156	77.242128
701.216606	77.436176
701.638030	77.623132
702.059429	77.820229
702.480803	78.006740
702.902151	78.182652
703.323473	78.360012
703.744770	78.537486
704.166042	78.705305
704.587288	78.887290
705.008509	79.059423
705.429704	79.224540
705.850873	79.392284
706.272017	79.557240
706.693135	79.723590
707.114228	79.894458
707.535295	80.077506
707.956336	80.258787
708.377352	80.429899
708.798342	80.594450
709.219306	80.759061
709.640245	80.924762
710.061157	81.072327
710.482044	81.233729
710.902905	81.396833
711.323741	81.561675
711.744550	81.752759
712.165334	81.952820
712.586092	82.160249
713.006823	82.372834
713.427529	82.592027
713.848209	82.815789
714.268863	83.038524
714.689492	83.287951
715.110094	83.538820
715.530670	83.806225
715.951220	84.092647
716.371744	84.376448
716.792242	84.668407
717.212714	84.969190
717.633159	85.274878
718.053579	85.619277
718.473973	85.982169
718.894340	86.359529
719.314681	86.743149
719.734996	87.132181
720.155285	87.524116
720.575547	87.919293
720.995784	88.326093
721.415994	88.747354
721.836177	89.166550
722.256335	89.602077
722.676466	90.023537
723.096570	90.459815
723.516649	90.883432
723.936701	91.308705
724.356726	91.713446
724.776725	92.097490
725.196698	92.476047
725.616644	92.845745
726.036564	93.208367
726.456457	93.564472
726.876324	93.912302
727.296164	94.244493
727.715977	94.566209
728.135764	94.885069
728.555525	95.197008
728.975258	95.492469
729.394966	95.787310
729.814646	96.076765
730.234300	96.348190
730.653927	96.619458
731.073527	96.865176
731.493101	97.100969
731.912648	97.321871
732.332168	97.522849
732.751661	97.717206
733.171128	97.916847
733.590568	98.099598
734.009980	98.276834
734.429366	98.447413
734.848726	98.616744
735.268058	98.773699
735.687363	98.912909
736.106641	99.054304
736.525893	99.189382
736.945117	99.302294
737.364314	99.431524
737.783485	99.551575
738.202628	99.665443
738.621744	99.781798
739.040834	99.895606
739.459896	100.011814
739.878931	100.107898
740.297939	100.221239
740.716919	100.332756
741.135873	100.421219
741.554799	100.497973
741.973698	100.590287
742.392570	100.682021
742.811415	100.772644
743.230232	100.863716
743.649022	100.960257
744.067785	101.033389
744.486521	101.109235
744.905229	101.181704
745.323909	101.262827
745.742563	101.344696
746.161189	101.411948
746.579787	101.485967
746.998358	101.558763
747.416902	101.618675
747.835418	101.678316
748.253907	101.755703
748.672368	101.843007
749.090802	101.931371
749.509208	102.014495
749.927586	102.111759
750.345937	102.200441
750.764261	102.305666
751.182556	102.395305
751.600824	102.477747
752.019065	102.564041
752.437277	102.645003
752.855462	102.741625
753.273620	102.829339
