Time1=100ms:Average1=5:Objective=10X:Aperture=1: (11/21/2018 11:17:33 AM)
11/21/2018 11:17:33 AM
Reflectance
10X
Ap#: 1
Avg1: 5.000000
Avg2: 0.000000
Int.Time1:100.000000

350.166136	85.690885
350.601937	86.093968
351.037728	86.344687
351.473509	86.606692
351.909281	86.719464
352.345042	87.025316
352.780794	86.755983
353.216536	86.666667
353.652267	86.547315
354.087989	86.349239
354.523701	86.293121
354.959403	86.511249
355.395095	86.623098
355.830777	86.902456
356.266449	87.044410
356.702110	87.088274
357.137762	87.585294
357.573404	87.209183
358.009035	86.843452
358.444656	86.914544
358.880268	87.417695
359.315869	87.192169
359.751459	87.111020
360.187040	86.735324
360.622610	86.712060
361.058170	86.475621
361.493720	86.298400
361.929260	86.515809
362.364789	85.677565
362.800308	85.486853
363.235816	85.487692
363.671314	85.409399
364.106802	85.247921
364.542279	85.589833
364.977746	85.863065
365.413203	86.324168
365.848649	85.796922
366.284084	85.636718
366.719509	85.223544
367.154924	85.768559
367.590328	85.300440
368.025721	85.769861
368.461104	85.871014
368.896477	85.920541
369.331838	85.892711
369.767189	84.907191
370.202530	85.213928
370.637859	84.917105
371.073178	85.647726
371.508486	85.844656
371.943784	85.707035
372.379071	85.746148
372.814347	86.423269
373.249612	86.433951
373.684866	86.556913
374.120110	86.542548
374.555343	86.737481
374.990565	86.731098
375.425776	86.450055
375.860976	86.678759
376.296165	86.484037
376.731343	86.281190
377.166511	86.020100
377.601667	85.797217
378.036812	85.138387
378.471946	85.293236
378.907070	85.174477
379.342182	85.240844
379.777283	85.232361
380.212373	85.463211
380.647452	84.988133
381.082520	85.480047
381.517576	84.582758
381.952622	84.902662
382.387656	85.473411
382.822679	85.697199
383.257691	86.437794
383.692692	86.159825
384.127681	86.227605
384.562659	85.647596
384.997626	85.858786
385.432581	85.429811
385.867525	85.850635
386.302458	85.349133
386.737379	85.628918
387.172289	85.476610
387.607188	85.508936
388.042075	85.457198
388.476951	85.518248
388.911815	85.353044
389.346668	85.651708
389.781509	86.389839
390.216338	86.139098
390.651157	86.382273
391.085963	87.161632
391.520758	87.424153
391.955541	87.381116
392.390313	86.623212
392.825073	86.945525
393.259821	87.131813
393.694558	87.037766
394.129283	87.124841
394.563996	86.952680
394.998698	87.496299
395.433388	87.044118
395.868066	86.310509
396.302732	86.328163
396.737386	86.177873
397.172029	85.834223
397.606659	85.444079
398.041278	84.933025
398.475885	84.373504
398.910480	84.412984
399.345063	83.392376
399.779634	82.973745
400.214194	81.506881
400.648741	80.289487
401.083276	78.705637
401.517799	76.977115
401.952310	74.879752
402.386809	72.652748
402.821296	70.011230
403.255771	67.294109
403.690234	65.182869
404.124684	62.251151
404.559123	58.990458
404.993549	56.290657
405.427963	53.444284
405.862365	51.009729
406.296754	48.515039
406.731131	46.269247
407.165496	44.226109
407.599849	42.243906
408.034190	40.484587
408.468518	38.677699
408.902833	37.064314
409.337137	35.634794
409.771428	34.240430
410.205706	32.876712
410.639973	31.712290
411.074226	30.774660
411.508467	29.919685
411.942696	29.187025
412.376912	28.645486
412.811116	28.173210
413.245307	27.734713
413.679486	27.420211
414.113652	27.084492
414.547805	26.741752
414.981946	26.489937
415.416074	26.215804
415.850190	26.074237
416.284293	25.944286
416.718383	25.800926
417.152460	25.660370
417.586525	25.636536
418.020577	25.643774
418.454616	25.649993
418.888643	25.645813
419.322656	25.601219
419.756657	25.520981
420.190645	25.475817
420.624620	25.397496
421.058582	25.324203
421.492531	25.325967
421.926468	25.367465
422.360391	25.435679
422.794301	25.548985
423.228199	25.726878
423.662083	25.946591
424.095955	26.169705
424.529813	26.387575
424.963658	26.588473
425.397491	26.744584
425.831310	26.860081
426.265116	26.963527
426.698909	27.071854
427.132689	27.199562
427.566455	27.356804
428.000209	27.561400
428.433949	27.755434
428.867676	28.008308
429.301389	28.210854
429.735090	28.405572
430.168777	28.602830
430.602451	28.739199
431.036111	28.813256
431.469759	28.876101
431.903392	28.914981
432.337013	28.958375
432.770620	29.040125
433.204213	29.177917
433.637794	29.319916
434.071360	29.505481
434.504914	29.699028
434.938453	29.934309
435.371979	30.173838
435.805492	30.412759
436.238991	30.640798
436.672477	30.803196
437.105949	30.930624
437.539407	31.014571
437.972852	31.072483
438.406283	31.141902
438.839700	31.246250
439.273104	31.372890
439.706494	31.517112
440.139871	31.700166
440.573233	31.887188
441.006582	32.051295
441.439917	32.171745
441.873238	32.264185
442.306546	32.315093
442.739839	32.330864
443.173119	32.299187
443.606385	32.267690
444.039636	32.256474
444.472874	32.244121
444.906099	32.280494
445.339309	32.351593
445.772505	32.455981
446.205687	32.575158
446.638855	32.703828
447.072009	32.834327
447.505149	32.977933
447.938275	33.144619
448.371387	33.262437
448.804485	33.356740
449.237569	33.416421
449.670638	33.410613
450.103694	33.414389
450.536735	33.418355
450.969762	33.446372
451.402774	33.479449
451.835773	33.534714
452.268757	33.602152
452.701727	33.672746
453.134683	33.772697
453.567624	33.819279
454.000551	33.864658
454.433464	33.883049
454.866362	33.871091
455.299246	33.867823
455.732116	33.825713
456.164971	33.767766
456.597811	33.729148
457.030638	33.694026
457.463449	33.653005
457.896246	33.641822
458.329029	33.604654
458.761797	33.595655
459.194551	33.574418
459.627290	33.578636
460.060014	33.598932
460.492724	33.604818
460.925419	33.625670
461.358099	33.641477
461.790765	33.657328
462.223416	33.656528
462.656052	33.660908
463.088674	33.676786
463.521281	33.679191
463.953873	33.694567
464.386450	33.710524
464.819012	33.750381
465.251560	33.803420
465.684093	33.876513
466.116611	33.974375
466.549114	34.097588
466.981602	34.257380
467.414075	34.415000
467.846533	34.607188
468.278977	34.829713
468.711405	35.024386
469.143818	35.245394
469.576216	35.482278
470.008600	35.716094
470.440968	35.922259
470.873321	36.135440
471.305659	36.365718
471.737982	36.605924
472.170289	36.837446
472.602582	37.101441
473.034859	37.346089
473.467122	37.617098
473.899369	37.939371
474.331600	38.274304
474.763817	38.616327
475.196018	39.008552
475.628204	39.433812
476.060375	39.877633
476.492530	40.321833
476.924670	40.767723
477.356795	41.184129
477.788904	41.574362
478.220998	41.938948
478.653076	42.272860
479.085139	42.572665
479.517186	42.869652
479.949219	43.145239
480.381235	43.460701
480.813236	43.790689
481.245221	44.143523
481.677191	44.507055
482.109146	44.894847
482.541084	45.259633
482.973008	45.613608
483.404915	45.937399
483.836807	46.244956
484.268683	46.503752
484.700544	46.705300
485.132388	46.872131
485.564217	47.006661
485.996031	47.062763
486.427828	47.108458
486.859610	47.122754
487.291376	47.110226
487.723126	47.102259
488.154860	47.104928
488.586579	47.103005
489.018281	47.124124
489.449968	47.167755
489.881639	47.269162
490.313293	47.426557
490.744932	47.632506
491.176555	47.843375
491.608162	48.046300
492.039753	48.229551
492.471328	48.368580
492.902886	48.453525
493.334429	48.473995
493.765956	48.434069
494.197466	48.376797
494.628960	48.291904
495.060439	48.221832
495.491901	48.195339
495.923347	48.244965
496.354776	48.334413
496.786190	48.494849
497.217587	48.694518
497.648968	48.950383
498.080332	49.209612
498.511681	49.483744
498.943013	49.739364
499.374328	50.015186
499.805628	50.251041
500.236911	50.458398
500.668177	50.625521
501.099427	50.734166
501.530661	50.823555
501.961878	50.881803
502.393079	50.920444
502.824264	50.973831
503.255431	51.014313
503.686583	51.052882
504.117717	51.132734
504.548835	51.281745
504.979937	51.493708
505.411022	51.777018
505.842090	52.148289
506.273142	52.571296
506.704177	53.090399
507.135195	53.620167
507.566197	54.171303
507.997182	54.711555
508.428150	55.214552
508.859102	55.639078
509.290036	56.013373
509.720954	56.349409
510.151855	56.620490
510.582739	56.885053
511.013607	57.136618
511.444457	57.434546
511.875291	57.768131
512.306107	58.183135
512.736907	58.642635
513.167690	59.181376
513.598456	59.779065
514.029205	60.441956
514.459936	61.146330
514.890651	61.839303
515.321349	62.511363
515.752030	63.134325
516.182693	63.696870
516.613340	64.200680
517.043969	64.642429
517.474582	64.989084
517.905177	65.238393
518.335755	65.415679
518.766315	65.548025
519.196859	65.612568
519.627385	65.665081
520.057894	65.695188
520.488386	65.734512
520.918860	65.803533
521.349318	65.934246
521.779757	66.116353
522.210180	66.394115
522.640585	66.742027
523.070973	67.196171
523.501343	67.718024
523.931696	68.275707
524.362031	68.869321
524.792349	69.465263
525.222650	70.027983
525.652933	70.545775
526.083198	70.990428
526.513446	71.352046
526.943677	71.645874
527.373890	71.872880
527.804085	72.058752
528.234262	72.232939
528.664422	72.446328
529.094565	72.702665
529.524689	72.998738
529.954796	73.375712
530.384885	73.830153
530.814957	74.385034
531.245011	75.030892
531.675047	75.755121
532.105065	76.508655
532.535065	77.302880
532.965048	78.090641
533.395013	78.834995
533.824959	79.541313
534.254888	80.157305
534.684799	80.659569
535.114693	81.098525
535.544568	81.446043
535.974425	81.698095
536.404264	81.827383
536.834086	81.879230
537.263889	81.881369
537.693674	81.844356
538.123441	81.779287
538.553190	81.724995
538.982921	81.698479
539.412634	81.734107
539.842329	81.860171
540.272006	82.036981
540.701664	82.291983
541.131304	82.630088
541.560926	83.045548
541.990530	83.509363
542.420116	84.027686
542.849683	84.571990
543.279232	85.104564
543.708763	85.591711
544.138275	86.035612
544.567769	86.404751
544.997245	86.697761
545.426702	86.918140
545.856141	87.074712
546.285562	87.186739
546.714964	87.247494
547.144347	87.292090
547.573713	87.360376
548.003059	87.460998
548.432387	87.606511
548.861697	87.813638
549.290988	88.099545
549.720260	88.463594
550.149514	88.909436
550.578750	89.428980
551.007966	89.987968
551.437164	90.613322
551.866344	91.265012
552.295504	91.883212
552.724646	92.498938
553.153769	93.045333
553.582874	93.546627
554.011960	93.921615
554.441027	94.184530
554.870075	94.320099
555.299104	94.330873
555.728115	94.210134
556.157106	94.009917
556.586079	93.721065
557.015033	93.405417
557.443968	93.042719
557.872884	92.679066
558.301781	92.329316
558.730659	92.037257
559.159518	91.788992
559.588358	91.601801
560.017180	91.490187
560.445982	91.467168
560.874765	91.501255
561.303528	91.613299
561.732273	91.783174
562.160999	91.959406
562.589705	92.163091
563.018393	92.382932
563.447061	92.610814
563.875710	92.813317
564.304340	93.015478
564.732950	93.181787
565.161542	93.316672
565.590114	93.431604
566.018666	93.512490
566.447200	93.553299
566.875714	93.550191
567.304208	93.567716
567.732684	93.581317
568.161140	93.608417
568.589576	93.662127
569.017993	93.746967
569.446391	93.863446
569.874769	94.055963
570.303128	94.278536
570.731467	94.572012
571.159787	94.936711
571.588087	95.355694
572.016368	95.804273
572.444629	96.292276
572.872870	96.805777
573.301092	97.321127
573.729294	97.800302
574.157476	98.233108
574.585639	98.588975
575.013782	98.840623
575.441906	99.012336
575.870009	99.074009
576.298093	99.017803
576.726157	98.862872
577.154202	98.606544
577.582226	98.278684
578.010231	97.876644
578.438216	97.444459
578.866181	97.000238
579.294126	96.560397
579.722051	96.159764
580.149957	95.819451
580.577842	95.508664
581.005707	95.255561
581.433553	95.042026
581.861378	94.887237
582.289184	94.775391
582.716969	94.686644
583.144734	94.608500
583.572479	94.573151
584.000205	94.547786
584.427910	94.517017
584.855594	94.496705
585.283259	94.478124
585.710904	94.479800
586.138528	94.464481
586.566132	94.453412
586.993716	94.447511
587.421280	94.456126
587.848823	94.477153
588.276346	94.502582
588.703849	94.525845
589.131332	94.534570
589.558794	94.540615
589.986236	94.537713
590.413657	94.557071
590.841058	94.564875
591.268438	94.581625
591.695799	94.608189
592.123138	94.660117
592.550458	94.732829
592.977756	94.826940
593.405034	94.951101
593.832292	95.119955
594.259529	95.313495
594.686746	95.547296
595.113942	95.780574
595.541117	96.026986
595.968272	96.273324
596.395406	96.492361
596.822519	96.656364
597.249612	96.762346
597.676684	96.802313
598.103735	96.756535
598.530766	96.615832
598.957775	96.371075
599.384764	96.035071
599.811733	95.611755
600.238680	95.112171
600.665606	94.540458
601.092512	93.939875
601.519397	93.327662
601.946261	92.726684
602.373104	92.122411
602.799926	91.550710
603.226727	91.018386
603.653507	90.520638
604.080266	90.064097
604.507004	89.660775
604.933721	89.272608
605.360417	88.910762
605.787092	88.553539
606.213746	88.205535
606.640379	87.851951
607.066991	87.501700
607.493581	87.150301
607.920150	86.799108
608.346699	86.474659
608.773226	86.154546
609.199731	85.845093
609.626216	85.569964
610.052679	85.331783
610.479121	85.126117
610.905542	84.959054
611.331941	84.821342
611.758319	84.713620
612.184676	84.626862
612.611011	84.566457
613.037325	84.512168
613.463617	84.454042
613.889888	84.398108
614.316138	84.318729
614.742366	84.203822
615.168573	84.061456
615.594758	83.912074
616.020921	83.743196
616.447063	83.542156
616.873184	83.326065
617.299283	83.116074
617.725360	82.895556
618.151416	82.709737
618.577450	82.517504
619.003462	82.349835
619.429453	82.225802
619.855422	82.124158
620.281369	82.044223
620.707295	81.988951
621.133199	81.943733
621.559081	81.872053
621.984941	81.808517
622.410779	81.737245
622.836596	81.627586
623.262391	81.492598
623.688163	81.332229
624.113914	81.147201
624.539644	80.928547
624.965351	80.706618
625.391036	80.472587
625.816699	80.231992
626.242340	80.004404
626.667960	79.792275
627.093557	79.594397
627.519132	79.436863
627.944685	79.303441
628.370216	79.183887
628.795725	79.094564
629.221212	79.003735
629.646677	78.934681
630.072119	78.858407
630.497540	78.759325
630.922938	78.650109
631.348314	78.497619
631.773668	78.328787
632.198999	78.120102
632.624308	77.866573
633.049595	77.577720
633.474860	77.263862
633.900102	76.918668
634.325322	76.556102
634.750520	76.213229
635.175695	75.873846
635.600848	75.560850
636.025978	75.300290
636.451086	75.080688
636.876171	74.909522
637.301234	74.767337
637.726275	74.714609
638.151293	74.704794
638.576288	74.738383
639.001261	74.833256
639.426211	74.964079
639.851139	75.118398
640.276044	75.305503
640.700927	75.498902
641.125787	75.714837
641.550624	75.948156
641.975438	76.177982
642.400230	76.426235
642.824999	76.665654
643.249745	76.911568
643.674469	77.164747
644.099169	77.423440
644.523847	77.693820
644.948502	77.969811
645.373135	78.265680
645.797744	78.563604
646.222330	78.881527
646.646894	79.197612
647.071435	79.523180
647.495953	79.863781
647.920447	80.171909
648.344919	80.471240
648.769368	80.744706
649.193794	80.982871
649.618197	81.176031
650.042576	81.333421
650.466933	81.467439
650.891267	81.525033
651.315577	81.538370
651.739864	81.501955
652.164129	81.410282
652.588370	81.281473
653.012587	81.116404
653.436782	80.930045
653.860953	80.720177
654.285102	80.481378
654.709226	80.228415
655.133328	79.975724
655.557406	79.711117
655.981461	79.460721
656.405493	79.214643
656.829501	78.963551
657.253486	78.711187
657.677448	78.464959
658.101386	78.219565
658.525301	77.971318
658.949192	77.719936
659.373060	77.450895
659.796904	77.179609
660.220725	76.900015
660.644522	76.595390
661.068296	76.313563
661.492046	76.026730
661.915772	75.734766
662.339475	75.470847
662.763154	75.246283
663.186810	75.039281
663.610442	74.857439
664.034050	74.725025
664.457635	74.645090
664.881196	74.626294
665.304733	74.670206
665.728247	74.768740
666.151736	74.932979
666.575202	75.136925
666.998644	75.397483
667.422062	75.711154
667.845457	76.053324
668.268827	76.420240
668.692174	76.818956
669.115496	77.207831
669.538795	77.592874
669.962070	77.966203
670.385321	78.305409
670.808547	78.606797
671.231750	78.874746
671.654929	79.090245
672.078084	79.260682
672.501214	79.390442
672.924321	79.478533
673.347404	79.530312
673.770462	79.561820
674.193496	79.553375
674.616506	79.532527
675.039492	79.517933
675.462454	79.481249
675.885391	79.426863
676.308305	79.383832
676.731194	79.367331
677.154058	79.358127
677.576899	79.362912
677.999715	79.390778
678.422507	79.438438
678.845274	79.506144
679.268017	79.598176
679.690736	79.703754
680.113430	79.802370
680.536100	79.922673
680.958746	80.054697
681.381367	80.177183
681.803963	80.287318
682.226535	80.403418
682.649083	80.511027
683.071605	80.603372
683.494104	80.701648
683.916578	80.789366
684.339027	80.867407
684.761451	80.940560
685.183851	80.991382
685.606227	81.030861
686.028577	81.054914
686.450903	81.046779
686.873204	81.010761
687.295481	80.962688
687.717733	80.870111
688.139959	80.726817
688.562162	80.534995
688.984339	80.306588
689.406492	80.023496
689.828619	79.683778
690.250722	79.289933
690.672800	78.845343
691.094853	78.350634
691.516881	77.799713
691.938884	77.207237
692.360863	76.581794
692.782816	75.948188
693.204744	75.317530
693.626647	74.683282
694.048526	74.066563
694.470379	73.482318
694.892207	72.942652
695.314010	72.453709
695.735788	72.031049
696.157540	71.688539
696.579268	71.431222
697.000970	71.246725
697.422648	71.148626
697.844300	71.134210
698.265926	71.218925
698.687528	71.376593
699.109104	71.601340
699.530655	71.894798
699.952181	72.254828
700.373681	72.654625
700.795156	73.108218
701.216606	73.600298
701.638030	74.121233
702.059429	74.658265
702.480803	75.188198
702.902151	75.708491
703.323473	76.207726
703.744770	76.675131
704.166042	77.108021
704.587288	77.502025
705.008509	77.847840
705.429704	78.156334
705.850873	78.403473
706.272017	78.586213
706.693135	78.713146
707.114228	78.796868
707.535295	78.833562
707.956336	78.816953
708.377352	78.756198
708.798342	78.654721
709.219306	78.525615
709.640245	78.364332
710.061157	78.190016
710.482044	77.993318
710.902905	77.794290
711.323741	77.586346
711.744550	77.401012
712.165334	77.225313
712.586092	77.072421
713.006823	76.936486
713.427529	76.823618
713.848209	76.738654
714.268863	76.673483
714.689492	76.634869
715.110094	76.625776
715.530670	76.654201
715.951220	76.707627
716.371744	76.792167
716.792242	76.913718
717.212714	77.052523
717.633159	77.219360
718.053579	77.414321
718.473973	77.608113
718.894340	77.814277
719.314681	78.032349
719.734996	78.242290
720.155285	78.419997
720.575547	78.573586
720.995784	78.703853
721.415994	78.802845
721.836177	78.863857
722.256335	78.873322
722.676466	78.823867
723.096570	78.715916
723.516649	78.552712
723.936701	78.309387
724.356726	77.998346
724.776725	77.612681
725.196698	77.167795
725.616644	76.662957
726.036564	76.099255
726.456457	75.495707
726.876324	74.846171
727.296164	74.170928
727.715977	73.486155
728.135764	72.788566
728.555525	72.103606
728.975258	71.430551
729.394966	70.788690
729.814646	70.176098
730.234300	69.610780
730.653927	69.087259
731.073527	68.622965
731.493101	68.231166
731.912648	67.906980
732.332168	67.655240
732.751661	67.484200
733.171128	67.404572
733.590568	67.412808
734.009980	67.509439
734.429366	67.677213
734.848726	67.917810
735.268058	68.223394
735.687363	68.590965
736.106641	69.022687
736.525893	69.498195
736.945117	70.015963
737.364314	70.570700
737.783485	71.152710
738.202628	71.751612
738.621744	72.357561
739.040834	72.963635
739.459896	73.548192
739.878931	74.101719
740.297939	74.636343
740.716919	75.128828
741.135873	75.567566
741.554799	75.951749
741.973698	76.287785
742.392570	76.553297
742.811415	76.768346
743.230232	76.906659
743.649022	76.987238
744.067785	76.994670
744.486521	76.928979
744.905229	76.814216
745.323909	76.639075
745.742563	76.419118
746.161189	76.147284
746.579787	75.837776
746.998358	75.480230
747.416902	75.100157
747.835418	74.696068
748.253907	74.283146
748.672368	73.867673
749.090802	73.449830
749.509208	73.042315
749.927586	72.649524
750.345937	72.265604
750.764261	71.920118
751.182556	71.588107
751.600824	71.298365
752.019065	71.034067
752.437277	70.822163
752.855462	70.656132
753.273620	70.516338
753.691749	70.419023
754.109851	70.355330
