Time1=100ms:Average1=5:Objective=10X:Aperture=1: (11/21/2018 10:14:55 AM)
11/21/2018 10:14:55 AM
Reflectance
10X
Ap#: 1
Avg1: 5.000000
Avg2: 0.000000
Int.Time1:100.000000

350.166136	91.022675
350.601937	91.523318
351.037728	91.770549
351.473509	92.077465
351.909281	92.254563
352.345042	92.672286
352.780794	92.836619
353.216536	92.812531
353.652267	92.901879
354.087989	92.884864
354.523701	92.941059
354.959403	92.811042
355.395095	92.949483
355.830777	92.866394
356.266449	93.330667
356.702110	92.910074
357.137762	92.654691
357.573404	92.971406
358.009035	92.547142
358.444656	92.875038
358.880268	92.723806
359.315869	92.709171
359.751459	92.599678
360.187040	92.093866
360.622610	92.233108
361.058170	92.587697
361.493720	92.472572
361.929260	92.211743
362.364789	92.819365
362.800308	92.098590
363.235816	91.316640
363.671314	91.670878
364.106802	91.426846
364.542279	91.809909
364.977746	91.555690
365.413203	91.669182
365.848649	91.284219
366.284084	91.235502
366.719509	90.924675
367.154924	91.467232
367.590328	91.789389
368.025721	92.219078
368.461104	91.860465
368.896477	91.620450
369.331838	92.113501
369.767189	91.955645
370.202530	91.945701
370.637859	92.144864
371.073178	91.930663
371.508486	91.340616
371.943784	90.871410
372.379071	91.273375
372.814347	91.373518
373.249612	90.784815
373.684866	90.567147
374.120110	90.673981
374.555343	90.573770
374.990565	90.480835
375.425776	90.617961
375.860976	90.319118
376.296165	90.571735
376.731343	91.000195
377.166511	90.587437
377.601667	90.700389
378.036812	90.885316
378.471946	91.218048
378.907070	91.045928
379.342182	90.696556
379.777283	90.533282
380.212373	90.725110
380.647452	90.089575
381.082520	89.539074
381.517576	89.570086
381.952622	89.760349
382.387656	89.990539
382.822679	89.981079
383.257691	89.558157
383.692692	89.713370
384.127681	89.058524
384.562659	89.037079
384.997626	89.787636
385.432581	90.337525
385.867525	90.259312
386.302458	90.148155
386.737379	90.239081
387.172289	90.548723
387.607188	90.432070
388.042075	90.522043
388.476951	90.354090
388.911815	90.809546
389.346668	90.526807
389.781509	90.303424
390.216338	90.432042
390.651157	90.657567
391.085963	90.558217
391.520758	90.213392
391.955541	89.858923
392.390313	90.044876
392.825073	90.237877
393.259821	90.450055
393.694558	90.505751
394.129283	90.254818
394.563996	90.737675
394.998698	90.097923
395.433388	89.904110
395.868066	90.019168
396.302732	89.670741
396.737386	89.933648
397.172029	89.717632
397.606659	89.716793
398.041278	89.557817
398.475885	88.903371
398.910480	88.184901
399.345063	87.278965
399.779634	86.737539
400.214194	85.652736
400.648741	84.555040
401.083276	83.095572
401.517799	81.098442
401.952310	79.223513
402.386809	76.946243
402.821296	74.472559
403.255771	72.179979
403.690234	69.355161
404.124684	66.319444
404.559123	63.337698
404.993549	60.226955
405.427963	57.007437
405.862365	54.184591
406.296754	51.608481
406.731131	48.776856
407.165496	45.914489
407.599849	43.676975
408.034190	41.346778
408.468518	39.478128
408.902833	37.435314
409.337137	35.483738
409.771428	33.926026
410.205706	32.353360
410.639973	31.086130
411.074226	29.876311
411.508467	28.710089
411.942696	27.686414
412.376912	26.740027
412.811116	25.905454
413.245307	25.187184
413.679486	24.535524
414.113652	23.923400
414.547805	23.351952
414.981946	22.860806
415.416074	22.362801
415.850190	21.971439
416.284293	21.593318
416.718383	21.255473
417.152460	20.899952
417.586525	20.617235
418.020577	20.399607
418.454616	20.145205
418.888643	19.960647
419.322656	19.792769
419.756657	19.596718
420.190645	19.456546
420.624620	19.339896
421.058582	19.194248
421.492531	19.074795
421.926468	18.939494
422.360391	18.859257
422.794301	18.754973
423.228199	18.665101
423.662083	18.606194
424.095955	18.529052
424.529813	18.483926
424.963658	18.424319
425.397491	18.403087
425.831310	18.355817
426.265116	18.307290
426.698909	18.253606
427.132689	18.209550
427.566455	18.163082
428.000209	18.110046
428.433949	18.065275
428.867676	18.035555
429.301389	17.976345
429.735090	17.930489
430.168777	17.894674
430.602451	17.871135
431.036111	17.801359
431.469759	17.732522
431.903392	17.680556
432.337013	17.628079
432.770620	17.537644
433.204213	17.491261
433.637794	17.433866
434.071360	17.367928
434.504914	17.344107
434.938453	17.320307
435.371979	17.297312
435.805492	17.263030
436.238991	17.226584
436.672477	17.180231
437.105949	17.154137
437.539407	17.133064
437.972852	17.086979
438.406283	17.037087
438.839700	16.963968
439.273104	16.928814
439.706494	16.881015
440.139871	16.820000
440.573233	16.752651
441.006582	16.694091
441.439917	16.630121
441.873238	16.559226
442.306546	16.483454
442.739839	16.403110
443.173119	16.311387
443.606385	16.218563
444.039636	16.134567
444.472874	16.071784
444.906099	16.006989
445.339309	15.945237
445.772505	15.885874
446.205687	15.833707
446.638855	15.752902
447.072009	15.682232
447.505149	15.618826
447.938275	15.555059
448.371387	15.475060
448.804485	15.391307
449.237569	15.304574
449.670638	15.219404
450.103694	15.125815
450.536735	14.999504
450.969762	14.888096
451.402774	14.771383
451.835773	14.675025
452.268757	14.576737
452.701727	14.475586
453.134683	14.377479
453.567624	14.280988
454.000551	14.184172
454.433464	14.070846
454.866362	13.967044
455.299246	13.879203
455.732116	13.764820
456.164971	13.647408
456.597811	13.546456
457.030638	13.443662
457.463449	13.331832
457.896246	13.217650
458.329029	13.094330
458.761797	12.961222
459.194551	12.826607
459.627290	12.687316
460.060014	12.563989
460.492724	12.441792
460.925419	12.315450
461.358099	12.173932
461.790765	12.055705
462.223416	11.929475
462.656052	11.810633
463.088674	11.696293
463.521281	11.588318
463.953873	11.499687
464.386450	11.391256
464.819012	11.301395
465.251560	11.201641
465.684093	11.111593
466.116611	11.021888
466.549114	10.940722
466.981602	10.859887
467.414075	10.797068
467.846533	10.742242
468.278977	10.688680
468.711405	10.627434
469.143818	10.588828
469.576216	10.557186
470.008600	10.513797
470.440968	10.478319
470.873321	10.449005
471.305659	10.427510
471.737982	10.424160
472.170289	10.422523
472.602582	10.441692
473.034859	10.469919
473.467122	10.507947
473.899369	10.548528
474.331600	10.602354
474.763817	10.667704
475.196018	10.732391
475.628204	10.800643
476.060375	10.878097
476.492530	10.964826
476.924670	11.052797
477.356795	11.146166
477.788904	11.252779
478.220998	11.371278
478.653076	11.497275
479.085139	11.625708
479.517186	11.750227
479.949219	11.877010
480.381235	12.008974
480.813236	12.132845
481.245221	12.276785
481.677191	12.410356
482.109146	12.538796
482.541084	12.676460
482.973008	12.804931
483.404915	12.943698
483.836807	13.082872
484.268683	13.220896
484.700544	13.352951
485.132388	13.479238
485.564217	13.595100
485.996031	13.706875
486.427828	13.813876
486.859610	13.907367
487.291376	14.001544
487.723126	14.088672
488.154860	14.151547
488.586579	14.213013
489.018281	14.270859
489.449968	14.321852
489.881639	14.359987
490.313293	14.393354
490.744932	14.421266
491.176555	14.435590
491.608162	14.434506
492.039753	14.431802
492.471328	14.400570
492.902886	14.363458
493.334429	14.317196
493.765956	14.256426
494.197466	14.192486
494.628960	14.102446
495.060439	14.022587
495.491901	13.935489
495.923347	13.833267
496.354776	13.726280
496.786190	13.615944
497.217587	13.488653
497.648968	13.357148
498.080332	13.217865
498.511681	13.073989
498.943013	12.936324
499.374328	12.781227
499.805628	12.620783
500.236911	12.460981
500.668177	12.293877
501.099427	12.130149
501.530661	11.976969
501.961878	11.821265
502.393079	11.677283
502.824264	11.539538
503.255431	11.420238
503.686583	11.306712
504.117717	11.199038
504.548835	11.109921
504.979937	11.036620
505.411022	10.973156
505.842090	10.943868
506.273142	10.924576
506.704177	10.930888
507.135195	10.962803
507.566197	11.024009
507.997182	11.105368
508.428150	11.225994
508.859102	11.375798
509.290036	11.564977
509.720954	11.793795
510.151855	12.058687
510.582739	12.363767
511.013607	12.713525
511.444457	13.094187
511.875291	13.515603
512.306107	13.977630
512.736907	14.476883
513.167690	15.019948
513.598456	15.611354
514.029205	16.250572
514.459936	16.929209
514.890651	17.653415
515.321349	18.434576
515.752030	19.264214
516.182693	20.127377
516.613340	21.040474
517.043969	22.003149
517.474582	23.009624
517.905177	24.045031
518.335755	25.120533
518.766315	26.216269
519.196859	27.329398
519.627385	28.456650
520.057894	29.589649
520.488386	30.726059
520.918860	31.883063
521.349318	33.078541
521.779757	34.268437
522.210180	35.493628
522.640585	36.723148
523.070973	37.952185
523.501343	39.184426
523.931696	40.426285
524.362031	41.658107
524.792349	42.901281
525.222650	44.138350
525.652933	45.374244
526.083198	46.605019
526.513446	47.820091
526.943677	49.004962
527.373890	50.187180
527.804085	51.352330
528.234262	52.503873
528.664422	53.623733
529.094565	54.715988
529.524689	55.804739
529.954796	56.878004
530.384885	57.918889
530.814957	58.944108
531.245011	59.944154
531.675047	60.913121
532.105065	61.863210
532.535065	62.805001
532.965048	63.734690
533.395013	64.629327
533.824959	65.522782
534.254888	66.379003
534.684799	67.222548
535.114693	68.046146
535.544568	68.830437
535.974425	69.598842
536.404264	70.345273
536.834086	71.067504
537.263889	71.782188
537.693674	72.465246
538.123441	73.133483
538.553190	73.774969
538.982921	74.374579
539.412634	74.963977
539.842329	75.544567
540.272006	76.102468
540.701664	76.641069
541.131304	77.144750
541.560926	77.628560
541.990530	78.094272
542.420116	78.559042
542.849683	79.006956
543.279232	79.431143
543.708763	79.819961
544.138275	80.193155
544.567769	80.570699
544.997245	80.925176
545.426702	81.285004
545.856141	81.633195
546.285562	81.970470
546.714964	82.297770
547.144347	82.601423
547.573713	82.919489
548.003059	83.212040
548.432387	83.502241
548.861697	83.784077
549.290988	84.063140
549.720260	84.341558
550.149514	84.617621
550.578750	84.877931
551.007966	85.127076
551.437164	85.373433
551.866344	85.613136
552.295504	85.861238
552.724646	86.106348
553.153769	86.341449
553.582874	86.592830
554.011960	86.829633
554.441027	87.066187
554.870075	87.290713
555.299104	87.507703
555.728115	87.708377
556.157106	87.886235
556.586079	88.057742
557.015033	88.241771
557.443968	88.423342
557.872884	88.565919
558.301781	88.723930
558.730659	88.862618
559.159518	88.988113
559.588358	89.117410
560.017180	89.242547
560.445982	89.359348
560.874765	89.466948
561.303528	89.597090
561.732273	89.708723
562.160999	89.821558
562.589705	89.934396
563.018393	90.032467
563.447061	90.149031
563.875710	90.241015
564.304340	90.353281
564.732950	90.441879
565.161542	90.543243
565.590114	90.647998
566.018666	90.759348
566.447200	90.865628
566.875714	90.953321
567.304208	91.046615
567.732684	91.142392
568.161140	91.247594
568.589576	91.335791
569.017993	91.426890
569.446391	91.525012
569.874769	91.618771
570.303128	91.711598
570.731467	91.783700
571.159787	91.868898
571.588087	91.938559
572.016368	92.000955
572.444629	92.053647
572.872870	92.109534
573.301092	92.146221
573.729294	92.181576
574.157476	92.211083
574.585639	92.216318
575.013782	92.225286
575.441906	92.233941
575.870009	92.233059
576.298093	92.238578
576.726157	92.214906
577.154202	92.209457
577.582226	92.193532
578.010231	92.208794
578.438216	92.193823
578.866181	92.179337
579.294126	92.156568
579.722051	92.144860
580.149957	92.133456
580.577842	92.110907
581.005707	92.108019
581.433553	92.083686
581.861378	92.095656
582.289184	92.089291
582.716969	92.076398
583.144734	92.082962
583.572479	92.082820
584.000205	92.085738
584.427910	92.085356
584.855594	92.077555
585.283259	92.068592
585.710904	92.084889
586.138528	92.075457
586.566132	92.089271
586.993716	92.097155
587.421280	92.091780
587.848823	92.086087
588.276346	92.090340
588.703849	92.079003
589.131332	92.065272
589.558794	92.046019
589.986236	92.030362
590.413657	92.007523
590.841058	91.983725
591.268438	91.924469
591.695799	91.869333
592.123138	91.804017
592.550458	91.734505
592.977756	91.653436
593.405034	91.572108
593.832292	91.475770
594.259529	91.364657
594.686746	91.271463
595.113942	91.149825
595.541117	91.043850
595.968272	90.928607
596.395406	90.798619
596.822519	90.681995
597.249612	90.557872
597.676684	90.436344
598.103735	90.319317
598.530766	90.210674
598.957775	90.078124
599.384764	89.956593
599.811733	89.811162
600.238680	89.683219
600.665606	89.556440
601.092512	89.422296
601.519397	89.276213
601.946261	89.142530
602.373104	88.993304
602.799926	88.840922
603.226727	88.654634
603.653507	88.460350
604.080266	88.257217
604.507004	88.037552
604.933721	87.822087
605.360417	87.589666
605.787092	87.335014
606.213746	87.056170
606.640379	86.766137
607.066991	86.467171
607.493581	86.147584
607.920150	85.817460
608.346699	85.474688
608.773226	85.118298
609.199731	84.743304
609.626216	84.336554
610.052679	83.911907
610.479121	83.468024
610.905542	83.005713
611.331941	82.526142
611.758319	82.014454
612.184676	81.481144
612.611011	80.921239
613.037325	80.370127
613.463617	79.777661
613.889888	79.165756
614.316138	78.532103
614.742366	77.868978
615.168573	77.184822
615.594758	76.476545
616.020921	75.744904
616.447063	75.020192
616.873184	74.276041
617.299283	73.507395
617.725360	72.738551
618.151416	71.958293
618.577450	71.178619
619.003462	70.375738
619.429453	69.577487
619.855422	68.767772
620.281369	67.956057
620.707295	67.143223
621.133199	66.311554
621.559081	65.475413
621.984941	64.617589
622.410779	63.764376
622.836596	62.908989
623.262391	62.037040
623.688163	61.163976
624.113914	60.281468
624.539644	59.380641
624.965351	58.472787
625.391036	57.557682
625.816699	56.634279
626.242340	55.676433
626.667960	54.702228
627.093557	53.716718
627.519132	52.713161
627.944685	51.697105
628.370216	50.657782
628.795725	49.617953
629.221212	48.565501
629.646677	47.501385
630.072119	46.426408
630.497540	45.360422
630.922938	44.292913
631.348314	43.232361
631.773668	42.173047
632.198999	41.139343
632.624308	40.126635
633.049595	39.140890
633.474860	38.181950
633.900102	37.253231
634.325322	36.368708
634.750520	35.514863
635.175695	34.711035
635.600848	33.952244
636.025978	33.234198
636.451086	32.560062
636.876171	31.935521
637.301234	31.353799
637.726275	30.820724
638.151293	30.345503
638.576288	29.916907
639.001261	29.545534
639.426211	29.234365
639.851139	28.984162
640.276044	28.794846
640.700927	28.679968
641.125787	28.629008
641.550624	28.647149
641.975438	28.735801
642.400230	28.899381
642.824999	29.122771
643.249745	29.417700
643.674469	29.770812
644.099169	30.187242
644.523847	30.659766
644.948502	31.190599
645.373135	31.764486
645.797744	32.386525
646.222330	33.046650
646.646894	33.739849
647.071435	34.457647
647.495953	35.193809
647.920447	35.955387
648.344919	36.726401
648.769368	37.509845
649.193794	38.306167
649.618197	39.108615
650.042576	39.900865
650.466933	40.689004
650.891267	41.477260
651.315577	42.255259
651.739864	43.025999
652.164129	43.791969
652.588370	44.522798
653.012587	45.255929
653.436782	45.964110
653.860953	46.637493
654.285102	47.297963
654.709226	47.934447
655.133328	48.544082
655.557406	49.125059
655.981461	49.693637
656.405493	50.228347
656.829501	50.737857
657.253486	51.229320
657.677448	51.680820
658.101386	52.110594
658.525301	52.521851
658.949192	52.894800
659.373060	53.254744
659.796904	53.596642
660.220725	53.926083
660.644522	54.242153
661.068296	54.537066
661.492046	54.834146
661.915772	55.109563
662.339475	55.379996
662.763154	55.641456
663.186810	55.901116
663.610442	56.158013
664.034050	56.410349
664.457635	56.656527
664.881196	56.893987
665.304733	57.121093
665.728247	57.367064
666.151736	57.591553
666.575202	57.821409
666.998644	58.055200
667.422062	58.288721
667.845457	58.512601
668.268827	58.739076
668.692174	58.973886
669.115496	59.193050
669.538795	59.418061
669.962070	59.637220
670.385321	59.851879
670.808547	60.068491
671.231750	60.271449
671.654929	60.466714
672.078084	60.673164
672.501214	60.868676
672.924321	61.060513
673.347404	61.247628
673.770462	61.415345
674.193496	61.587310
674.616506	61.737995
675.039492	61.893179
675.462454	62.038477
675.885391	62.179430
676.308305	62.313423
676.731194	62.451012
677.154058	62.572033
677.576899	62.674547
677.999715	62.791221
678.422507	62.884988
678.845274	62.973162
679.268017	63.056249
679.690736	63.126615
680.113430	63.193083
680.536100	63.240798
680.958746	63.303871
681.381367	63.349987
681.803963	63.381477
682.226535	63.414847
682.649083	63.448865
683.071605	63.484662
683.494104	63.515487
683.916578	63.543523
684.339027	63.578387
684.761451	63.622273
685.183851	63.654594
685.606227	63.689333
686.028577	63.714857
686.450903	63.749072
686.873204	63.794545
687.295481	63.849664
687.717733	63.899156
688.139959	63.961624
688.562162	64.021019
688.984339	64.085009
689.406492	64.160511
689.828619	64.228765
690.250722	64.313078
690.672800	64.405993
691.094853	64.497447
691.516881	64.611669
691.938884	64.735312
692.360863	64.847650
692.782816	64.983481
693.204744	65.122167
693.626647	65.275887
694.048526	65.417123
694.470379	65.571905
694.892207	65.734580
695.314010	65.908293
695.735788	66.084718
696.157540	66.265881
696.579268	66.462755
697.000970	66.681316
697.422648	66.898634
697.844300	67.119161
698.265926	67.355248
698.687528	67.611356
699.109104	67.888480
699.530655	68.164723
699.952181	68.453469
700.373681	68.747518
700.795156	69.055146
701.216606	69.360170
701.638030	69.670280
702.059429	69.994854
702.480803	70.319420
702.902151	70.653166
703.323473	70.988467
703.744770	71.330073
704.166042	71.662368
704.587288	71.999145
705.008509	72.329395
705.429704	72.689379
705.850873	73.031037
706.272017	73.375653
706.693135	73.714052
707.114228	74.062523
707.535295	74.406063
707.956336	74.753925
708.377352	75.100952
708.798342	75.437542
709.219306	75.774882
709.640245	76.102182
710.061157	76.416672
710.482044	76.740009
710.902905	77.052747
711.323741	77.367688
711.744550	77.666051
712.165334	77.965582
712.586092	78.264999
713.006823	78.554165
713.427529	78.827388
713.848209	79.120386
714.268863	79.410356
714.689492	79.711325
715.110094	80.000846
715.530670	80.289167
715.951220	80.578069
716.371744	80.862206
716.792242	81.151506
717.212714	81.437721
717.633159	81.736329
718.053579	82.036318
718.473973	82.323018
718.894340	82.621924
719.314681	82.928007
719.734996	83.240615
720.155285	83.555648
720.575547	83.890482
720.995784	84.229385
721.415994	84.575296
721.836177	84.930724
722.256335	85.297282
722.676466	85.657490
723.096570	86.019755
723.516649	86.379728
723.936701	86.753208
724.356726	87.112121
724.776725	87.466367
725.196698	87.803209
725.616644	88.141470
726.036564	88.475991
726.456457	88.811140
726.876324	89.122610
727.296164	89.408879
727.715977	89.693552
728.135764	89.966564
728.555525	90.232254
728.975258	90.491711
729.394966	90.739348
729.814646	90.987936
730.234300	91.235587
730.653927	91.447503
731.073527	91.656398
731.493101	91.856345
731.912648	92.037105
732.332168	92.213673
732.751661	92.389346
733.171128	92.572567
733.590568	92.718963
734.009980	92.866343
734.429366	93.000297
734.848726	93.128458
735.268058	93.243423
735.687363	93.356408
736.106641	93.464229
736.525893	93.572793
736.945117	93.656013
737.364314	93.743443
737.783485	93.825794
738.202628	93.893756
738.621744	93.956268
739.040834	94.007698
739.459896	94.047084
739.878931	94.086921
740.297939	94.144431
740.716919	94.174766
741.135873	94.209017
741.554799	94.240757
741.973698	94.273223
742.392570	94.296212
742.811415	94.317598
743.230232	94.330916
743.649022	94.355931
744.067785	94.375074
744.486521	94.412297
744.905229	94.452468
745.323909	94.493985
745.742563	94.530821
746.161189	94.548324
746.579787	94.593445
746.998358	94.632952
747.416902	94.664852
747.835418	94.703671
748.253907	94.734550
748.672368	94.756405
749.090802	94.786323
749.509208	94.789805
749.927586	94.815881
750.345937	94.823477
750.764261	94.830025
751.182556	94.854013
751.600824	94.868530
752.019065	94.895924
752.437277	94.928926
752.855462	94.936841
753.273620	94.931083
753.691749	94.934970
754.109851	94.930105
