Time1=100ms:Average1=5:Objective=10X:Aperture=1: (11/21/2018 10:13:07 AM)
11/21/2018 10:13:07 AM
Reflectance
10X
Ap#: 1
Avg1: 5.000000
Avg2: 0.000000
Int.Time1:100.000000

350.166136	89.440074
350.601937	89.870031
351.037728	90.241527
351.473509	90.678795
351.909281	90.448939
352.345042	90.550322
352.780794	90.399287
353.216536	90.740557
353.652267	90.665076
354.087989	90.367201
354.523701	90.362405
354.959403	90.199583
355.395095	89.966189
355.830777	89.508817
356.266449	89.301070
356.702110	89.385139
357.137762	89.281437
357.573404	89.202160
358.009035	89.085104
358.444656	89.016936
358.880268	89.000401
359.315869	88.827434
359.751459	88.532018
360.187040	88.800483
360.622610	88.597111
361.058170	89.140824
361.493720	88.957741
361.929260	88.388602
362.364789	88.588283
362.800308	88.152957
363.235816	87.338449
363.671314	87.546750
364.106802	87.331455
364.542279	87.563195
364.977746	86.844229
365.413203	86.708924
365.848649	86.392915
366.284084	86.051437
366.719509	85.761823
367.154924	85.862870
367.590328	86.443413
368.025721	86.135812
368.461104	86.198180
368.896477	86.306343
369.331838	86.589922
369.767189	86.673387
370.202530	86.375063
370.637859	86.205859
371.073178	85.784021
371.508486	85.799404
371.943784	85.562025
372.379071	85.653507
372.814347	85.217391
373.249612	85.178993
373.684866	84.885885
374.120110	84.933386
374.555343	84.865340
374.990565	84.911733
375.425776	85.368720
375.860976	85.488436
376.296165	85.458264
376.731343	85.532205
377.166511	85.905390
377.601667	86.196498
378.036812	86.332817
378.471946	86.841596
378.907070	86.655731
379.342182	86.578795
379.777283	86.888548
380.212373	87.070785
380.647452	86.601868
381.082520	86.020486
381.517576	86.314890
381.952622	86.122952
382.387656	86.357616
382.822679	86.471145
383.257691	85.942221
383.692692	86.328493
384.127681	86.334935
384.562659	86.303443
384.997626	86.068900
385.432581	86.650279
385.867525	86.572372
386.302458	86.977446
386.737379	87.048193
387.172289	87.350993
387.607188	87.179730
388.042075	87.104692
388.476951	87.414295
388.911815	87.618156
389.346668	87.114219
389.781509	87.176394
390.216338	87.567217
390.651157	87.282117
391.085963	87.306559
391.520758	87.325239
391.955541	86.945768
392.390313	87.343163
392.825073	87.648673
393.259821	87.669228
393.694558	87.173635
394.129283	87.012513
394.563996	87.325239
394.998698	86.803331
395.433388	86.849315
395.868066	86.847390
396.302732	86.473915
396.737386	86.856935
397.172029	86.617033
397.606659	86.192544
398.041278	86.086095
398.475885	86.157303
398.910480	85.373907
399.345063	84.507786
399.779634	83.513419
400.214194	82.567859
400.648741	81.265289
401.083276	80.176466
401.517799	78.545046
401.952310	76.385749
402.386809	74.250866
402.821296	72.246792
403.255771	69.884897
403.690234	66.946164
404.124684	63.996212
404.559123	60.957029
404.993549	57.990944
405.427963	55.137740
405.862365	52.190066
406.296754	49.584171
406.731131	46.960221
407.165496	44.540776
407.599849	42.379566
408.034190	40.365749
408.468518	38.547806
408.902833	36.733004
409.337137	34.895519
409.771428	33.374911
410.205706	31.951329
410.639973	30.645090
411.074226	29.555216
411.508467	28.490854
411.942696	27.482658
412.376912	26.631009
412.811116	25.913488
413.245307	25.278123
413.679486	24.607202
414.113652	24.030618
414.547805	23.445906
414.981946	22.937729
415.416074	22.541554
415.850190	22.172606
416.284293	21.756784
416.718383	21.429004
417.152460	21.162881
417.586525	20.952708
418.020577	20.716968
418.454616	20.505202
418.888643	20.282780
419.322656	20.115164
419.756657	19.955105
420.190645	19.822592
420.624620	19.711204
421.058582	19.604202
421.492531	19.496022
421.926468	19.365649
422.360391	19.272998
422.794301	19.206024
423.228199	19.151331
423.662083	19.062308
424.095955	18.988431
424.529813	18.932292
424.963658	18.861790
425.397491	18.843524
425.831310	18.792899
426.265116	18.738796
426.698909	18.704472
427.132689	18.676030
427.566455	18.626313
428.000209	18.613745
428.433949	18.567506
428.867676	18.531150
429.301389	18.467387
429.735090	18.443331
430.168777	18.395508
430.602451	18.340566
431.036111	18.258472
431.469759	18.213339
431.903392	18.151821
432.337013	18.153249
432.770620	18.073046
433.204213	18.023336
433.637794	17.981989
434.071360	17.940894
434.504914	17.913736
434.938453	17.878189
435.371979	17.859334
435.805492	17.804134
436.238991	17.768826
436.672477	17.713256
437.105949	17.680524
437.539407	17.660274
437.972852	17.596221
438.406283	17.557913
438.839700	17.491367
439.273104	17.458507
439.706494	17.387275
440.139871	17.318391
440.573233	17.259904
441.006582	17.208470
441.439917	17.157488
441.873238	17.101356
442.306546	17.010092
442.739839	16.931788
443.173119	16.835737
443.606385	16.755008
444.039636	16.682041
444.472874	16.604997
444.906099	16.525604
445.339309	16.434915
445.772505	16.346068
446.205687	16.283976
446.638855	16.197057
447.072009	16.104311
447.505149	16.016444
447.938275	15.917679
448.371387	15.825988
448.804485	15.739799
449.237569	15.671557
449.670638	15.560458
450.103694	15.463105
450.536735	15.356871
450.969762	15.244713
451.402774	15.144250
451.835773	15.042140
452.268757	14.942083
452.701727	14.823925
453.134683	14.727704
453.567624	14.632716
454.000551	14.517750
454.433464	14.402892
454.866362	14.280167
455.299246	14.167713
455.732116	14.049844
456.164971	13.940660
456.597811	13.844063
457.030638	13.744930
457.463449	13.636441
457.896246	13.519012
458.329029	13.404139
458.761797	13.318409
459.194551	13.199116
459.627290	13.088255
460.060014	12.984730
460.492724	12.884745
460.925419	12.795075
461.358099	12.701173
461.790765	12.600013
462.223416	12.505890
462.656052	12.404581
463.088674	12.322506
463.521281	12.237361
463.953873	12.176554
464.386450	12.099448
464.819012	12.025780
465.251560	11.957324
465.684093	11.889576
466.116611	11.836580
466.549114	11.797827
466.981602	11.750774
467.414075	11.715986
467.846533	11.694568
468.278977	11.666607
468.711405	11.651395
469.143818	11.651026
469.576216	11.642853
470.008600	11.634037
470.440968	11.638806
470.873321	11.644823
471.305659	11.663973
471.737982	11.685409
472.170289	11.711448
472.602582	11.757470
473.034859	11.813532
473.467122	11.886633
473.899369	11.949546
474.331600	12.013445
474.763817	12.086479
475.196018	12.177147
475.628204	12.257428
476.060375	12.361867
476.492530	12.464063
476.924670	12.576318
477.356795	12.670008
477.788904	12.787074
478.220998	12.910451
478.653076	13.034475
479.085139	13.159492
479.517186	13.286823
479.949219	13.406703
480.381235	13.525848
480.813236	13.646158
481.245221	13.763566
481.677191	13.881512
482.109146	14.000166
482.541084	14.109920
482.973008	14.220191
483.404915	14.324404
483.836807	14.419557
484.268683	14.507735
484.700544	14.607262
485.132388	14.699297
485.564217	14.772398
485.996031	14.838729
486.427828	14.903792
486.859610	14.942284
487.291376	14.986109
487.723126	15.025898
488.154860	15.052984
488.586579	15.072881
489.018281	15.093338
489.449968	15.097501
489.881639	15.104257
490.313293	15.099984
490.744932	15.096081
491.176555	15.081593
491.608162	15.060465
492.039753	15.030726
492.471328	14.992672
492.902886	14.934835
493.334429	14.867429
493.765956	14.801442
494.197466	14.729085
494.628960	14.640618
495.060439	14.552612
495.491901	14.458601
495.923347	14.365728
496.354776	14.269436
496.786190	14.172266
497.217587	14.075923
497.648968	13.969551
498.080332	13.857011
498.511681	13.746205
498.943013	13.638478
499.374328	13.520462
499.805628	13.405335
500.236911	13.294339
500.668177	13.179098
501.099427	13.073629
501.530661	12.974893
501.961878	12.880489
502.393079	12.805151
502.824264	12.730939
503.255431	12.673352
503.686583	12.621676
504.117717	12.587645
504.548835	12.569976
504.979937	12.568093
505.411022	12.581477
505.842090	12.613575
506.273142	12.675972
506.704177	12.761020
507.135195	12.865052
507.566197	12.994314
507.997182	13.152644
508.428150	13.339937
508.859102	13.562231
509.290036	13.814604
509.720954	14.103701
510.151855	14.419957
510.582739	14.763426
511.013607	15.154695
511.444457	15.571212
511.875291	16.016965
512.306107	16.500932
512.736907	17.028915
513.167690	17.588140
513.598456	18.190424
514.029205	18.843563
514.459936	19.525827
514.890651	20.265207
515.321349	21.038036
515.752030	21.857329
516.182693	22.724907
516.613340	23.622459
517.043969	24.567055
517.474582	25.551967
517.905177	26.569136
518.335755	27.608154
518.766315	28.673914
519.196859	29.752608
519.627385	30.838880
520.057894	31.941937
520.488386	33.057539
520.918860	34.194162
521.349318	35.338434
521.779757	36.513833
522.210180	37.696140
522.640585	38.886037
523.070973	40.091851
523.501343	41.307205
523.931696	42.529468
524.362031	43.746253
524.792349	44.995864
525.222650	46.249613
525.652933	47.478242
526.083198	48.708228
526.513446	49.930489
526.943677	51.137875
527.373890	52.329235
527.804085	53.508185
528.234262	54.681848
528.664422	55.823206
529.094565	56.959411
529.524689	58.069818
529.954796	59.168423
530.384885	60.239200
530.814957	61.291889
531.245011	62.328908
531.675047	63.329986
532.105065	64.309457
532.535065	65.294582
532.965048	66.264355
533.395013	67.198995
533.824959	68.105732
534.254888	68.999183
534.684799	69.913993
535.114693	70.794841
535.544568	71.656974
535.974425	72.482099
536.404264	73.281704
536.834086	74.065370
537.263889	74.836718
537.693674	75.592191
538.123441	76.305316
538.553190	77.011622
538.982921	77.706098
539.412634	78.374940
539.842329	79.019390
540.272006	79.651548
540.701664	80.265355
541.131304	80.850201
541.560926	81.416118
541.990530	81.958743
542.420116	82.483128
542.849683	82.998585
543.279232	83.500017
543.708763	83.975443
544.138275	84.434350
544.567769	84.883738
544.997245	85.341797
545.426702	85.766427
545.856141	86.177839
546.285562	86.580639
546.714964	86.972231
547.144347	87.359246
547.573713	87.742041
548.003059	88.080988
548.432387	88.424677
548.861697	88.747738
549.290988	89.089363
549.720260	89.439295
550.149514	89.779515
550.578750	90.098462
551.007966	90.397604
551.437164	90.696571
551.866344	90.964967
552.295504	91.236130
552.724646	91.506135
553.153769	91.786306
553.582874	92.042577
554.011960	92.305353
554.441027	92.561472
554.870075	92.796199
555.299104	93.047266
555.728115	93.260850
556.157106	93.470376
556.586079	93.659068
557.015033	93.860328
557.443968	94.059252
557.872884	94.242864
558.301781	94.408306
558.730659	94.590972
559.159518	94.750160
559.588358	94.915341
560.017180	95.063225
560.445982	95.204760
560.874765	95.336235
561.303528	95.490099
561.732273	95.619401
562.160999	95.755482
562.589705	95.880968
563.018393	95.983946
563.447061	96.107068
563.875710	96.227875
564.304340	96.341282
564.732950	96.432014
565.161542	96.549842
565.590114	96.655290
566.018666	96.752653
566.447200	96.867069
566.875714	96.973324
567.304208	97.063871
567.732684	97.163448
568.161140	97.262080
568.589576	97.359843
569.017993	97.451078
569.446391	97.540448
569.874769	97.634080
570.303128	97.705700
570.731467	97.769840
571.159787	97.822348
571.588087	97.869229
572.016368	97.907619
572.444629	97.942663
572.872870	97.974612
573.301092	98.011003
573.729294	98.030118
574.157476	98.065048
574.585639	98.073217
575.013782	98.081237
575.441906	98.086778
575.870009	98.092233
576.298093	98.097769
576.726157	98.085820
577.154202	98.066684
577.582226	98.074314
578.010231	98.101423
578.438216	98.082900
578.866181	98.078146
579.294126	98.084471
579.722051	98.070761
580.149957	98.072263
580.577842	98.066548
581.005707	98.061536
581.433553	98.044838
581.861378	98.040340
582.289184	98.035903
582.716969	98.030881
583.144734	98.031409
583.572479	98.043753
584.000205	98.038886
584.427910	98.032872
584.855594	98.030252
585.283259	98.026812
585.710904	98.033041
586.138528	98.020718
586.566132	98.019149
586.993716	98.014500
587.421280	97.977839
587.848823	97.941775
588.276346	97.914469
588.703849	97.874006
589.131332	97.831284
589.558794	97.774926
589.986236	97.702030
590.413657	97.644847
590.841058	97.557238
591.268438	97.443495
591.695799	97.345214
592.123138	97.234096
592.550458	97.119844
592.977756	96.997944
593.405034	96.847129
593.832292	96.698590
594.259529	96.550742
594.686746	96.405522
595.113942	96.237872
595.541117	96.072478
595.968272	95.901117
596.395406	95.719766
596.822519	95.538322
597.249612	95.367072
597.676684	95.190323
598.103735	95.019184
598.530766	94.851830
598.957775	94.667682
599.384764	94.493750
599.811733	94.299845
600.238680	94.117704
600.665606	93.933540
601.092512	93.763768
601.519397	93.575707
601.946261	93.395384
602.373104	93.208600
602.799926	93.035704
603.226727	92.836950
603.653507	92.614988
604.080266	92.391595
604.507004	92.170941
604.933721	91.949742
605.360417	91.717921
605.787092	91.454382
606.213746	91.176041
606.640379	90.904233
607.066991	90.625525
607.493581	90.322384
607.920150	90.015624
608.346699	89.694711
608.773226	89.373904
609.199731	89.024695
609.626216	88.666921
610.052679	88.286471
610.479121	87.882517
610.905542	87.466973
611.331941	87.024196
611.758319	86.557721
612.184676	86.071018
612.611011	85.548687
613.037325	85.017305
613.463617	84.461028
613.889888	83.888495
614.316138	83.281439
614.742366	82.643681
615.168573	81.986650
615.594758	81.297144
616.020921	80.568942
616.447063	79.841777
616.873184	79.089753
617.299283	78.315238
617.725360	77.524699
618.151416	76.715620
618.577450	75.895895
619.003462	75.063443
619.429453	74.224221
619.855422	73.379097
620.281369	72.512258
620.707295	71.646149
621.133199	70.753745
621.559081	69.861651
621.984941	68.941418
622.410779	68.030165
622.836596	67.098896
623.262391	66.160887
623.688163	65.207256
624.113914	64.249524
624.539644	63.266638
624.965351	62.265448
625.391036	61.253748
625.816699	60.244984
626.242340	59.212125
626.667960	58.147611
627.093557	57.077308
627.519132	55.980715
627.944685	54.874456
628.370216	53.746160
628.795725	52.608459
629.221212	51.465278
629.646677	50.309173
630.072119	49.150304
630.497540	47.996181
630.922938	46.837346
631.348314	45.682816
631.773668	44.524778
632.198999	43.375335
632.624308	42.242617
633.049595	41.129081
633.474860	40.031603
633.900102	38.957886
634.325322	37.919553
634.750520	36.896301
635.175695	35.917102
635.600848	34.958500
636.025978	34.030797
636.451086	33.125396
636.876171	32.260739
637.301234	31.421888
637.726275	30.617341
638.151293	29.852843
638.576288	29.119398
639.001261	28.419005
639.426211	27.757115
639.851139	27.140123
640.276044	26.551290
640.700927	26.015659
641.125787	25.523089
641.550624	25.077846
641.975438	24.681409
642.400230	24.332269
642.824999	24.029983
643.249745	23.782104
643.674469	23.591071
644.099169	23.454026
644.523847	23.374728
644.948502	23.355643
645.373135	23.394343
645.797744	23.484668
646.222330	23.629863
646.646894	23.836884
647.071435	24.088673
647.495953	24.387313
647.920447	24.741223
648.344919	25.129578
648.769368	25.572890
649.193794	26.049924
649.618197	26.574405
650.042576	27.125604
650.466933	27.717176
650.891267	28.345013
651.315577	29.001278
651.739864	29.693877
652.164129	30.409007
652.588370	31.143884
653.012587	31.906536
653.436782	32.696451
653.860953	33.497219
654.285102	34.320592
654.709226	35.153602
655.133328	36.008024
655.557406	36.871080
655.981461	37.737277
656.405493	38.609823
656.829501	39.469456
657.253486	40.325599
657.677448	41.161907
658.101386	41.985276
658.525301	42.788111
658.949192	43.565711
659.373060	44.315622
659.796904	45.037587
660.220725	45.725163
660.644522	46.393330
661.068296	47.017985
661.492046	47.625586
661.915772	48.186909
662.339475	48.723329
662.763154	49.230786
663.186810	49.718582
663.610442	50.175571
664.034050	50.599517
664.457635	51.003421
664.881196	51.369833
665.304733	51.713723
665.728247	52.039755
666.151736	52.331919
666.575202	52.609217
666.998644	52.859992
667.422062	53.088039
667.845457	53.297260
668.268827	53.487352
668.692174	53.651827
669.115496	53.806530
669.538795	53.937242
669.962070	54.057038
670.385321	54.152845
670.808547	54.237795
671.231750	54.301961
671.654929	54.359025
672.078084	54.414166
672.501214	54.456631
672.924321	54.489865
673.347404	54.520462
673.770462	54.529783
674.193496	54.552405
674.616506	54.566724
675.039492	54.576815
675.462454	54.598511
675.885391	54.614809
676.308305	54.626896
676.731194	54.647091
677.154058	54.663208
677.576899	54.687931
677.999715	54.722226
678.422507	54.753541
678.845274	54.796043
679.268017	54.850499
679.690736	54.896473
680.113430	54.965636
680.536100	55.038491
680.958746	55.119929
681.381367	55.204323
681.803963	55.306578
682.226535	55.420140
682.649083	55.548283
683.071605	55.692409
683.494104	55.851859
683.916578	56.031776
684.339027	56.229482
684.761451	56.433034
685.183851	56.653891
685.606227	56.884129
686.028577	57.129163
686.450903	57.397069
686.873204	57.680306
687.295481	57.981083
687.717733	58.294250
688.139959	58.635623
688.562162	58.971698
688.984339	59.333413
689.406492	59.706680
689.828619	60.074445
690.250722	60.468319
690.672800	60.858211
691.094853	61.255981
691.516881	61.674547
691.938884	62.090489
692.360863	62.501436
692.782816	62.926109
693.204744	63.341969
693.626647	63.764931
694.048526	64.182007
694.470379	64.597642
694.892207	65.008467
695.314010	65.409987
695.735788	65.803550
696.157540	66.194273
696.579268	66.574930
697.000970	66.946672
697.422648	67.315937
697.844300	67.670902
698.265926	68.022820
698.687528	68.379684
699.109104	68.721871
699.530655	69.056063
699.952181	69.388483
700.373681	69.705716
700.795156	70.013718
701.216606	70.310276
701.638030	70.601042
702.059429	70.874056
702.480803	71.137109
702.902151	71.404704
703.323473	71.656077
703.744770	71.891111
704.166042	72.124126
704.587288	72.327580
705.008509	72.525570
705.429704	72.727623
705.850873	72.904443
706.272017	73.077699
706.693135	73.235811
707.114228	73.397936
707.535295	73.554122
707.956336	73.704546
708.377352	73.859823
708.798342	74.011295
709.219306	74.162845
709.640245	74.318514
710.061157	74.477124
710.482044	74.631116
710.902905	74.804510
711.323741	74.976794
711.744550	75.140311
712.165334	75.326418
712.586092	75.515675
713.006823	75.706522
713.427529	75.904424
713.848209	76.117372
714.268863	76.335251
714.689492	76.561936
715.110094	76.811606
715.530670	77.068139
715.951220	77.324884
716.371744	77.596408
716.792242	77.884906
717.212714	78.169841
717.633159	78.487458
718.053579	78.812280
718.473973	79.134846
718.894340	79.488532
719.314681	79.855106
719.734996	80.239554
720.155285	80.623925
720.575547	81.029665
720.995784	81.447951
721.415994	81.869956
721.836177	82.303809
722.256335	82.741330
722.676466	83.177952
723.096570	83.601613
723.516649	84.032713
723.936701	84.475320
724.356726	84.897361
724.776725	85.321846
725.196698	85.724673
725.616644	86.119043
726.036564	86.511027
726.456457	86.891516
726.876324	87.257247
727.296164	87.590633
727.715977	87.926625
728.135764	88.232989
728.555525	88.531070
728.975258	88.829005
729.394966	89.109721
729.814646	89.383797
730.234300	89.651392
730.653927	89.884014
731.073527	90.117766
731.493101	90.336584
731.912648	90.539466
732.332168	90.728198
732.751661	90.922340
733.171128	91.111098
733.590568	91.271617
734.009980	91.434791
734.429366	91.588717
734.848726	91.732171
735.268058	91.872760
735.687363	92.015719
736.106641	92.163365
736.525893	92.303089
736.945117	92.423405
737.364314	92.547372
737.783485	92.678071
738.202628	92.802393
738.621744	92.923895
739.040834	93.045471
739.459896	93.172415
739.878931	93.287853
740.297939	93.425299
740.716919	93.552730
741.135873	93.692614
741.554799	93.831417
741.973698	93.972304
742.392570	94.111664
742.811415	94.268322
743.230232	94.414522
743.649022	94.588391
744.067785	94.756674
744.486521	94.944441
744.905229	95.127121
745.323909	95.323459
745.742563	95.498602
746.161189	95.682438
746.579787	95.876930
746.998358	96.069959
747.416902	96.253690
747.835418	96.459751
748.253907	96.649668
748.672368	96.824795
749.090802	97.012055
749.509208	97.188122
749.927586	97.362666
750.345937	97.543366
750.764261	97.708188
751.182556	97.887537
751.600824	98.062184
752.019065	98.235519
752.437277	98.400792
752.855462	98.567029
753.273620	98.735256
753.691749	98.901879
754.109851	99.046233
