Time1=100ms:Average1=5:Objective=10X:Aperture=1: (11/21/2018 10:17:44 AM)
11/21/2018 10:17:44 AM
Reflectance
10X
Ap#: 1
Avg1: 5.000000
Avg2: 0.000000
Int.Time1:100.000000

350.166136	97.232763
350.601937	97.945336
351.037728	98.393066
351.473509	98.933881
351.909281	99.033054
352.345042	98.988597
352.780794	98.820965
353.216536	99.087935
353.652267	99.403519
354.087989	99.791024
354.523701	99.761051
354.959403	99.473736
355.395095	99.512729
355.830777	99.721032
356.266449	99.570043
356.702110	99.569397
357.137762	98.952096
357.573404	99.130174
358.009035	98.912501
358.444656	98.917727
358.880268	98.715375
359.315869	98.602172
359.751459	99.033427
360.187040	99.194279
360.622610	99.272801
361.058170	99.562786
361.493720	99.380333
361.929260	99.300274
362.364789	100.122050
362.800308	100.202860
363.235816	100.060582
363.671314	100.283028
364.106802	100.382371
364.542279	100.748231
364.977746	100.373285
365.413203	100.150921
365.848649	100.362319
366.284084	100.282400
366.719509	99.899163
367.154924	100.302939
367.590328	100.100867
368.025721	100.424414
368.461104	100.667341
368.896477	101.068872
369.331838	100.949207
369.767189	101.028226
370.202530	100.804424
370.637859	101.133628
371.073178	100.348675
371.508486	100.357498
371.943784	99.950656
372.379071	100.257247
372.814347	100.335968
373.249612	99.783635
373.684866	99.245764
374.120110	99.402429
374.555343	99.414520
374.990565	99.590364
375.425776	99.872686
375.860976	99.609642
376.296165	99.493523
376.731343	99.192450
377.166511	98.875533
377.601667	98.715953
378.036812	98.895777
378.471946	98.954299
378.907070	99.189502
379.342182	98.739658
379.777283	98.801074
380.212373	98.877805
380.647452	98.227559
381.082520	97.951442
381.517576	98.187340
381.952622	97.972909
382.387656	97.682119
382.822679	98.013245
383.257691	97.592523
383.692692	97.727701
384.127681	97.738196
384.562659	97.833901
384.997626	97.527135
385.432581	97.948379
385.867525	97.548326
386.302458	97.537039
386.737379	97.496235
387.172289	97.928098
387.607188	97.995651
388.042075	97.611630
388.476951	97.924298
388.911815	98.025269
389.346668	97.463869
389.781509	97.457548
390.216338	97.515298
390.651157	97.390021
391.085963	97.310243
391.520758	97.084253
391.955541	96.665445
392.390313	96.547303
392.825073	96.770357
393.259821	96.908160
393.694558	96.074493
394.129283	95.926569
394.563996	96.265636
394.998698	95.598060
395.433388	95.278539
395.868066	95.043812
396.302732	94.755564
396.737386	95.155426
397.172029	94.661340
397.606659	94.154904
398.041278	93.948127
398.475885	93.546067
398.910480	92.579868
399.345063	91.576493
399.779634	90.767689
400.214194	89.922447
400.648741	88.785323
401.083276	87.033067
401.517799	85.358118
401.952310	82.891557
402.386809	80.616624
402.821296	78.173711
403.255771	75.497035
403.690234	72.366407
404.124684	69.333965
404.559123	65.941555
404.993549	62.370731
405.427963	59.084005
405.862365	55.648709
406.296754	52.634345
406.731131	49.714954
407.165496	47.131829
407.599849	44.666618
408.034190	42.401299
408.468518	40.339950
408.902833	38.263300
409.337137	36.284484
409.771428	34.534416
410.205706	32.766063
410.639973	31.291727
411.074226	29.987817
411.508467	28.839505
411.942696	27.916433
412.376912	27.029605
412.811116	26.255744
413.245307	25.582770
413.679486	24.909685
414.113652	24.227413
414.547805	23.680146
414.981946	23.117216
415.416074	22.615842
415.850190	22.198028
416.284293	21.812679
416.718383	21.547045
417.152460	21.329145
417.586525	21.098607
418.020577	20.959235
418.454616	20.828166
418.888643	20.712845
419.322656	20.655696
419.756657	20.516294
420.190645	20.394491
420.624620	20.335842
421.058582	20.254522
421.492531	20.179497
421.926468	20.140117
422.360391	20.158943
422.794301	20.227781
423.228199	20.349474
423.662083	20.491024
424.095955	20.665016
424.529813	20.825521
424.963658	20.983439
425.397491	21.115075
425.831310	21.211958
426.265116	21.280770
426.698909	21.396181
427.132689	21.532460
427.566455	21.679340
428.000209	21.860735
428.433949	22.089898
428.867676	22.309406
429.301389	22.517421
429.735090	22.720561
430.168777	22.886153
430.602451	23.006153
431.036111	23.121691
431.469759	23.239354
431.903392	23.306711
432.337013	23.412095
432.770620	23.477100
433.204213	23.629682
433.637794	23.795957
434.071360	23.994731
434.504914	24.211810
434.938453	24.465767
435.371979	24.746975
435.805492	25.002937
436.238991	25.196830
436.672477	25.397637
437.105949	25.564968
437.539407	25.702494
437.972852	25.809222
438.406283	25.933176
438.839700	26.065088
439.273104	26.278225
439.706494	26.482582
440.139871	26.660515
440.573233	26.853769
441.006582	27.065905
441.439917	27.251640
441.873238	27.379330
442.306546	27.485113
442.739839	27.575780
443.173119	27.615501
443.606385	27.661208
444.039636	27.730085
444.472874	27.805456
444.906099	27.883823
445.339309	27.995943
445.772505	28.145784
446.205687	28.302304
446.638855	28.470838
447.072009	28.648040
447.505149	28.818097
447.938275	28.980169
448.371387	29.115911
448.804485	29.218667
449.237569	29.324314
449.670638	29.409648
450.103694	29.426941
450.536735	29.460416
450.969762	29.509921
451.402774	29.578963
451.835773	29.631636
452.268757	29.700644
452.701727	29.747580
453.134683	29.826500
453.567624	29.910695
454.000551	29.970774
454.433464	30.000321
454.866362	30.008560
455.299246	30.013269
455.732116	29.988746
456.164971	29.937596
456.597811	29.918988
457.030638	29.892914
457.463449	29.845274
457.896246	29.796928
458.329029	29.758328
458.761797	29.753775
459.194551	29.717614
459.627290	29.693440
460.060014	29.661571
460.492724	29.653181
460.925419	29.641161
461.358099	29.622595
461.790765	29.596772
462.223416	29.546078
462.656052	29.474451
463.088674	29.412048
463.521281	29.381275
463.953873	29.340412
464.386450	29.277676
464.819012	29.234214
465.251560	29.212144
465.684093	29.211676
466.116611	29.225338
466.549114	29.245877
466.981602	29.292061
467.414075	29.327202
467.846533	29.384967
468.278977	29.426652
468.711405	29.475790
469.143818	29.566446
469.576216	29.637207
470.008600	29.700332
470.440968	29.776428
470.873321	29.846046
471.305659	29.928600
471.737982	30.016997
472.170289	30.084967
472.602582	30.176576
473.034859	30.284274
473.467122	30.424473
473.899369	30.575166
474.331600	30.756906
474.763817	30.989035
475.196018	31.250271
475.628204	31.549399
476.060375	31.884158
476.492530	32.233057
476.924670	32.587729
477.356795	32.938189
477.788904	33.300242
478.220998	33.643636
478.653076	33.985127
479.085139	34.308374
479.517186	34.651349
479.949219	35.006117
480.381235	35.375177
480.813236	35.805045
481.245221	36.263802
481.677191	36.766357
482.109146	37.299927
482.541084	37.829509
482.973008	38.381655
483.404915	38.913665
483.836807	39.408153
484.268683	39.878429
484.700544	40.330580
485.132388	40.744284
485.564217	41.137131
485.996031	41.505780
486.427828	41.857746
486.859610	42.176428
487.291376	42.471148
487.723126	42.775829
488.154860	43.073767
488.586579	43.400169
489.018281	43.739041
489.449968	44.106936
489.881639	44.526310
490.313293	44.951383
490.744932	45.415269
491.176555	45.876928
491.608162	46.321747
492.039753	46.736551
492.471328	47.083093
492.902886	47.387304
493.334429	47.611112
493.765956	47.766685
494.197466	47.888740
494.628960	47.974431
495.060439	48.068856
495.491901	48.171553
495.923347	48.294731
496.354776	48.463777
496.786190	48.693007
497.217587	48.956874
497.648968	49.242967
498.080332	49.535475
498.511681	49.813268
498.943013	50.078072
499.374328	50.286583
499.805628	50.444621
500.236911	50.548644
500.668177	50.611201
501.099427	50.610408
501.530661	50.579242
501.961878	50.488686
502.393079	50.375227
502.824264	50.226731
503.255431	50.054298
503.686583	49.895209
504.117717	49.757458
504.548835	49.646840
504.979937	49.606506
505.411022	49.622530
505.842090	49.730636
506.273142	49.876826
506.704177	50.097355
507.135195	50.339455
507.566197	50.594118
507.997182	50.822674
508.428150	51.010651
508.859102	51.143803
509.290036	51.236119
509.720954	51.265449
510.151855	51.272087
510.582739	51.243912
511.013607	51.246528
511.444457	51.265413
511.875291	51.357159
512.306107	51.517634
512.736907	51.745570
513.167690	52.062821
513.598456	52.469813
514.029205	52.923654
514.459936	53.425532
514.890651	53.922862
515.321349	54.444026
515.752030	54.956543
516.182693	55.431981
516.613340	55.861403
517.043969	56.238194
517.474582	56.560349
517.905177	56.842407
518.335755	57.062350
518.766315	57.259059
519.196859	57.402225
519.627385	57.526967
520.057894	57.641544
520.488386	57.785065
520.918860	57.958756
521.349318	58.193983
521.779757	58.507961
522.210180	58.909828
522.640585	59.384465
523.070973	59.957433
523.501343	60.585393
523.931696	61.290921
524.362031	62.013564
524.792349	62.760163
525.222650	63.469280
525.652933	64.122843
526.083198	64.741273
526.513446	65.287407
526.943677	65.745453
527.373890	66.151666
527.804085	66.502190
528.234262	66.872496
528.664422	67.210256
529.094565	67.582399
529.524689	68.006443
529.954796	68.518259
530.384885	69.121546
530.814957	69.790455
531.245011	70.537000
531.675047	71.352561
532.105065	72.187336
532.535065	73.066979
532.965048	73.941753
533.395013	74.780219
533.824959	75.576077
534.254888	76.284070
534.684799	76.907676
535.114693	77.444196
535.544568	77.898999
535.974425	78.249473
536.404264	78.506407
536.834086	78.680043
537.263889	78.802096
537.693674	78.858159
538.123441	78.885609
538.553190	78.930894
538.982921	78.999181
539.412634	79.108368
539.842329	79.281918
540.272006	79.525024
540.701664	79.846164
541.131304	80.241677
541.560926	80.677714
541.990530	81.202981
542.420116	81.765061
542.849683	82.350298
543.279232	82.917428
543.708763	83.440377
544.138275	83.936620
544.567769	84.377033
544.997245	84.735254
545.426702	85.025368
545.856141	85.241899
546.285562	85.404547
546.714964	85.536542
547.144347	85.627952
547.573713	85.751743
548.003059	85.904543
548.432387	86.086291
548.861697	86.318558
549.290988	86.632446
549.720260	87.024405
550.149514	87.503891
550.578750	88.042554
551.007966	88.650747
551.437164	89.322774
551.866344	89.991441
552.295504	90.664439
552.724646	91.309613
553.153769	91.908313
553.582874	92.435970
554.011960	92.852412
554.441027	93.168228
554.870075	93.369254
555.299104	93.441703
555.728115	93.384735
556.157106	93.224973
556.586079	92.985026
557.015033	92.701910
557.443968	92.370052
557.872884	92.013113
558.301781	91.689385
558.730659	91.416350
559.159518	91.180172
559.588358	91.020729
560.017180	90.912846
560.445982	90.896378
560.874765	90.931299
561.303528	91.051574
561.732273	91.212135
562.160999	91.403772
562.589705	91.631947
563.018393	91.842001
563.447061	92.079962
563.875710	92.292582
564.304340	92.510145
564.732950	92.656691
565.161542	92.783458
565.590114	92.888897
566.018666	92.964678
566.447200	93.005388
566.875714	93.019407
567.304208	93.035023
567.732684	93.056809
568.161140	93.087918
568.589576	93.138754
569.017993	93.218776
569.446391	93.349216
569.874769	93.529238
570.303128	93.769498
570.731467	94.061571
571.159787	94.416266
571.588087	94.812642
572.016368	95.269351
572.444629	95.768005
572.872870	96.280191
573.301092	96.812009
573.729294	97.297150
574.157476	97.738315
574.585639	98.087968
575.013782	98.358201
575.441906	98.522109
575.870009	98.577389
576.298093	98.533917
576.726157	98.365795
577.154202	98.107240
577.582226	97.779466
578.010231	97.408183
578.438216	96.991092
578.866181	96.570258
579.294126	96.143882
579.722051	95.753120
580.149957	95.410027
580.577842	95.114286
581.005707	94.869117
581.433553	94.656873
581.861378	94.505273
582.289184	94.392289
582.716969	94.312208
583.144734	94.256339
583.572479	94.214856
584.000205	94.195930
584.427910	94.181537
584.855594	94.182871
585.283259	94.160666
585.710904	94.160743
586.138528	94.140930
586.566132	94.129886
586.993716	94.134368
587.421280	94.122975
587.848823	94.121792
588.276346	94.131354
588.703849	94.135315
589.131332	94.147517
589.558794	94.162109
589.986236	94.158864
590.413657	94.154585
590.841058	94.139273
591.268438	94.125024
591.695799	94.139048
592.123138	94.160644
592.550458	94.223700
592.977756	94.310834
593.405034	94.423233
593.832292	94.568962
594.259529	94.733501
594.686746	94.951838
595.113942	95.175898
595.541117	95.426433
595.968272	95.668301
596.395406	95.895953
596.822519	96.093231
597.249612	96.243212
597.676684	96.337290
598.103735	96.344690
598.530766	96.286866
598.957775	96.121565
599.384764	95.883002
599.811733	95.551033
600.238680	95.168142
600.665606	94.740780
601.092512	94.275446
601.519397	93.791337
601.946261	93.324039
602.373104	92.841011
602.799926	92.401577
603.226727	91.977533
603.653507	91.588636
604.080266	91.218780
604.507004	90.880929
604.933721	90.563444
605.360417	90.258093
605.787092	89.939411
606.213746	89.610207
606.640379	89.289803
607.066991	88.948791
607.493581	88.610645
607.920150	88.283089
608.346699	87.944004
608.773226	87.612922
609.199731	87.290002
609.626216	86.984620
610.052679	86.702884
610.479121	86.439118
610.905542	86.193947
611.331941	85.983341
611.758319	85.788005
612.184676	85.612800
612.611011	85.472586
613.037325	85.354465
613.463617	85.219465
613.889888	85.095101
614.316138	84.963019
614.742366	84.808233
615.168573	84.647029
615.594758	84.478780
616.020921	84.288207
616.447063	84.099236
616.873184	83.909727
617.299283	83.723350
617.725360	83.561038
618.151416	83.417415
618.577450	83.292479
619.003462	83.193944
619.429453	83.133243
619.855422	83.089181
620.281369	83.060033
620.707295	83.038349
621.133199	83.014208
621.559081	82.986157
621.984941	82.931789
622.410779	82.866347
622.836596	82.751034
623.262391	82.595097
623.688163	82.405629
624.113914	82.191618
624.539644	81.938137
624.965351	81.660789
625.391036	81.362285
625.816699	81.051495
626.242340	80.739029
626.667960	80.444975
627.093557	80.170628
627.519132	79.917993
627.944685	79.684834
628.370216	79.468760
628.795725	79.271361
629.221212	79.081564
629.646677	78.913346
630.072119	78.735142
630.497540	78.570477
630.922938	78.383921
631.348314	78.194833
631.773668	77.975366
632.198999	77.737872
632.624308	77.477554
633.049595	77.194863
633.474860	76.909139
633.900102	76.617916
634.325322	76.316933
634.750520	76.037418
635.175695	75.781661
635.600848	75.545509
636.025978	75.369803
636.451086	75.223743
636.876171	75.126539
637.301234	75.077714
637.726275	75.072847
638.151293	75.113358
638.576288	75.200007
639.001261	75.318835
639.426211	75.451535
639.851139	75.600366
640.276044	75.747832
640.700927	75.897651
641.125787	76.045497
641.550624	76.171846
641.975438	76.289149
642.400230	76.397106
642.824999	76.489405
643.249745	76.580019
643.674469	76.660212
644.099169	76.742996
644.523847	76.813828
644.948502	76.900753
645.373135	76.994165
645.797744	77.095392
646.222330	77.210646
646.646894	77.340694
647.071435	77.489505
647.495953	77.643643
647.920447	77.800184
648.344919	77.957727
648.769368	78.101788
649.193794	78.227491
649.618197	78.349037
650.042576	78.435404
650.466933	78.487865
650.891267	78.512416
651.315577	78.526942
651.739864	78.512571
652.164129	78.478446
652.588370	78.409565
653.012587	78.334610
653.436782	78.240153
653.860953	78.124070
654.285102	78.006404
654.709226	77.892301
655.133328	77.779622
655.557406	77.658347
655.981461	77.548659
656.405493	77.441320
656.829501	77.310308
657.253486	77.179184
657.677448	77.015122
658.101386	76.849100
658.525301	76.661377
658.949192	76.441549
659.373060	76.200135
659.796904	75.935564
660.220725	75.627245
660.644522	75.297858
661.068296	74.947345
661.492046	74.593618
661.915772	74.242351
662.339475	73.903836
662.763154	73.565479
663.186810	73.264006
663.610442	72.997819
664.034050	72.770984
664.457635	72.583239
664.881196	72.452665
665.304733	72.371591
665.728247	72.351637
666.151736	72.383506
666.575202	72.489591
666.998644	72.643883
667.422062	72.854177
667.845457	73.105010
668.268827	73.390763
668.692174	73.718297
669.115496	74.044504
669.538795	74.369952
669.962070	74.708409
670.385321	75.018278
670.808547	75.323234
671.231750	75.581719
671.654929	75.811445
672.078084	76.014564
672.501214	76.185607
672.924321	76.304067
673.347404	76.394428
673.770462	76.446466
674.193496	76.471551
674.616506	76.464515
675.039492	76.420069
675.462454	76.357962
675.885391	76.287997
676.308305	76.201415
676.731194	76.115370
677.154058	76.021482
677.576899	75.920286
677.999715	75.831222
678.422507	75.740463
678.845274	75.662329
679.268017	75.600854
679.690736	75.526171
680.113430	75.484787
680.536100	75.431012
680.958746	75.379629
681.381367	75.342197
681.803963	75.294049
682.226535	75.261615
682.649083	75.245350
683.071605	75.234740
683.494104	75.242900
683.916578	75.262838
684.339027	75.290875
684.761451	75.332284
685.183851	75.377204
685.606227	75.416074
686.028577	75.451487
686.450903	75.495319
686.873204	75.525138
687.295481	75.550253
687.717733	75.549565
688.139959	75.543935
688.562162	75.494839
688.984339	75.420158
689.406492	75.305031
689.828619	75.135240
690.250722	74.932267
690.672800	74.687799
691.094853	74.394685
691.516881	74.068800
691.938884	73.710436
692.360863	73.300856
692.782816	72.887030
693.204744	72.442217
693.626647	72.005132
694.048526	71.566289
694.470379	71.140653
694.892207	70.735470
695.314010	70.356173
695.735788	70.016624
696.157540	69.722158
696.579268	69.466235
697.000970	69.259437
697.422648	69.115404
697.844300	69.025708
698.265926	69.002702
698.687528	69.041139
699.109104	69.151907
699.530655	69.303771
699.952181	69.519853
700.373681	69.776811
700.795156	70.081458
701.216606	70.418192
701.638030	70.788114
702.059429	71.184627
702.480803	71.590317
702.902151	72.011602
703.323473	72.435849
703.744770	72.841772
704.166042	73.229807
704.587288	73.596964
705.008509	73.928408
705.429704	74.253664
705.850873	74.537547
706.272017	74.786327
706.693135	74.999032
707.114228	75.187381
707.535295	75.336311
707.956336	75.460348
708.377352	75.558231
708.798342	75.620258
709.219306	75.668340
709.640245	75.704414
710.061157	75.734802
710.482044	75.756054
710.902905	75.764520
711.323741	75.780722
711.744550	75.783096
712.165334	75.799633
712.586092	75.822641
713.006823	75.845355
713.427529	75.868436
713.848209	75.909231
714.268863	75.960712
714.689492	76.029808
715.110094	76.103090
715.530670	76.192806
715.951220	76.300709
716.371744	76.399925
716.792242	76.518895
717.212714	76.647265
717.633159	76.783059
718.053579	76.921559
718.473973	77.034486
718.894340	77.141670
719.314681	77.245365
719.734996	77.321957
720.155285	77.383969
720.575547	77.412220
720.995784	77.406376
721.415994	77.359238
721.836177	77.276527
722.256335	77.134072
722.676466	76.947503
723.096570	76.692823
723.516649	76.380273
723.936701	76.024058
724.356726	75.588032
724.776725	75.105199
725.196698	74.550586
725.616644	73.946371
726.036564	73.297266
726.456457	72.627126
726.876324	71.914441
727.296164	71.176865
727.715977	70.423836
728.135764	69.672088
728.555525	68.924504
728.975258	68.192263
729.394966	67.497797
729.814646	66.824216
730.234300	66.193751
730.653927	65.604784
731.073527	65.076067
731.493101	64.613199
731.912648	64.214092
732.332168	63.876786
732.751661	63.617859
733.171128	63.422779
733.590568	63.298511
734.009980	63.262021
734.429366	63.293182
734.848726	63.379856
735.268058	63.534883
735.687363	63.741456
736.106641	64.008552
736.525893	64.329172
736.945117	64.676402
737.364314	65.063403
737.783485	65.494700
738.202628	65.952129
738.621744	66.434744
739.040834	66.936821
739.459896	67.428760
739.878931	67.927528
740.297939	68.428908
740.716919	68.910048
741.135873	69.387586
741.554799	69.843978
741.973698	70.261420
742.392570	70.650571
742.811415	71.026101
743.230232	71.343906
743.649022	71.624951
744.067785	71.874255
744.486521	72.092700
744.905229	72.259596
745.323909	72.402435
745.742563	72.505028
746.161189	72.578630
746.579787	72.630317
746.998358	72.651635
747.416902	72.650822
747.835418	72.641630
748.253907	72.619034
748.672368	72.588037
749.090802	72.561887
749.509208	72.526546
749.927586	72.513487
750.345937	72.510272
750.764261	72.507418
751.182556	72.542311
751.600824	72.585830
752.019065	72.646890
752.437277	72.742284
752.855462	72.850662
753.273620	72.977499
753.691749	73.121904
