Time1=100ms:Average1=5:Objective=10X:Aperture=1: (11/21/2018 10:11:41 AM)
11/21/2018 10:11:41 AM
Reflectance
10X
Ap#: 1
Avg1: 5.000000
Avg2: 0.000000
Int.Time1:100.000000

350.166136	86.367422
350.601937	86.983945
351.037728	86.920530
351.473509	87.314163
351.909281	87.202763
352.345042	87.545860
352.780794	87.347667
353.216536	87.201348
353.652267	87.175664
354.087989	87.063389
354.523701	86.947431
354.959403	86.912918
355.395095	87.181782
355.830777	87.127628
356.266449	87.081292
356.702110	86.951732
357.137762	86.816367
357.573404	86.832633
358.009035	86.431208
358.444656	86.762201
358.880268	86.621839
359.315869	86.765889
359.751459	86.568667
360.187040	86.131534
360.622610	85.860014
361.058170	86.161668
361.493720	86.113369
361.929260	85.954771
362.364789	85.821806
362.800308	85.536058
363.235816	85.157512
363.671314	85.494794
364.106802	85.469913
364.542279	85.692619
364.977746	85.129136
365.413203	85.119227
365.848649	84.913446
366.284084	84.639435
366.719509	84.471110
367.154924	84.792487
367.590328	84.597539
368.025721	84.791835
368.461104	84.802831
368.896477	84.561863
369.331838	84.600626
369.767189	84.778226
370.202530	84.494721
370.637859	84.470305
371.073178	84.359434
371.508486	84.369414
371.943784	83.627751
372.379071	84.001187
372.814347	83.932806
373.249612	83.615264
373.684866	83.622294
374.120110	83.885188
374.555343	83.918813
374.990565	83.829123
375.425776	83.840956
375.860976	83.985557
376.296165	84.094672
376.731343	84.072777
377.166511	83.627375
377.601667	84.134241
378.036812	84.318094
378.471946	84.508133
378.907070	84.619838
379.342182	84.452569
379.777283	84.960675
380.212373	84.951084
380.647452	84.619783
381.082520	84.559939
381.517576	84.796432
381.952622	84.967320
382.387656	84.947966
382.822679	85.562914
383.257691	85.092523
383.692692	85.376202
384.127681	85.251154
384.562659	85.225123
384.997626	85.058990
385.432581	85.685922
385.867525	85.931165
386.302458	85.892234
386.737379	85.993976
387.172289	86.385998
387.607188	86.073556
388.042075	85.934107
388.476951	85.996055
388.911815	86.064577
389.346668	85.650350
389.781509	85.339148
390.216338	85.852030
390.651157	85.981739
391.085963	85.593220
391.520758	85.448859
391.955541	85.113595
392.390313	85.383277
392.825073	85.489479
393.259821	85.620198
393.694558	85.347818
394.129283	85.039730
394.563996	85.384474
394.998698	84.844880
395.433388	84.493151
395.868066	84.474261
396.302732	83.965706
396.737386	84.075623
397.172029	84.274560
397.606659	84.030040
398.041278	83.618516
398.475885	83.586517
398.910480	82.875245
399.345063	81.850972
399.779634	81.221680
400.214194	80.215424
400.648741	78.861240
401.083276	77.488249
401.517799	75.718645
401.952310	73.610353
402.386809	71.623250
402.821296	69.419271
403.255771	67.115452
403.690234	64.044720
404.124684	61.275253
404.559123	57.909773
404.993549	54.664878
405.427963	51.717817
405.862365	48.533438
406.296754	45.864559
406.731131	43.118485
407.165496	40.447348
407.599849	38.236703
408.034190	36.147667
408.468518	34.077803
408.902833	32.114025
409.337137	30.255581
409.771428	28.645250
410.205706	27.010745
410.639973	25.487465
411.074226	24.293797
411.508467	23.194452
411.942696	22.203104
412.376912	21.266991
412.811116	20.365074
413.245307	19.611082
413.679486	18.892998
414.113652	18.265224
414.547805	17.661973
414.981946	17.112332
415.416074	16.582320
415.850190	16.098904
416.284293	15.645268
416.718383	15.262616
417.152460	14.911551
417.586525	14.575918
418.020577	14.334883
418.454616	14.111375
418.888643	13.891587
419.322656	13.676098
419.756657	13.486338
420.190645	13.334830
420.624620	13.196294
421.058582	13.075775
421.492531	12.930993
421.926468	12.830171
422.360391	12.726385
422.794301	12.620045
423.228199	12.555733
423.662083	12.508743
424.095955	12.448283
424.529813	12.381100
424.963658	12.333983
425.397491	12.312402
425.831310	12.264731
426.265116	12.205917
426.698909	12.172357
427.132689	12.162107
427.566455	12.106053
428.000209	12.106977
428.433949	12.093724
428.867676	12.094139
429.301389	12.068342
429.735090	12.061041
430.168777	12.045080
430.602451	12.026137
431.036111	12.004059
431.469759	12.001771
431.903392	11.967746
432.337013	11.945735
432.770620	11.899584
433.204213	11.874323
433.637794	11.845336
434.071360	11.843807
434.504914	11.812857
434.938453	11.801194
435.371979	11.778304
435.805492	11.751198
436.238991	11.726968
436.672477	11.702826
437.105949	11.682789
437.539407	11.660223
437.972852	11.623812
438.406283	11.582548
438.839700	11.525341
439.273104	11.499200
439.706494	11.486926
440.139871	11.458263
440.573233	11.402866
441.006582	11.370622
441.439917	11.345388
441.873238	11.305032
442.306546	11.260219
442.739839	11.214614
443.173119	11.186460
443.606385	11.137410
444.039636	11.086205
444.472874	11.046755
444.906099	10.984723
445.339309	10.936038
445.772505	10.914858
446.205687	10.898327
446.638855	10.859617
447.072009	10.815677
447.505149	10.779442
447.938275	10.749460
448.371387	10.708814
448.804485	10.682122
449.237569	10.650411
449.670638	10.644639
450.103694	10.612556
450.536735	10.582234
450.969762	10.571793
451.402774	10.558532
451.835773	10.547805
452.268757	10.531994
452.701727	10.517042
453.134683	10.507459
453.567624	10.484253
454.000551	10.477897
454.433464	10.466793
454.866362	10.434808
455.299246	10.428992
455.732116	10.423784
456.164971	10.422735
456.597811	10.401499
457.030638	10.392335
457.463449	10.386432
457.896246	10.370271
458.329029	10.362810
458.761797	10.360295
459.194551	10.323527
459.627290	10.294788
460.060014	10.266769
460.492724	10.249144
460.925419	10.214404
461.358099	10.186043
461.790765	10.162011
462.223416	10.130592
462.656052	10.087941
463.088674	10.035707
463.521281	9.996192
463.953873	9.947075
464.386450	9.894273
464.819012	9.845185
465.251560	9.787409
465.684093	9.739018
466.116611	9.682163
466.549114	9.631838
466.981602	9.584157
467.414075	9.536667
467.846533	9.487693
468.278977	9.431275
468.711405	9.371559
469.143818	9.313868
469.576216	9.244913
470.008600	9.182713
470.440968	9.126530
470.873321	9.064055
471.305659	9.001199
471.737982	8.939677
472.170289	8.871549
472.602582	8.821817
473.034859	8.766481
473.467122	8.724545
473.899369	8.677384
474.331600	8.645159
474.763817	8.609485
475.196018	8.582249
475.628204	8.558699
476.060375	8.547970
476.492530	8.535892
476.924670	8.532612
477.356795	8.532849
477.788904	8.551118
478.220998	8.566170
478.653076	8.603699
479.085139	8.636284
479.517186	8.687420
479.949219	8.732378
480.381235	8.791171
480.813236	8.852918
481.245221	8.927501
481.677191	9.011933
482.109146	9.102113
482.541084	9.199523
482.973008	9.314511
483.404915	9.430215
483.836807	9.548947
484.268683	9.689675
484.700544	9.842807
485.132388	10.000380
485.564217	10.161398
485.996031	10.337410
486.427828	10.528241
486.859610	10.712680
487.291376	10.902905
487.723126	11.094284
488.154860	11.287696
488.586579	11.477582
489.018281	11.664075
489.449968	11.864341
489.881639	12.067423
490.313293	12.262010
490.744932	12.469102
491.176555	12.663640
491.608162	12.863687
492.039753	13.053896
492.471328	13.236944
492.902886	13.414964
493.334429	13.583091
493.765956	13.741256
494.197466	13.895911
494.628960	14.040180
495.060439	14.174606
495.491901	14.302148
495.923347	14.416519
496.354776	14.517900
496.786190	14.619292
497.217587	14.710913
497.648968	14.775370
498.080332	14.844043
498.511681	14.896766
498.943013	14.938868
499.374328	14.955462
499.805628	14.959636
500.236911	14.947140
500.668177	14.925561
501.099427	14.885328
501.530661	14.838237
501.961878	14.762968
502.393079	14.688014
502.824264	14.591617
503.255431	14.482250
503.686583	14.354986
504.117717	14.228535
504.548835	14.094753
504.979937	13.960943
505.411022	13.818318
505.842090	13.682358
506.273142	13.534074
506.704177	13.396927
507.135195	13.267400
507.566197	13.139870
507.997182	13.015160
508.428150	12.904837
508.859102	12.805969
509.290036	12.726804
509.720954	12.667737
510.151855	12.634282
510.582739	12.625682
511.013607	12.659886
511.444457	12.714896
511.875291	12.808289
512.306107	12.950767
512.736907	13.133443
513.167690	13.352619
513.598456	13.640638
514.029205	13.963455
514.459936	14.349608
514.890651	14.784667
515.321349	15.302138
515.752030	15.875045
516.182693	16.515107
516.613340	17.225604
517.043969	18.000160
517.474582	18.833038
517.905177	19.736163
518.335755	20.698412
518.766315	21.734870
519.196859	22.816726
519.627385	23.944824
520.057894	25.120965
520.488386	26.322803
520.918860	27.576871
521.349318	28.890016
521.779757	30.238416
522.210180	31.622927
522.640585	33.039230
523.070973	34.500582
523.501343	35.983940
523.931696	37.496459
524.362031	39.021559
524.792349	40.578668
525.222650	42.139428
525.652933	43.705445
526.083198	45.272143
526.513446	46.847113
526.943677	48.389637
527.373890	49.928115
527.804085	51.444237
528.234262	52.964847
528.664422	54.434033
529.094565	55.884581
529.524689	57.329134
529.954796	58.733012
530.384885	60.114960
530.814957	61.461345
531.245011	62.777589
531.675047	64.047543
532.105065	65.290148
532.535065	66.512975
532.965048	67.715729
533.395013	68.868956
533.824959	69.979805
534.254888	71.056559
534.684799	72.114853
535.114693	73.141952
535.544568	74.133404
535.974425	75.105608
536.404264	76.018599
536.834086	76.895696
537.263889	77.755776
537.693674	78.582294
538.123441	79.353822
538.553190	80.110901
538.982921	80.829545
539.412634	81.518241
539.842329	82.179422
540.272006	82.829318
540.701664	83.440692
541.131304	84.016918
541.560926	84.568817
541.990530	85.101200
542.420116	85.625226
542.849683	86.121723
543.279232	86.598419
543.708763	87.046827
544.138275	87.483714
544.567769	87.914821
544.997245	88.331910
545.426702	88.722809
545.856141	89.093934
546.285562	89.446593
546.714964	89.789027
547.144347	90.123071
547.573713	90.452450
548.003059	90.761875
548.432387	91.069634
548.861697	91.361195
549.290988	91.654060
549.720260	91.937343
550.149514	92.228606
550.578750	92.485269
551.007966	92.727338
551.437164	92.974952
551.866344	93.207951
552.295504	93.443392
552.724646	93.671134
553.153769	93.877123
553.582874	94.082832
554.011960	94.297692
554.441027	94.508495
554.870075	94.703643
555.299104	94.909573
555.728115	95.075825
556.157106	95.236547
556.586079	95.373729
557.015033	95.530032
557.443968	95.678528
557.872884	95.788099
558.301781	95.908958
558.730659	96.033533
559.159518	96.133079
559.588358	96.241526
560.017180	96.351688
560.445982	96.450563
560.874765	96.546254
561.303528	96.642904
561.732273	96.724873
562.160999	96.821079
562.589705	96.907231
563.018393	96.985708
563.447061	97.074735
563.875710	97.177783
564.304340	97.269508
564.732950	97.356889
565.161542	97.454677
565.590114	97.532458
566.018666	97.632608
566.447200	97.741378
566.875714	97.837110
567.304208	97.931789
567.732684	98.037779
568.161140	98.140493
568.589576	98.225304
569.017993	98.319193
569.446391	98.409883
569.874769	98.507144
570.303128	98.596235
570.731467	98.659247
571.159787	98.742989
571.588087	98.805893
572.016368	98.855432
572.444629	98.923708
572.872870	98.988831
573.301092	99.034965
573.729294	99.071640
574.157476	99.109638
574.585639	99.114521
575.013782	99.125593
575.441906	99.119345
575.870009	99.096597
576.298093	99.085686
576.726157	99.045855
577.154202	98.992363
577.582226	98.957505
578.010231	98.928173
578.438216	98.867592
578.866181	98.832647
579.294126	98.761120
579.722051	98.705549
580.149957	98.646967
580.577842	98.586046
581.005707	98.527799
581.433553	98.447461
581.861378	98.400854
582.289184	98.337439
582.716969	98.273992
583.144734	98.219991
583.572479	98.164165
584.000205	98.128955
584.427910	98.074503
584.855594	98.033553
585.283259	98.003646
585.710904	97.977016
586.138528	97.915365
586.566132	97.881605
586.993716	97.860341
587.421280	97.827242
587.848823	97.809919
588.276346	97.793928
588.703849	97.774604
589.131332	97.768326
589.558794	97.746617
589.986236	97.716618
590.413657	97.695233
590.841058	97.682713
591.268438	97.643254
591.695799	97.611541
592.123138	97.564892
592.550458	97.531802
592.977756	97.492722
593.405034	97.433154
593.832292	97.370299
594.259529	97.303981
594.686746	97.247537
595.113942	97.156996
595.541117	97.070746
595.968272	96.970036
596.395406	96.866645
596.822519	96.760915
597.249612	96.636984
597.676684	96.523725
598.103735	96.393849
598.530766	96.243488
598.957775	96.068295
599.384764	95.912312
599.811733	95.726252
600.238680	95.532871
600.665606	95.319324
601.092512	95.091347
601.519397	94.844600
601.946261	94.587295
602.373104	94.292586
602.799926	93.997994
603.226727	93.676188
603.653507	93.333572
604.080266	92.960695
604.507004	92.572698
604.933721	92.179472
605.360417	91.765971
605.787092	91.332762
606.213746	90.859411
606.640379	90.380715
607.066991	89.884380
607.493581	89.362337
607.920150	88.826336
608.346699	88.280788
608.773226	87.725768
609.199731	87.150763
609.626216	86.553741
610.052679	85.931489
610.479121	85.291769
610.905542	84.618627
611.331941	83.931205
611.758319	83.220151
612.184676	82.482059
612.611011	81.712485
613.037325	80.918026
613.463617	80.087432
613.889888	79.241005
614.316138	78.366543
614.742366	77.456616
615.168573	76.514138
615.594758	75.551115
616.020921	74.547248
616.447063	73.530482
616.873184	72.472870
617.299283	71.381069
617.725360	70.275371
618.151416	69.135303
618.577450	67.981020
619.003462	66.790771
619.429453	65.582292
619.855422	64.360772
620.281369	63.107911
620.707295	61.841766
621.133199	60.554849
621.559081	59.249695
621.984941	57.922406
622.410779	56.592936
622.836596	55.240726
623.262391	53.874286
623.688163	52.493870
624.113914	51.113253
624.539644	49.714940
624.965351	48.309293
625.391036	46.912847
625.816699	45.527997
626.242340	44.146274
626.667960	42.773739
627.093557	41.425846
627.519132	40.096784
627.944685	38.795457
628.370216	37.544524
628.795725	36.338961
629.221212	35.197847
629.646677	34.117452
630.072119	33.107798
630.497540	32.177574
630.922938	31.321348
631.348314	30.565317
631.773668	29.889501
632.198999	29.307155
632.624308	28.827565
633.049595	28.427188
633.474860	28.123570
633.900102	27.912780
634.325322	27.792776
634.750520	27.754736
635.175695	27.803834
635.600848	27.925502
636.025978	28.127285
636.451086	28.405391
636.876171	28.754232
637.301234	29.164461
637.726275	29.642225
638.151293	30.183624
638.576288	30.779401
639.001261	31.430849
639.426211	32.136598
639.851139	32.887165
640.276044	33.670682
640.700927	34.503907
641.125787	35.370827
641.550624	36.258147
641.975438	37.168077
642.400230	38.080642
642.824999	39.007596
643.249745	39.928867
643.674469	40.842113
644.099169	41.757558
644.523847	42.649639
644.948502	43.516672
645.373135	44.368656
645.797744	45.194706
646.222330	46.007530
646.646894	46.799531
647.071435	47.564231
647.495953	48.294334
647.920447	48.998540
648.344919	49.669432
648.769368	50.309856
649.193794	50.937894
649.618197	51.533026
650.042576	52.089923
650.466933	52.626178
650.891267	53.128630
651.315577	53.611324
651.739864	54.074892
652.164129	54.505941
652.588370	54.906243
653.012587	55.300369
653.436782	55.675158
653.860953	56.022764
654.285102	56.360114
654.709226	56.681480
655.133328	56.979174
655.557406	57.268708
655.981461	57.547420
656.405493	57.824692
656.829501	58.089698
657.253486	58.339608
657.677448	58.570984
658.101386	58.811045
658.525301	59.035559
658.949192	59.250203
659.373060	59.451673
659.796904	59.654848
660.220725	59.838717
660.644522	60.028611
661.068296	60.201172
661.492046	60.374969
661.915772	60.541826
662.339475	60.688428
662.763154	60.830183
663.186810	60.964928
663.610442	61.090678
664.034050	61.208608
664.457635	61.312517
664.881196	61.395791
665.304733	61.468234
665.728247	61.540005
666.151736	61.586129
666.575202	61.619790
666.998644	61.636083
667.422062	61.636462
667.845457	61.627104
668.268827	61.609149
668.692174	61.572015
669.115496	61.509235
669.538795	61.429526
669.962070	61.327257
670.385321	61.195718
670.808547	61.050717
671.231750	60.875793
671.654929	60.680922
672.078084	60.461428
672.501214	60.220230
672.924321	59.936590
673.347404	59.623234
673.770462	59.273832
674.193496	58.900567
674.616506	58.496846
675.039492	58.065244
675.462454	57.611245
675.885391	57.129852
676.308305	56.632899
676.731194	56.110712
677.154058	55.571240
677.576899	55.022085
677.999715	54.471236
678.422507	53.914935
678.845274	53.351448
679.268017	52.799610
679.690736	52.237564
680.113430	51.696665
680.536100	51.151039
680.958746	50.618835
681.381367	50.101628
681.803963	49.597221
682.226535	49.102064
682.649083	48.622876
683.071605	48.161217
683.494104	47.718047
683.916578	47.286696
684.339027	46.869436
684.761451	46.478179
685.183851	46.108686
685.606227	45.750905
686.028577	45.414754
686.450903	45.114830
686.873204	44.842766
687.295481	44.609819
687.717733	44.405264
688.139959	44.238554
688.562162	44.110623
688.984339	44.031250
689.406492	43.992432
689.828619	43.993539
690.250722	44.042216
690.672800	44.133280
691.094853	44.267107
691.516881	44.452230
691.938884	44.678683
692.360863	44.929591
692.782816	45.232628
693.204744	45.555240
693.626647	45.912930
694.048526	46.293870
694.470379	46.693472
694.892207	47.113784
695.314010	47.563674
695.735788	48.025781
696.157540	48.501552
696.579268	48.991176
697.000970	49.500242
697.422648	50.020810
697.844300	50.543719
698.265926	51.089637
698.687528	51.656383
699.109104	52.237862
699.530655	52.823741
699.952181	53.430586
700.373681	54.043628
700.795156	54.674986
701.216606	55.317441
701.638030	55.961483
702.059429	56.612819
702.480803	57.276023
702.902151	57.949894
703.323473	58.636407
703.744770	59.317893
704.166042	59.998395
704.587288	60.662901
705.008509	61.315966
705.429704	61.981938
705.850873	62.630535
706.272017	63.275504
706.693135	63.904643
707.114228	64.532332
707.535295	65.149620
707.956336	65.754728
708.377352	66.356995
708.798342	66.942011
709.219306	67.524851
709.640245	68.112231
710.061157	68.673457
710.482044	69.234798
710.902905	69.793923
711.323741	70.339841
711.744550	70.885265
712.165334	71.424551
712.586092	71.960369
713.006823	72.478077
713.427529	72.994058
713.848209	73.508636
714.268863	74.011098
714.689492	74.522793
715.110094	75.033551
715.530670	75.534129
715.951220	76.025679
716.371744	76.508489
716.792242	76.997037
717.212714	77.484615
717.633159	77.969481
718.053579	78.455835
718.473973	78.918325
718.894340	79.387577
719.314681	79.850160
719.734996	80.324280
720.155285	80.784834
720.575547	81.238126
720.995784	81.700916
721.415994	82.147101
721.836177	82.600320
722.256335	83.039955
722.676466	83.455176
723.096570	83.873979
723.516649	84.282893
723.936701	84.692408
724.356726	85.073117
724.776725	85.423897
725.196698	85.748986
725.616644	86.059137
726.036564	86.361793
726.456457	86.647191
726.876324	86.901198
727.296164	87.129373
727.715977	87.329625
728.135764	87.500859
728.555525	87.654118
728.975258	87.798465
729.394966	87.914373
729.814646	88.003817
730.234300	88.067861
730.653927	88.098354
731.073527	88.126805
731.493101	88.132015
731.912648	88.109327
732.332168	88.074089
732.751661	88.016255
733.171128	87.952905
733.590568	87.859561
734.009980	87.751822
734.429366	87.620540
734.848726	87.469386
735.268058	87.306292
735.687363	87.131081
736.106641	86.936071
736.525893	86.724324
736.945117	86.484004
737.364314	86.238014
737.783485	85.986324
738.202628	85.720937
738.621744	85.437955
739.040834	85.131961
739.459896	84.809016
739.878931	84.484218
740.297939	84.161469
740.716919	83.825427
741.135873	83.483647
741.554799	83.144825
741.973698	82.800398
742.392570	82.456483
742.811415	82.125333
743.230232	81.790836
743.649022	81.487457
744.067785	81.177109
744.486521	80.889589
744.905229	80.613201
745.323909	80.352531
745.742563	80.106282
746.161189	79.866238
746.579787	79.664446
746.998358	79.478617
747.416902	79.314053
747.835418	79.175128
748.253907	79.048131
748.672368	78.934282
749.090802	78.844920
749.509208	78.771485
749.927586	78.726196
750.345937	78.692611
750.764261	78.672952
751.182556	78.685550
751.600824	78.709076
752.019065	78.749241
752.437277	78.816657
752.855462	78.883873
753.273620	78.963989
753.691749	79.063522
754.109851	79.185784
754.527925	79.323756
754.945971	79.469588
