Time1=100ms:Average1=5:Objective=10X:Aperture=1: (11/21/2018 10:08:31 AM)
11/21/2018 10:08:31 AM
Reflectance
10X
Ap#: 1
Avg1: 5.000000
Avg2: 0.000000
Int.Time1:100.000000

350.166136	80.249884
350.601937	80.342125
351.037728	80.560966
351.473509	81.230438
351.909281	81.144549
352.345042	80.912246
352.780794	81.056178
353.216536	81.292753
353.652267	81.210856
354.087989	81.132451
354.523701	80.764636
354.959403	80.796346
355.395095	80.906921
355.830777	80.900668
356.266449	80.391961
356.702110	79.931905
357.137762	79.870259
357.573404	79.684063
358.009035	79.616881
358.444656	79.757491
358.880268	79.827379
359.315869	79.837088
359.751459	80.155054
360.187040	80.028200
360.622610	80.032320
361.058170	80.294865
361.493720	80.363673
361.929260	80.336680
362.364789	80.685517
362.800308	80.099402
363.235816	79.271002
363.671314	79.429900
364.106802	79.331858
364.542279	79.332659
364.977746	78.864003
365.413203	78.840930
365.848649	78.643317
366.284084	78.164397
366.719509	77.846123
367.154924	78.299505
367.590328	78.545491
368.025721	78.809620
368.461104	78.766431
368.896477	78.551981
369.331838	78.360093
369.767189	78.941532
370.202530	79.125189
370.637859	79.424157
371.073178	79.019725
371.508486	78.718967
371.943784	78.486134
372.379071	78.450579
372.814347	78.300395
373.249612	77.940598
373.684866	77.500245
374.120110	77.840909
374.555343	77.732240
374.990565	77.869892
375.425776	77.778866
375.860976	77.769103
376.296165	77.841629
376.731343	78.118311
377.166511	77.995347
377.601667	77.966926
378.036812	78.322356
378.471946	78.640589
378.907070	78.463914
379.342182	78.651145
379.777283	79.157875
380.212373	79.340111
380.647452	78.930818
381.082520	78.452200
381.517576	78.428395
381.952622	78.563986
382.387656	78.893094
382.822679	79.167455
383.257691	78.804758
383.692692	78.889308
384.127681	78.013382
384.562659	78.093076
384.997626	77.772534
385.432581	77.980524
385.867525	77.850071
386.302458	78.201378
386.737379	77.917922
387.172289	78.524125
387.607188	78.311430
388.042075	78.212027
388.476951	78.125294
388.911815	78.399626
389.346668	78.088578
389.781509	78.370604
390.216338	78.852216
390.651157	79.203173
391.085963	79.458364
391.520758	79.304636
391.955541	78.911689
392.390313	79.292976
392.825073	79.112534
393.259821	79.098061
393.694558	79.012233
394.129283	78.993515
394.563996	79.341428
394.998698	79.152558
395.433388	79.073059
395.868066	78.984118
396.302732	78.953849
396.737386	79.181058
397.172029	79.067550
397.606659	78.985704
398.041278	79.120137
398.475885	79.114607
398.910480	78.507050
399.345063	77.579836
399.779634	76.781980
400.214194	76.204222
400.648741	74.926191
401.083276	73.847613
401.517799	72.486751
401.952310	70.402276
402.386809	68.208854
402.821296	65.993620
403.255771	63.414719
403.690234	60.274839
404.124684	57.187500
404.559123	54.109630
404.993549	51.123596
405.427963	48.211480
405.862365	45.314333
406.296754	42.919485
406.731131	40.397788
407.165496	37.927553
407.599849	35.842763
408.034190	33.821569
408.468518	31.807755
408.902833	29.910992
409.337137	28.059014
409.771428	26.588433
410.205706	25.023126
410.639973	23.614980
411.074226	22.414719
411.508467	21.299569
411.942696	20.308623
412.376912	19.415392
412.811116	18.599158
413.245307	17.883234
413.679486	17.171283
414.113652	16.541578
414.547805	15.948930
414.981946	15.427350
415.416074	14.958446
415.850190	14.522725
416.284293	14.088651
416.718383	13.780544
417.152460	13.495408
417.586525	13.242387
418.020577	12.984981
418.454616	12.769567
418.888643	12.554069
419.322656	12.347224
419.756657	12.134840
420.190645	11.912568
420.624620	11.768240
421.058582	11.592233
421.492531	11.465531
421.926468	11.335330
422.360391	11.231393
422.794301	11.133455
423.228199	11.038330
423.662083	10.984380
424.095955	10.961886
424.529813	10.947704
424.963658	10.910939
425.397491	10.915667
425.831310	10.900604
426.265116	10.879670
426.698909	10.877348
427.132689	10.880304
427.566455	10.870435
428.000209	10.877735
428.433949	10.889243
428.867676	10.893550
429.301389	10.912397
429.735090	10.933067
430.168777	10.921735
430.602451	10.927059
431.036111	10.888193
431.469759	10.910819
431.903392	10.899288
432.337013	10.906318
432.770620	10.890381
433.204213	10.899395
433.637794	10.943986
434.071360	10.961741
434.504914	10.998204
434.938453	11.007986
435.371979	11.038398
435.805492	11.047157
436.238991	11.060314
436.672477	11.073056
437.105949	11.102884
437.539407	11.120693
437.972852	11.103835
438.406283	11.113310
438.839700	11.076424
439.273104	11.059455
439.706494	11.074014
440.139871	11.054163
440.573233	11.030082
441.006582	11.028032
441.439917	11.002160
441.873238	10.968893
442.306546	10.940112
442.739839	10.903166
443.173119	10.860361
443.606385	10.828520
444.039636	10.807359
444.472874	10.803144
444.906099	10.784196
445.339309	10.758131
445.772505	10.747228
446.205687	10.749466
446.638855	10.729627
447.072009	10.710088
447.505149	10.690562
447.938275	10.674266
448.371387	10.658373
448.804485	10.651169
449.237569	10.646718
449.670638	10.648289
450.103694	10.623112
450.536735	10.583759
450.969762	10.564013
451.402774	10.548863
451.835773	10.517661
452.268757	10.513084
452.701727	10.504336
453.134683	10.472839
453.567624	10.458677
454.000551	10.455380
454.433464	10.439926
454.866362	10.427769
455.299246	10.416643
455.732116	10.403806
456.164971	10.384322
456.597811	10.388257
457.030638	10.381813
457.463449	10.362004
457.896246	10.348625
458.329029	10.326007
458.761797	10.329637
459.194551	10.308455
459.627290	10.296602
460.060014	10.288315
460.492724	10.272842
460.925419	10.264439
461.358099	10.247355
461.790765	10.234521
462.223416	10.215559
462.656052	10.194638
463.088674	10.170279
463.521281	10.158956
463.953873	10.134903
464.386450	10.110098
464.819012	10.087178
465.251560	10.070747
465.684093	10.043341
466.116611	10.017524
466.549114	9.995474
466.981602	9.964617
467.414075	9.928247
467.846533	9.893800
468.278977	9.857130
468.711405	9.809889
469.143818	9.759348
469.576216	9.713115
470.008600	9.660943
470.440968	9.620195
470.873321	9.570419
471.305659	9.515076
471.737982	9.465665
472.170289	9.396550
472.602582	9.343255
473.034859	9.294313
473.467122	9.243752
473.899369	9.189699
474.331600	9.127116
474.763817	9.072482
475.196018	9.025842
475.628204	8.977617
476.060375	8.933827
476.492530	8.895366
476.924670	8.856271
477.356795	8.824617
477.788904	8.800433
478.220998	8.771823
478.653076	8.750969
479.085139	8.737329
479.517186	8.728700
479.949219	8.726788
480.381235	8.727596
480.813236	8.737067
481.245221	8.758464
481.677191	8.780867
482.109146	8.822102
482.541084	8.863904
482.973008	8.919723
483.404915	8.976374
483.836807	9.030865
484.268683	9.109244
484.700544	9.196309
485.132388	9.294339
485.564217	9.407439
485.996031	9.523035
486.427828	9.644203
486.859610	9.765814
487.291376	9.897618
487.723126	10.040679
488.154860	10.180169
488.586579	10.317564
489.018281	10.466620
489.449968	10.622969
489.881639	10.772276
490.313293	10.927689
490.744932	11.089433
491.176555	11.248260
491.608162	11.424175
492.039753	11.596321
492.471328	11.762931
492.902886	11.925537
493.334429	12.089305
493.765956	12.255826
494.197466	12.423572
494.628960	12.580467
495.060439	12.740728
495.491901	12.889734
495.923347	13.042370
496.354776	13.180994
496.786190	13.318785
497.217587	13.458028
497.648968	13.584085
498.080332	13.711516
498.511681	13.823609
498.943013	13.931659
499.374328	14.017513
499.805628	14.093217
500.236911	14.169701
500.668177	14.237819
501.099427	14.278842
501.530661	14.320969
501.961878	14.348032
502.393079	14.361214
502.824264	14.352554
503.255431	14.347475
503.686583	14.337139
504.117717	14.316038
504.548835	14.280148
504.979937	14.231555
505.411022	14.181549
505.842090	14.130587
506.273142	14.075600
506.704177	14.011857
507.135195	13.947629
507.566197	13.875144
507.997182	13.798893
508.428150	13.732192
508.859102	13.667503
509.290036	13.607598
509.720954	13.556795
510.151855	13.520139
510.582739	13.495245
511.013607	13.483913
511.444457	13.479423
511.875291	13.499697
512.306107	13.538577
512.736907	13.611736
513.167690	13.712357
513.598456	13.846283
514.029205	14.012963
514.459936	14.225328
514.890651	14.474096
515.321349	14.774404
515.752030	15.118674
516.182693	15.521073
516.613340	15.964142
517.043969	16.466223
517.474582	17.024719
517.905177	17.638562
518.335755	18.313061
518.766315	19.038136
519.196859	19.816338
519.627385	20.642708
520.057894	21.519056
520.488386	22.429904
520.918860	23.385929
521.349318	24.400892
521.779757	25.466543
522.210180	26.589162
522.640585	27.758918
523.070973	28.977600
523.501343	30.224896
523.931696	31.502803
524.362031	32.826335
524.792349	34.188717
525.222650	35.583323
525.652933	36.996383
526.083198	38.435867
526.513446	39.890542
526.943677	41.341835
527.373890	42.805486
527.804085	44.278617
528.234262	45.756640
528.664422	47.205304
529.094565	48.651247
529.524689	50.089902
529.954796	51.519194
530.384885	52.919932
530.814957	54.308602
531.245011	55.669963
531.675047	57.011674
532.105065	58.327976
532.535065	59.631950
532.965048	60.904887
533.395013	62.147646
533.824959	63.361913
534.254888	64.553389
534.684799	65.737880
535.114693	66.881164
535.544568	67.981001
535.974425	69.036909
536.404264	70.049306
536.834086	71.037655
537.263889	72.007233
537.693674	72.914000
538.123441	73.795095
538.553190	74.633677
538.982921	75.456205
539.412634	76.249473
539.842329	77.006682
540.272006	77.750401
540.701664	78.452470
541.131304	79.129649
541.560926	79.775601
541.990530	80.395711
542.420116	81.015102
542.849683	81.596547
543.279232	82.156006
543.708763	82.695912
544.138275	83.200507
544.567769	83.698770
544.997245	84.187480
545.426702	84.654606
545.856141	85.117135
546.285562	85.570697
546.714964	85.995938
547.144347	86.400288
547.573713	86.802578
548.003059	87.173543
548.432387	87.536504
548.861697	87.889340
549.290988	88.230890
549.720260	88.568917
550.149514	88.890694
550.578750	89.192294
551.007966	89.481995
551.437164	89.751200
551.866344	90.013421
552.295504	90.248452
552.724646	90.479331
553.153769	90.715350
553.582874	90.921043
554.011960	91.136861
554.441027	91.332702
554.870075	91.515683
555.299104	91.703611
555.728115	91.855344
556.157106	92.016440
556.586079	92.159690
557.015033	92.323612
557.443968	92.488108
557.872884	92.607170
558.301781	92.734654
558.730659	92.863129
559.159518	92.967898
559.588358	93.075102
560.017180	93.191532
560.445982	93.307515
560.874765	93.406348
561.303528	93.512288
561.732273	93.616965
562.160999	93.721152
562.589705	93.832154
563.018393	93.932813
563.447061	94.060522
563.875710	94.162719
564.304340	94.272925
564.732950	94.393064
565.161542	94.510501
565.590114	94.626050
566.018666	94.734629
566.447200	94.847712
566.875714	94.965833
567.304208	95.065175
567.732684	95.167693
568.161140	95.267813
568.589576	95.356771
569.017993	95.445304
569.446391	95.504889
569.874769	95.577747
570.303128	95.635135
570.731467	95.667448
571.159787	95.722527
571.588087	95.753791
572.016368	95.765542
572.444629	95.781906
572.872870	95.785340
573.301092	95.763531
573.729294	95.745223
574.157476	95.737872
574.585639	95.723589
575.013782	95.694143
575.441906	95.671720
575.870009	95.641908
576.298093	95.608941
576.726157	95.556413
577.154202	95.517809
577.582226	95.498154
578.010231	95.472636
578.438216	95.445207
578.866181	95.435345
579.294126	95.420681
579.722051	95.412802
580.149957	95.409921
580.577842	95.404843
581.005707	95.419869
581.433553	95.425906
581.861378	95.436586
582.289184	95.441969
582.716969	95.469272
583.144734	95.490618
583.572479	95.501440
584.000205	95.523897
584.427910	95.540428
584.855594	95.548382
585.283259	95.567315
585.710904	95.589026
586.138528	95.606891
586.566132	95.643513
586.993716	95.658303
587.421280	95.655597
587.848823	95.649933
588.276346	95.661929
588.703849	95.627521
589.131332	95.612692
589.558794	95.600408
589.986236	95.565129
590.413657	95.526820
590.841058	95.471950
591.268438	95.399096
591.695799	95.311658
592.123138	95.202586
592.550458	95.099392
592.977756	94.977063
593.405034	94.837493
593.832292	94.703357
594.259529	94.535536
594.686746	94.377608
595.113942	94.209278
595.541117	94.033252
595.968272	93.843727
596.395406	93.650475
596.822519	93.446843
597.249612	93.243572
597.676684	93.033879
598.103735	92.825730
598.530766	92.603979
598.957775	92.360131
599.384764	92.118475
599.811733	91.851793
600.238680	91.588491
600.665606	91.319682
601.092512	91.030789
601.519397	90.717705
601.946261	90.422627
602.373104	90.089694
602.799926	89.751254
603.226727	89.395277
603.653507	89.023044
604.080266	88.631404
604.507004	88.232437
604.933721	87.823227
605.360417	87.411293
605.787092	86.960149
606.213746	86.493588
606.640379	86.035633
607.066991	85.555062
607.493581	85.067747
607.920150	84.565100
608.346699	84.056231
608.773226	83.545285
609.199731	83.014028
609.626216	82.462520
610.052679	81.901682
610.479121	81.316866
610.905542	80.725077
611.331941	80.117409
611.758319	79.487922
612.184676	78.831914
612.611011	78.166285
613.037325	77.483566
613.463617	76.766647
613.889888	76.041875
614.316138	75.287726
614.742366	74.502483
615.168573	73.692666
615.594758	72.860425
616.020921	71.977350
616.447063	71.075327
616.873184	70.147250
617.299283	69.181649
617.725360	68.210703
618.151416	67.212281
618.577450	66.190344
619.003462	65.139896
619.429453	64.065079
619.855422	62.965372
620.281369	61.835102
620.707295	60.691085
621.133199	59.526080
621.559081	58.343871
621.984941	57.132587
622.410779	55.921405
622.836596	54.692997
623.262391	53.449941
623.688163	52.205251
624.113914	50.944463
624.539644	49.669133
624.965351	48.396508
625.391036	47.128321
625.816699	45.859754
626.242340	44.594750
626.667960	43.344122
627.093557	42.102137
627.519132	40.889301
627.944685	39.698761
628.370216	38.542236
628.795725	37.426139
629.221212	36.366013
629.646677	35.357759
630.072119	34.404540
630.497540	33.532194
630.922938	32.704244
631.348314	31.965541
631.773668	31.299420
632.198999	30.725309
632.624308	30.248026
633.049595	29.843525
633.474860	29.538317
633.900102	29.317434
634.325322	29.182746
634.750520	29.127904
635.175695	29.165962
635.600848	29.272193
636.025978	29.461489
636.451086	29.717338
636.876171	30.034479
637.301234	30.421234
637.726275	30.862953
638.151293	31.366458
638.576288	31.921619
639.001261	32.509210
639.426211	33.158485
639.851139	33.851660
640.276044	34.571382
640.700927	35.324186
641.125787	36.118241
641.550624	36.933314
641.975438	37.762052
642.400230	38.606058
642.824999	39.464604
643.249745	40.334771
643.674469	41.193766
644.099169	42.053700
644.523847	42.900110
644.948502	43.734465
645.373135	44.560606
645.797744	45.363303
646.222330	46.152357
646.646894	46.922817
647.071435	47.654906
647.495953	48.366688
647.920447	49.050484
648.344919	49.690784
648.769368	50.315809
649.193794	50.909128
649.618197	51.486698
650.042576	52.032634
650.466933	52.542401
650.891267	53.034385
651.315577	53.501347
651.739864	53.958281
652.164129	54.413555
652.588370	54.829494
653.012587	55.239735
653.436782	55.646779
653.860953	56.043654
654.285102	56.424195
654.709226	56.804124
655.133328	57.186321
655.557406	57.566735
655.981461	57.944849
656.405493	58.312266
656.829501	58.677301
657.253486	59.042037
657.677448	59.388071
658.101386	59.740756
658.525301	60.070787
658.949192	60.379946
659.373060	60.667002
659.796904	60.944378
660.220725	61.209212
660.644522	61.451471
661.068296	61.669434
661.492046	61.866483
661.915772	62.041011
662.339475	62.184808
662.763154	62.304697
663.186810	62.395717
663.610442	62.469660
664.034050	62.510534
664.457635	62.528566
664.881196	62.509637
665.304733	62.453440
665.728247	62.379240
666.151736	62.270214
666.575202	62.133244
666.998644	61.970781
667.422062	61.778119
667.845457	61.549607
668.268827	61.289699
668.692174	60.991797
669.115496	60.663398
669.538795	60.294430
669.962070	59.890554
670.385321	59.455181
670.808547	58.991145
671.231750	58.479332
671.654929	57.949759
672.078084	57.395901
672.501214	56.820689
672.924321	56.207164
673.347404	55.574980
673.770462	54.909865
674.193496	54.244431
674.616506	53.568676
675.039492	52.880245
675.462454	52.197924
675.885391	51.517173
676.308305	50.849048
676.731194	50.192424
677.154058	49.554773
677.576899	48.926628
677.999715	48.322812
678.422507	47.737291
678.845274	47.182809
679.268017	46.657836
679.690736	46.157404
680.113430	45.694605
680.536100	45.257359
680.958746	44.856594
681.381367	44.490652
681.803963	44.160054
682.226535	43.862220
682.649083	43.614561
683.071605	43.403242
683.494104	43.225808
683.916578	43.097363
684.339027	43.016193
684.761451	42.977523
685.183851	42.987898
685.606227	43.042555
686.028577	43.139687
686.450903	43.289179
686.873204	43.495690
687.295481	43.746871
687.717733	44.043246
688.139959	44.384550
688.562162	44.760854
688.984339	45.177610
689.406492	45.632213
689.828619	46.111424
690.250722	46.621253
690.672800	47.155337
691.094853	47.712583
691.516881	48.296585
691.938884	48.885134
692.360863	49.477021
692.782816	50.088219
693.204744	50.689818
693.626647	51.305237
694.048526	51.915993
694.470379	52.530636
694.892207	53.142769
695.314010	53.749148
695.735788	54.347937
696.157540	54.942883
696.579268	55.537474
697.000970	56.129336
697.422648	56.711535
697.844300	57.284641
698.265926	57.850239
698.687528	58.410025
699.109104	58.962705
699.530655	59.505243
699.952181	60.050047
700.373681	60.575900
700.795156	61.101472
701.216606	61.620338
701.638030	62.136123
702.059429	62.643245
702.480803	63.151390
702.902151	63.674228
703.323473	64.201340
703.744770	64.722367
704.166042	65.252785
704.587288	65.782169
705.008509	66.316367
705.429704	66.868608
705.850873	67.422762
706.272017	67.983746
706.693135	68.541072
707.114228	69.121417
707.535295	69.707674
707.956336	70.298435
708.377352	70.899842
708.798342	71.498899
709.219306	72.107132
709.640245	72.717303
710.061157	73.318383
710.482044	73.922374
710.902905	74.522752
711.323741	75.126614
711.744550	75.723386
712.165334	76.313475
712.586092	76.902241
713.006823	77.471548
713.427529	78.041418
713.848209	78.615800
714.268863	79.178136
714.689492	79.746065
715.110094	80.307619
715.530670	80.849684
715.951220	81.375535
716.371744	81.880475
716.792242	82.388427
717.212714	82.877468
717.633159	83.363757
718.053579	83.839483
718.473973	84.291234
718.894340	84.719953
719.314681	85.138818
719.734996	85.548834
720.155285	85.936431
720.575547	86.294880
720.995784	86.635811
721.415994	86.949318
721.836177	87.237270
722.256335	87.496513
722.676466	87.713148
723.096570	87.898923
723.516649	88.060693
723.936701	88.206475
724.356726	88.302788
724.776725	88.367085
725.196698	88.402379
725.616644	88.392365
726.036564	88.363420
726.456457	88.305862
726.876324	88.211439
727.296164	88.072890
727.715977	87.905921
728.135764	87.714513
728.555525	87.503601
728.975258	87.278271
729.394966	87.034954
729.814646	86.768550
730.234300	86.485692
730.653927	86.172105
731.073527	85.858927
731.493101	85.520756
731.912648	85.175777
732.332168	84.812818
732.751661	84.452570
733.171128	84.086235
733.590568	83.695889
734.009980	83.313831
734.429366	82.929450
734.848726	82.548226
735.268058	82.159372
735.687363	81.781045
736.106641	81.408744
736.525893	81.028813
736.945117	80.649541
737.364314	80.293062
737.783485	79.948286
738.202628	79.602907
738.621744	79.288064
739.040834	78.966866
739.459896	78.657156
739.878931	78.358314
740.297939	78.101605
740.716919	77.848193
741.135873	77.627343
741.554799	77.429301
741.973698	77.242815
742.392570	77.082341
742.811415	76.952320
743.230232	76.838412
743.649022	76.754687
744.067785	76.680653
744.486521	76.657894
744.905229	76.642841
745.323909	76.669209
745.742563	76.699964
746.161189	76.743440
746.579787	76.831393
746.998358	76.924696
747.416902	77.031010
747.835418	77.157975
748.253907	77.301078
748.672368	77.440294
749.090802	77.593565
749.509208	77.763007
749.927586	77.944321
750.345937	78.112694
750.764261	78.285839
751.182556	78.485112
751.600824	78.672536
752.019065	78.883952
752.437277	79.094783
752.855462	79.301005
753.273620	79.499445
753.691749	79.712949
754.109851	79.911484
754.527925	80.120088
754.945971	80.320289
