Time1=100ms:Average1=5:Objective=10X:Aperture=1: (11/21/2018 11:31:09 AM)
11/21/2018 11:31:09 AM
Reflectance
10X
Ap#: 1
Avg1: 5.000000
Avg2: 0.000000
Int.Time1:100.000000

350.166136	90.923107
350.601937	91.130798
351.037728	91.184545
351.473509	91.296877
351.909281	91.410295
352.345042	91.282156
352.780794	91.112702
353.216536	91.066871
353.652267	91.017903
354.087989	90.466946
354.523701	90.651153
354.959403	90.878550
355.395095	91.432656
355.830777	91.407604
356.266449	91.475242
356.702110	90.939495
357.137762	91.760872
357.573404	91.565030
358.009035	91.522474
358.444656	92.111750
358.880268	92.520576
359.315869	92.230809
359.751459	92.441204
360.187040	92.832132
360.622610	92.685443
361.058170	92.454386
361.493720	92.369644
361.929260	92.767101
362.364789	92.679416
362.800308	92.327445
363.235816	92.543001
363.671314	92.950954
364.106802	92.793348
364.542279	92.815415
364.977746	93.091359
365.413203	93.074220
365.848649	93.316806
366.284084	93.289622
366.719509	93.160377
367.154924	93.325803
367.590328	93.417955
368.025721	93.427518
368.461104	93.448170
368.896477	93.282818
369.331838	93.151106
369.767189	92.585455
370.202530	93.025631
370.637859	91.922766
371.073178	92.656741
371.508486	92.902048
371.943784	92.812912
372.379071	92.700730
372.814347	93.277738
373.249612	93.507022
373.684866	93.192607
374.120110	93.756956
374.555343	93.950430
374.990565	93.818585
375.425776	93.763203
375.860976	93.641677
376.296165	93.836237
376.731343	93.897184
377.166511	93.718593
377.601667	93.844460
378.036812	94.023265
378.471946	94.095314
378.907070	94.107677
379.342182	93.640525
379.777283	93.710817
380.212373	93.466389
380.647452	93.255538
381.082520	92.977084
381.517576	93.036102
381.952622	93.643226
382.387656	94.123516
382.822679	94.179209
383.257691	95.005505
383.692692	95.077720
384.127681	95.876289
384.562659	94.835121
384.997626	94.962317
385.432581	94.380915
385.867525	94.450458
386.302458	94.701792
386.737379	94.318182
387.172289	94.079076
387.607188	93.288656
388.042075	93.521401
388.476951	93.751825
388.911815	93.736627
389.346668	94.295727
389.781509	94.391793
390.216338	94.492810
390.651157	94.767669
391.085963	95.007846
391.520758	94.959875
391.955541	95.185803
392.390313	94.503356
392.825073	94.756809
393.259821	94.979939
393.694558	95.918568
394.129283	95.512758
394.563996	96.259572
394.998698	96.289352
395.433388	96.004902
395.868066	95.923834
396.302732	95.615062
396.737386	94.828257
397.172029	94.598661
397.606659	94.228909
398.041278	94.193890
398.475885	93.620178
398.910480	93.698460
399.345063	92.962071
399.779634	92.034446
400.214194	90.537120
400.648741	89.219112
401.083276	87.411718
401.517799	85.269146
401.952310	82.826551
402.386809	80.083189
402.821296	76.912055
403.255771	74.083799
403.690234	70.797175
404.124684	67.120474
404.559123	63.727349
404.993549	60.467898
405.427963	56.772805
405.862365	53.702340
406.296754	50.540739
406.731131	47.552002
407.165496	44.450101
407.599849	41.843006
408.034190	39.530151
408.468518	37.431654
408.902833	35.320818
409.337137	33.428512
409.771428	31.810014
410.205706	30.216086
410.639973	28.755417
411.074226	27.486272
411.508467	26.343851
411.942696	25.327328
412.376912	24.404181
412.811116	23.617508
413.245307	22.875867
413.679486	22.315140
414.113652	21.716713
414.547805	21.225937
414.981946	20.664198
415.416074	20.207895
415.850190	19.847127
416.284293	19.503018
416.718383	19.176134
417.152460	18.875259
417.586525	18.645926
418.020577	18.422521
418.454616	18.260373
418.888643	18.155949
419.322656	18.022287
419.756657	17.953451
420.190645	17.890125
420.624620	17.859034
421.058582	17.824047
421.492531	17.777643
421.926468	17.734251
422.360391	17.767976
422.794301	17.770410
423.228199	17.831442
423.662083	17.894445
424.095955	17.989143
424.529813	18.033520
424.963658	18.112919
425.397491	18.154773
425.831310	18.253410
426.265116	18.339315
426.698909	18.422064
427.132689	18.490293
427.566455	18.607545
428.000209	18.703610
428.433949	18.853208
428.867676	18.983032
429.301389	19.095678
429.735090	19.229203
430.168777	19.348867
430.602451	19.470392
431.036111	19.568100
431.469759	19.675416
431.903392	19.772676
432.337013	19.856187
432.770620	19.937667
433.204213	20.012233
433.637794	20.088249
434.071360	20.173965
434.504914	20.265570
434.938453	20.358205
435.371979	20.451821
435.805492	20.519344
436.238991	20.592730
436.672477	20.679959
437.105949	20.766375
437.539407	20.821967
437.972852	20.895475
438.406283	20.960077
438.839700	21.038278
439.273104	21.072386
439.706494	21.115512
440.139871	21.144426
440.573233	21.203252
441.006582	21.234235
441.439917	21.251890
441.873238	21.274587
442.306546	21.291110
442.739839	21.289260
443.173119	21.280538
443.606385	21.274136
444.039636	21.277202
444.472874	21.285237
444.906099	21.282470
445.339309	21.290833
445.772505	21.286607
446.205687	21.292852
446.638855	21.307187
447.072009	21.293677
447.505149	21.275848
447.938275	21.261040
448.371387	21.226613
448.804485	21.179523
449.237569	21.138833
449.670638	21.089360
450.103694	21.021299
450.536735	20.960446
450.969762	20.892168
451.402774	20.820337
451.835773	20.751326
452.268757	20.673917
452.701727	20.612934
453.134683	20.529629
453.567624	20.456580
454.000551	20.375881
454.433464	20.308228
454.866362	20.232891
455.299246	20.158705
455.732116	20.067595
456.164971	19.977968
456.597811	19.884344
457.030638	19.794829
457.463449	19.686961
457.896246	19.589937
458.329029	19.470154
458.761797	19.352568
459.194551	19.247237
459.627290	19.141374
460.060014	19.024915
460.492724	18.936446
460.925419	18.836102
461.358099	18.732984
461.790765	18.627603
462.223416	18.527144
462.656052	18.411570
463.088674	18.307532
463.521281	18.209801
463.953873	18.097895
464.386450	17.997377
464.819012	17.916291
465.251560	17.828441
465.684093	17.735947
466.116611	17.644969
466.549114	17.584411
466.981602	17.512311
467.414075	17.426366
467.846533	17.336901
468.278977	17.277384
468.711405	17.192056
469.143818	17.142120
469.576216	17.102705
470.008600	17.063637
470.440968	17.021020
470.873321	16.983335
471.305659	16.948453
471.737982	16.935696
472.170289	16.911030
472.602582	16.901601
473.034859	16.888844
473.467122	16.895984
473.899369	16.886575
474.331600	16.895145
474.763817	16.911498
475.196018	16.936347
475.628204	16.977288
476.060375	17.024181
476.492530	17.079498
476.924670	17.122233
477.356795	17.189400
477.788904	17.257178
478.220998	17.328497
478.653076	17.391820
479.085139	17.470630
479.517186	17.556627
479.949219	17.623084
480.381235	17.710001
480.813236	17.789374
481.245221	17.873079
481.677191	17.949581
482.109146	18.024605
482.541084	18.080593
482.973008	18.142455
483.404915	18.195308
483.836807	18.248208
484.268683	18.299718
484.700544	18.338924
485.132388	18.392423
485.564217	18.444005
485.996031	18.481942
486.427828	18.517559
486.859610	18.538939
487.291376	18.562438
487.723126	18.591976
488.154860	18.605156
488.586579	18.613317
489.018281	18.605477
489.449968	18.607591
489.881639	18.600916
490.313293	18.597434
490.744932	18.584567
491.176555	18.564636
491.608162	18.534941
492.039753	18.496530
492.471328	18.457288
492.902886	18.397931
493.334429	18.340393
493.765956	18.269343
494.197466	18.204138
494.628960	18.126485
495.060439	18.036906
495.491901	17.940778
495.923347	17.843622
496.354776	17.730952
496.786190	17.619560
497.217587	17.491173
497.648968	17.363024
498.080332	17.222962
498.511681	17.071833
498.943013	16.900453
499.374328	16.734667
499.805628	16.559788
500.236911	16.380542
500.668177	16.189512
501.099427	15.988378
501.530661	15.793807
501.961878	15.587547
502.393079	15.390544
502.824264	15.189285
503.255431	14.996160
503.686583	14.805771
504.117717	14.630908
504.548835	14.470714
504.979937	14.318899
505.411022	14.182168
505.842090	14.053871
506.273142	13.952592
506.704177	13.861938
507.135195	13.789041
507.566197	13.745646
507.997182	13.727464
508.428150	13.729770
508.859102	13.778774
509.290036	13.864919
509.720954	13.986800
510.151855	14.145481
510.582739	14.362757
511.013607	14.606166
511.444457	14.909925
511.875291	15.245413
512.306107	15.645329
512.736907	16.082154
513.167690	16.565634
513.598456	17.089908
514.029205	17.678719
514.459936	18.322857
514.890651	19.025150
515.321349	19.799157
515.752030	20.625239
516.182693	21.511603
516.613340	22.453321
517.043969	23.458120
517.474582	24.504841
517.905177	25.585400
518.335755	26.724732
518.766315	27.896821
519.196859	29.096790
519.627385	30.325693
520.057894	31.571372
520.488386	32.835929
520.918860	34.121246
521.349318	35.435274
521.779757	36.788861
522.210180	38.155304
522.640585	39.526741
523.070973	40.905970
523.501343	42.296573
523.931696	43.685526
524.362031	45.094736
524.792349	46.494073
525.222650	47.906742
525.652933	49.286548
526.083198	50.654509
526.513446	52.004447
526.943677	53.340321
527.373890	54.660947
527.804085	55.960380
528.234262	57.223735
528.664422	58.489084
529.094565	59.723199
529.524689	60.925431
529.954796	62.104314
530.384885	63.240614
530.814957	64.346568
531.245011	65.452377
531.675047	66.517592
532.105065	67.557815
532.535065	68.591293
532.965048	69.593126
533.395013	70.567179
533.824959	71.515489
534.254888	72.442967
534.684799	73.363189
535.114693	74.259231
535.544568	75.124482
535.974425	75.982582
536.404264	76.798501
536.834086	77.601521
537.263889	78.370725
537.693674	79.116077
538.123441	79.835898
538.553190	80.508659
538.982921	81.183860
539.412634	81.841906
539.842329	82.504504
540.272006	83.130810
540.701664	83.733807
541.131304	84.326922
541.560926	84.905364
541.990530	85.446780
542.420116	85.982752
542.849683	86.504595
543.279232	87.010425
543.708763	87.496522
544.138275	87.971495
544.567769	88.406574
544.997245	88.833908
545.426702	89.259927
545.856141	89.665573
546.285562	90.063601
546.714964	90.454030
547.144347	90.838297
547.573713	91.206961
548.003059	91.553473
548.432387	91.893269
548.861697	92.241841
549.290988	92.580004
549.720260	92.932750
550.149514	93.272673
550.578750	93.598827
551.007966	93.905258
551.437164	94.226857
551.866344	94.543766
552.295504	94.831357
552.724646	95.133254
553.153769	95.411104
553.582874	95.705026
554.011960	95.980714
554.441027	96.252624
554.870075	96.507133
555.299104	96.741878
555.728115	96.932541
556.157106	97.149769
556.586079	97.332117
557.015033	97.495767
557.443968	97.653543
557.872884	97.811701
558.301781	97.952963
558.730659	98.093925
559.159518	98.204572
559.588358	98.334616
560.017180	98.444667
560.445982	98.541461
560.874765	98.637526
561.303528	98.733220
561.732273	98.840430
562.160999	98.923346
562.589705	99.012348
563.018393	99.092444
563.447061	99.190454
563.875710	99.285549
564.304340	99.401123
564.732950	99.496409
565.161542	99.618224
565.590114	99.737398
566.018666	99.859815
566.447200	99.992186
566.875714	100.118142
567.304208	100.248255
567.732684	100.388375
568.161140	100.526512
568.589576	100.685696
569.017993	100.859109
569.446391	101.008392
569.874769	101.180388
570.303128	101.356252
570.731467	101.518242
571.159787	101.678745
571.588087	101.823257
572.016368	101.970659
572.444629	102.120395
572.872870	102.247536
573.301092	102.366774
573.729294	102.479484
574.157476	102.588587
574.585639	102.677237
575.013782	102.753180
575.441906	102.835091
575.870009	102.887128
576.298093	102.933935
576.726157	102.961745
577.154202	103.001446
577.582226	103.033429
578.010231	103.043748
578.438216	103.042831
578.866181	103.038297
579.294126	103.030406
579.722051	103.017491
580.149957	103.008131
580.577842	102.997016
581.005707	102.978284
581.433553	102.985591
581.861378	102.972072
582.289184	102.979217
582.716969	102.977563
583.144734	102.960877
583.572479	102.965280
584.000205	102.980207
584.427910	102.980256
584.855594	102.987257
585.283259	102.971157
585.710904	102.976207
586.138528	102.957514
586.566132	102.955134
586.993716	102.948241
587.421280	102.943574
587.848823	102.952779
588.276346	102.952051
588.703849	102.919220
589.131332	102.904613
589.558794	102.882408
589.986236	102.821046
590.413657	102.775314
590.841058	102.695421
591.268438	102.630297
591.695799	102.540466
592.123138	102.438492
592.550458	102.328503
592.977756	102.209588
593.405034	102.096358
593.832292	101.964858
594.259529	101.820864
594.686746	101.661020
595.113942	101.507654
595.541117	101.332083
595.968272	101.160292
596.395406	100.991437
596.822519	100.812016
597.249612	100.632586
597.676684	100.457833
598.103735	100.276723
598.530766	100.113000
598.957775	99.932728
599.384764	99.764440
599.811733	99.592294
600.238680	99.425567
600.665606	99.248507
601.092512	99.073671
601.519397	98.895839
601.946261	98.740124
602.373104	98.571045
602.799926	98.397290
603.226727	98.242796
603.653507	98.062476
604.080266	97.896290
604.507004	97.730148
604.933721	97.554375
605.360417	97.387913
605.787092	97.207994
606.213746	97.006109
606.640379	96.786836
607.066991	96.560056
607.493581	96.299230
607.920150	96.035791
608.346699	95.759195
608.773226	95.460724
609.199731	95.141583
609.626216	94.806291
610.052679	94.444879
610.479121	94.049652
610.905542	93.629512
611.331941	93.197991
611.758319	92.715896
612.184676	92.225745
612.611011	91.698442
613.037325	91.127329
613.463617	90.516067
613.889888	89.895196
614.316138	89.229817
614.742366	88.524079
615.168573	87.777955
615.594758	86.987877
616.020921	86.172739
616.447063	85.332299
616.873184	84.447658
617.299283	83.531586
617.725360	82.584358
618.151416	81.615014
618.577450	80.608869
619.003462	79.571167
619.429453	78.524048
619.855422	77.442942
620.281369	76.349213
620.707295	75.246580
621.133199	74.109668
621.559081	72.943323
621.984941	71.768099
622.410779	70.570681
622.836596	69.343466
623.262391	68.100776
623.688163	66.840965
624.113914	65.568703
624.539644	64.274777
624.965351	62.968533
625.391036	61.623325
625.816699	60.272375
626.242340	58.909727
626.667960	57.525539
627.093557	56.109880
627.519132	54.697112
627.944685	53.277594
628.370216	51.864469
628.795725	50.457709
629.221212	49.050153
629.646677	47.651210
630.072119	46.277536
630.497540	44.926230
630.922938	43.604077
631.348314	42.322184
631.773668	41.080423
632.198999	39.884966
632.624308	38.745862
633.049595	37.665220
633.474860	36.641211
633.900102	35.678030
634.325322	34.773590
634.750520	33.945867
635.175695	33.179504
635.600848	32.479823
636.025978	31.852353
636.451086	31.294151
636.876171	30.802525
637.301234	30.372348
637.726275	30.019850
638.151293	29.730405
638.576288	29.513183
639.001261	29.363756
639.426211	29.292397
639.851139	29.288976
640.276044	29.353192
640.700927	29.491132
641.125787	29.698130
641.550624	29.985858
641.975438	30.341787
642.400230	30.773862
642.824999	31.267604
643.249745	31.839492
643.674469	32.470190
644.099169	33.160888
644.523847	33.913337
644.948502	34.716263
645.373135	35.566110
645.797744	36.456818
646.222330	37.383861
646.646894	38.353956
647.071435	39.362548
647.495953	40.400282
647.920447	41.446704
648.344919	42.514920
648.769368	43.602672
649.193794	44.696061
649.618197	45.797819
650.042576	46.907492
650.466933	48.036136
650.891267	49.152521
651.315577	50.273591
651.739864	51.391079
652.164129	52.486229
652.588370	53.571797
653.012587	54.651783
653.436782	55.723511
653.860953	56.768136
654.285102	57.804166
654.709226	58.798193
655.133328	59.788934
655.557406	60.737586
655.981461	61.665703
656.405493	62.558273
656.829501	63.418584
657.253486	64.239565
657.677448	65.016897
658.101386	65.762268
658.525301	66.464599
658.949192	67.130198
659.373060	67.754098
659.796904	68.337741
660.220725	68.879778
660.644522	69.382719
661.068296	69.859909
661.492046	70.310170
661.915772	70.732539
662.339475	71.126325
662.763154	71.497806
663.186810	71.833970
663.610442	72.132568
664.034050	72.411728
664.457635	72.665778
664.881196	72.904579
665.304733	73.132070
665.728247	73.334131
666.151736	73.523150
666.575202	73.693854
666.998644	73.859649
667.422062	74.016068
667.845457	74.159751
668.268827	74.274805
668.692174	74.393651
669.115496	74.499214
669.538795	74.598105
669.962070	74.676857
670.385321	74.747786
670.808547	74.811607
671.231750	74.876489
671.654929	74.932871
672.078084	74.983445
672.501214	75.029793
672.924321	75.057728
673.347404	75.087207
673.770462	75.102336
674.193496	75.109391
674.616506	75.102953
675.039492	75.081891
675.462454	75.057330
675.885391	75.019507
676.308305	74.980752
676.731194	74.933612
677.154058	74.871260
677.576899	74.798007
677.999715	74.719855
678.422507	74.642715
678.845274	74.554504
679.268017	74.459381
679.690736	74.368444
680.113430	74.257010
680.536100	74.149471
680.958746	74.039955
681.381367	73.933619
681.803963	73.821238
682.226535	73.725152
682.649083	73.625537
683.071605	73.539188
683.494104	73.455378
683.916578	73.366713
684.339027	73.273311
684.761451	73.179742
685.183851	73.084097
685.606227	73.000932
686.028577	72.921291
686.450903	72.837713
686.873204	72.762162
687.295481	72.691254
687.717733	72.620016
688.139959	72.541122
688.562162	72.458211
688.984339	72.372161
689.406492	72.290628
689.828619	72.215029
690.250722	72.142588
690.672800	72.081088
691.094853	72.020699
691.516881	71.945059
691.938884	71.880051
692.360863	71.819418
692.782816	71.760747
693.204744	71.714346
693.626647	71.660101
694.048526	71.611081
694.470379	71.573248
694.892207	71.536618
695.314010	71.503979
695.735788	71.475740
696.157540	71.445392
696.579268	71.430756
697.000970	71.427304
697.422648	71.428551
697.844300	71.437576
698.265926	71.451957
698.687528	71.461080
699.109104	71.481980
699.530655	71.503786
699.952181	71.532592
700.373681	71.568728
700.795156	71.617277
701.216606	71.697045
701.638030	71.788381
702.059429	71.896364
702.480803	72.027566
702.902151	72.173441
703.323473	72.333221
703.744770	72.512600
704.166042	72.724900
704.587288	72.977661
705.008509	73.251523
705.429704	73.549146
705.850873	73.870742
706.272017	74.206093
706.693135	74.564356
707.114228	74.948683
707.535295	75.348090
707.956336	75.755331
708.377352	76.166671
708.798342	76.585553
709.219306	77.011777
709.640245	77.439037
710.061157	77.861352
710.482044	78.278129
710.902905	78.698562
711.323741	79.123003
711.744550	79.554342
712.165334	79.984598
712.586092	80.415904
713.006823	80.846572
713.427529	81.281673
713.848209	81.724245
714.268863	82.153400
714.689492	82.587862
715.110094	83.033053
715.530670	83.476176
715.951220	83.921503
716.371744	84.373170
716.792242	84.832015
717.212714	85.274655
717.633159	85.717743
718.053579	86.170659
718.473973	86.625478
718.894340	87.082247
719.314681	87.543817
719.734996	88.010651
720.155285	88.459897
720.575547	88.895833
720.995784	89.338979
721.415994	89.771311
721.836177	90.208488
722.256335	90.635472
722.676466	91.059071
723.096570	91.481866
723.516649	91.899622
723.936701	92.304321
724.356726	92.688586
724.776725	93.069451
725.196698	93.445433
725.616644	93.808759
726.036564	94.170821
726.456457	94.518306
726.876324	94.841375
727.296164	95.161458
727.715977	95.468726
728.135764	95.761492
728.555525	96.036526
728.975258	96.302857
729.394966	96.556023
729.814646	96.786925
730.234300	97.008977
730.653927	97.208390
731.073527	97.391943
731.493101	97.573408
731.912648	97.728440
732.332168	97.870690
732.751661	97.993952
733.171128	98.111210
733.590568	98.222673
734.009980	98.324436
734.429366	98.418370
734.848726	98.497113
735.268058	98.581324
735.687363	98.637486
736.106641	98.699111
736.525893	98.745274
736.945117	98.793110
737.364314	98.841713
737.783485	98.880068
738.202628	98.924267
738.621744	98.971867
739.040834	99.008260
739.459896	99.063404
739.878931	99.099005
740.297939	99.143495
740.716919	99.204425
741.135873	99.251838
741.554799	99.301832
741.973698	99.354885
742.392570	99.412805
742.811415	99.486415
743.230232	99.554683
743.649022	99.649800
744.067785	99.721768
744.486521	99.790056
744.905229	99.859324
745.323909	99.931333
745.742563	100.008293
746.161189	100.084248
746.579787	100.169543
746.998358	100.259949
747.416902	100.343414
747.835418	100.421301
748.253907	100.507132
748.672368	100.605647
749.090802	100.692833
749.509208	100.779705
749.927586	100.868874
750.345937	100.957304
750.764261	101.056232
751.182556	101.128909
751.600824	101.204714
752.019065	101.277939
