Time1=100ms:Average1=5:Objective=10X:Aperture=1: (11/21/2018 11:32:55 AM)
11/21/2018 11:32:55 AM
Reflectance
10X
Ap#: 1
Avg1: 5.000000
Avg2: 0.000000
Int.Time1:100.000000

350.166136	92.407015
350.601937	93.221183
351.037728	93.289273
351.473509	93.035480
351.909281	93.034826
352.345042	92.803185
352.780794	92.871753
353.216536	92.924962
353.652267	93.053708
354.087989	92.530908
354.523701	92.569912
354.959403	92.161254
355.395095	92.749923
355.830777	92.681684
356.266449	93.016845
356.702110	92.682680
357.137762	93.247785
357.573404	93.584093
358.009035	93.263029
358.444656	93.508628
358.880268	93.230453
359.315869	93.147862
359.751459	93.201191
360.187040	93.717817
360.622610	94.016300
361.058170	94.268632
361.493720	94.290139
361.929260	94.265344
362.364789	93.902941
362.800308	93.436730
363.235816	93.820167
363.671314	94.161707
364.106802	93.943127
364.542279	94.260531
364.977746	94.720561
365.413203	95.017573
365.848649	95.165789
366.284084	94.898064
366.719509	94.965135
367.154924	95.184311
367.590328	95.342410
368.025721	95.239558
368.461104	95.816672
368.896477	95.535531
369.331838	95.700246
369.767189	94.877777
370.202530	95.027060
370.637859	94.247877
371.073178	94.490023
371.508486	94.564997
371.943784	94.670592
372.379071	94.768856
372.814347	95.291366
373.249612	95.094647
373.684866	94.131906
374.120110	94.171810
374.555343	94.233687
374.990565	94.060203
375.425776	94.085102
375.860976	94.034663
376.296165	93.725451
376.731343	93.386111
377.166511	93.457286
377.601667	93.223901
378.036812	92.970317
378.471946	92.896393
378.907070	93.070788
379.342182	92.665207
379.777283	92.566425
380.212373	92.394003
380.647452	92.444620
381.082520	92.147373
381.517576	92.039850
381.952622	92.471196
382.387656	93.095879
382.822679	93.003090
383.257691	93.874487
383.692692	94.200877
384.127681	94.885397
384.562659	94.517282
384.997626	94.307814
385.432581	93.562697
385.867525	93.742005
386.302458	93.810596
386.737379	94.034091
387.172289	94.333529
387.607188	93.444056
388.042075	93.356031
388.476951	93.566910
388.911815	93.697724
389.346668	93.886888
389.781509	94.479726
390.216338	94.492810
390.651157	94.396720
391.085963	94.801883
391.520758	95.096888
391.955541	95.352486
392.390313	94.571456
392.825073	94.717899
393.259821	95.107153
393.694558	95.397325
394.129283	94.759996
394.563996	95.189476
394.998698	95.825521
395.433388	95.529412
395.868066	95.013149
396.302732	95.005365
396.737386	94.580130
397.172029	94.399689
397.606659	94.195046
398.041278	93.784331
398.475885	93.519671
398.910480	93.283760
399.345063	92.144915
399.779634	90.962699
400.214194	89.216183
400.648741	87.626480
401.083276	86.598854
401.517799	84.385640
401.952310	81.835292
402.386809	79.578403
402.821296	76.575146
403.255771	73.458822
403.690234	70.582862
404.124684	66.997913
404.559123	63.307743
404.993549	59.776553
405.427963	56.361507
405.862365	53.181599
406.296754	50.164470
406.731131	47.224724
407.165496	44.521371
407.599849	42.083168
408.034190	39.774023
408.468518	37.465726
408.902833	35.275728
409.337137	33.448012
409.771428	31.776402
410.205706	30.204101
410.639973	28.693027
411.074226	27.473816
411.508467	26.437083
411.942696	25.540239
412.376912	24.741227
412.811116	24.071629
413.245307	23.359779
413.679486	22.814315
414.113652	22.183476
414.547805	21.561123
414.981946	21.142975
415.416074	20.708554
415.850190	20.288150
416.284293	19.998742
416.718383	19.718098
417.152460	19.445404
417.586525	19.248597
418.020577	19.083347
418.454616	18.935956
418.888643	18.813070
419.322656	18.713590
419.756657	18.595247
420.190645	18.534661
420.624620	18.460107
421.058582	18.368139
421.492531	18.320698
421.926468	18.298175
422.360391	18.332170
422.794301	18.343210
423.228199	18.369355
423.662083	18.373866
424.095955	18.415804
424.529813	18.432843
424.963658	18.498524
425.397491	18.533304
425.831310	18.572038
426.265116	18.606814
426.698909	18.674751
427.132689	18.720529
427.566455	18.806044
428.000209	18.894027
428.433949	18.981851
428.867676	19.092763
429.301389	19.161599
429.735090	19.220054
430.168777	19.300221
430.602451	19.360445
431.036111	19.404971
431.469759	19.437686
431.903392	19.479029
432.337013	19.501427
432.770620	19.516529
433.204213	19.569180
433.637794	19.594227
434.071360	19.626849
434.504914	19.679026
434.938453	19.737235
435.371979	19.783619
435.805492	19.826861
436.238991	19.864861
436.672477	19.906346
437.105949	19.969215
437.539407	20.028640
437.972852	20.062245
438.406283	20.063693
438.839700	20.080472
439.273104	20.098976
439.706494	20.104194
440.139871	20.109817
440.573233	20.111811
441.006582	20.115016
441.439917	20.098774
441.873238	20.072590
442.306546	20.040039
442.739839	20.033491
443.173119	20.010013
443.606385	19.983380
444.039636	19.970952
444.472874	19.954488
444.906099	19.944837
445.339309	19.940248
445.772505	19.920409
446.205687	19.922079
446.638855	19.896354
447.072009	19.882988
447.505149	19.858421
447.938275	19.844068
448.371387	19.797557
448.804485	19.735543
449.237569	19.700675
449.670638	19.631533
450.103694	19.574522
450.536735	19.495150
450.969762	19.409935
451.402774	19.338928
451.835773	19.269313
452.268757	19.204037
452.701727	19.120892
453.134683	19.052757
453.567624	18.964645
454.000551	18.888142
454.433464	18.812016
454.866362	18.738555
455.299246	18.673257
455.732116	18.583438
456.164971	18.502054
456.597811	18.429209
457.030638	18.343146
457.463449	18.235742
457.896246	18.150023
458.329029	18.051628
458.761797	17.953156
459.194551	17.855482
459.627290	17.742472
460.060014	17.633430
460.492724	17.532626
460.925419	17.421757
461.358099	17.303221
461.790765	17.200751
462.223416	17.103751
462.656052	16.983871
463.088674	16.885294
463.521281	16.773649
463.953873	16.656901
464.386450	16.560274
464.819012	16.475266
465.251560	16.391119
465.684093	16.293685
466.116611	16.234065
466.549114	16.161427
466.981602	16.105563
467.414075	16.055356
467.846533	15.988739
468.278977	15.926506
468.711405	15.845762
469.143818	15.794370
469.576216	15.730044
470.008600	15.678148
470.440968	15.617277
470.873321	15.570432
471.305659	15.519069
471.737982	15.489680
472.170289	15.448416
472.602582	15.424696
473.034859	15.410975
473.467122	15.400232
473.899369	15.387726
474.331600	15.399957
474.763817	15.420177
475.196018	15.446562
475.628204	15.494199
476.060375	15.542140
476.492530	15.603407
476.924670	15.644198
477.356795	15.714437
477.788904	15.771324
478.220998	15.822622
478.653076	15.879942
479.085139	15.953785
479.517186	15.994450
479.949219	16.050527
480.381235	16.108159
480.813236	16.164708
481.245221	16.236769
481.677191	16.307929
482.109146	16.386640
482.541084	16.451413
482.973008	16.526491
483.404915	16.592568
483.836807	16.672904
484.268683	16.743601
484.700544	16.812050
485.132388	16.875252
485.564217	16.951231
485.996031	17.018943
486.427828	17.083856
486.859610	17.155507
487.291376	17.212770
487.723126	17.273210
488.154860	17.322229
488.586579	17.366477
489.018281	17.403948
489.449968	17.432415
489.881639	17.458011
490.313293	17.497863
490.744932	17.530386
491.176555	17.554920
491.608162	17.580391
492.039753	17.604709
492.471328	17.611641
492.902886	17.636593
493.334429	17.639333
493.765956	17.633028
494.197466	17.621433
494.628960	17.591682
495.060439	17.544404
495.491901	17.472553
495.923347	17.402183
496.354776	17.306186
496.786190	17.212381
497.217587	17.094317
497.648968	16.988867
498.080332	16.870079
498.511681	16.746829
498.943013	16.606785
499.374328	16.463864
499.805628	16.310448
500.236911	16.141404
500.668177	15.967865
501.099427	15.777580
501.530661	15.597575
501.961878	15.405331
502.393079	15.199139
502.824264	15.010344
503.255431	14.822070
503.686583	14.637766
504.117717	14.463402
504.548835	14.307745
504.979937	14.159296
505.411022	14.013459
505.842090	13.884915
506.273142	13.759473
506.704177	13.660992
507.135195	13.580040
507.566197	13.518215
507.997182	13.472408
508.428150	13.466934
508.859102	13.497448
509.290036	13.558321
509.720954	13.672689
510.151855	13.826596
510.582739	14.029732
511.013607	14.257254
511.444457	14.530738
511.875291	14.844150
512.306107	15.205419
512.736907	15.602173
513.167690	16.044575
513.598456	16.543140
514.029205	17.104296
514.459936	17.720751
514.890651	18.386567
515.321349	19.117670
515.752030	19.913206
516.182693	20.759235
516.613340	21.662117
517.043969	22.621905
517.474582	23.620619
517.905177	24.675517
518.335755	25.765845
518.766315	26.891660
519.196859	28.048035
519.627385	29.222763
520.057894	30.411078
520.488386	31.607646
520.918860	32.821128
521.349318	34.086460
521.779757	35.365981
522.210180	36.678436
522.640585	38.001786
523.070973	39.329465
523.501343	40.654258
523.931696	41.979761
524.362031	43.330781
524.792349	44.673712
525.222650	46.026139
525.652933	47.357750
526.083198	48.693023
526.513446	50.014440
526.943677	51.326909
527.373890	52.612971
527.804085	53.898160
528.234262	55.148846
528.664422	56.395895
529.094565	57.618706
529.524689	58.812582
529.954796	59.990951
530.384885	61.134872
530.814957	62.251639
531.245011	63.353968
531.675047	64.435395
532.105065	65.492632
532.535065	66.544385
532.965048	67.572023
533.395013	68.568642
533.824959	69.547160
534.254888	70.510347
534.684799	71.452097
535.114693	72.380930
535.544568	73.270073
535.974425	74.134552
536.404264	74.964034
536.834086	75.773309
537.263889	76.561484
537.693674	77.312398
538.123441	78.033888
538.553190	78.723117
538.982921	79.402783
539.412634	80.048261
539.842329	80.689774
540.272006	81.287386
540.701664	81.863625
541.131304	82.406841
541.560926	82.940461
541.990530	83.445620
542.420116	83.954894
542.849683	84.431782
543.279232	84.908165
543.708763	85.369185
544.138275	85.820371
544.567769	86.215881
544.997245	86.616392
545.426702	87.007725
545.856141	87.376757
546.285562	87.758670
546.714964	88.128375
547.144347	88.493231
547.573713	88.866137
548.003059	89.213393
548.432387	89.550916
548.861697	89.887712
549.290988	90.228838
549.720260	90.560317
550.149514	90.881549
550.578750	91.201091
551.007966	91.503415
551.437164	91.818295
551.866344	92.116239
552.295504	92.385954
552.724646	92.669046
553.153769	92.943562
553.582874	93.224156
554.011960	93.477066
554.441027	93.719672
554.870075	93.943198
555.299104	94.147719
555.728115	94.312818
556.157106	94.501541
556.586079	94.643463
557.015033	94.784071
557.443968	94.920210
557.872884	95.047350
558.301781	95.151891
558.730659	95.274774
559.159518	95.372446
559.588358	95.469642
560.017180	95.560485
560.445982	95.639018
560.874765	95.713029
561.303528	95.804661
561.732273	95.905874
562.160999	95.992461
562.589705	96.090325
563.018393	96.193787
563.447061	96.324707
563.875710	96.450103
564.304340	96.585177
564.732950	96.724332
565.161542	96.878562
565.590114	97.022856
566.018666	97.177525
566.447200	97.332973
566.875714	97.476475
567.304208	97.653906
567.732684	97.822854
568.161140	98.004752
568.589576	98.193859
569.017993	98.380299
569.446391	98.560066
569.874769	98.756793
570.303128	98.915609
570.731467	99.073836
571.159787	99.230810
571.588087	99.373260
572.016368	99.496330
572.444629	99.610320
572.872870	99.700059
573.301092	99.790980
573.729294	99.877201
574.157476	99.940050
574.585639	99.971464
575.013782	99.995071
575.441906	100.037027
575.870009	100.033988
576.298093	100.026195
576.726157	100.003267
577.154202	99.977335
577.582226	99.964007
578.010231	99.923607
578.438216	99.889899
578.866181	99.865856
579.294126	99.843272
579.722051	99.808879
580.149957	99.803024
580.577842	99.781963
581.005707	99.781842
581.433553	99.783743
581.861378	99.806689
582.289184	99.827848
582.716969	99.836815
583.144734	99.840934
583.572479	99.879620
584.000205	99.914247
584.427910	99.953758
584.855594	100.003467
585.283259	100.029326
585.710904	100.080883
586.138528	100.117733
586.566132	100.152096
586.993716	100.178972
587.421280	100.205045
587.848823	100.235192
588.276346	100.264019
588.703849	100.245070
589.131332	100.243428
589.558794	100.248374
589.986236	100.209454
590.413657	100.170421
590.841058	100.119221
591.268438	100.059382
591.695799	99.967652
592.123138	99.872058
592.550458	99.775582
592.977756	99.668729
593.405034	99.549983
593.832292	99.426818
594.259529	99.285805
594.686746	99.137258
595.113942	98.958555
595.541117	98.788820
595.968272	98.622345
596.395406	98.462784
596.822519	98.294821
597.249612	98.126151
597.676684	97.968011
598.103735	97.803178
598.530766	97.656743
598.957775	97.503105
599.384764	97.362647
599.811733	97.214117
600.238680	97.082743
600.665606	96.947473
601.092512	96.826321
601.519397	96.704817
601.946261	96.596876
602.373104	96.478322
602.799926	96.336532
603.226727	96.213104
603.653507	96.081540
604.080266	95.935903
604.507004	95.793609
604.933721	95.641950
605.360417	95.481166
605.787092	95.298297
606.213746	95.102358
606.640379	94.878665
607.066991	94.632601
607.493581	94.363878
607.920150	94.081069
608.346699	93.789371
608.773226	93.474908
609.199731	93.131324
609.626216	92.757299
610.052679	92.347510
610.479121	91.923883
610.905542	91.471595
611.331941	90.997314
611.758319	90.481625
612.184676	89.952257
612.611011	89.387689
613.037325	88.806040
613.463617	88.180860
613.889888	87.532774
614.316138	86.843548
614.742366	86.117685
615.168573	85.377062
615.594758	84.604440
616.020921	83.828224
616.447063	83.023184
616.873184	82.188319
617.299283	81.333234
617.725360	80.473098
618.151416	79.607178
618.577450	78.714244
619.003462	77.791723
619.429453	76.866723
619.855422	75.928398
620.281369	74.984698
620.707295	74.035152
621.133199	73.052708
621.559081	72.052174
621.984941	71.036022
622.410779	70.011047
622.836596	68.970996
623.262391	67.936145
623.688163	66.867891
624.113914	65.782678
624.539644	64.679369
624.965351	63.566347
625.391036	62.425192
625.816699	61.265846
626.242340	60.085566
626.667960	58.880561
627.093557	57.656949
627.519132	56.427016
627.944685	55.177769
628.370216	53.910505
628.795725	52.648763
629.221212	51.362954
629.646677	50.076634
630.072119	48.805124
630.497540	47.533881
630.922938	46.267811
631.348314	45.014677
631.773668	43.794395
632.198999	42.606744
632.624308	41.459374
633.049595	40.354407
633.474860	39.292201
633.900102	38.280903
634.325322	37.333664
634.750520	36.452626
635.175695	35.637269
635.600848	34.885885
636.025978	34.198314
636.451086	33.572854
636.876171	33.021651
637.301234	32.527886
637.726275	32.119235
638.151293	31.775079
638.576288	31.501869
639.001261	31.306488
639.426211	31.182967
639.851139	31.131415
640.276044	31.154058
640.700927	31.247097
641.125787	31.422409
641.550624	31.671231
641.975438	31.986485
642.400230	32.380277
642.824999	32.837085
643.249745	33.355045
643.674469	33.931838
644.099169	34.567582
644.523847	35.244737
644.948502	35.986347
645.373135	36.765592
645.797744	37.575611
646.222330	38.418284
646.646894	39.295107
647.071435	40.199701
647.495953	41.121666
647.920447	42.036607
648.344919	42.961312
648.769368	43.887416
649.193794	44.813534
649.618197	45.730933
650.042576	46.641822
650.466933	47.556769
650.891267	48.437638
651.315577	49.303684
651.739864	50.153837
652.164129	50.991199
652.588370	51.804958
653.012587	52.600771
653.436782	53.384625
653.860953	54.147208
654.285102	54.881669
654.709226	55.610982
655.133328	56.320116
655.557406	57.004216
655.981461	57.697860
656.405493	58.372294
656.829501	59.036819
657.253486	59.682580
657.677448	60.336365
658.101386	60.957090
658.525301	61.574447
658.949192	62.180814
659.373060	62.760501
659.796904	63.330782
660.220725	63.887810
660.644522	64.421545
661.068296	64.958228
661.492046	65.490690
661.915772	66.013060
662.339475	66.514410
662.763154	67.016650
663.186810	67.501854
663.610442	67.973879
664.034050	68.444196
664.457635	68.917728
664.881196	69.383394
665.304733	69.826808
665.728247	70.270579
666.151736	70.714112
666.575202	71.147620
666.998644	71.579731
667.422062	72.020547
667.845457	72.427994
668.268827	72.841546
668.692174	73.247626
669.115496	73.629665
669.538795	74.001647
669.962070	74.352498
670.385321	74.702708
670.808547	75.021567
671.231750	75.330597
671.654929	75.613588
672.078084	75.882175
672.501214	76.140792
672.924321	76.356816
673.347404	76.557655
673.770462	76.730170
674.193496	76.867628
674.616506	76.963309
675.039492	77.031899
675.462454	77.073327
675.885391	77.072130
676.308305	77.034898
676.731194	76.971070
677.154058	76.870359
677.576899	76.721874
677.999715	76.551685
678.422507	76.359436
678.845274	76.136792
679.268017	75.883443
679.690736	75.604693
680.113430	75.308984
680.536100	74.984044
680.958746	74.655838
681.381367	74.297559
681.803963	73.923981
682.226535	73.542025
682.649083	73.150443
683.071605	72.759828
683.494104	72.343985
683.916578	71.923933
684.339027	71.502999
684.761451	71.076078
685.183851	70.636207
685.606227	70.207622
686.028577	69.787307
686.450903	69.359453
686.873204	68.954167
687.295481	68.579692
687.717733	68.217574
688.139959	67.871013
688.562162	67.545511
688.984339	67.253911
689.406492	67.000704
689.828619	66.782969
690.250722	66.598957
690.672800	66.472911
691.094853	66.374704
691.516881	66.314832
691.938884	66.288674
692.360863	66.311362
692.782816	66.370035
693.204744	66.438556
693.626647	66.546527
694.048526	66.685277
694.470379	66.847759
694.892207	67.025494
695.314010	67.223529
695.735788	67.443101
696.157540	67.673457
696.579268	67.916754
697.000970	68.176800
697.422648	68.438542
697.844300	68.707587
698.265926	68.995903
698.687528	69.272356
699.109104	69.556584
699.530655	69.840307
699.952181	70.127442
700.373681	70.406707
700.795156	70.693850
701.216606	70.987504
701.638030	71.281839
702.059429	71.572367
702.480803	71.860942
702.902151	72.140533
703.323473	72.421706
703.744770	72.678997
704.166042	72.936185
704.587288	73.194938
705.008509	73.438465
705.429704	73.664962
705.850873	73.875003
706.272017	74.090862
706.693135	74.289329
707.114228	74.478355
707.535295	74.676997
707.956336	74.871133
708.377352	75.060574
708.798342	75.242399
709.219306	75.429017
709.640245	75.630059
710.061157	75.830593
710.482044	76.039524
710.902905	76.276059
711.323741	76.515616
711.744550	76.788144
712.165334	77.072623
712.586092	77.375834
713.006823	77.705282
713.427529	78.052622
713.848209	78.412887
714.268863	78.795535
714.689492	79.197012
715.110094	79.621491
715.530670	80.068091
715.951220	80.523365
716.371744	80.989383
716.792242	81.484025
717.212714	81.995838
717.633159	82.511970
718.053579	83.062269
718.473973	83.627549
718.894340	84.218121
719.314681	84.830922
719.734996	85.460926
720.155285	86.093287
720.575547	86.721728
720.995784	87.375408
721.415994	88.040857
721.836177	88.714926
722.256335	89.394881
722.676466	90.065635
723.096570	90.752733
723.516649	91.435780
723.936701	92.097013
724.356726	92.743736
724.776725	93.372317
725.196698	93.992833
725.616644	94.595505
726.036564	95.167734
726.456457	95.719949
726.876324	96.248833
727.296164	96.748190
727.715977	97.214819
728.135764	97.644097
728.555525	98.046623
728.975258	98.422439
729.394966	98.778463
729.814646	99.094765
730.234300	99.378931
730.653927	99.622413
731.073527	99.836298
731.493101	100.021902
731.912648	100.170873
732.332168	100.287269
732.751661	100.382887
733.171128	100.459960
733.590568	100.515023
734.009980	100.556476
734.429366	100.562462
734.848726	100.548642
735.268058	100.512170
735.687363	100.468191
736.106641	100.393886
736.525893	100.302075
736.945117	100.206801
737.364314	100.092286
737.783485	99.966877
738.202628	99.819695
738.621744	99.678935
739.040834	99.521078
739.459896	99.358543
739.878931	99.163913
740.297939	98.967060
740.716919	98.784883
741.135873	98.595611
741.554799	98.390816
741.973698	98.199915
742.392570	97.999827
742.811415	97.814591
743.230232	97.631686
743.649022	97.484139
744.067785	97.327156
744.486521	97.191938
744.905229	97.072630
745.323909	96.965528
745.742563	96.876874
746.161189	96.809972
746.579787	96.765087
746.998358	96.720591
747.416902	96.712169
747.835418	96.723279
748.253907	96.746680
748.672368	96.782922
749.090802	96.834124
749.509208	96.893206
749.927586	96.959304
750.345937	97.033020
750.764261	97.121485
751.182556	97.208997
751.600824	97.292832
752.019065	97.374756
752.437277	97.441240
752.855462	97.546007
753.273620	97.626645
