Time1=100ms:Average1=5:Objective=10X:Aperture=1: (11/21/2018 10:41:10 AM)
11/21/2018 10:41:10 AM
Reflectance
10X
Ap#: 1
Avg1: 5.000000
Avg2: 0.000000
Int.Time1:100.000000

350.166136	114.206386
350.601937	115.844801
351.037728	116.595247
351.473509	117.175274
351.909281	117.957573
352.345042	118.373823
352.780794	118.180917
353.216536	118.508972
353.652267	118.898499
354.087989	119.096428
354.523701	118.697730
354.959403	118.806474
355.395095	118.486476
355.830777	118.372024
356.266449	118.218178
356.702110	118.656119
357.137762	118.373253
357.573404	118.416317
358.009035	117.898833
358.444656	118.158132
358.880268	118.647130
359.315869	118.765084
359.751459	118.767620
360.187040	118.672575
360.622610	118.503181
361.058170	118.871378
361.493720	118.447785
361.929260	117.990062
362.364789	118.449959
362.800308	117.516990
363.235816	117.114297
363.671314	117.638734
364.106802	117.387804
364.542279	117.927199
364.977746	117.493947
365.413203	117.436362
365.848649	117.159823
366.284084	116.974281
366.719509	116.809519
367.154924	117.126123
367.590328	117.228162
368.025721	117.865804
368.461104	117.896866
368.896477	118.160734
369.331838	118.428759
369.767189	119.153226
370.202530	118.712921
370.637859	119.071027
371.073178	119.007770
371.508486	118.867925
371.943784	118.494029
372.379071	118.610864
372.814347	118.102767
373.249612	117.623918
373.684866	117.592320
374.120110	118.044671
374.555343	117.886417
374.990565	117.828928
375.425776	118.039369
375.860976	117.907680
376.296165	118.213694
376.731343	118.272037
377.166511	117.235363
377.601667	117.169261
378.036812	117.096087
378.471946	117.835012
378.907070	117.637978
379.342182	117.298441
379.777283	117.437176
380.212373	117.676961
380.647452	117.305127
381.082520	116.748862
381.517576	116.712537
381.952622	117.088188
382.387656	116.764428
382.822679	117.152318
383.257691	116.163142
383.692692	115.896662
384.127681	115.427387
384.562659	115.673477
384.997626	115.412931
385.432581	116.034792
385.867525	115.907591
386.302458	116.400868
386.737379	116.274473
387.172289	116.556291
387.607188	116.403517
388.042075	116.171056
388.476951	116.079647
388.911815	116.247075
389.346668	115.496504
389.781509	115.291825
390.216338	115.288337
390.651157	115.733653
391.085963	115.806927
391.520758	115.838852
391.955541	114.675705
392.390313	114.415239
392.825073	114.382434
393.259821	114.773143
393.694558	114.706956
394.129283	114.165677
394.563996	114.799485
394.998698	114.331473
395.433388	113.634703
395.868066	113.435560
396.302732	112.933236
396.737386	113.079440
397.172029	113.201380
397.606659	112.839305
398.041278	112.211816
398.475885	112.125843
398.910480	111.110120
399.345063	109.914665
399.779634	108.722551
400.214194	107.832831
400.648741	106.081822
401.083276	104.015832
401.517799	101.967239
401.952310	99.158026
402.386809	96.265623
402.821296	93.148699
403.255771	89.668643
403.690234	85.905370
404.124684	82.089646
404.559123	78.068087
404.993549	73.620661
405.427963	69.885828
405.862365	65.936645
406.296754	62.547980
406.731131	58.719421
407.165496	55.166271
407.599849	52.301795
408.034190	49.359084
408.468518	46.697677
408.902833	44.300204
409.337137	41.852685
409.771428	39.705733
410.205706	37.755271
410.639973	35.871247
411.074226	34.333443
411.508467	32.914180
411.942696	31.599442
412.376912	30.337615
412.811116	29.223576
413.245307	28.348844
413.679486	27.366821
414.113652	26.526513
414.547805	25.776725
414.981946	25.061050
415.416074	24.450970
415.850190	23.906844
416.284293	23.420972
416.718383	23.001877
417.152460	22.598357
417.586525	22.222119
418.020577	21.888074
418.454616	21.605002
418.888643	21.341337
419.322656	21.112822
419.756657	20.868488
420.190645	20.711131
420.624620	20.558049
421.058582	20.346323
421.492531	20.167268
421.926468	19.994986
422.360391	19.834504
422.794301	19.733504
423.228199	19.635725
423.662083	19.535757
424.095955	19.488773
424.529813	19.407606
424.963658	19.331832
425.397491	19.277904
425.831310	19.231599
426.265116	19.196743
426.698909	19.136661
427.132689	19.128252
427.566455	19.097049
428.000209	19.072190
428.433949	19.043583
428.867676	19.001464
429.301389	18.948091
429.735090	18.903407
430.168777	18.863075
430.602451	18.820768
431.036111	18.731027
431.469759	18.683741
431.903392	18.638880
432.337013	18.573805
432.770620	18.496821
433.204213	18.422596
433.637794	18.353700
434.071360	18.303561
434.504914	18.275194
434.938453	18.271691
435.371979	18.244621
435.805492	18.194426
436.238991	18.154428
436.672477	18.132115
437.105949	18.094376
437.539407	18.044358
437.972852	17.974126
438.406283	17.904541
438.839700	17.815062
439.273104	17.761779
439.706494	17.678222
440.139871	17.610016
440.573233	17.531836
441.006582	17.444761
441.439917	17.370907
441.873238	17.281316
442.306546	17.214085
442.739839	17.121787
443.173119	17.045725
443.606385	16.935956
444.039636	16.840094
444.472874	16.758107
444.906099	16.686553
445.339309	16.604708
445.772505	16.540347
446.205687	16.471115
446.638855	16.413800
447.072009	16.326049
447.505149	16.243733
447.938275	16.164511
448.371387	16.073606
448.804485	15.986092
449.237569	15.902933
449.670638	15.823810
450.103694	15.706418
450.536735	15.595794
450.969762	15.492664
451.402774	15.401588
451.835773	15.308041
452.268757	15.226941
452.701727	15.127193
453.134683	15.040227
453.567624	14.953001
454.000551	14.874542
454.433464	14.802449
454.866362	14.717042
455.299246	14.656494
455.732116	14.587482
456.164971	14.526725
456.597811	14.458381
457.030638	14.415534
457.463449	14.357815
457.896246	14.314656
458.329029	14.255387
458.761797	14.199033
459.194551	14.140063
459.627290	14.093121
460.060014	14.041272
460.492724	14.001706
460.925419	13.954070
461.358099	13.907096
461.790765	13.870193
462.223416	13.841522
462.656052	13.815792
463.088674	13.785399
463.521281	13.784631
463.953873	13.795277
464.386450	13.804733
464.819012	13.817520
465.251560	13.843025
465.684093	13.864897
466.116611	13.893928
466.549114	13.930805
466.981602	13.967962
467.414075	14.005514
467.846533	14.059584
468.278977	14.116669
468.711405	14.163308
469.143818	14.212050
469.576216	14.272980
470.008600	14.326214
470.440968	14.394315
470.873321	14.448646
471.305659	14.515214
471.737982	14.575613
472.170289	14.646255
472.602582	14.714962
473.034859	14.775771
473.467122	14.850872
473.899369	14.921490
474.331600	15.003692
474.763817	15.084384
475.196018	15.156859
475.628204	15.245577
476.060375	15.330645
476.492530	15.405147
476.924670	15.486678
477.356795	15.549495
477.788904	15.606482
478.220998	15.666812
478.653076	15.720855
479.085139	15.780703
479.517186	15.822347
479.949219	15.847912
480.381235	15.855733
480.813236	15.860573
481.245221	15.851822
481.677191	15.833348
482.109146	15.802742
482.541084	15.773134
482.973008	15.726342
483.404915	15.668650
483.836807	15.602259
484.268683	15.534066
484.700544	15.446839
485.132388	15.363088
485.564217	15.251164
485.996031	15.142651
486.427828	15.031010
486.859610	14.907950
487.291376	14.782617
487.723126	14.646035
488.154860	14.515347
488.586579	14.378212
489.018281	14.237183
489.449968	14.103858
489.881639	13.972264
490.313293	13.825305
490.744932	13.692421
491.176555	13.563725
491.608162	13.439229
492.039753	13.311411
492.471328	13.173608
492.902886	13.062837
493.334429	12.961238
493.765956	12.885207
494.197466	12.828415
494.628960	12.778474
495.060439	12.755351
495.491901	12.755873
495.923347	12.775159
496.354776	12.814227
496.786190	12.892827
497.217587	12.993349
497.648968	13.129392
498.080332	13.306372
498.511681	13.514351
498.943013	13.771588
499.374328	14.059385
499.805628	14.398385
500.236911	14.788046
500.668177	15.228599
501.099427	15.695786
501.530661	16.206982
501.961878	16.765891
502.393079	17.357652
502.824264	17.984168
503.255431	18.650049
503.686583	19.352948
504.117717	20.087844
504.548835	20.865245
504.979937	21.669918
505.411022	22.503016
505.842090	23.387169
506.273142	24.291545
506.704177	25.238358
507.135195	26.217889
507.566197	27.230608
507.997182	28.271609
508.428150	29.347984
508.859102	30.454015
509.290036	31.574762
509.720954	32.729552
510.151855	33.893136
510.582739	35.070152
511.013607	36.272043
511.444457	37.476888
511.875291	38.677767
512.306107	39.893890
512.736907	41.124301
513.167690	42.353861
513.598456	43.591428
514.029205	44.833835
514.459936	46.089276
514.890651	47.343519
515.321349	48.615503
515.752030	49.890461
516.182693	51.140452
516.613340	52.393680
517.043969	53.634489
517.474582	54.845333
517.905177	56.030676
518.335755	57.181621
518.766315	58.329489
519.196859	59.412810
519.627385	60.478027
520.057894	61.490846
520.488386	62.460077
520.918860	63.404296
521.349318	64.362224
521.779757	65.287887
522.210180	66.193345
522.640585	67.062140
523.070973	67.894520
523.501343	68.699655
523.931696	69.480162
524.362031	70.233829
524.792349	70.977642
525.222650	71.708178
525.652933	72.405995
526.083198	73.088380
526.513446	73.743228
526.943677	74.350564
527.373890	74.943132
527.804085	75.530750
528.234262	76.100670
528.664422	76.628034
529.094565	77.154535
529.524689	77.671598
529.954796	78.179645
530.384885	78.655241
530.814957	79.129538
531.245011	79.595235
531.675047	80.052767
532.105065	80.499673
532.535065	80.955988
532.965048	81.394322
533.395013	81.826991
533.824959	82.263349
534.254888	82.674428
534.684799	83.076033
535.114693	83.471242
535.544568	83.863145
535.974425	84.245306
536.404264	84.620496
536.834086	84.985327
537.263889	85.353415
537.693674	85.694251
538.123441	85.996413
538.553190	86.296572
538.982921	86.580217
539.412634	86.846199
539.842329	87.097613
540.272006	87.350730
540.701664	87.574937
541.131304	87.784934
541.560926	87.974584
541.990530	88.147997
542.420116	88.316557
542.849683	88.491810
543.279232	88.641428
543.708763	88.790242
544.138275	88.933270
544.567769	89.080700
544.997245	89.228445
545.426702	89.360554
545.856141	89.491436
546.285562	89.627844
546.714964	89.765824
547.144347	89.879408
547.573713	90.028266
548.003059	90.154851
548.432387	90.275427
548.861697	90.387966
549.290988	90.523788
549.720260	90.679501
550.149514	90.831459
550.578750	90.957297
551.007966	91.082713
551.437164	91.238361
551.866344	91.369632
552.295504	91.489388
552.724646	91.629839
553.153769	91.772662
553.582874	91.900775
554.011960	92.039797
554.441027	92.149501
554.870075	92.263261
555.299104	92.387775
555.728115	92.477907
556.157106	92.549531
556.586079	92.596888
557.015033	92.664089
557.443968	92.711816
557.872884	92.744082
558.301781	92.782342
558.730659	92.813151
559.159518	92.835835
559.588358	92.855430
560.017180	92.874537
560.445982	92.903162
560.874765	92.911638
561.303528	92.949333
561.732273	92.993116
562.160999	93.008498
562.589705	93.054026
563.018393	93.061156
563.447061	93.089912
563.875710	93.138923
564.304340	93.195350
564.732950	93.219900
565.161542	93.261979
565.590114	93.304167
566.018666	93.332681
566.447200	93.367754
566.875714	93.395571
567.304208	93.417723
567.732684	93.452802
568.161140	93.484098
568.589576	93.500404
569.017993	93.519562
569.446391	93.523849
569.874769	93.550270
570.303128	93.552560
570.731467	93.547227
571.159787	93.528241
571.588087	93.485788
572.016368	93.441593
572.444629	93.389904
572.872870	93.343763
573.301092	93.269424
573.729294	93.195434
574.157476	93.108498
574.585639	93.002856
575.013782	92.886644
575.441906	92.795444
575.870009	92.663057
576.298093	92.558100
576.726157	92.440790
577.154202	92.308140
577.582226	92.189760
578.010231	92.092896
578.438216	91.980920
578.866181	91.897720
579.294126	91.803000
579.722051	91.716322
580.149957	91.648072
580.577842	91.561005
581.005707	91.489235
581.433553	91.403046
581.861378	91.333943
582.289184	91.264520
582.716969	91.205441
583.144734	91.138783
583.572479	91.070210
584.000205	90.998933
584.427910	90.907104
584.855594	90.828113
585.283259	90.738946
585.710904	90.653146
586.138528	90.531498
586.566132	90.424206
586.993716	90.296463
587.421280	90.149905
587.848823	89.983361
588.276346	89.805522
588.703849	89.600904
589.131332	89.370587
589.558794	89.112869
589.986236	88.829578
590.413657	88.532163
590.841058	88.198912
591.268438	87.832042
591.695799	87.462186
592.123138	87.051706
592.550458	86.628151
592.977756	86.182990
593.405034	85.710434
593.832292	85.230434
594.259529	84.720851
594.686746	84.217884
595.113942	83.692972
595.541117	83.155503
595.968272	82.596774
596.395406	82.033415
596.822519	81.473808
597.249612	80.915674
597.676684	80.377047
598.103735	79.817259
598.530766	79.253636
598.957775	78.660953
599.384764	78.086652
599.811733	77.491605
600.238680	76.892567
600.665606	76.285836
601.092512	75.659894
601.519397	75.009807
601.946261	74.368715
602.373104	73.704215
602.799926	73.023927
603.226727	72.315145
603.653507	71.577325
604.080266	70.812647
604.507004	70.023872
604.933721	69.201775
605.360417	68.356222
605.787092	67.480369
606.213746	66.580743
606.640379	65.660786
607.066991	64.714677
607.493581	63.757261
607.920150	62.770769
608.346699	61.756894
608.773226	60.733283
609.199731	59.695545
609.626216	58.631919
610.052679	57.540245
610.479121	56.429231
610.905542	55.288009
611.331941	54.118415
611.758319	52.938326
612.184676	51.746156
612.611011	50.522003
613.037325	49.295744
613.463617	48.054465
613.889888	46.812517
614.316138	45.567369
614.742366	44.324012
615.168573	43.076138
615.594758	41.851554
616.020921	40.636348
616.447063	39.438233
616.873184	38.268628
617.299283	37.129026
617.725360	36.034016
618.151416	34.974583
618.577450	33.957752
619.003462	32.979946
619.429453	32.048809
619.855422	31.166954
620.281369	30.341867
620.707295	29.562109
621.133199	28.845998
621.559081	28.198853
621.984941	27.605204
622.410779	27.075086
622.836596	26.613086
623.262391	26.220959
623.688163	25.889854
624.113914	25.627816
624.539644	25.432138
624.965351	25.287436
625.391036	25.204445
625.816699	25.186420
626.242340	25.213025
626.667960	25.301051
627.093557	25.446890
627.519132	25.644650
627.944685	25.892070
628.370216	26.184157
628.795725	26.525368
629.221212	26.918050
629.646677	27.358587
630.072119	27.840535
630.497540	28.366049
630.922938	28.912023
631.348314	29.494703
631.773668	30.109782
632.198999	30.750448
632.624308	31.407470
633.049595	32.079094
633.474860	32.769389
633.900102	33.462192
634.325322	34.163048
634.750520	34.859863
635.175695	35.565923
635.600848	36.272176
636.025978	36.976699
636.451086	37.673516
636.876171	38.375274
637.301234	39.072400
637.726275	39.776351
638.151293	40.488959
638.576288	41.204487
639.001261	41.925566
639.426211	42.650959
639.851139	43.384496
640.276044	44.114853
640.700927	44.846880
641.125787	45.578447
641.550624	46.310533
641.975438	47.036090
642.400230	47.752553
642.824999	48.457998
643.249745	49.147816
643.674469	49.826683
644.099169	50.497874
644.523847	51.146915
644.948502	51.774231
645.373135	52.389026
645.797744	52.982800
646.222330	53.562564
646.646894	54.116437
647.071435	54.660633
647.495953	55.176947
647.920447	55.679484
648.344919	56.160086
648.769368	56.625911
649.193794	57.064831
649.618197	57.490597
650.042576	57.888647
650.466933	58.262554
650.891267	58.614213
651.315577	58.945143
651.739864	59.257778
652.164129	59.551582
652.588370	59.809105
653.012587	60.048419
653.436782	60.264596
653.860953	60.449092
654.285102	60.620596
654.709226	60.760945
655.133328	60.884413
655.557406	60.981526
655.981461	61.075423
656.405493	61.157942
656.829501	61.221047
657.253486	61.277814
657.677448	61.318520
658.101386	61.368269
658.525301	61.408231
658.949192	61.445137
659.373060	61.470842
659.796904	61.520901
660.220725	61.560142
660.644522	61.606327
661.068296	61.652580
661.492046	61.700908
661.915772	61.738774
662.339475	61.780131
662.763154	61.820978
663.186810	61.855699
663.610442	61.888033
664.034050	61.919546
664.457635	61.939518
664.881196	61.950202
665.304733	61.943848
665.728247	61.946933
666.151736	61.929252
666.575202	61.915457
666.998644	61.895365
667.422062	61.870448
667.845457	61.850064
668.268827	61.823215
668.692174	61.797182
669.115496	61.753024
669.538795	61.708047
669.962070	61.670858
670.385321	61.618833
670.808547	61.570159
671.231750	61.505380
671.654929	61.433872
672.078084	61.357659
672.501214	61.261903
672.924321	61.130445
673.347404	60.980001
673.770462	60.798031
674.193496	60.584105
674.616506	60.347876
675.039492	60.086836
675.462454	59.815009
675.885391	59.527992
676.308305	59.225812
676.731194	58.921893
677.154058	58.602913
677.576899	58.283218
677.999715	57.971392
678.422507	57.660350
678.845274	57.353784
679.268017	57.059573
679.690736	56.758807
680.113430	56.487882
680.536100	56.207122
680.958746	55.933505
681.381367	55.665249
681.803963	55.409671
682.226535	55.164870
682.649083	54.927418
683.071605	54.676611
683.494104	54.440464
683.916578	54.200411
684.339027	53.959172
684.761451	53.728437
685.183851	53.498596
685.606227	53.279276
686.028577	53.067938
686.450903	52.875233
686.873204	52.703827
687.295481	52.564896
687.717733	52.445228
688.139959	52.360291
688.562162	52.305030
688.984339	52.272220
689.406492	52.269499
689.828619	52.291862
690.250722	52.356033
690.672800	52.437956
691.094853	52.540505
691.516881	52.664541
691.938884	52.809319
692.360863	52.962378
692.782816	53.136280
693.204744	53.303708
693.626647	53.498188
694.048526	53.696050
694.470379	53.904352
694.892207	54.122197
695.314010	54.350654
695.735788	54.590748
696.157540	54.855715
696.579268	55.126760
697.000970	55.425202
697.422648	55.739488
697.844300	56.066155
698.265926	56.418120
698.687528	56.792402
699.109104	57.191480
699.530655	57.599501
699.952181	58.028896
700.373681	58.468509
700.795156	58.927754
701.216606	59.399961
701.638030	59.870454
702.059429	60.348344
702.480803	60.841521
702.902151	61.348359
703.323473	61.845367
703.744770	62.343965
704.166042	62.844804
704.587288	63.347098
705.008509	63.848559
705.429704	64.365978
705.850873	64.878733
706.272017	65.401324
706.693135	65.924825
707.114228	66.455556
707.535295	66.993039
707.956336	67.537179
708.377352	68.096876
708.798342	68.656442
709.219306	69.219675
709.640245	69.786382
710.061157	70.351911
710.482044	70.920612
710.902905	71.487179
711.323741	72.050063
711.744550	72.605439
712.165334	73.153121
712.586092	73.702160
713.006823	74.234506
713.427529	74.759028
713.848209	75.278956
714.268863	75.790880
714.689492	76.305376
715.110094	76.819590
715.530670	77.317060
715.951220	77.802831
716.371744	78.286274
716.792242	78.771558
717.212714	79.259795
717.633159	79.756664
718.053579	80.251597
718.473973	80.729470
718.894340	81.204757
719.314681	81.688226
719.734996	82.161402
720.155285	82.632946
720.575547	83.105439
720.995784	83.570538
721.415994	84.024381
721.836177	84.447067
722.256335	84.861282
722.676466	85.257090
723.096570	85.615918
723.516649	85.950717
723.936701	86.277211
724.356726	86.555466
724.776725	86.811069
725.196698	87.034121
725.616644	87.227051
726.036564	87.403723
726.456457	87.558080
726.876324	87.678518
727.296164	87.763802
727.715977	87.834371
728.135764	87.879828
728.555525	87.906297
728.975258	87.929913
729.394966	87.945038
729.814646	87.944996
730.234300	87.931030
730.653927	87.881878
731.073527	87.837518
731.493101	87.780135
731.912648	87.716426
732.332168	87.640608
732.751661	87.559825
733.171128	87.476730
733.590568	87.364995
734.009980	87.253592
734.429366	87.119235
734.848726	87.009955
735.268058	86.868819
735.687363	86.732977
736.106641	86.601272
736.525893	86.465155
736.945117	86.318051
737.364314	86.181481
737.783485	86.048510
738.202628	85.910505
738.621744	85.782765
739.040834	85.657357
739.459896	85.533040
739.878931	85.421189
740.297939	85.337307
740.716919	85.245244
741.135873	85.169214
741.554799	85.110404
741.973698	85.055562
742.392570	85.000134
742.811415	84.992138
743.230232	84.978868
743.649022	84.986567
744.067785	85.009225
744.486521	85.059019
744.905229	85.119999
745.323909	85.191981
745.742563	85.272660
746.161189	85.351332
746.579787	85.459858
746.998358	85.563579
747.416902	85.672946
747.835418	85.787027
748.253907	85.919641
748.672368	86.032957
749.090802	86.168092
749.509208	86.306186
749.927586	86.452736
750.345937	86.588999
750.764261	86.728439
751.182556	86.889116
751.600824	87.040809
