Time1=100ms:Average1=5:Objective=10X:Aperture=1: (11/21/2018 12:06:17 PM)
11/21/2018 12:06:17 PM
Reflectance
10X
Ap#: 1
Avg1: 5.000000
Avg2: 0.000000
Int.Time1:100.000000

350.166136	100.346888
350.601937	100.965558
351.037728	101.606507
351.473509	101.384818
351.909281	101.665144
352.345042	101.633320
352.780794	102.045408
353.216536	102.276672
353.652267	102.219949
354.087989	101.634822
354.523701	101.775873
354.959403	101.771353
355.395095	102.093332
355.830777	101.916216
356.266449	102.062277
356.702110	101.560758
357.137762	101.537835
357.573404	101.814082
358.009035	101.474352
358.444656	101.859080
358.880268	102.129630
359.315869	102.153529
359.751459	102.033481
360.187040	101.503605
360.622610	101.568142
361.058170	101.690547
361.493720	101.848219
361.929260	101.942550
362.364789	100.647748
362.800308	100.647083
363.235816	100.968174
363.671314	100.923456
364.106802	100.913664
364.542279	101.096649
364.977746	101.711693
365.413203	101.953690
365.848649	101.962607
366.284084	101.782604
366.719509	101.497129
367.154924	101.468323
367.590328	101.310267
368.025721	101.371826
368.461104	101.261150
368.896477	101.320909
369.331838	101.033989
369.767189	100.497008
370.202530	100.949658
370.637859	100.495350
371.073178	100.871062
371.508486	101.003853
371.943784	101.136940
372.379071	100.973236
372.814347	101.088172
373.249612	101.404437
373.684866	100.999899
374.120110	101.315390
374.555343	101.011634
374.990565	100.785261
375.425776	100.865104
375.860976	101.511487
376.296165	101.087723
376.731343	100.781641
377.166511	100.643216
377.601667	100.780703
378.036812	100.772162
378.471946	100.299730
378.907070	100.189432
379.342182	99.920382
379.777283	99.781073
380.212373	99.463807
380.647452	99.396756
381.082520	99.219676
381.517576	98.855790
381.952622	99.245133
382.387656	99.770528
382.822679	100.099671
383.257691	100.590531
383.692692	100.269031
384.127681	100.420378
384.562659	99.622567
384.997626	99.434748
385.432581	98.531151
385.867525	98.612614
386.302458	98.579963
386.737379	98.266066
387.172289	98.571149
387.607188	97.843823
388.042075	98.015564
388.476951	98.423358
388.911815	98.550866
389.346668	98.646939
389.781509	99.013190
390.216338	99.256578
390.651157	98.721203
391.085963	99.097685
391.520758	98.717949
391.955541	99.470536
392.390313	98.764471
392.825073	98.803502
393.259821	99.011645
393.694558	99.901652
394.129283	99.325447
394.563996	100.000000
394.998698	100.000000
395.433388	99.539216
395.868066	98.655888
396.302732	98.322115
396.737386	97.995524
397.172029	97.913229
397.606659	97.668344
398.041278	97.513732
398.475885	97.214511
398.910480	97.101864
399.345063	96.344056
399.779634	95.450929
400.214194	93.961430
400.648741	92.340850
401.083276	90.707591
401.517799	88.570443
401.952310	85.453177
402.386809	82.901910
402.821296	79.677032
403.255771	76.894346
403.690234	73.776482
404.124684	70.591937
404.559123	66.860411
404.993549	63.676672
405.427963	60.123117
405.862365	56.847105
406.296754	53.711811
406.731131	50.666637
407.165496	47.695942
407.599849	45.367902
408.034190	43.214555
408.468518	41.062708
408.902833	39.070837
409.337137	37.402326
409.771428	35.880961
410.205706	34.275339
410.639973	32.923337
411.074226	31.809548
411.508467	30.740320
411.942696	29.781175
412.376912	29.013328
412.811116	28.406712
413.245307	27.810561
413.679486	27.381482
414.113652	26.920311
414.547805	26.505452
414.981946	26.159788
415.416074	25.875864
415.850190	25.573825
416.284293	25.385680
416.718383	25.173809
417.152460	24.986562
417.586525	24.891031
418.020577	24.837672
418.454616	24.835369
418.888643	24.839832
419.322656	24.875788
419.756657	24.928200
420.190645	25.051060
420.624620	25.152057
421.058582	25.232019
421.492531	25.339409
421.926468	25.469937
422.360391	25.659707
422.794301	25.800126
423.228199	25.968969
423.662083	26.195157
424.095955	26.420614
424.529813	26.639063
424.963658	26.837036
425.397491	27.077430
425.831310	27.290068
426.265116	27.513153
426.698909	27.755596
427.132689	27.981259
427.566455	28.252024
428.000209	28.526114
428.433949	28.810406
428.867676	29.091962
429.301389	29.380252
429.735090	29.629240
430.168777	29.905906
430.602451	30.199545
431.036111	30.432772
431.469759	30.706712
431.903392	30.928322
432.337013	31.164941
432.770620	31.396209
433.204213	31.644688
433.637794	31.866213
434.071360	32.117303
434.504914	32.341186
434.938453	32.601730
435.371979	32.850806
435.805492	33.092155
436.238991	33.341721
436.672477	33.567406
437.105949	33.795476
437.539407	34.005656
437.972852	34.181182
438.406283	34.416652
438.839700	34.621325
439.273104	34.827167
439.706494	34.986555
440.139871	35.172047
440.573233	35.357739
441.006582	35.518042
441.439917	35.658441
441.873238	35.803752
442.306546	35.954714
442.739839	36.092599
443.173119	36.227376
443.606385	36.383234
444.039636	36.490352
444.472874	36.660108
444.906099	36.781280
445.339309	36.949024
445.772505	37.113525
446.205687	37.258004
446.638855	37.401512
447.072009	37.532958
447.505149	37.648148
447.938275	37.779701
448.371387	37.868772
448.804485	37.971933
449.237569	38.059244
449.670638	38.139459
450.103694	38.231123
450.536735	38.317083
450.969762	38.388472
451.402774	38.457090
451.835773	38.520943
452.268757	38.601661
452.701727	38.649933
453.134683	38.726799
453.567624	38.776855
454.000551	38.840463
454.433464	38.916483
454.866362	38.979749
455.299246	39.053803
455.732116	39.125867
456.164971	39.176993
456.597811	39.266770
457.030638	39.307470
457.463449	39.372454
457.896246	39.418717
458.329029	39.482607
458.761797	39.529936
459.194551	39.542013
459.627290	39.572480
460.060014	39.570862
460.492724	39.580084
460.925419	39.554713
461.358099	39.537383
461.790765	39.504755
462.223416	39.479094
462.656052	39.438550
463.088674	39.400912
463.521281	39.353686
463.953873	39.289215
464.386450	39.237586
464.819012	39.208182
465.251560	39.154780
465.684093	39.084931
466.116611	39.026065
466.549114	38.964512
466.981602	38.924195
467.414075	38.852613
467.846533	38.757406
468.278977	38.667095
468.711405	38.555454
469.143818	38.431984
469.576216	38.320393
470.008600	38.175280
470.440968	38.019595
470.873321	37.854643
471.305659	37.672852
471.737982	37.496716
472.170289	37.291663
472.602582	37.104527
473.034859	36.901783
473.467122	36.710957
473.899369	36.486939
474.331600	36.255067
474.763817	36.029687
475.196018	35.791884
475.628204	35.554268
476.060375	35.312376
476.492530	35.073151
476.924670	34.829401
477.356795	34.588846
477.788904	34.358745
478.220998	34.127790
478.653076	33.904066
479.085139	33.685640
479.517186	33.461867
479.949219	33.234640
480.381235	33.002427
480.813236	32.771743
481.245221	32.546496
481.677191	32.352391
482.109146	32.143748
482.541084	31.927663
482.973008	31.712896
483.404915	31.508377
483.836807	31.314721
484.268683	31.115042
484.700544	30.923620
485.132388	30.733022
485.564217	30.554188
485.996031	30.391233
486.427828	30.238733
486.859610	30.111389
487.291376	30.021485
487.723126	29.978384
488.154860	29.948159
488.586579	29.955578
489.018281	29.981505
489.449968	30.027449
489.881639	30.091864
490.313293	30.171114
490.744932	30.265910
491.176555	30.346034
491.608162	30.446766
492.039753	30.543985
492.471328	30.649552
492.902886	30.779248
493.334429	30.931531
493.765956	31.087440
494.197466	31.272336
494.628960	31.456531
495.060439	31.642323
495.491901	31.841739
495.923347	32.065059
496.354776	32.295280
496.786190	32.522771
497.217587	32.743810
497.648968	32.993774
498.080332	33.230636
498.511681	33.475084
498.943013	33.726716
499.374328	33.973634
499.805628	34.226562
500.236911	34.457393
500.668177	34.674421
501.099427	34.873837
501.530661	35.047856
501.961878	35.204574
502.393079	35.350800
502.824264	35.479662
503.255431	35.589422
503.686583	35.682293
504.117717	35.774895
504.548835	35.876203
504.979937	35.956376
505.411022	36.035427
505.842090	36.106626
506.273142	36.157845
506.704177	36.199388
507.135195	36.228152
507.566197	36.226746
507.997182	36.213539
508.428150	36.174736
508.859102	36.114200
509.290036	36.048030
509.720954	35.969411
510.151855	35.880597
510.582739	35.800293
511.013607	35.697623
511.444457	35.604101
511.875291	35.511914
512.306107	35.423307
512.736907	35.341856
513.167690	35.260064
513.598456	35.184789
514.029205	35.122262
514.459936	35.064313
514.890651	35.005613
515.321349	34.956969
515.752030	34.919381
516.182693	34.890412
516.613340	34.869893
517.043969	34.879513
517.474582	34.909655
517.905177	34.940604
518.335755	34.985944
518.766315	35.063506
519.196859	35.154394
519.627385	35.271761
520.057894	35.416408
520.488386	35.578130
520.918860	35.768471
521.349318	36.002171
521.779757	36.269025
522.210180	36.584034
522.640585	36.902412
523.070973	37.256774
523.501343	37.640460
523.931696	38.044311
524.362031	38.479951
524.792349	38.941758
525.222650	39.421515
525.652933	39.922515
526.083198	40.442901
526.513446	40.980304
526.943677	41.530708
527.373890	42.111099
527.804085	42.714239
528.234262	43.347783
528.664422	44.012837
529.094565	44.704272
529.524689	45.432745
529.954796	46.174852
530.384885	46.926200
530.814957	47.697734
531.245011	48.518834
531.675047	49.362470
532.105065	50.224021
532.535065	51.112493
532.965048	52.029690
533.395013	52.942641
533.824959	53.877479
534.254888	54.831699
534.684799	55.802880
535.114693	56.772577
535.544568	57.724246
535.974425	58.689546
536.404264	59.628147
536.834086	60.558290
537.263889	61.482036
537.693674	62.393855
538.123441	63.293109
538.553190	64.168288
538.982921	65.036212
539.412634	65.882233
539.842329	66.739660
540.272006	67.584809
540.701664	68.395764
541.131304	69.209113
541.560926	70.002815
541.990530	70.771439
542.420116	71.502539
542.849683	72.200658
543.279232	72.913539
543.708763	73.587936
544.138275	74.240861
544.567769	74.828306
544.997245	75.409385
545.426702	75.958208
545.856141	76.496594
546.285562	77.017958
546.714964	77.510649
547.144347	77.991614
547.573713	78.459859
548.003059	78.903551
548.432387	79.353629
548.861697	79.808781
549.290988	80.264451
549.720260	80.709805
550.149514	81.155549
550.578750	81.587686
551.007966	82.020101
551.437164	82.449970
551.866344	82.890511
552.295504	83.319286
552.724646	83.757586
553.153769	84.186082
553.582874	84.619903
554.011960	85.043629
554.441027	85.459112
554.870075	85.860992
555.299104	86.243611
555.728115	86.598626
556.157106	86.972372
556.586079	87.299098
557.015033	87.624873
557.443968	87.935177
557.872884	88.243019
558.301781	88.523963
558.730659	88.810164
559.159518	89.062824
559.588358	89.305713
560.017180	89.564622
560.445982	89.791069
560.874765	90.026811
561.303528	90.250080
561.732273	90.462166
562.160999	90.655828
562.589705	90.839951
563.018393	91.032898
563.447061	91.212284
563.875710	91.395290
564.304340	91.570811
564.732950	91.737194
565.161542	91.905920
565.590114	92.049966
566.018666	92.210192
566.447200	92.358572
566.875714	92.498471
567.304208	92.663325
567.732684	92.798827
568.161140	92.950850
568.589576	93.103163
569.017993	93.278222
569.446391	93.427369
569.874769	93.585164
570.303128	93.734240
570.731467	93.871619
571.159787	94.007587
571.588087	94.144993
572.016368	94.260822
572.444629	94.390815
572.872870	94.507339
573.301092	94.601754
573.729294	94.707537
574.157476	94.798952
574.585639	94.885198
575.013782	94.964656
575.441906	95.048658
575.870009	95.116337
576.298093	95.180145
576.726157	95.250306
577.154202	95.310924
577.582226	95.387595
578.010231	95.440867
578.438216	95.490571
578.866181	95.551702
579.294126	95.607089
579.722051	95.672984
580.149957	95.754736
580.577842	95.808209
581.005707	95.880495
581.433553	95.951374
581.861378	96.027725
582.289184	96.090745
582.716969	96.158920
583.144734	96.217366
583.572479	96.292926
584.000205	96.374700
584.427910	96.449529
584.855594	96.507496
585.283259	96.575349
585.710904	96.634702
586.138528	96.687379
586.566132	96.734891
586.993716	96.786422
587.421280	96.821523
587.848823	96.868247
588.276346	96.901194
588.703849	96.914678
589.131332	96.930271
589.558794	96.931643
589.986236	96.903454
590.413657	96.890586
590.841058	96.847692
591.268438	96.817142
591.695799	96.768375
592.123138	96.712975
592.550458	96.663636
592.977756	96.576375
593.405034	96.488221
593.832292	96.413303
594.259529	96.323713
594.686746	96.233471
595.113942	96.132272
595.541117	96.039484
595.968272	95.938066
596.395406	95.850437
596.822519	95.748223
597.249612	95.664445
597.676684	95.597634
598.103735	95.534825
598.530766	95.480010
598.957775	95.427722
599.384764	95.383112
599.811733	95.356658
600.238680	95.338049
600.665606	95.321426
601.092512	95.298386
601.519397	95.287726
601.946261	95.287779
602.373104	95.277824
602.799926	95.286238
603.226727	95.304493
603.653507	95.306073
604.080266	95.312542
604.507004	95.327571
604.933721	95.321752
605.360417	95.337407
605.787092	95.324338
606.213746	95.321886
606.640379	95.291764
607.066991	95.235848
607.493581	95.178511
607.920150	95.100760
608.346699	95.029854
608.773226	94.928965
609.199731	94.820195
609.626216	94.681712
610.052679	94.538735
610.479121	94.363689
610.905542	94.167935
611.331941	93.974467
611.758319	93.747709
612.184676	93.522362
612.611011	93.276004
613.037325	93.013265
613.463617	92.723130
613.889888	92.433052
614.316138	92.126145
614.742366	91.808942
615.168573	91.473741
615.594758	91.139847
616.020921	90.792971
616.447063	90.454507
616.873184	90.110373
617.299283	89.759246
617.725360	89.404719
618.151416	89.072441
618.577450	88.708576
619.003462	88.344264
619.429453	88.000743
619.855422	87.662137
620.281369	87.328385
620.707295	87.006060
621.133199	86.683025
621.559081	86.347643
621.984941	86.033120
622.410779	85.708554
622.836596	85.395913
623.262391	85.087140
623.688163	84.767067
624.113914	84.447379
624.539644	84.114797
624.965351	83.777879
625.391036	83.425696
625.816699	83.064560
626.242340	82.688057
626.667960	82.277611
627.093557	81.851079
627.519132	81.422097
627.944685	80.949927
628.370216	80.467335
628.795725	79.965183
629.221212	79.423706
629.646677	78.853629
630.072119	78.265468
630.497540	77.645446
630.922938	76.997208
631.348314	76.319925
631.773668	75.627533
632.198999	74.899089
632.624308	74.139929
633.049595	73.361839
633.474860	72.565692
633.900102	71.742719
634.325322	70.899742
634.750520	70.042091
635.175695	69.156726
635.600848	68.261413
636.025978	67.357476
636.451086	66.421774
636.876171	65.477159
637.301234	64.501532
637.726275	63.519597
638.151293	62.522024
638.576288	61.492135
639.001261	60.458073
639.426211	59.405801
639.851139	58.343261
640.276044	57.260026
640.700927	56.162875
641.125787	55.056361
641.550624	53.947613
641.975438	52.818848
642.400230	51.697817
642.824999	50.564623
643.249745	49.428071
643.674469	48.310207
644.099169	47.194918
644.523847	46.085040
644.948502	44.992007
645.373135	43.924173
645.797744	42.875255
646.222330	41.844848
646.646894	40.846300
647.071435	39.873512
647.495953	38.934023
647.920447	38.026928
648.344919	37.154403
648.769368	36.319615
649.193794	35.511088
649.618197	34.743404
650.042576	34.017658
650.466933	33.342256
650.891267	32.698217
651.315577	32.093483
651.739864	31.530875
652.164129	30.996865
652.588370	30.504784
653.012587	30.049230
653.436782	29.622725
653.860953	29.232143
654.285102	28.885542
654.709226	28.558829
655.133328	28.272536
655.557406	28.025078
655.981461	27.821690
656.405493	27.654150
656.829501	27.523764
657.253486	27.437520
657.677448	27.399198
658.101386	27.405388
658.525301	27.458101
658.949192	27.552576
659.373060	27.689195
659.796904	27.868454
660.220725	28.085955
660.644522	28.335315
661.068296	28.626152
661.492046	28.950199
661.915772	29.302275
662.339475	29.685400
662.763154	30.110706
663.186810	30.554440
663.610442	31.025226
664.034050	31.527631
664.457635	32.053076
664.881196	32.615744
665.304733	33.206621
665.728247	33.820318
666.151736	34.464018
666.575202	35.132311
666.998644	35.824158
667.422062	36.538533
667.845457	37.281063
668.268827	38.045946
668.692174	38.825672
669.115496	39.621758
669.538795	40.436452
669.962070	41.258555
670.385321	42.093876
670.808547	42.929940
671.231750	43.768928
671.654929	44.592666
672.078084	45.410712
672.501214	46.233640
672.924321	47.039713
673.347404	47.837188
673.770462	48.625813
674.193496	49.391842
674.616506	50.130975
675.039492	50.855247
675.462454	51.551635
675.885391	52.211443
676.308305	52.842881
676.731194	53.454160
677.154058	54.041193
677.576899	54.587049
677.999715	55.110105
678.422507	55.608309
678.845274	56.070632
679.268017	56.513686
679.690736	56.934242
680.113430	57.327101
680.536100	57.710240
680.958746	58.072918
681.381367	58.421778
681.803963	58.758086
682.226535	59.080921
682.649083	59.395485
683.071605	59.714732
683.494104	60.020415
683.916578	60.319769
684.339027	60.613484
684.761451	60.903232
685.183851	61.191233
685.606227	61.486690
686.028577	61.771399
686.450903	62.059785
686.873204	62.357743
687.295481	62.652360
687.717733	62.962037
688.139959	63.260585
688.562162	63.566675
688.984339	63.886936
689.406492	64.215648
689.828619	64.543706
690.250722	64.875019
690.672800	65.240871
691.094853	65.596837
691.516881	65.954686
691.938884	66.321440
692.360863	66.681800
692.782816	67.056570
693.204744	67.427978
693.626647	67.781663
694.048526	68.136360
694.470379	68.483825
694.892207	68.824186
695.314010	69.153680
695.735788	69.480770
696.157540	69.787002
696.579268	70.090202
697.000970	70.383413
697.422648	70.658163
697.844300	70.929957
698.265926	71.186018
698.687528	71.410172
699.109104	71.635854
699.530655	71.824036
699.952181	71.984010
700.373681	72.131037
700.795156	72.260943
701.216606	72.381588
701.638030	72.484276
702.059429	72.563965
702.480803	72.622264
702.902151	72.659623
703.323473	72.675412
703.744770	72.659316
704.166042	72.630717
704.587288	72.592836
705.008509	72.544517
705.429704	72.466982
705.850873	72.364621
706.272017	72.246281
706.693135	72.121619
707.114228	71.981665
707.535295	71.841090
707.956336	71.681494
708.377352	71.509433
708.798342	71.318992
709.219306	71.130699
709.640245	70.937166
710.061157	70.739218
710.482044	70.537307
710.902905	70.327656
711.323741	70.125154
711.744550	69.935445
712.165334	69.744028
712.586092	69.577050
713.006823	69.414740
713.427529	69.259779
713.848209	69.109969
714.268863	68.965878
714.689492	68.831706
715.110094	68.700898
715.530670	68.586690
715.951220	68.468288
716.371744	68.349966
716.792242	68.247548
717.212714	68.142731
717.633159	68.028866
718.053579	67.931068
718.473973	67.842395
718.894340	67.763384
719.314681	67.683922
719.734996	67.612456
720.155285	67.536770
720.575547	67.461618
720.995784	67.391853
721.415994	67.338152
721.836177	67.303604
722.256335	67.276777
722.676466	67.247263
723.096570	67.236241
723.516649	67.236707
723.936701	67.253931
724.356726	67.273863
724.776725	67.303601
725.196698	67.353575
725.616644	67.418207
726.036564	67.501002
726.456457	67.591254
726.876324	67.702156
727.296164	67.830656
727.715977	67.975442
728.135764	68.130640
728.555525	68.304943
728.975258	68.502992
729.394966	68.713397
729.814646	68.931305
730.234300	69.164149
730.653927	69.409432
731.073527	69.657740
731.493101	69.930328
731.912648	70.203545
732.332168	70.497066
732.751661	70.791207
733.171128	71.101752
733.590568	71.410969
734.009980	71.737000
734.429366	72.068672
734.848726	72.393414
735.268058	72.719303
735.687363	73.073518
736.106641	73.422972
736.525893	73.781904
736.945117	74.139457
737.364314	74.507572
737.783485	74.889019
738.202628	75.277370
738.621744	75.669926
739.040834	76.077488
739.459896	76.490853
739.878931	76.901356
740.297939	77.322079
740.716919	77.746165
741.135873	78.177568
741.554799	78.608824
741.973698	79.042483
742.392570	79.496884
742.811415	79.963759
743.230232	80.422379
743.649022	80.901891
744.067785	81.367007
744.486521	81.824077
744.905229	82.294178
745.323909	82.755820
745.742563	83.231221
746.161189	83.715829
746.579787	84.205536
746.998358	84.691968
747.416902	85.184507
747.835418	85.669106
748.253907	86.171056
748.672368	86.660896
749.090802	87.169642
749.509208	87.674150
749.927586	88.183643
750.345937	88.690636
750.764261	89.203770
751.182556	89.700520
751.600824	90.199938
752.019065	90.683755
752.437277	91.170137
