Time1=100ms:Average1=5:Objective=10X:Aperture=1: (11/21/2018 12:06:31 PM)
11/21/2018 12:06:31 PM
Reflectance
10X
Ap#: 1
Avg1: 5.000000
Avg2: 0.000000
Int.Time1:100.000000

350.166136	96.222779
350.601937	96.555843
351.037728	97.346212
351.473509	97.078743
351.909281	96.862626
352.345042	97.233565
352.780794	97.514829
353.216536	97.692700
353.652267	97.841432
354.087989	97.588638
354.523701	97.611758
354.959403	97.953782
355.395095	98.631676
355.830777	98.919580
356.266449	99.142420
356.702110	99.006790
357.137762	99.144516
357.573404	99.036589
358.009035	98.904474
358.444656	99.691865
358.880268	100.174897
359.315869	100.370943
359.751459	100.410804
360.187040	100.422245
360.622610	100.422986
361.058170	100.298938
361.493720	100.867321
361.929260	100.919611
362.364789	100.226198
362.800308	100.195152
363.235816	100.401689
363.671314	100.533552
364.106802	100.287445
364.542279	100.010249
364.977746	100.598061
365.413203	101.054373
365.848649	100.661089
366.284084	100.676160
366.719509	100.871616
367.154924	101.355375
367.590328	101.903982
368.025721	102.190827
368.461104	101.896852
368.896477	101.474503
369.331838	101.167076
369.767189	100.162288
370.202530	100.622894
370.637859	100.141529
371.073178	100.405145
371.508486	100.638816
371.943784	99.918790
372.379071	99.908759
372.814347	100.589851
373.249612	100.803989
373.684866	100.383800
374.120110	100.424972
374.555343	100.070814
374.990565	99.466425
375.425776	99.446736
375.860976	99.969770
376.296165	99.294994
376.731343	99.378695
377.166511	99.226131
377.601667	99.549595
378.036812	99.568793
378.471946	99.310620
378.907070	99.830508
379.342182	100.248806
379.777283	99.920390
380.212373	99.205640
380.647452	98.813291
381.082520	97.984986
381.517576	97.839811
381.952622	98.182360
382.387656	98.653098
382.822679	98.764079
383.257691	99.809829
383.692692	99.661220
384.127681	99.709739
384.562659	99.503377
384.997626	99.444665
385.432581	99.300079
385.867525	99.025878
386.302458	98.315542
386.737379	98.226881
387.172289	98.218830
387.607188	97.921523
388.042075	98.239300
388.476951	98.326034
388.911815	98.404980
389.346668	98.150492
389.781509	98.387885
390.216338	98.170791
390.651157	98.018352
391.085963	98.352295
391.520758	97.974163
391.955541	97.999804
392.390313	96.838214
392.825073	96.673152
393.259821	97.044721
393.694558	97.708497
394.129283	97.575521
394.563996	98.203416
394.998698	98.292707
395.433388	98.151961
395.868066	97.754943
396.302732	97.839235
396.737386	97.708475
397.172029	97.287198
397.606659	97.334559
398.041278	96.718705
398.475885	96.233368
398.910480	96.000763
399.345063	95.290728
399.779634	94.491506
400.214194	92.796981
400.648741	91.256409
401.083276	89.663750
401.517799	87.643839
401.952310	85.248233
402.386809	82.534426
402.821296	79.409828
403.255771	76.646574
403.690234	73.260022
404.124684	69.614760
404.559123	65.483480
404.993549	62.028529
405.427963	58.333560
405.862365	54.908934
406.296754	51.650614
406.731131	48.547016
407.165496	45.502861
407.599849	42.771506
408.034190	40.072285
408.468518	37.608502
408.902833	35.223122
409.337137	33.159691
409.771428	31.216630
410.205706	29.359173
410.639973	27.798389
411.074226	26.395333
411.508467	25.064825
411.942696	23.886993
412.376912	22.878065
412.811116	22.015202
413.245307	21.211753
413.679486	20.553683
414.113652	19.886294
414.547805	19.208394
414.981946	18.580966
415.416074	17.987882
415.850190	17.494638
416.284293	17.063176
416.718383	16.608563
417.152460	16.209783
417.586525	15.905342
418.020577	15.670260
418.454616	15.383172
418.888643	15.155727
419.322656	14.949918
419.756657	14.674009
420.190645	14.469127
420.624620	14.251878
421.058582	14.029263
421.492531	13.881496
421.926468	13.722815
422.360391	13.623152
422.794301	13.525133
423.228199	13.465347
423.662083	13.423195
424.095955	13.395309
424.529813	13.388351
424.963658	13.374132
425.397491	13.360055
425.831310	13.334399
426.265116	13.294462
426.698909	13.240699
427.132689	13.193348
427.566455	13.174995
428.000209	13.180546
428.433949	13.220631
428.867676	13.280775
429.301389	13.323894
429.735090	13.336383
430.168777	13.350119
430.602451	13.370101
431.036111	13.350868
431.469759	13.317199
431.903392	13.294293
432.337013	13.275078
432.770620	13.254607
433.204213	13.276298
433.637794	13.294155
434.071360	13.339521
434.504914	13.398436
434.938453	13.474377
435.371979	13.548958
435.805492	13.632299
436.238991	13.716275
436.672477	13.786273
437.105949	13.836041
437.539407	13.863531
437.972852	13.867836
438.406283	13.895863
438.839700	13.911970
439.273104	13.952324
439.706494	14.009363
440.139871	14.097504
440.573233	14.181815
441.006582	14.239846
441.439917	14.293298
441.873238	14.325124
442.306546	14.349189
442.739839	14.356995
443.173119	14.373850
443.606385	14.393417
444.039636	14.392511
444.472874	14.414784
444.906099	14.447709
445.339309	14.498952
445.772505	14.557658
446.205687	14.633086
446.638855	14.706822
447.072009	14.787352
447.505149	14.883810
447.938275	14.971477
448.371387	15.064728
448.804485	15.150707
449.237569	15.209499
449.670638	15.258053
450.103694	15.305231
450.536735	15.324169
450.969762	15.375036
451.402774	15.423706
451.835773	15.501057
452.268757	15.590552
452.701727	15.647598
453.134683	15.745801
453.567624	15.816551
454.000551	15.892013
454.433464	15.975249
454.866362	16.047000
455.299246	16.110104
455.732116	16.141498
456.164971	16.180623
456.597811	16.228703
457.030638	16.278285
457.463449	16.321283
457.896246	16.386943
458.329029	16.455761
458.761797	16.532387
459.194551	16.602017
459.627290	16.664907
460.060014	16.740017
460.492724	16.811682
460.925419	16.869544
461.358099	16.950083
461.790765	17.016647
462.223416	17.076043
462.656052	17.137196
463.088674	17.197479
463.521281	17.232015
463.953873	17.286552
464.386450	17.314359
464.819012	17.354714
465.251560	17.385067
465.684093	17.436405
466.116611	17.505613
466.549114	17.566067
466.981602	17.642213
467.414075	17.709323
467.846533	17.770794
468.278977	17.827435
468.711405	17.881520
469.143818	17.942232
469.576216	17.976675
470.008600	17.995424
470.440968	18.001984
470.873321	18.009954
471.305659	17.998347
471.737982	17.978280
472.170289	17.950024
472.602582	17.911380
473.034859	17.896527
473.467122	17.877805
473.899369	17.853060
474.331600	17.835276
474.763817	17.816005
475.196018	17.800687
475.628204	17.795289
476.060375	17.800249
476.492530	17.807913
476.924670	17.818439
477.356795	17.825500
477.788904	17.839832
478.220998	17.837136
478.653076	17.825610
479.085139	17.794636
479.517186	17.767739
479.949219	17.728934
480.381235	17.706142
480.813236	17.693849
481.245221	17.712104
481.677191	17.747456
482.109146	17.795794
482.541084	17.861869
482.973008	17.938900
483.404915	18.015445
483.836807	18.087391
484.268683	18.161005
484.700544	18.222816
485.132388	18.281694
485.564217	18.332468
485.996031	18.394614
486.427828	18.441606
486.859610	18.506055
487.291376	18.586310
487.723126	18.682652
488.154860	18.799452
488.586579	18.931668
489.018281	19.099506
489.449968	19.298749
489.881639	19.518222
490.313293	19.787785
490.744932	20.081205
491.176555	20.382690
491.608162	20.712745
492.039753	21.036966
492.471328	21.370873
492.902886	21.695788
493.334429	22.009056
493.765956	22.304615
494.197466	22.620739
494.628960	22.920932
495.060439	23.232286
495.491901	23.564418
495.923347	23.927273
496.354776	24.311027
496.786190	24.734719
497.217587	25.180377
497.648968	25.645285
498.080332	26.106280
498.511681	26.586273
498.943013	27.048480
499.374328	27.498850
499.805628	27.929048
500.236911	28.330324
500.668177	28.702334
501.099427	29.042393
501.530661	29.350879
501.961878	29.640433
502.393079	29.888832
502.824264	30.128992
503.255431	30.355042
503.686583	30.567102
504.117717	30.794495
504.548835	31.052950
504.979937	31.325525
505.411022	31.632901
505.842090	31.942594
506.273142	32.293827
506.704177	32.673774
507.135195	33.052312
507.566197	33.401659
507.997182	33.735761
508.428150	34.030123
508.859102	34.288402
509.290036	34.485289
509.720954	34.664549
510.151855	34.789584
510.582739	34.905887
511.013607	35.014405
511.444457	35.132845
511.875291	35.245498
512.306107	35.404907
512.736907	35.594858
513.167690	35.829674
513.598456	36.084071
514.029205	36.374692
514.459936	36.686527
514.890651	36.988288
515.321349	37.272709
515.752030	37.540197
516.182693	37.771832
516.613340	37.974441
517.043969	38.137419
517.474582	38.250354
517.905177	38.318522
518.335755	38.349308
518.766315	38.342191
519.196859	38.323996
519.627385	38.279594
520.057894	38.228808
520.488386	38.186378
520.918860	38.157512
521.349318	38.172262
521.779757	38.230262
522.210180	38.340856
522.640585	38.503154
523.070973	38.712522
523.501343	38.974973
523.931696	39.267285
524.362031	39.593125
524.792349	39.928088
525.222650	40.274244
525.652933	40.605217
526.083198	40.908497
526.513446	41.161551
526.943677	41.398530
527.373890	41.604207
527.804085	41.793799
528.234262	41.991947
528.664422	42.216331
529.094565	42.484514
529.524689	42.787719
529.954796	43.139292
530.384885	43.553224
530.814957	44.033811
531.245011	44.563631
531.675047	45.136663
532.105065	45.745651
532.535065	46.385573
532.965048	47.023910
533.395013	47.626360
533.824959	48.221747
534.254888	48.789669
534.684799	49.298407
535.114693	49.772254
535.544568	50.189931
535.974425	50.548572
536.404264	50.850228
536.834086	51.118196
537.263889	51.356143
537.693674	51.559715
538.123441	51.767873
538.553190	51.969671
538.982921	52.186974
539.412634	52.428683
539.842329	52.740304
540.272006	53.077063
540.701664	53.454048
541.131304	53.880478
541.560926	54.320932
541.990530	54.804769
542.420116	55.293130
542.849683	55.776724
543.279232	56.254957
543.708763	56.701978
544.138275	57.107610
544.567769	57.458162
544.997245	57.771076
545.426702	58.028506
545.856141	58.235395
546.285562	58.414415
546.714964	58.583352
547.144347	58.736162
547.573713	58.915314
548.003059	59.110335
548.432387	59.338363
548.861697	59.627639
549.290988	59.984198
549.720260	60.403231
550.149514	60.875851
550.578750	61.401043
551.007966	61.974023
551.437164	62.602044
551.866344	63.241442
552.295504	63.887806
552.724646	64.525048
553.153769	65.115388
553.582874	65.658460
554.011960	66.143413
554.441027	66.547236
554.870075	66.888825
555.299104	67.134448
555.728115	67.293599
556.157106	67.412352
556.586079	67.468568
557.015033	67.471453
557.443968	67.440213
557.872884	67.414992
558.301781	67.385565
558.730659	67.407187
559.159518	67.430747
559.588358	67.505252
560.017180	67.630485
560.445982	67.798728
560.874765	67.999920
561.303528	68.243843
561.732273	68.525897
562.160999	68.810006
562.589705	69.128597
563.018393	69.452006
563.447061	69.771511
563.875710	70.089478
564.304340	70.395587
564.732950	70.667348
565.161542	70.925255
565.590114	71.150247
566.018666	71.360995
566.447200	71.548009
566.875714	71.731730
567.304208	71.906554
567.732684	72.090202
568.161140	72.286760
568.589576	72.511658
569.017993	72.778071
569.446391	73.053189
569.874769	73.383584
570.303128	73.774972
570.731467	74.224093
571.159787	74.722312
571.588087	75.278934
572.016368	75.858077
572.444629	76.485941
572.872870	77.128177
573.301092	77.767899
573.729294	78.393941
574.157476	78.977967
574.585639	79.512217
575.013782	79.956711
575.441906	80.318139
575.870009	80.575617
576.298093	80.733678
576.726157	80.802795
577.154202	80.779334
577.582226	80.707118
578.010231	80.558667
578.438216	80.382540
578.866181	80.187111
579.294126	80.006017
579.722051	79.844868
580.149957	79.720118
580.577842	79.634435
581.005707	79.580613
581.433553	79.572534
581.861378	79.607053
582.289184	79.666551
582.716969	79.776174
583.144734	79.896368
583.572479	80.036876
584.000205	80.195276
584.427910	80.367345
584.855594	80.539310
585.283259	80.713040
585.710904	80.899800
586.138528	81.101252
586.566132	81.291044
586.993716	81.493283
587.421280	81.707693
587.848823	81.918488
588.276346	82.138344
588.703849	82.356701
589.131332	82.565122
589.558794	82.780434
589.986236	82.982826
590.413657	83.191575
590.841058	83.385404
591.268438	83.586403
591.695799	83.784288
592.123138	84.000891
592.550458	84.231245
592.977756	84.489345
593.405034	84.773229
593.832292	85.092957
594.259529	85.444204
594.686746	85.827079
595.113942	86.219659
595.541117	86.630484
595.968272	87.041573
596.395406	87.449560
596.822519	87.827866
597.249612	88.178971
597.676684	88.465063
598.103735	88.679277
598.530766	88.841759
598.957775	88.914605
599.384764	88.893234
599.811733	88.828774
600.238680	88.701530
600.665606	88.509393
601.092512	88.301773
601.519397	88.090252
601.946261	87.876504
602.373104	87.667218
602.799926	87.477632
603.226727	87.332811
603.653507	87.213219
604.080266	87.113407
604.507004	87.063833
604.933721	87.021334
605.360417	87.007378
605.787092	86.977271
606.213746	86.934897
606.640379	86.881303
607.066991	86.810719
607.493581	86.722441
607.920150	86.616782
608.346699	86.506896
608.773226	86.394072
609.199731	86.285854
609.626216	86.183472
610.052679	86.092240
610.479121	86.023049
610.905542	85.977604
611.331941	85.979513
611.758319	85.983515
612.184676	86.026619
612.611011	86.085692
613.037325	86.148740
613.463617	86.210673
613.889888	86.288348
614.316138	86.351651
614.742366	86.398513
615.168573	86.439719
615.594758	86.477692
616.020921	86.509593
616.447063	86.522720
616.873184	86.533757
617.299283	86.547988
617.725360	86.584593
618.151416	86.665773
618.577450	86.745932
619.003462	86.867022
619.429453	87.041722
619.855422	87.234929
620.281369	87.460207
620.707295	87.707610
621.133199	87.949496
621.559081	88.186097
621.984941	88.411220
622.410779	88.587705
622.836596	88.728539
623.262391	88.832665
623.688163	88.859020
624.113914	88.835910
624.539644	88.735574
624.965351	88.583046
625.391036	88.368352
625.816699	88.115928
626.242340	87.833928
626.667960	87.512650
627.093557	87.178516
627.519132	86.849564
627.944685	86.507542
628.370216	86.171589
628.795725	85.841809
629.221212	85.492379
629.646677	85.158614
630.072119	84.818464
630.497540	84.472720
630.922938	84.078871
631.348314	83.658602
631.773668	83.217869
632.198999	82.749563
632.624308	82.236676
633.049595	81.704033
633.474860	81.143254
633.900102	80.574922
634.325322	80.000246
634.750520	79.452504
635.175695	78.916944
635.600848	78.439999
636.025978	78.002040
636.451086	77.618321
636.876171	77.319995
637.301234	77.068980
637.726275	76.907090
638.151293	76.810178
638.576288	76.780348
639.001261	76.817775
639.426211	76.906940
639.851139	77.038811
640.276044	77.183814
640.700927	77.344184
641.125787	77.508566
641.550624	77.678521
641.975438	77.822285
642.400230	77.965563
642.824999	78.075110
643.249745	78.162317
643.674469	78.231028
644.099169	78.293402
644.523847	78.344211
644.948502	78.403022
645.373135	78.435049
645.797744	78.473141
646.222330	78.502733
646.646894	78.544820
647.071435	78.586954
647.495953	78.649964
647.920447	78.691634
648.344919	78.744996
648.769368	78.773936
649.193794	78.791736
649.618197	78.801919
650.042576	78.769060
650.466933	78.741602
650.891267	78.666099
651.315577	78.567136
651.739864	78.441845
652.164129	78.281867
652.588370	78.095416
653.012587	77.898703
653.436782	77.698337
653.860953	77.485677
654.285102	77.264527
654.709226	77.037585
655.133328	76.835614
655.557406	76.630324
655.981461	76.440851
656.405493	76.267550
656.829501	76.112366
657.253486	75.958867
657.677448	75.801152
658.101386	75.634773
658.525301	75.475986
658.949192	75.312862
659.373060	75.140178
659.796904	74.957589
660.220725	74.757221
660.644522	74.521237
661.068296	74.283322
661.492046	74.030095
661.915772	73.773663
662.339475	73.526725
662.763154	73.285803
663.186810	73.059532
663.610442	72.841544
664.034050	72.649013
664.457635	72.503000
664.881196	72.410942
665.304733	72.368029
665.728247	72.375795
666.151736	72.434462
666.575202	72.542898
666.998644	72.707772
667.422062	72.942434
667.845457	73.209508
668.268827	73.507785
668.692174	73.851825
669.115496	74.206147
669.538795	74.572147
669.962070	74.927100
670.385321	75.277997
670.808547	75.615248
671.231750	75.941621
671.654929	76.242120
672.078084	76.504565
672.501214	76.751294
672.924321	76.940067
673.347404	77.107569
673.770462	77.271585
674.193496	77.405126
674.616506	77.516222
675.039492	77.621627
675.462454	77.713565
675.885391	77.786984
676.308305	77.868091
676.731194	77.960467
677.154058	78.068605
677.576899	78.170386
677.999715	78.282092
678.422507	78.411728
678.845274	78.540066
679.268017	78.688196
679.690736	78.843324
680.113430	78.988589
680.536100	79.149513
680.958746	79.302846
681.381367	79.462638
681.803963	79.593263
682.226535	79.731770
682.649083	79.862389
683.071605	79.986615
683.494104	80.109701
683.916578	80.226555
684.339027	80.320831
684.761451	80.411807
685.183851	80.490751
685.606227	80.548803
686.028577	80.618136
686.450903	80.658367
686.873204	80.671999
687.295481	80.671662
687.717733	80.637598
688.139959	80.566249
688.562162	80.451844
688.984339	80.298715
689.406492	80.104115
689.828619	79.867005
690.250722	79.585984
690.672800	79.271311
691.094853	78.907482
691.516881	78.492688
691.938884	78.053208
692.360863	77.580700
692.782816	77.097951
693.204744	76.614729
693.626647	76.105586
694.048526	75.632227
694.470379	75.176353
694.892207	74.764663
695.314010	74.404280
695.735788	74.098785
696.157540	73.865352
696.579268	73.703366
697.000970	73.618056
697.422648	73.617623
697.844300	73.690893
698.265926	73.842543
698.687528	74.068554
699.109104	74.353072
699.530655	74.699349
699.952181	75.103691
700.373681	75.540566
700.795156	76.029832
701.216606	76.552048
701.638030	77.090419
702.059429	77.643688
702.480803	78.188598
702.902151	78.697810
703.323473	79.176130
703.744770	79.602841
704.166042	79.989419
704.587288	80.331816
705.008509	80.621363
705.429704	80.854338
705.850873	81.026682
706.272017	81.125527
706.693135	81.184826
707.114228	81.176534
707.535295	81.114964
707.956336	81.011676
708.377352	80.850158
708.798342	80.639173
709.219306	80.389504
709.640245	80.113514
710.061157	79.808231
710.482044	79.472041
710.902905	79.128797
711.323741	78.780921
711.744550	78.444387
712.165334	78.119669
712.586092	77.810941
713.006823	77.515112
713.427529	77.256883
713.848209	77.018279
714.268863	76.806813
714.689492	76.634762
715.110094	76.495899
715.530670	76.410808
715.951220	76.375782
716.371744	76.382789
716.792242	76.457102
717.212714	76.568348
717.633159	76.725600
718.053579	76.937108
718.473973	77.184817
718.894340	77.472118
719.314681	77.792240
719.734996	78.126899
720.155285	78.454452
720.575547	78.771122
720.995784	79.078364
721.415994	79.370760
721.836177	79.640294
722.256335	79.867199
722.676466	80.029240
723.096570	80.144526
723.516649	80.208570
723.936701	80.197892
724.356726	80.109871
724.776725	79.943206
725.196698	79.700924
725.616644	79.391142
726.036564	79.014067
726.456457	78.563350
726.876324	78.066444
727.296164	77.513995
727.715977	76.936307
728.135764	76.322481
728.555525	75.679967
728.975258	75.025107
729.394966	74.373101
729.814646	73.719022
730.234300	73.079401
730.653927	72.455697
731.073527	71.852740
731.493101	71.286492
731.912648	70.754044
732.332168	70.270509
732.751661	69.845947
733.171128	69.482546
733.590568	69.181545
734.009980	68.946214
734.429366	68.764494
734.848726	68.643498
735.268058	68.585751
735.687363	68.598430
736.106641	68.656789
736.525893	68.754697
736.945117	68.903234
737.364314	69.098512
737.783485	69.333680
738.202628	69.602733
738.621744	69.905281
739.040834	70.232870
739.459896	70.573033
739.878931	70.910023
740.297939	71.263936
740.716919	71.601648
741.135873	71.936424
741.554799	72.255877
741.973698	72.571471
742.392570	72.855363
742.811415	73.125480
743.230232	73.364491
743.649022	73.588026
744.067785	73.767894
744.486521	73.922189
744.905229	74.044863
745.323909	74.140047
745.742563	74.189222
746.161189	74.234790
746.579787	74.257034
746.998358	74.249157
747.416902	74.229985
747.835418	74.190055
748.253907	74.142658
748.672368	74.086554
749.090802	74.026704
749.509208	73.985323
749.927586	73.950409
750.345937	73.918482
750.764261	73.900773
751.182556	73.893149
751.600824	73.905533
752.019065	73.928682
752.437277	73.980290
752.855462	74.068109
753.273620	74.166039
