Time1=100ms:Average1=5:Objective=10X:Aperture=1: (11/28/2018 11:17:12 AM)
11/28/2018 11:17:12 AM
Reflectance
10X
Ap#: 1
Avg1: 5.000000
Avg2: 0.000000
Int.Time1:100.000000

350.166136	91.351351
350.601937	91.257244
351.037728	91.962826
351.473509	91.730225
351.909281	91.716997
352.345042	92.034549
352.780794	92.147967
353.216536	92.149991
353.652267	91.706037
354.087989	91.650588
354.523701	92.093473
354.959403	91.905891
355.395095	92.205273
355.830777	92.326012
356.266449	92.700601
356.702110	92.942837
357.137762	93.497302
357.573404	93.215365
358.009035	93.241318
358.444656	93.457110
358.880268	93.623292
359.315869	93.218831
359.751459	92.952092
360.187040	93.100678
360.622610	93.195213
361.058170	93.725946
361.493720	93.596366
361.929260	93.560775
362.364789	93.773450
362.800308	93.671562
363.235816	93.502574
363.671314	93.745558
364.106802	93.640078
364.542279	93.908720
364.977746	93.945850
365.413203	93.798724
365.848649	93.668084
366.284084	93.821915
366.719509	93.712919
367.154924	94.227353
367.590328	94.235723
368.025721	94.000354
368.461104	94.179237
368.896477	93.672785
369.331838	93.372062
369.767189	93.108890
370.202530	93.139402
370.637859	93.015287
371.073178	93.073821
371.508486	92.844053
371.943784	92.413314
372.379071	92.241529
372.814347	92.133658
373.249612	92.701620
373.684866	92.986583
374.120110	93.111246
374.555343	92.995127
374.990565	93.051914
375.425776	93.086873
375.860976	93.250196
376.296165	93.550928
376.731343	93.677205
377.166511	93.095905
377.601667	93.270831
378.036812	92.921280
378.471946	92.889469
378.907070	93.213538
379.342182	93.229031
379.777283	93.513043
380.212373	93.617942
380.647452	93.170437
381.082520	93.270883
381.517576	93.023656
381.952622	93.081761
382.387656	93.250367
382.822679	93.532209
383.257691	93.800329
383.692692	93.929934
384.127681	93.862910
384.562659	94.477573
384.997626	94.536510
385.432581	95.006479
385.867525	95.028862
386.302458	95.386340
386.737379	95.298668
387.172289	95.245845
387.607188	95.088712
388.042075	94.746765
388.476951	95.002563
388.911815	94.672548
389.346668	94.586581
389.781509	94.161386
390.216338	93.999324
390.651157	94.000506
391.085963	93.937610
391.520758	93.781598
391.955541	93.669077
392.390313	93.486654
392.825073	93.705353
393.259821	93.421604
393.694558	93.265768
394.129283	93.269311
394.563996	92.917847
394.998698	93.050257
395.433388	92.974780
395.868066	93.048635
396.302732	92.859781
396.737386	92.713742
397.172029	92.450833
397.606659	91.726313
398.041278	90.368680
398.475885	90.121200
398.910480	89.450083
399.345063	88.957294
399.779634	88.053165
400.214194	86.413330
400.648741	84.710316
401.083276	83.115665
401.517799	81.187496
401.952310	78.342915
402.386809	75.521512
402.821296	72.357978
403.255771	69.194935
403.690234	66.032701
404.124684	62.757587
404.559123	59.465176
404.993549	56.129032
405.427963	52.916538
405.862365	49.735102
406.296754	46.739921
406.731131	43.726182
407.165496	41.137522
407.599849	38.677910
408.034190	36.299177
408.468518	34.131483
408.902833	32.053063
409.337137	30.251823
409.771428	28.599748
410.205706	26.995613
410.639973	25.603447
411.074226	24.431794
411.508467	23.293872
411.942696	22.257469
412.376912	21.288392
412.811116	20.371953
413.245307	19.579353
413.679486	18.937341
414.113652	18.273962
414.547805	17.698032
414.981946	17.211373
415.416074	16.789038
415.850190	16.344968
416.284293	15.974002
416.718383	15.639927
417.152460	15.326934
417.586525	15.035422
418.020577	14.756544
418.454616	14.489101
418.888643	14.259168
419.322656	14.065495
419.756657	13.884799
420.190645	13.718366
420.624620	13.572829
421.058582	13.453082
421.492531	13.323272
421.926468	13.209535
422.360391	13.123305
422.794301	13.032772
423.228199	12.956610
423.662083	12.903439
424.095955	12.849571
424.529813	12.789528
424.963658	12.795427
425.397491	12.766787
425.831310	12.746923
426.265116	12.756135
426.698909	12.756895
427.132689	12.747980
427.566455	12.760312
428.000209	12.768989
428.433949	12.751870
428.867676	12.767246
429.301389	12.800326
429.735090	12.845283
430.168777	12.892909
430.602451	12.931466
431.036111	12.951913
431.469759	12.993180
431.903392	13.047200
432.337013	13.072708
432.770620	13.115384
433.204213	13.170309
433.637794	13.214472
434.071360	13.265623
434.504914	13.306228
434.938453	13.370963
435.371979	13.423901
435.805492	13.498284
436.238991	13.549923
436.672477	13.611273
437.105949	13.704100
437.539407	13.774240
437.972852	13.845887
438.406283	13.916011
438.839700	13.988238
439.273104	14.085677
439.706494	14.151189
440.139871	14.228559
440.573233	14.302917
441.006582	14.397723
441.439917	14.472555
441.873238	14.553406
442.306546	14.616608
442.739839	14.703654
443.173119	14.771896
443.606385	14.852353
444.039636	14.935830
444.472874	15.023957
444.906099	15.102745
445.339309	15.185771
445.772505	15.292512
446.205687	15.380886
446.638855	15.473578
447.072009	15.582636
447.505149	15.669490
447.938275	15.772689
448.371387	15.865050
448.804485	15.966213
449.237569	16.044082
449.670638	16.141863
450.103694	16.228749
450.536735	16.292275
450.969762	16.391629
451.402774	16.481368
451.835773	16.564585
452.268757	16.643509
452.701727	16.708707
453.134683	16.792538
453.567624	16.874946
454.000551	16.966826
454.433464	17.049861
454.866362	17.129977
455.299246	17.219399
455.732116	17.318146
456.164971	17.416537
456.597811	17.490704
457.030638	17.584306
457.463449	17.679770
457.896246	17.786051
458.329029	17.892485
458.761797	17.983484
459.194551	18.070738
459.627290	18.160646
460.060014	18.240627
460.492724	18.321347
460.925419	18.405249
461.358099	18.489250
461.790765	18.563877
462.223416	18.638949
462.656052	18.722820
463.088674	18.791562
463.521281	18.857792
463.953873	18.921346
464.386450	18.972871
464.819012	19.033546
465.251560	19.094708
465.684093	19.164629
466.116611	19.233559
466.549114	19.293628
466.981602	19.340599
467.414075	19.377325
467.846533	19.413462
468.278977	19.454624
468.711405	19.490183
469.143818	19.525790
469.576216	19.546388
470.008600	19.587878
470.440968	19.616316
470.873321	19.634762
471.305659	19.644387
471.737982	19.669949
472.170289	19.692508
472.602582	19.722365
473.034859	19.746981
473.467122	19.764980
473.899369	19.775339
474.331600	19.787300
474.763817	19.803030
475.196018	19.819520
475.628204	19.828961
476.060375	19.840680
476.492530	19.858399
476.924670	19.879767
477.356795	19.905201
477.788904	19.932933
478.220998	19.963564
478.653076	19.998091
479.085139	20.022043
479.517186	20.054791
479.949219	20.094446
480.381235	20.147307
480.813236	20.199371
481.245221	20.265893
481.677191	20.334383
482.109146	20.408104
482.541084	20.485353
482.973008	20.572388
483.404915	20.660108
483.836807	20.744989
484.268683	20.847405
484.700544	20.952287
485.132388	21.053002
485.564217	21.173805
485.996031	21.290237
486.427828	21.420715
486.859610	21.548199
487.291376	21.700136
487.723126	21.859077
488.154860	22.022849
488.586579	22.192156
489.018281	22.367315
489.449968	22.548024
489.881639	22.741572
490.313293	22.944234
490.744932	23.163237
491.176555	23.386550
491.608162	23.619317
492.039753	23.857437
492.471328	24.112730
492.902886	24.374871
493.334429	24.647169
493.765956	24.916675
494.197466	25.207566
494.628960	25.495480
495.060439	25.788285
495.491901	26.091461
495.923347	26.400157
496.354776	26.717273
496.786190	27.037229
497.217587	27.389321
497.648968	27.745532
498.080332	28.117073
498.511681	28.488454
498.943013	28.876437
499.374328	29.281944
499.805628	29.691939
500.236911	30.116891
500.668177	30.534947
501.099427	30.948256
501.530661	31.346246
501.961878	31.744896
502.393079	32.133140
502.824264	32.531010
503.255431	32.895870
503.686583	33.263541
504.117717	33.609730
504.548835	33.948811
504.979937	34.289957
505.411022	34.613368
505.842090	34.937568
506.273142	35.256417
506.704177	35.563693
507.135195	35.871631
507.566197	36.183714
507.997182	36.492102
508.428150	36.800999
508.859102	37.110663
509.290036	37.419471
509.720954	37.721880
510.151855	38.036726
510.582739	38.331821
511.013607	38.633409
511.444457	38.937101
511.875291	39.246256
512.306107	39.544536
512.736907	39.847564
513.167690	40.156712
513.598456	40.462013
514.029205	40.787287
514.459936	41.109944
514.890651	41.456702
515.321349	41.800833
515.752030	42.171194
516.182693	42.543328
516.613340	42.940266
517.043969	43.347751
517.474582	43.791775
517.905177	44.251072
518.335755	44.713209
518.766315	45.211650
519.196859	45.724995
519.627385	46.259385
520.057894	46.803181
520.488386	47.374101
520.918860	47.947098
521.349318	48.543209
521.779757	49.161685
522.210180	49.802780
522.640585	50.461891
523.070973	51.141959
523.501343	51.833447
523.931696	52.544386
524.362031	53.253195
524.792349	53.980389
525.222650	54.715570
525.652933	55.467550
526.083198	56.223974
526.513446	56.986677
526.943677	57.758422
527.373890	58.522165
527.804085	59.286165
528.234262	60.044070
528.664422	60.809425
529.094565	61.567083
529.524689	62.322741
529.954796	63.084198
530.384885	63.821945
530.814957	64.543092
531.245011	65.243415
531.675047	65.955690
532.105065	66.641765
532.535065	67.324353
532.965048	67.994334
533.395013	68.664318
533.824959	69.310210
534.254888	69.942881
534.684799	70.580624
535.114693	71.209380
535.544568	71.810830
535.974425	72.401140
536.404264	72.973572
536.834086	73.548462
537.263889	74.091928
537.693674	74.637317
538.123441	75.158325
538.553190	75.682734
538.982921	76.189719
539.412634	76.681902
539.842329	77.162477
540.272006	77.646023
540.701664	78.093859
541.131304	78.558801
541.560926	79.009550
541.990530	79.460104
542.420116	79.908355
542.849683	80.331868
543.279232	80.741245
543.708763	81.145321
544.138275	81.554523
544.567769	81.964804
544.997245	82.338712
545.426702	82.706490
545.856141	83.063100
546.285562	83.406210
546.714964	83.727198
547.144347	84.056116
547.573713	84.381079
548.003059	84.687005
548.432387	85.005400
548.861697	85.293586
549.290988	85.571858
549.720260	85.846883
550.149514	86.112990
550.578750	86.373725
551.007966	86.624389
551.437164	86.873647
551.866344	87.109114
552.295504	87.328539
552.724646	87.533306
553.153769	87.735930
553.582874	87.925650
554.011960	88.114170
554.441027	88.277003
554.870075	88.441961
555.299104	88.599741
555.728115	88.740439
556.157106	88.883147
556.586079	89.022241
557.015033	89.151795
557.443968	89.268691
557.872884	89.401459
558.301781	89.536625
558.730659	89.649266
559.159518	89.760715
559.588358	89.878369
560.017180	90.001810
560.445982	90.124692
560.874765	90.241688
561.303528	90.370323
561.732273	90.461651
562.160999	90.575793
562.589705	90.686908
563.018393	90.791782
563.447061	90.890797
563.875710	90.983028
564.304340	91.076956
564.732950	91.178377
565.161542	91.261141
565.590114	91.368434
566.018666	91.478201
566.447200	91.582994
566.875714	91.695765
567.304208	91.821926
567.732684	91.942400
568.161140	92.045734
568.589576	92.168612
569.017993	92.294385
569.446391	92.405618
569.874769	92.530246
570.303128	92.640326
570.731467	92.740212
571.159787	92.803401
571.588087	92.875513
572.016368	92.948965
572.444629	93.014154
572.872870	93.068726
573.301092	93.126518
573.729294	93.160523
574.157476	93.212004
574.585639	93.224543
575.013782	93.263685
575.441906	93.297291
575.870009	93.303814
576.298093	93.320100
576.726157	93.323466
577.154202	93.336237
577.582226	93.335781
578.010231	93.335089
578.438216	93.337770
578.866181	93.326441
579.294126	93.315438
579.722051	93.305608
580.149957	93.283248
580.577842	93.260349
581.005707	93.234572
581.433553	93.214670
581.861378	93.165686
582.289184	93.114867
582.716969	93.069129
583.144734	93.018431
583.572479	92.992560
584.000205	92.954909
584.427910	92.936721
584.855594	92.890219
585.283259	92.873123
585.710904	92.854869
586.138528	92.838702
586.566132	92.810266
586.993716	92.793672
587.421280	92.763696
587.848823	92.750877
588.276346	92.723320
588.703849	92.687551
589.131332	92.671231
589.558794	92.646615
589.986236	92.634413
590.413657	92.609419
590.841058	92.584674
591.268438	92.548256
591.695799	92.533591
592.123138	92.516035
592.550458	92.494164
592.977756	92.465905
593.405034	92.439636
593.832292	92.412225
594.259529	92.384853
594.686746	92.363052
595.113942	92.344521
595.541117	92.319982
595.968272	92.301697
596.395406	92.257794
596.822519	92.213356
597.249612	92.169582
597.676684	92.129682
598.103735	92.080866
598.530766	92.015742
598.957775	91.938666
599.384764	91.853493
599.811733	91.761475
600.238680	91.660316
600.665606	91.526367
601.092512	91.385942
601.519397	91.218332
601.946261	91.052567
602.373104	90.863100
602.799926	90.647900
603.226727	90.401176
603.653507	90.142504
604.080266	89.865318
604.507004	89.566994
604.933721	89.211081
605.360417	88.844253
605.787092	88.445467
606.213746	88.025567
606.640379	87.564217
607.066991	87.068625
607.493581	86.572976
607.920150	86.032791
608.346699	85.456212
608.773226	84.854151
609.199731	84.222569
609.626216	83.577331
610.052679	82.896767
610.479121	82.214826
610.905542	81.488496
611.331941	80.756742
611.758319	79.992196
612.184676	79.213906
612.611011	78.402790
613.037325	77.578379
613.463617	76.741542
613.889888	75.900519
614.316138	75.033782
614.742366	74.177515
615.168573	73.300833
615.594758	72.423376
616.020921	71.554381
616.447063	70.691698
616.873184	69.850413
617.299283	69.016450
617.725360	68.197430
618.151416	67.412919
618.577450	66.640400
619.003462	65.907453
619.429453	65.201150
619.855422	64.539728
620.281369	63.920413
620.707295	63.330872
621.133199	62.791928
621.559081	62.309765
621.984941	61.877537
622.410779	61.495443
622.836596	61.149381
623.262391	60.855621
623.688163	60.601290
624.113914	60.404576
624.539644	60.262842
624.965351	60.171960
625.391036	60.123935
625.816699	60.133982
626.242340	60.192823
626.667960	60.286582
627.093557	60.426409
627.519132	60.616272
627.944685	60.839833
628.370216	61.109582
628.795725	61.423242
629.221212	61.759963
629.646677	62.139628
630.072119	62.542285
630.497540	62.969048
630.922938	63.423959
631.348314	63.911416
631.773668	64.417852
632.198999	64.927963
632.624308	65.456170
633.049595	65.982689
633.474860	66.523903
633.900102	67.054776
634.325322	67.586602
634.750520	68.108157
635.175695	68.622626
635.600848	69.131561
636.025978	69.640882
636.451086	70.139478
636.876171	70.619516
637.301234	71.084602
637.726275	71.525123
638.151293	71.942912
638.576288	72.359002
639.001261	72.755926
639.426211	73.134634
639.851139	73.495229
640.276044	73.843007
640.700927	74.181065
641.125787	74.489160
641.550624	74.773427
641.975438	75.041657
642.400230	75.288886
642.824999	75.502561
643.249745	75.698129
643.674469	75.882351
644.099169	76.035350
644.523847	76.152288
644.948502	76.250800
645.373135	76.338670
645.797744	76.398500
646.222330	76.443376
646.646894	76.462807
647.071435	76.471865
647.495953	76.455089
647.920447	76.436041
648.344919	76.393831
648.769368	76.341423
649.193794	76.284385
649.618197	76.209282
650.042576	76.130581
650.466933	76.049855
650.891267	75.966919
651.315577	75.884545
651.739864	75.790539
652.164129	75.678048
652.588370	75.560816
653.012587	75.433949
653.436782	75.293307
653.860953	75.142224
654.285102	75.005159
654.709226	74.844901
655.133328	74.674928
655.557406	74.506866
655.981461	74.323926
656.405493	74.141014
656.829501	73.943263
657.253486	73.731081
657.677448	73.517090
658.101386	73.309295
658.525301	73.091268
658.949192	72.871968
659.373060	72.655570
659.796904	72.430771
660.220725	72.205055
660.644522	71.977107
661.068296	71.744704
661.492046	71.510823
661.915772	71.273690
662.339475	71.030885
662.763154	70.792901
663.186810	70.555337
663.610442	70.314655
664.034050	70.074858
664.457635	69.834229
664.881196	69.587581
665.304733	69.348336
665.728247	69.119265
666.151736	68.897155
666.575202	68.680216
666.998644	68.469677
667.422062	68.261831
667.845457	68.074904
668.268827	67.895312
668.692174	67.729345
669.115496	67.584456
669.538795	67.452038
669.962070	67.347148
670.385321	67.275018
670.808547	67.223320
671.231750	67.176631
671.654929	67.156886
672.078084	67.156284
672.501214	67.174110
672.924321	67.215927
673.347404	67.280895
673.770462	67.383797
674.193496	67.501468
674.616506	67.649543
675.039492	67.819337
675.462454	68.013356
675.885391	68.225921
676.308305	68.464104
676.731194	68.717727
677.154058	68.995917
677.576899	69.287298
677.999715	69.603518
678.422507	69.930553
678.845274	70.266948
679.268017	70.632076
679.690736	70.991578
680.113430	71.365103
680.536100	71.741459
680.958746	72.130490
681.381367	72.521961
681.803963	72.910907
682.226535	73.299538
682.649083	73.686762
683.071605	74.072407
683.494104	74.446364
683.916578	74.827810
684.339027	75.202518
684.761451	75.571706
685.183851	75.940430
685.606227	76.300173
686.028577	76.659412
686.450903	77.013482
686.873204	77.343256
687.295481	77.653235
687.717733	77.955822
688.139959	78.244400
688.562162	78.506631
688.984339	78.767480
689.406492	79.005305
689.828619	79.230058
690.250722	79.436465
690.672800	79.631000
691.094853	79.803146
691.516881	79.987989
691.938884	80.147154
692.360863	80.282539
692.782816	80.427481
693.204744	80.551505
693.626647	80.669609
694.048526	80.768978
694.470379	80.856749
694.892207	80.947011
695.314010	81.031932
695.735788	81.112551
696.157540	81.190356
696.579268	81.263551
697.000970	81.326364
697.422648	81.383570
697.844300	81.437491
698.265926	81.478250
698.687528	81.534904
699.109104	81.585728
699.530655	81.625142
699.952181	81.673199
700.373681	81.728877
700.795156	81.778972
701.216606	81.837198
701.638030	81.910466
702.059429	81.981119
702.480803	82.054837
702.902151	82.131356
703.323473	82.210329
703.744770	82.295008
704.166042	82.396393
704.587288	82.479353
705.008509	82.573726
705.429704	82.662306
705.850873	82.753607
706.272017	82.841877
706.693135	82.928893
707.114228	83.010203
707.535295	83.094438
707.956336	83.177556
708.377352	83.243192
708.798342	83.289216
709.219306	83.335793
709.640245	83.387201
710.061157	83.423985
710.482044	83.462219
710.902905	83.485312
711.323741	83.517088
711.744550	83.525763
712.165334	83.531244
712.586092	83.533958
713.006823	83.531670
713.427529	83.529389
713.848209	83.524287
714.268863	83.501066
714.689492	83.481945
715.110094	83.453980
715.530670	83.422438
715.951220	83.392074
716.371744	83.350432
716.792242	83.313598
717.212714	83.247556
717.633159	83.197518
718.053579	83.148932
718.473973	83.092617
718.894340	83.032274
719.314681	82.984589
719.734996	82.924402
720.155285	82.881155
720.575547	82.846653
720.995784	82.805585
721.415994	82.791156
721.836177	82.788987
722.256335	82.776268
722.676466	82.766255
723.096570	82.777440
723.516649	82.792297
723.936701	82.815745
724.356726	82.834402
724.776725	82.867897
725.196698	82.911007
725.616644	82.963582
726.036564	83.009192
726.456457	83.065673
726.876324	83.130777
727.296164	83.207001
727.715977	83.275966
728.135764	83.349604
728.555525	83.433270
728.975258	83.506561
729.394966	83.605302
729.814646	83.699819
730.234300	83.812124
730.653927	83.913831
731.073527	84.017635
731.493101	84.143959
731.912648	84.264329
732.332168	84.389343
732.751661	84.522444
733.171128	84.650535
733.590568	84.777552
734.009980	84.909650
734.429366	85.027571
734.848726	85.151105
735.268058	85.272138
735.687363	85.392027
736.106641	85.507987
736.525893	85.617250
736.945117	85.730785
737.364314	85.852615
737.783485	85.969435
738.202628	86.063760
738.621744	86.156076
739.040834	86.259722
739.459896	86.352859
739.878931	86.433049
740.297939	86.506854
740.716919	86.591054
741.135873	86.658908
741.554799	86.718251
741.973698	86.788574
742.392570	86.833184
742.811415	86.873985
743.230232	86.905746
743.649022	86.935415
744.067785	86.966616
744.486521	86.965951
744.905229	86.961455
745.323909	86.956972
745.742563	86.949668
746.161189	86.942405
746.579787	86.927518
746.998358	86.900996
747.416902	86.874775
747.835418	86.832128
748.253907	86.786751
748.672368	86.749726
749.090802	86.694242
749.509208	86.643632
749.927586	86.590691
750.345937	86.529223
750.764261	86.463649
751.182556	86.428241
751.600824	86.393132
752.019065	86.345294
752.437277	86.298210
752.855462	86.273189
753.273620	86.245972
753.691749	86.214318
754.109851	86.202777
