Time1=100ms:Average1=5:Objective=10X:Aperture=1: (11/28/2018 11:15:47 AM)
11/28/2018 11:15:47 AM
Reflectance
10X
Ap#: 1
Avg1: 5.000000
Avg2: 0.000000
Int.Time1:100.000000

350.166136	83.554464
350.601937	83.513899
351.037728	84.071939
351.473509	83.494730
351.909281	83.373598
352.345042	83.545629
352.780794	83.885884
353.216536	83.861924
353.652267	83.788276
354.087989	84.450096
354.523701	84.274796
354.959403	83.803002
355.395095	83.740411
355.830777	83.919908
356.266449	84.172853
356.702110	84.580099
357.137762	84.809343
357.573404	84.927974
358.009035	84.737311
358.444656	84.798715
358.880268	84.906671
359.315869	84.684524
359.751459	84.378624
360.187040	84.335951
360.622610	84.649044
361.058170	85.178555
361.493720	84.921624
361.929260	85.040636
362.364789	85.519028
362.800308	85.473965
363.235816	85.345287
363.671314	85.829780
364.106802	85.850062
364.542279	85.837329
364.977746	85.938748
365.413203	85.976258
365.848649	86.308891
366.284084	86.077182
366.719509	86.035597
367.154924	86.012433
367.590328	85.513811
368.025721	85.758596
368.461104	86.220053
368.896477	86.383692
369.331838	86.075169
369.767189	86.042434
370.202530	85.481469
370.637859	85.793358
371.073178	85.384885
371.508486	85.391395
371.943784	85.452333
372.379071	85.065161
372.814347	85.033066
373.249612	85.507751
373.684866	85.598536
374.120110	85.613638
374.555343	85.616081
374.990565	85.885335
375.425776	85.946513
375.860976	85.584721
376.296165	85.710536
376.731343	85.734302
377.166511	85.194260
377.601667	85.455183
378.036812	85.424113
378.471946	85.239339
378.907070	85.162247
379.342182	84.693611
379.777283	84.730435
380.212373	84.932456
380.647452	84.993956
381.082520	85.209694
381.517576	85.101075
381.952622	85.250280
382.387656	85.394521
382.822679	85.395590
383.257691	85.245476
383.692692	85.570586
384.127681	85.461146
384.562659	86.189612
384.997626	86.138443
385.432581	86.064795
385.867525	86.258292
386.302458	86.581580
386.737379	86.334336
387.172289	86.448518
387.607188	86.440387
388.042075	86.468421
388.476951	86.511191
388.911815	86.096030
389.346668	86.080990
389.781509	86.193494
390.216338	86.266058
390.651157	86.321829
391.085963	85.815185
391.520758	85.835861
391.955541	85.807970
392.390313	86.075206
392.825073	86.015632
393.259821	86.114137
393.694558	85.786079
394.129283	85.361169
394.563996	85.119147
394.998698	84.864820
395.433388	84.509019
395.868066	84.157641
396.302732	84.476179
396.737386	84.654700
397.172029	84.335681
397.606659	83.569898
398.041278	82.478684
398.475885	82.082257
398.910480	81.555346
399.345063	81.098036
399.779634	79.966964
400.214194	78.613436
400.648741	76.865947
401.083276	75.073959
401.517799	72.952654
401.952310	70.622252
402.386809	68.184485
402.821296	65.655272
403.255771	62.813545
403.690234	59.915408
404.124684	56.926083
404.559123	54.139598
404.993549	50.993643
405.427963	48.082095
405.862365	45.207195
406.296754	42.595429
406.731131	39.849343
407.165496	37.480964
407.599849	35.263433
408.034190	33.075538
408.468518	31.179478
408.902833	29.404822
409.337137	27.748428
409.771428	26.121294
410.205706	24.625622
410.639973	23.344941
411.074226	22.218126
411.508467	21.256872
411.942696	20.328524
412.376912	19.450668
412.811116	18.624336
413.245307	17.890718
413.679486	17.269700
414.113652	16.729827
414.547805	16.159306
414.981946	15.687556
415.416074	15.266121
415.850190	14.857206
416.284293	14.429361
416.718383	14.087303
417.152460	13.821516
417.586525	13.536342
418.020577	13.226186
418.454616	13.023266
418.888643	12.830096
419.322656	12.621491
419.756657	12.459023
420.190645	12.284622
420.624620	12.113194
421.058582	11.981438
421.492531	11.825052
421.926468	11.698849
422.360391	11.584105
422.794301	11.487241
423.228199	11.394208
423.662083	11.325284
424.095955	11.280922
424.529813	11.222097
424.963658	11.177973
425.397491	11.135645
425.831310	11.119813
426.265116	11.093628
426.698909	11.083277
427.132689	11.065552
427.566455	11.042619
428.000209	11.045011
428.433949	11.032055
428.867676	11.017109
429.301389	11.006031
429.735090	11.033168
430.168777	11.045697
430.602451	11.047233
431.036111	11.021170
431.469759	11.045659
431.903392	11.050704
432.337013	11.040709
432.770620	11.048896
433.204213	11.053239
433.637794	11.063834
434.071360	11.086059
434.504914	11.102481
434.938453	11.155606
435.371979	11.161806
435.805492	11.191698
436.238991	11.213741
436.672477	11.253770
437.105949	11.290987
437.539407	11.337204
437.972852	11.383411
438.406283	11.410425
438.839700	11.446022
439.273104	11.468032
439.706494	11.504323
440.139871	11.542707
440.573233	11.580710
441.006582	11.623538
441.439917	11.677843
441.873238	11.719930
442.306546	11.768055
442.739839	11.829662
443.173119	11.864062
443.606385	11.910252
444.039636	11.944181
444.472874	11.987069
444.906099	12.036910
445.339309	12.077409
445.772505	12.135884
446.205687	12.198159
446.638855	12.248596
447.072009	12.325962
447.505149	12.377289
447.938275	12.438875
448.371387	12.487794
448.804485	12.553936
449.237569	12.608668
449.670638	12.662382
450.103694	12.716982
450.536735	12.754943
450.969762	12.777629
451.402774	12.807586
451.835773	12.831873
452.268757	12.866098
452.701727	12.899827
453.134683	12.926403
453.567624	12.969038
454.000551	13.006014
454.433464	13.038070
454.866362	13.058400
455.299246	13.080702
455.732116	13.112219
456.164971	13.145856
456.597811	13.183911
457.030638	13.226216
457.463449	13.271648
457.896246	13.329258
458.329029	13.374226
458.761797	13.419711
459.194551	13.461723
459.627290	13.503556
460.060014	13.547667
460.492724	13.572722
460.925419	13.609114
461.358099	13.643938
461.790765	13.670687
462.223416	13.690638
462.656052	13.702157
463.088674	13.716410
463.521281	13.718548
463.953873	13.719717
464.386450	13.727814
464.819012	13.741184
465.251560	13.759164
465.684093	13.764804
466.116611	13.774857
466.549114	13.778197
466.981602	13.775687
467.414075	13.781487
467.846533	13.766649
468.278977	13.760306
468.711405	13.762411
469.143818	13.753518
469.576216	13.738515
470.008600	13.727270
470.440968	13.710557
470.873321	13.688319
471.305659	13.671970
471.737982	13.650444
472.170289	13.623616
472.602582	13.605524
473.034859	13.577601
473.467122	13.564599
473.899369	13.552885
474.331600	13.531947
474.763817	13.514698
475.196018	13.500981
475.628204	13.504088
476.060375	13.509698
476.492530	13.520903
476.924670	13.543730
477.356795	13.577401
477.788904	13.605905
478.220998	13.645182
478.653076	13.684303
479.085139	13.734637
479.517186	13.807926
479.949219	13.891934
480.381235	13.979304
480.813236	14.066943
481.245221	14.184431
481.677191	14.306364
482.109146	14.428113
482.541084	14.566583
482.973008	14.707387
483.404915	14.860704
483.836807	15.013788
484.268683	15.190301
484.700544	15.366257
485.132388	15.551551
485.564217	15.747894
485.996031	15.942493
486.427828	16.143768
486.859610	16.348676
487.291376	16.555740
487.723126	16.779766
488.154860	16.988276
488.586579	17.215824
489.018281	17.431726
489.449968	17.659296
489.881639	17.878903
490.313293	18.097946
490.744932	18.334747
491.176555	18.576642
491.608162	18.814486
492.039753	19.046448
492.471328	19.286660
492.902886	19.507087
493.334429	19.728779
493.765956	19.958115
494.197466	20.188848
494.628960	20.418846
495.060439	20.648779
495.491901	20.879903
495.923347	21.108222
496.354776	21.347361
496.786190	21.593915
497.217587	21.846892
497.648968	22.092638
498.080332	22.353029
498.511681	22.613973
498.943013	22.883275
499.374328	23.147306
499.805628	23.421902
500.236911	23.687559
500.668177	23.970570
501.099427	24.238635
501.530661	24.515052
501.961878	24.778474
502.393079	25.039541
502.824264	25.302598
503.255431	25.560944
503.686583	25.811171
504.117717	26.061012
504.548835	26.293450
504.979937	26.536993
505.411022	26.782469
505.842090	27.027945
506.273142	27.278101
506.704177	27.529855
507.135195	27.767687
507.566197	28.022734
507.997182	28.263552
508.428150	28.506646
508.859102	28.745695
509.290036	28.983008
509.720954	29.211688
510.151855	29.430686
510.582739	29.653623
511.013607	29.869635
511.444457	30.076543
511.875291	30.278217
512.306107	30.464613
512.736907	30.675825
513.167690	30.886183
513.598456	31.099650
514.029205	31.325029
514.459936	31.574365
514.890651	31.838685
515.321349	32.117612
515.752030	32.443780
516.182693	32.780431
516.613340	33.167652
517.043969	33.584989
517.474582	34.037215
517.905177	34.537342
518.335755	35.065856
518.766315	35.647995
519.196859	36.261068
519.627385	36.912380
520.057894	37.571526
520.488386	38.260090
520.918860	38.962194
521.349318	39.703736
521.779757	40.453497
522.210180	41.236280
522.640585	42.024807
523.070973	42.828690
523.501343	43.633749
523.931696	44.436055
524.362031	45.244032
524.792349	46.062915
525.222650	46.885632
525.652933	47.705955
526.083198	48.528999
526.513446	49.344332
526.943677	50.160355
527.373890	50.967105
527.804085	51.757559
528.234262	52.557511
528.664422	53.360087
529.094565	54.129953
529.524689	54.901511
529.954796	55.649985
530.384885	56.395844
530.814957	57.122537
531.245011	57.832883
531.675047	58.520749
532.105065	59.184322
532.535065	59.827673
532.965048	60.446931
533.395013	61.062360
533.824959	61.649708
534.254888	62.228828
534.684799	62.792025
535.114693	63.348539
535.544568	63.870596
535.974425	64.378183
536.404264	64.881525
536.834086	65.390702
537.263889	65.868162
537.693674	66.344667
538.123441	66.803293
538.553190	67.255173
538.982921	67.694558
539.412634	68.105724
539.842329	68.508955
540.272006	68.897108
540.701664	69.255845
541.131304	69.611568
541.560926	69.928354
541.990530	70.223597
542.420116	70.518701
542.849683	70.777617
543.279232	71.012854
543.708763	71.221588
544.138275	71.415899
544.567769	71.592199
544.997245	71.744331
545.426702	71.872818
545.856141	71.996747
546.285562	72.101663
546.714964	72.192282
547.144347	72.297701
547.573713	72.390972
548.003059	72.481022
548.432387	72.586970
548.861697	72.688210
549.290988	72.787605
549.720260	72.885190
550.149514	72.972308
550.578750	73.090645
551.007966	73.208723
551.437164	73.332286
551.866344	73.460907
552.295504	73.596867
552.724646	73.728988
553.153769	73.876789
553.582874	74.026190
554.011960	74.192172
554.441027	74.340954
554.870075	74.505767
555.299104	74.678338
555.728115	74.836405
556.157106	75.011964
556.586079	75.188471
557.015033	75.358898
557.443968	75.517692
557.872884	75.687093
558.301781	75.864829
558.730659	76.023806
559.159518	76.199023
559.588358	76.371968
560.017180	76.548584
560.445982	76.719714
560.874765	76.885872
561.303528	77.049295
561.732273	77.181793
562.160999	77.321297
562.589705	77.475705
563.018393	77.611515
563.447061	77.765005
563.875710	77.891175
564.304340	78.024445
564.732950	78.153748
565.161542	78.267169
565.590114	78.400926
566.018666	78.529712
566.447200	78.668061
566.875714	78.802738
567.304208	78.935532
567.732684	79.073262
568.161140	79.204516
568.589576	79.336329
569.017993	79.462576
569.446391	79.580276
569.874769	79.698788
570.303128	79.806515
570.731467	79.918974
571.159787	80.016709
571.588087	80.094062
572.016368	80.184232
572.444629	80.238818
572.872870	80.301848
573.301092	80.347495
573.729294	80.375796
574.157476	80.406509
574.585639	80.412549
575.013782	80.435024
575.441906	80.464755
575.870009	80.455129
576.298093	80.455599
576.726157	80.432144
577.154202	80.425387
577.582226	80.411374
578.010231	80.400137
578.438216	80.409002
578.866181	80.402217
579.294126	80.421566
579.722051	80.420639
580.149957	80.433185
580.577842	80.451415
581.005707	80.473590
581.433553	80.499551
581.861378	80.522625
582.289184	80.555864
582.716969	80.595430
583.144734	80.639647
583.572479	80.700159
584.000205	80.747577
584.427910	80.794658
584.855594	80.843753
585.283259	80.899172
585.710904	80.952893
586.138528	80.994136
586.566132	81.045846
586.993716	81.095476
587.421280	81.136216
587.848823	81.177717
588.276346	81.205452
588.703849	81.194065
589.131332	81.201343
589.558794	81.181393
589.986236	81.156725
590.413657	81.105949
590.841058	81.043332
591.268438	80.965025
591.695799	80.861473
592.123138	80.745594
592.550458	80.589884
592.977756	80.426497
593.405034	80.243911
593.832292	80.039646
594.259529	79.825976
594.686746	79.591499
595.113942	79.347529
595.541117	79.096333
595.968272	78.817068
596.395406	78.521771
596.822519	78.225204
597.249612	77.921121
597.676684	77.617702
598.103735	77.308978
598.530766	76.994602
598.957775	76.681657
599.384764	76.365596
599.811733	76.044610
600.238680	75.729958
600.665606	75.404966
601.092512	75.092422
601.519397	74.764744
601.946261	74.461190
602.373104	74.159670
602.799926	73.859655
603.226727	73.558842
603.653507	73.267774
604.080266	72.973824
604.507004	72.677621
604.933721	72.377423
605.360417	72.084390
605.787092	71.792779
606.213746	71.492377
606.640379	71.185829
607.066991	70.886441
607.493581	70.582498
607.920150	70.276224
608.346699	69.957919
608.773226	69.623216
609.199731	69.293483
609.626216	68.962713
610.052679	68.608456
610.479121	68.260459
610.905542	67.892505
611.331941	67.503168
611.758319	67.097550
612.184676	66.670898
612.611011	66.233702
613.037325	65.773109
613.463617	65.301313
613.889888	64.806173
614.316138	64.290003
614.742366	63.767524
615.168573	63.225751
615.594758	62.662666
616.020921	62.103621
616.447063	61.536616
616.873184	60.971866
617.299283	60.395677
617.725360	59.829932
618.151416	59.270707
618.577450	58.720449
619.003462	58.193118
619.429453	57.698513
619.855422	57.230846
620.281369	56.780170
620.707295	56.365904
621.133199	55.993865
621.559081	55.661049
621.984941	55.372605
622.410779	55.122823
622.836596	54.903189
623.262391	54.734535
623.688163	54.596963
624.113914	54.498871
624.539644	54.466965
624.965351	54.468796
625.391036	54.508616
625.816699	54.576299
626.242340	54.688692
626.667960	54.819270
627.093557	54.980147
627.519132	55.162782
627.944685	55.368267
628.370216	55.593420
628.795725	55.826780
629.221212	56.067153
629.646677	56.313555
630.072119	56.546227
630.497540	56.776003
630.922938	56.994723
631.348314	57.221744
631.773668	57.423014
632.198999	57.595808
632.624308	57.747645
633.049595	57.879136
633.474860	57.982024
633.900102	58.060816
634.325322	58.109781
634.750520	58.139923
635.175695	58.143287
635.600848	58.129586
636.025978	58.101395
636.451086	58.050570
636.876171	57.983525
637.301234	57.905973
637.726275	57.802127
638.151293	57.694982
638.576288	57.576466
639.001261	57.458359
639.426211	57.338737
639.851139	57.219819
640.276044	57.117102
640.700927	57.026137
641.125787	56.941362
641.550624	56.867123
641.975438	56.826846
642.400230	56.794328
642.824999	56.785533
643.249745	56.810059
643.674469	56.874957
644.099169	56.961032
644.523847	57.072192
644.948502	57.220649
645.373135	57.415443
645.797744	57.633850
646.222330	57.882499
646.646894	58.159768
647.071435	58.473270
647.495953	58.808052
647.920447	59.165483
648.344919	59.545715
648.769368	59.941955
649.193794	60.353937
649.618197	60.789975
650.042576	61.240512
650.466933	61.707541
650.891267	62.179369
651.315577	62.655825
651.739864	63.150321
652.164129	63.642001
652.588370	64.135940
653.012587	64.613833
653.436782	65.067783
653.860953	65.532183
654.285102	65.985546
654.709226	66.421473
655.133328	66.819085
655.557406	67.216368
655.981461	67.587855
656.405493	67.946286
656.829501	68.257111
657.253486	68.535942
657.677448	68.775823
658.101386	68.993024
658.525301	69.155920
658.949192	69.290024
659.373060	69.391036
659.796904	69.463844
660.220725	69.493192
660.644522	69.485129
661.068296	69.443750
661.492046	69.376785
661.915772	69.289513
662.339475	69.183563
662.763154	69.055042
663.186810	68.914713
663.610442	68.753702
664.034050	68.589078
664.457635	68.417939
664.881196	68.238205
665.304733	68.045313
665.728247	67.849121
666.151736	67.664596
666.575202	67.485309
666.998644	67.293474
667.422062	67.112350
667.845457	66.947481
668.268827	66.793838
668.692174	66.640906
669.115496	66.505596
669.538795	66.375874
669.962070	66.279003
670.385321	66.212625
670.808547	66.168312
671.231750	66.143669
671.654929	66.152379
672.078084	66.181423
672.501214	66.226447
672.924321	66.299507
673.347404	66.401033
673.770462	66.536559
674.193496	66.689985
674.616506	66.864290
675.039492	67.047761
675.462454	67.240130
675.885391	67.441938
676.308305	67.648956
676.731194	67.866916
677.154058	68.081200
677.576899	68.289350
677.999715	68.502438
678.422507	68.721965
678.845274	68.941371
679.268017	69.162884
679.690736	69.377151
680.113430	69.589555
680.536100	69.792652
680.958746	69.987344
681.381367	70.169056
681.803963	70.348623
682.226535	70.506745
682.649083	70.661818
683.071605	70.801120
683.494104	70.923999
683.916578	71.042039
684.339027	71.142586
684.761451	71.238093
685.183851	71.328059
685.606227	71.408082
686.028577	71.476423
686.450903	71.541540
686.873204	71.594930
687.295481	71.640808
687.717733	71.685000
688.139959	71.724963
688.562162	71.767535
688.984339	71.798045
689.406492	71.833324
689.828619	71.859780
690.250722	71.889542
690.672800	71.920189
691.094853	71.943023
691.516881	71.976004
691.938884	71.998012
692.360863	72.014899
692.782816	72.034826
693.204744	72.049485
693.626647	72.071843
694.048526	72.089466
694.470379	72.110521
694.892207	72.132570
695.314010	72.171716
695.735788	72.209117
696.157540	72.257182
696.579268	72.308677
697.000970	72.357564
697.422648	72.417016
697.844300	72.471661
698.265926	72.523710
698.687528	72.592676
699.109104	72.674713
699.530655	72.747640
699.952181	72.826698
700.373681	72.914141
700.795156	72.995472
701.216606	73.079978
701.638030	73.172129
702.059429	73.268134
702.480803	73.363199
702.902151	73.461811
703.323473	73.571875
703.744770	73.670926
704.166042	73.785272
704.587288	73.883650
705.008509	73.994998
705.429704	74.104868
705.850873	74.217865
706.272017	74.331192
706.693135	74.447984
707.114228	74.562155
707.535295	74.686424
707.956336	74.808884
708.377352	74.927802
708.798342	75.022968
709.219306	75.129468
709.640245	75.239070
710.061157	75.345103
710.482044	75.443306
710.902905	75.539108
711.323741	75.630967
711.744550	75.708297
712.165334	75.777873
712.586092	75.855167
713.006823	75.916479
713.427529	75.973238
713.848209	76.027458
714.268863	76.075252
714.689492	76.108169
715.110094	76.138257
715.530670	76.155170
715.951220	76.179814
716.371744	76.181537
716.792242	76.198770
717.212714	76.189491
717.633159	76.192762
718.053579	76.185994
718.473973	76.179875
718.894340	76.173616
719.314681	76.168412
719.734996	76.158325
720.155285	76.168677
720.575547	76.185060
720.995784	76.204547
721.415994	76.221460
721.836177	76.269312
722.256335	76.305571
722.676466	76.338436
723.096570	76.384523
723.516649	76.446172
723.936701	76.515250
724.356726	76.577169
724.776725	76.653906
725.196698	76.737232
725.616644	76.815595
726.036564	76.907148
726.456457	77.004753
726.876324	77.109578
727.296164	77.217892
727.715977	77.326732
728.135764	77.444428
728.555525	77.556712
728.975258	77.655963
729.394966	77.763720
729.814646	77.872807
730.234300	77.983560
730.653927	78.098793
731.073527	78.194806
731.493101	78.302205
731.912648	78.400475
732.332168	78.490800
732.751661	78.583838
733.171128	78.655189
733.590568	78.710753
734.009980	78.764080
734.429366	78.810952
734.848726	78.847554
735.268058	78.866584
735.687363	78.888916
736.106641	78.897531
736.525893	78.890458
736.945117	78.873586
737.364314	78.857783
737.783485	78.827114
738.202628	78.783506
738.621744	78.738776
739.040834	78.687649
739.459896	78.625832
739.878931	78.555150
740.297939	78.471714
740.716919	78.401722
741.135873	78.311652
741.554799	78.233815
741.973698	78.150093
742.392570	78.060645
742.811415	77.965401
743.230232	77.872384
743.649022	77.777861
744.067785	77.701670
744.486521	77.614573
744.905229	77.526762
745.323909	77.465438
745.742563	77.396742
746.161189	77.345642
746.579787	77.321035
746.998358	77.303581
747.416902	77.284306
747.835418	77.277499
748.253907	77.291948
748.672368	77.312120
749.090802	77.338375
749.509208	77.372370
749.927586	77.435563
750.345937	77.522016
750.764261	77.610477
751.182556	77.711324
751.600824	77.810816
752.019065	77.922844
752.437277	78.046341
752.855462	78.183172
753.273620	78.331353
753.691749	78.472244
754.109851	78.634956
