Time1=100ms:Average1=5:Objective=10X:Aperture=1: (11/21/2018 12:09:44 PM)
11/21/2018 12:09:44 PM
Reflectance
10X
Ap#: 1
Avg1: 5.000000
Avg2: 0.000000
Int.Time1:100.000000

350.166136	97.176720
350.601937	98.088792
351.037728	98.901881
351.473509	98.402911
351.909281	98.771449
352.345042	98.958759
352.780794	99.130702
353.216536	98.948443
353.652267	99.007673
354.087989	98.569531
354.523701	99.040621
354.959403	99.002341
355.395095	99.244358
355.830777	98.674957
356.266449	99.040327
356.702110	98.804094
357.137762	99.103778
357.573404	99.374808
358.009035	99.139961
358.444656	98.849630
358.880268	98.353909
359.315869	98.207110
359.751459	97.935709
360.187040	98.187436
360.622610	98.112040
361.058170	97.804350
361.493720	98.306660
361.929260	98.501757
362.364789	98.036192
362.800308	97.463024
363.235816	97.672263
363.671314	98.060743
364.106802	98.028950
364.542279	97.601722
364.977746	97.958342
365.413203	97.756874
365.848649	97.655201
366.284084	97.151931
366.719509	97.169811
367.154924	97.196837
367.590328	97.338520
368.025721	97.020885
368.461104	96.965036
368.896477	97.337702
369.331838	97.563473
369.767189	96.957095
370.202530	96.895742
370.637859	96.562879
371.073178	97.103211
371.508486	97.089840
371.943784	97.127195
372.379071	97.485807
372.814347	98.016882
373.249612	98.392021
373.684866	97.889102
374.120110	97.925731
374.555343	98.128478
374.990565	98.207994
375.425776	97.968011
375.860976	98.045143
376.296165	97.864840
376.731343	97.665097
377.166511	97.487437
377.601667	97.217496
378.036812	97.172082
378.471946	96.872814
378.907070	96.959123
379.342182	97.153662
379.777283	97.193751
380.212373	96.663688
380.647452	96.617880
381.082520	96.147768
381.517576	95.876899
381.952622	96.305125
382.387656	96.557917
382.822679	96.601216
383.257691	96.787108
383.692692	96.731766
384.127681	96.937244
384.562659	96.424315
384.997626	96.469655
385.432581	96.027208
385.867525	96.201909
386.302458	95.749682
386.737379	95.581897
387.172289	95.370914
387.607188	95.289433
388.042075	95.496109
388.476951	95.416058
388.911815	95.798483
389.346668	95.940816
389.781509	96.277479
390.216338	96.458965
390.651157	96.095275
391.085963	96.292664
391.520758	96.281073
391.955541	96.960486
392.390313	96.439342
392.825073	96.060311
393.259821	96.614150
393.694558	97.216758
394.129283	96.666341
394.563996	96.878068
394.998698	97.453864
395.433388	97.299020
395.868066	96.810169
396.302732	96.571066
396.737386	96.745159
397.172029	96.549549
397.606659	95.951045
398.041278	95.610485
398.475885	95.247439
398.910480	95.009295
399.345063	93.892589
399.779634	93.695886
400.214194	92.051365
400.648741	90.720995
401.083276	88.624350
401.517799	86.575012
401.952310	84.152411
402.386809	81.266406
402.821296	78.503660
403.255771	75.884768
403.690234	72.620595
404.124684	69.422637
404.559123	65.750785
404.993549	62.460255
405.427963	58.932803
405.862365	55.716717
406.296754	52.559339
406.731131	49.627693
407.165496	46.842738
407.599849	44.401581
408.034190	42.325035
408.468518	40.100592
408.902833	38.027746
409.337137	36.134828
409.771428	34.430468
410.205706	32.827575
410.639973	31.461613
411.074226	30.321054
411.508467	29.186454
411.942696	28.105182
412.376912	27.177539
412.811116	26.430803
413.245307	25.665569
413.679486	25.090727
414.113652	24.537646
414.547805	24.033288
414.981946	23.496662
415.416074	23.067317
415.850190	22.741820
416.284293	22.409240
416.718383	22.034221
417.152460	21.739423
417.586525	21.482348
418.020577	21.289940
418.454616	21.106865
418.888643	20.922601
419.322656	20.736702
419.756657	20.622497
420.190645	20.517109
420.624620	20.404293
421.058582	20.290829
421.492531	20.181735
421.926468	20.098948
422.360391	20.038078
422.794301	19.994185
423.228199	19.990340
423.662083	19.941430
424.095955	19.930509
424.529813	19.920249
424.963658	19.928316
425.397491	19.917985
425.831310	19.911552
426.265116	19.888403
426.698909	19.858229
427.132689	19.822447
427.566455	19.833103
428.000209	19.826682
428.433949	19.855097
428.867676	19.871242
429.301389	19.856553
429.735090	19.840809
430.168777	19.854243
430.602451	19.859640
431.036111	19.847252
431.469759	19.845776
431.903392	19.840604
432.337013	19.830462
432.770620	19.839224
433.204213	19.817869
433.637794	19.814057
434.071360	19.822667
434.504914	19.799739
434.938453	19.788855
435.371979	19.785510
435.805492	19.788327
436.238991	19.790113
436.672477	19.788822
437.105949	19.802974
437.539407	19.776966
437.972852	19.741472
438.406283	19.686912
438.839700	19.650873
439.273104	19.636793
439.706494	19.593655
440.139871	19.558403
440.573233	19.538270
441.006582	19.480672
441.439917	19.439529
441.873238	19.380059
442.306546	19.323349
442.739839	19.269877
443.173119	19.220590
443.606385	19.155092
444.039636	19.074279
444.472874	19.009357
444.906099	18.932849
445.339309	18.882122
445.772505	18.839356
446.205687	18.777944
446.638855	18.709366
447.072009	18.632861
447.505149	18.561880
447.938275	18.504470
448.371387	18.423209
448.804485	18.349375
449.237569	18.250250
449.670638	18.143792
450.103694	18.047029
450.536735	17.959743
450.969762	17.866676
451.402774	17.760245
451.835773	17.688467
452.268757	17.602382
452.701727	17.487112
453.134683	17.406784
453.567624	17.311038
454.000551	17.230611
454.433464	17.148348
454.866362	17.052350
455.299246	16.965967
455.732116	16.850349
456.164971	16.739674
456.597811	16.629595
457.030638	16.527588
457.463449	16.427700
457.896246	16.326713
458.329029	16.233417
458.761797	16.133717
459.194551	16.018060
459.627290	15.911468
460.060014	15.805985
460.492724	15.699909
460.925419	15.582722
461.358099	15.492979
461.790765	15.399447
462.223416	15.301622
462.656052	15.219154
463.088674	15.136215
463.521281	15.043998
463.953873	14.941398
464.386450	14.865133
464.819012	14.809997
465.251560	14.727081
465.684093	14.663115
466.116611	14.615485
466.549114	14.570648
466.981602	14.531893
467.414075	14.465645
467.846533	14.416348
468.278977	14.382275
468.711405	14.343057
469.143818	14.334320
469.576216	14.326137
470.008600	14.319383
470.440968	14.304063
470.873321	14.305087
471.305659	14.304609
471.737982	14.309866
472.170289	14.303666
472.602582	14.330720
473.034859	14.365055
473.467122	14.408051
473.899369	14.454131
474.331600	14.498306
474.763817	14.552520
475.196018	14.616369
475.628204	14.686885
476.060375	14.749092
476.492530	14.824887
476.924670	14.908319
477.356795	15.000993
477.788904	15.082434
478.220998	15.174848
478.653076	15.279370
479.085139	15.389268
479.517186	15.501011
479.949219	15.599628
480.381235	15.705147
480.813236	15.819880
481.245221	15.941506
481.677191	16.043005
482.109146	16.141072
482.541084	16.226587
482.973008	16.322224
483.404915	16.411644
483.836807	16.511386
484.268683	16.593173
484.700544	16.679274
485.132388	16.753815
485.564217	16.839354
485.996031	16.898964
486.427828	16.951658
486.859610	16.997882
487.291376	17.035570
487.723126	17.080041
488.154860	17.102715
488.586579	17.117594
489.018281	17.117018
489.449968	17.123311
489.881639	17.118173
490.313293	17.105130
490.744932	17.090873
491.176555	17.061508
491.608162	17.018927
492.039753	16.964123
492.471328	16.903046
492.902886	16.821574
493.334429	16.745119
493.765956	16.664752
494.197466	16.575051
494.628960	16.465278
495.060439	16.371363
495.491901	16.269104
495.923347	16.176117
496.354776	16.064264
496.786190	15.948304
497.217587	15.828829
497.648968	15.716825
498.080332	15.589526
498.511681	15.472318
498.943013	15.333104
499.374328	15.197190
499.805628	15.059387
500.236911	14.927613
500.668177	14.786121
501.099427	14.642889
501.530661	14.499051
501.961878	14.368996
502.393079	14.243855
502.824264	14.125036
503.255431	14.018365
503.686583	13.912311
504.117717	13.819784
504.548835	13.749969
504.979937	13.683411
505.411022	13.629587
505.842090	13.578735
506.273142	13.538366
506.704177	13.511960
507.135195	13.490852
507.566197	13.496679
507.997182	13.519514
508.428150	13.560238
508.859102	13.612171
509.290036	13.681124
509.720954	13.779811
510.151855	13.902038
510.582739	14.048392
511.013607	14.216614
511.444457	14.420369
511.875291	14.633510
512.306107	14.881502
512.736907	15.155322
513.167690	15.447681
513.598456	15.768835
514.029205	16.130168
514.459936	16.527931
514.890651	16.948104
515.321349	17.398128
515.752030	17.891276
516.182693	18.409095
516.613340	18.960696
517.043969	19.552068
517.474582	20.172591
517.905177	20.817537
518.335755	21.488072
518.766315	22.182310
519.196859	22.915064
519.627385	23.672988
520.057894	24.436684
520.488386	25.222302
520.918860	26.016958
521.349318	26.846318
521.779757	27.692788
522.210180	28.582925
522.640585	29.486530
523.070973	30.419330
523.501343	31.367442
523.931696	32.323417
524.362031	33.297822
524.792349	34.287805
525.222650	35.313819
525.652933	36.323203
526.083198	37.357066
526.513446	38.411020
526.943677	39.449277
527.373890	40.495204
527.804085	41.542135
528.234262	42.594405
528.664422	43.646456
529.094565	44.690345
529.524689	45.727968
529.954796	46.759117
530.384885	47.773418
530.814957	48.780230
531.245011	49.783546
531.675047	50.780810
532.105065	51.777102
532.535065	52.763707
532.965048	53.744870
533.395013	54.702760
533.824959	55.665413
534.254888	56.618330
534.684799	57.569740
535.114693	58.513504
535.544568	59.425424
535.974425	60.322795
536.404264	61.179782
536.834086	62.025029
537.263889	62.856398
537.693674	63.671015
538.123441	64.469912
538.553190	65.214204
538.982921	65.978460
539.412634	66.710733
539.842329	67.438056
540.272006	68.148340
540.701664	68.832110
541.131304	69.502456
541.560926	70.153508
541.990530	70.783773
542.420116	71.418610
542.849683	72.025077
543.279232	72.632164
543.708763	73.213482
544.138275	73.790347
544.567769	74.326211
544.997245	74.853531
545.426702	75.365119
545.856141	75.868179
546.285562	76.371939
546.714964	76.862013
547.144347	77.343108
547.573713	77.806804
548.003059	78.264372
548.432387	78.726082
548.861697	79.191103
549.290988	79.652920
549.720260	80.127493
550.149514	80.592902
550.578750	81.045475
551.007966	81.485015
551.437164	81.937446
551.866344	82.381342
552.295504	82.809778
552.724646	83.251123
553.153769	83.669509
553.582874	84.103297
554.011960	84.530959
554.441027	84.947905
554.870075	85.356397
555.299104	85.756123
555.728115	86.127717
556.157106	86.500369
556.586079	86.855909
557.015033	87.210830
557.443968	87.531097
557.872884	87.861574
558.301781	88.183393
558.730659	88.509387
559.159518	88.801098
559.588358	89.080982
560.017180	89.363257
560.445982	89.621049
560.874765	89.879974
561.303528	90.111322
561.732273	90.351847
562.160999	90.552154
562.589705	90.758456
563.018393	90.942296
563.447061	91.130195
563.875710	91.303835
564.304340	91.481017
564.732950	91.626322
565.161542	91.788448
565.590114	91.930389
566.018666	92.073206
566.447200	92.213168
566.875714	92.333359
567.304208	92.468267
567.732684	92.584640
568.161140	92.715139
568.589576	92.850126
569.017993	92.973222
569.446391	93.105355
569.874769	93.225716
570.303128	93.341131
570.731467	93.460486
571.159787	93.564077
571.588087	93.668472
572.016368	93.766161
572.444629	93.859148
572.872870	93.944814
573.301092	94.019375
573.729294	94.099974
574.157476	94.181808
574.585639	94.272501
575.013782	94.317255
575.441906	94.401453
575.870009	94.466776
576.298093	94.529479
576.726157	94.587960
577.154202	94.659472
577.582226	94.750387
578.010231	94.812635
578.438216	94.873480
578.866181	94.936919
579.294126	94.996369
579.722051	95.069050
580.149957	95.167723
580.577842	95.240158
581.005707	95.328580
581.433553	95.408182
581.861378	95.496497
582.289184	95.593190
582.716969	95.670523
583.144734	95.752464
583.572479	95.841290
584.000205	95.935556
584.427910	96.034904
584.855594	96.122409
585.283259	96.196228
585.710904	96.283371
586.138528	96.356006
586.566132	96.427724
586.993716	96.494888
587.421280	96.549429
587.848823	96.604497
588.276346	96.674180
588.703849	96.705272
589.131332	96.739284
589.558794	96.775945
589.986236	96.794094
590.413657	96.800600
590.841058	96.781169
591.268438	96.780960
591.695799	96.770383
592.123138	96.741074
592.550458	96.707751
592.977756	96.654111
593.405034	96.582442
593.832292	96.505807
594.259529	96.412415
594.686746	96.306823
595.113942	96.186899
595.541117	96.052765
595.968272	95.928478
596.395406	95.797508
596.822519	95.646334
597.249612	95.492457
597.676684	95.336851
598.103735	95.170260
598.530766	95.018756
598.957775	94.868535
599.384764	94.715284
599.811733	94.570574
600.238680	94.419251
600.665606	94.273146
601.092512	94.123712
601.519397	93.971139
601.946261	93.832435
602.373104	93.699160
602.799926	93.553238
603.226727	93.420419
603.653507	93.287230
604.080266	93.144254
604.507004	93.004238
604.933721	92.862653
605.360417	92.741981
605.787092	92.609113
606.213746	92.470894
606.640379	92.320460
607.066991	92.177980
607.493581	92.036588
607.920150	91.891986
608.346699	91.752853
608.773226	91.606708
609.199731	91.463114
609.626216	91.306987
610.052679	91.156963
610.479121	90.993410
610.905542	90.827383
611.331941	90.670728
611.758319	90.479841
612.184676	90.286283
612.611011	90.091962
613.037325	89.877476
613.463617	89.652201
613.889888	89.419376
614.316138	89.172653
614.742366	88.921881
615.168573	88.652967
615.594758	88.370473
616.020921	88.075930
616.447063	87.768502
616.873184	87.456568
617.299283	87.127752
617.725360	86.800224
618.151416	86.467136
618.577450	86.098209
619.003462	85.720790
619.429453	85.342474
619.855422	84.966279
620.281369	84.584236
620.707295	84.198567
621.133199	83.797970
621.559081	83.388584
621.984941	82.976552
622.410779	82.550318
622.836596	82.116702
623.262391	81.683383
623.688163	81.238719
624.113914	80.784923
624.539644	80.313600
624.965351	79.833630
625.391036	79.334031
625.816699	78.815374
626.242340	78.283995
626.667960	77.730749
627.093557	77.149730
627.519132	76.550076
627.944685	75.915185
628.370216	75.262963
628.795725	74.591851
629.221212	73.905530
629.646677	73.190981
630.072119	72.457755
630.497540	71.709248
630.922938	70.923165
631.348314	70.114169
631.773668	69.313242
632.198999	68.491432
632.624308	67.670787
633.049595	66.818505
633.474860	65.957443
633.900102	65.085171
634.325322	64.221542
634.750520	63.341706
635.175695	62.450874
635.600848	61.558183
636.025978	60.666921
636.451086	59.768208
636.876171	58.864559
637.301234	57.936109
637.726275	57.014575
638.151293	56.092621
638.576288	55.155627
639.001261	54.219509
639.426211	53.278649
639.851139	52.323296
640.276044	51.369640
640.700927	50.414270
641.125787	49.463044
641.550624	48.520497
641.975438	47.566014
642.400230	46.624619
642.824999	45.697944
643.249745	44.772704
643.674469	43.874335
644.099169	43.001251
644.523847	42.151842
644.948502	41.325343
645.373135	40.533459
645.797744	39.756644
646.222330	39.021583
646.646894	38.322254
647.071435	37.648388
647.495953	37.006933
647.920447	36.397464
648.344919	35.828687
648.769368	35.286107
649.193794	34.776134
649.618197	34.292515
650.042576	33.846848
650.466933	33.449019
650.891267	33.065501
651.315577	32.720066
651.739864	32.406223
652.164129	32.127788
652.588370	31.880339
653.012587	31.671397
653.436782	31.491194
653.860953	31.345616
654.285102	31.226447
654.709226	31.139334
655.133328	31.083029
655.557406	31.052367
655.981461	31.042203
656.405493	31.062393
656.829501	31.109143
657.253486	31.171918
657.677448	31.257310
658.101386	31.355650
658.525301	31.463180
658.949192	31.590580
659.373060	31.742757
659.796904	31.912228
660.220725	32.103331
660.644522	32.310071
661.068296	32.541393
661.492046	32.797047
661.915772	33.076581
662.339475	33.384992
662.763154	33.716262
663.186810	34.075351
663.610442	34.453005
664.034050	34.862634
664.457635	35.286444
664.881196	35.739700
665.304733	36.210188
665.728247	36.709843
666.151736	37.230347
666.575202	37.762687
666.998644	38.317955
667.422062	38.897191
667.845457	39.489517
668.268827	40.101393
668.692174	40.735449
669.115496	41.383113
669.538795	42.053420
669.962070	42.733598
670.385321	43.438176
670.808547	44.160287
671.231750	44.907184
671.654929	45.667932
672.078084	46.442274
672.501214	47.226470
672.924321	48.017150
673.347404	48.821901
673.770462	49.627365
674.193496	50.429287
674.616506	51.227659
675.039492	52.016051
675.462454	52.792231
675.885391	53.553594
676.308305	54.297410
676.731194	55.037933
677.154058	55.757077
677.576899	56.459265
677.999715	57.131355
678.422507	57.790705
678.845274	58.420806
679.268017	59.020794
679.690736	59.613877
680.113430	60.166873
680.536100	60.703041
680.958746	61.215787
681.381367	61.712141
681.803963	62.175749
682.226535	62.623631
682.649083	63.065917
683.071605	63.486683
683.494104	63.887667
683.916578	64.266601
684.339027	64.617263
684.761451	64.948457
685.183851	65.256148
685.606227	65.552609
686.028577	65.834898
686.450903	66.092190
686.873204	66.329542
687.295481	66.547792
687.717733	66.743770
688.139959	66.910595
688.562162	67.046582
688.984339	67.161747
689.406492	67.247590
689.828619	67.299937
690.250722	67.332802
690.672800	67.353966
691.094853	67.365195
691.516881	67.342210
691.938884	67.301802
692.360863	67.245446
692.782816	67.171606
693.204744	67.094355
693.626647	66.995323
694.048526	66.884368
694.470379	66.754450
694.892207	66.604741
695.314010	66.447295
695.735788	66.271617
696.157540	66.088830
696.579268	65.899017
697.000970	65.698730
697.422648	65.490718
697.844300	65.271996
698.265926	65.048952
698.687528	64.814533
699.109104	64.570810
699.530655	64.315288
699.952181	64.054068
700.373681	63.791959
700.795156	63.540115
701.216606	63.293383
701.638030	63.037680
702.059429	62.791638
702.480803	62.541457
702.902151	62.292528
703.323473	62.048444
703.744770	61.795522
704.166042	61.545669
704.587288	61.302589
705.008509	61.069478
705.429704	60.841042
705.850873	60.615344
706.272017	60.391589
706.693135	60.188931
707.114228	59.988876
707.535295	59.804346
707.956336	59.649213
708.377352	59.506993
708.798342	59.376974
709.219306	59.272181
709.640245	59.189556
710.061157	59.128717
710.482044	59.088022
710.902905	59.070828
711.323741	59.073868
711.744550	59.102877
712.165334	59.154913
712.586092	59.229650
713.006823	59.329429
713.427529	59.450901
713.848209	59.577390
714.268863	59.722467
714.689492	59.888821
715.110094	60.075599
715.530670	60.290167
715.951220	60.536830
716.371744	60.788524
716.792242	61.067163
717.212714	61.370026
717.633159	61.699143
718.053579	62.055806
718.473973	62.439135
718.894340	62.849523
719.314681	63.294084
719.734996	63.747279
720.155285	64.227303
720.575547	64.727900
720.995784	65.240572
721.415994	65.778206
721.836177	66.339688
722.256335	66.907229
722.676466	67.488731
723.096570	68.082054
723.516649	68.677508
723.936701	69.275906
724.356726	69.869479
724.776725	70.461985
725.196698	71.053761
725.616644	71.650970
726.036564	72.232049
726.456457	72.797483
726.876324	73.353536
727.296164	73.903205
727.715977	74.451258
728.135764	74.968959
728.555525	75.487179
728.975258	75.973033
729.394966	76.465473
729.814646	76.943889
730.234300	77.396972
730.653927	77.849499
731.073527	78.290408
731.493101	78.728144
731.912648	79.150113
732.332168	79.567149
732.751661	79.986093
733.171128	80.405229
733.590568	80.823481
734.009980	81.246935
734.429366	81.665090
734.848726	82.067190
735.268058	82.478080
735.687363	82.884741
736.106641	83.283899
736.525893	83.680920
736.945117	84.089845
737.364314	84.500009
737.783485	84.910917
738.202628	85.323563
738.621744	85.726271
739.040834	86.144286
739.459896	86.571049
739.878931	86.999533
740.297939	87.443051
740.716919	87.890311
741.135873	88.343716
741.554799	88.789190
741.973698	89.252916
742.392570	89.715873
742.811415	90.189342
743.230232	90.678574
743.649022	91.180613
744.067785	91.661539
744.486521	92.134983
744.905229	92.623506
745.323909	93.099601
745.742563	93.575282
746.161189	94.042089
746.579787	94.509305
746.998358	94.957866
747.416902	95.401289
747.835418	95.851727
748.253907	96.296075
748.672368	96.727178
749.090802	97.159041
749.509208	97.590365
749.927586	97.992696
750.345937	98.390460
750.764261	98.802544
751.182556	99.181004
751.600824	99.571513
752.019065	99.950658
752.437277	100.324464
752.855462	100.700472
753.273620	101.056798
753.691749	101.414767
