Time1=100ms:Average1=5:Objective=10X:Aperture=1: (11/21/2018 12:10:59 PM)
11/21/2018 12:10:59 PM
Reflectance
10X
Ap#: 1
Avg1: 5.000000
Avg2: 0.000000
Int.Time1:100.000000

350.166136	93.534400
350.601937	94.435596
351.037728	94.956787
351.473509	95.168301
351.909281	95.116255
352.345042	94.834626
352.780794	95.183064
353.216536	95.211843
353.652267	95.232737
354.087989	94.513130
354.523701	94.202899
354.959403	94.187112
355.395095	94.445012
355.830777	94.944450
356.266449	95.222052
356.702110	95.013682
357.137762	95.040228
357.573404	95.152198
358.009035	94.522371
358.444656	94.484388
358.880268	94.629630
359.315869	94.703761
359.751459	94.320633
360.187040	94.325438
360.622610	94.418653
361.058170	94.361406
361.493720	94.754775
361.929260	94.823311
362.364789	94.190829
362.800308	94.330320
363.235816	94.788341
363.671314	94.654217
364.106802	94.825993
364.542279	94.936968
364.977746	95.071149
365.413203	95.265661
365.848649	95.227766
366.284084	94.898064
366.719509	94.421657
367.154924	94.773591
367.590328	94.625857
368.025721	94.789107
368.461104	95.180970
368.896477	94.880197
369.331838	95.116708
369.767189	94.695202
370.202530	94.873890
370.637859	94.763445
371.073178	95.097741
371.508486	95.295072
371.943784	95.513146
372.379071	95.539335
372.814347	95.657480
373.249612	95.644209
373.684866	95.131805
374.120110	95.355661
374.555343	95.103692
374.990565	94.976341
375.425776	94.869731
375.860976	95.233777
376.296165	94.581529
376.731343	94.418278
377.166511	94.050251
377.601667	93.504154
378.036812	93.000401
378.471946	92.826456
378.907070	93.080758
379.342182	93.282245
379.777283	93.352572
380.212373	93.059279
380.647452	92.968750
381.082520	93.095614
381.517576	92.898008
381.952622	93.275725
382.387656	93.604709
382.822679	93.750623
383.257691	93.954559
383.692692	93.692706
384.127681	93.414073
384.562659	92.550656
384.997626	92.909560
385.432581	92.438880
385.867525	92.423497
386.302458	92.488493
386.737379	92.594044
387.172289	92.777452
387.607188	92.327117
388.042075	92.889105
388.476951	92.700730
388.911815	93.036374
389.346668	92.884260
389.781509	93.434294
390.216338	93.182040
390.651157	93.459586
391.085963	93.762260
391.520758	93.726757
391.955541	93.979802
392.390313	93.452670
392.825073	93.210117
393.259821	93.688228
393.694558	94.325334
394.129283	93.723727
394.563996	93.883762
394.998698	94.305734
395.433388	93.848039
395.868066	93.586247
396.302732	93.381134
396.737386	93.504914
397.172029	93.657187
397.606659	93.648413
398.041278	93.567505
398.475885	92.653393
398.910480	92.306592
399.345063	91.639507
399.779634	90.948659
400.214194	89.460119
400.648741	88.257180
401.083276	86.541110
401.517799	84.665776
401.952310	82.082061
402.386809	79.493599
402.821296	76.958525
403.255771	73.987648
403.690234	71.373362
404.124684	68.061214
404.559123	64.523047
404.993549	61.208833
405.427963	57.649879
405.862365	54.271344
406.296754	51.321675
406.731131	48.254882
407.165496	45.443809
407.599849	43.038142
408.034190	40.726705
408.468518	38.457046
408.902833	36.490163
409.337137	34.609652
409.771428	32.914043
410.205706	31.263558
410.639973	29.804918
411.074226	28.688278
411.508467	27.643271
411.942696	26.606615
412.376912	25.810536
412.811116	25.044285
413.245307	24.306367
413.679486	23.719429
414.113652	23.125144
414.547805	22.625759
414.981946	22.117587
415.416074	21.737622
415.850190	21.354963
416.284293	20.987046
416.718383	20.639739
417.152460	20.297742
417.586525	20.045707
418.020577	19.852244
418.454616	19.688310
418.888643	19.544210
419.322656	19.393781
419.756657	19.241639
420.190645	19.137018
420.624620	19.001789
421.058582	18.859555
421.492531	18.783773
421.926468	18.703496
422.360391	18.594276
422.794301	18.557237
423.228199	18.523907
423.662083	18.490178
424.095955	18.483445
424.529813	18.421515
424.963658	18.383120
425.397491	18.361986
425.831310	18.323743
426.265116	18.276098
426.698909	18.255998
427.132689	18.216824
427.566455	18.196228
428.000209	18.157133
428.433949	18.127257
428.867676	18.115543
429.301389	18.090154
429.735090	18.054939
430.168777	18.054799
430.602451	18.055709
431.036111	18.012701
431.469759	17.987702
431.903392	17.957210
432.337013	17.917248
432.770620	17.865064
433.204213	17.819503
433.637794	17.785590
434.071360	17.767752
434.504914	17.753412
434.938453	17.717550
435.371979	17.684096
435.805492	17.659999
436.238991	17.586895
436.672477	17.546333
437.105949	17.500951
437.539407	17.435292
437.972852	17.387845
438.406283	17.335433
438.839700	17.298768
439.273104	17.228472
439.706494	17.162454
440.139871	17.090183
440.573233	17.044254
441.006582	16.961532
441.439917	16.890383
441.873238	16.813023
442.306546	16.741191
442.739839	16.667028
443.173119	16.598032
443.606385	16.516977
444.039636	16.436533
444.472874	16.368387
444.906099	16.278733
445.339309	16.200144
445.772505	16.113479
446.205687	16.053507
446.638855	15.974905
447.072009	15.883241
447.505149	15.791824
447.938275	15.710696
448.371387	15.632347
448.804485	15.550112
449.237569	15.480426
449.670638	15.398343
450.103694	15.302176
450.536735	15.224908
450.969762	15.149042
451.402774	15.061807
451.835773	14.968618
452.268757	14.890951
452.701727	14.816843
453.134683	14.747850
453.567624	14.665126
454.000551	14.589897
454.433464	14.535310
454.866362	14.469409
455.299246	14.423224
455.732116	14.352044
456.164971	14.274252
456.597811	14.210518
457.030638	14.152319
457.463449	14.072880
457.896246	14.013047
458.329029	13.944418
458.761797	13.904421
459.194551	13.852930
459.627290	13.783033
460.060014	13.740545
460.492724	13.690714
460.925419	13.648817
461.358099	13.603009
461.790765	13.546298
462.223416	13.506420
462.656052	13.467030
463.088674	13.448510
463.521281	13.415441
463.953873	13.381605
464.386450	13.354659
464.819012	13.334783
465.251560	13.333125
465.684093	13.313719
466.116611	13.293804
466.549114	13.286512
466.981602	13.291233
467.414075	13.290871
467.846533	13.286523
468.278977	13.290932
468.711405	13.279364
469.143818	13.282212
469.576216	13.300508
470.008600	13.308671
470.440968	13.310564
470.873321	13.323823
471.305659	13.332069
471.737982	13.368176
472.170289	13.380527
472.602582	13.406314
473.034859	13.446203
473.467122	13.474861
473.899369	13.514414
474.331600	13.545208
474.763817	13.592877
475.196018	13.642811
475.628204	13.692404
476.060375	13.737609
476.492530	13.790721
476.924670	13.843306
477.356795	13.898049
477.788904	13.950874
478.220998	14.004118
478.653076	14.045463
479.085139	14.095673
479.517186	14.150959
479.949219	14.190806
480.381235	14.220175
480.813236	14.254825
481.245221	14.286344
481.677191	14.322398
482.109146	14.337225
482.541084	14.360616
482.973008	14.371476
483.404915	14.385294
483.836807	14.397375
484.268683	14.395217
484.700544	14.391147
485.132388	14.370291
485.564217	14.344886
485.996031	14.323508
486.427828	14.291187
486.859610	14.255132
487.291376	14.201246
487.723126	14.155656
488.154860	14.096024
488.586579	14.036334
489.018281	13.964453
489.449968	13.901706
489.881639	13.829713
490.313293	13.762099
490.744932	13.686601
491.176555	13.600662
491.608162	13.516138
492.039753	13.438262
492.471328	13.345239
492.902886	13.242361
493.334429	13.144606
493.765956	13.048896
494.197466	12.943523
494.628960	12.848914
495.060439	12.752254
495.491901	12.662111
495.923347	12.570015
496.354776	12.481770
496.786190	12.396190
497.217587	12.308697
497.648968	12.241306
498.080332	12.169323
498.511681	12.104609
498.943013	12.046139
499.374328	11.988459
499.805628	11.949396
500.236911	11.928908
500.668177	11.919155
501.099427	11.915913
501.530661	11.927478
501.961878	11.954714
502.393079	12.001946
502.824264	12.062065
503.255431	12.126495
503.686583	12.215587
504.117717	12.317043
504.548835	12.445972
504.979937	12.584601
505.411022	12.724599
505.842090	12.894254
506.273142	13.093284
506.704177	13.308778
507.135195	13.550490
507.566197	13.809721
507.997182	14.097475
508.428150	14.413112
508.859102	14.763599
509.290036	15.130084
509.720954	15.531668
510.151855	15.948311
510.582739	16.409810
511.013607	16.883246
511.444457	17.394662
511.875291	17.926741
512.306107	18.483796
512.736907	19.065431
513.167690	19.664139
513.598456	20.285367
514.029205	20.943469
514.459936	21.634203
514.890651	22.359689
515.321349	23.090888
515.752030	23.857490
516.182693	24.640103
516.613340	25.467633
517.043969	26.310499
517.474582	27.183308
517.905177	28.074485
518.335755	28.988021
518.766315	29.921613
519.196859	30.860984
519.627385	31.791629
520.057894	32.716408
520.488386	33.649674
520.918860	34.599004
521.349318	35.553790
521.779757	36.513323
522.210180	37.486827
522.640585	38.471388
523.070973	39.451374
523.501343	40.430114
523.931696	41.387668
524.362031	42.355703
524.792349	43.315636
525.222650	44.287307
525.652933	45.240201
526.083198	46.187808
526.513446	47.118899
526.943677	48.053432
527.373890	48.976978
527.804085	49.885421
528.234262	50.769204
528.664422	51.665682
529.094565	52.526428
529.524689	53.379887
529.954796	54.194104
530.384885	54.997281
530.814957	55.771948
531.245011	56.530515
531.675047	57.276914
532.105065	58.003002
532.535065	58.713428
532.965048	59.429395
533.395013	60.118156
533.824959	60.783205
534.254888	61.431659
534.684799	62.077313
535.114693	62.714300
535.544568	63.325668
535.974425	63.925103
536.404264	64.504267
536.834086	65.075951
537.263889	65.660851
537.693674	66.216923
538.123441	66.766555
538.553190	67.279377
538.982921	67.800265
539.412634	68.297141
539.842329	68.823678
540.272006	69.307200
540.701664	69.780113
541.131304	70.263962
541.560926	70.729656
541.990530	71.182315
542.420116	71.652582
542.849683	72.096033
543.279232	72.546671
543.708763	72.980374
544.138275	73.423906
544.567769	73.845821
544.997245	74.262782
545.426702	74.671574
545.856141	75.076210
546.285562	75.474199
546.714964	75.880344
547.144347	76.296287
547.573713	76.702744
548.003059	77.091293
548.432387	77.474221
548.861697	77.852785
549.290988	78.225423
549.720260	78.608351
550.149514	78.981847
550.578750	79.331176
551.007966	79.671102
551.437164	80.002352
551.866344	80.332962
552.295504	80.640096
552.724646	80.958863
553.153769	81.245275
553.582874	81.554796
554.011960	81.850032
554.441027	82.105976
554.870075	82.359692
555.299104	82.605579
555.728115	82.810459
556.157106	83.033335
556.586079	83.243789
557.015033	83.440778
557.443968	83.621514
557.872884	83.785540
558.301781	83.939496
558.730659	84.106668
559.159518	84.248582
559.588358	84.402001
560.017180	84.535199
560.445982	84.661971
560.874765	84.782195
561.303528	84.895745
561.732273	85.030477
562.160999	85.155041
562.589705	85.284217
563.018393	85.386111
563.447061	85.494926
563.875710	85.616429
564.304340	85.745954
564.732950	85.870969
565.161542	85.995903
565.590114	86.120343
566.018666	86.254868
566.447200	86.379360
566.875714	86.501320
567.304208	86.628394
567.732684	86.762195
568.161140	86.896059
568.589576	87.033737
569.017993	87.177477
569.446391	87.314988
569.874769	87.447346
570.303128	87.577699
570.731467	87.704886
571.159787	87.832785
571.588087	87.962167
572.016368	88.057568
572.444629	88.174150
572.872870	88.263638
573.301092	88.364149
573.729294	88.441974
574.157476	88.533180
574.585639	88.619301
575.013782	88.684991
575.441906	88.749432
575.870009	88.796931
576.298093	88.859177
576.726157	88.919387
577.154202	88.963491
577.582226	89.013272
578.010231	89.041779
578.438216	89.082699
578.866181	89.106480
579.294126	89.131282
579.722051	89.163871
580.149957	89.193043
580.577842	89.218666
581.005707	89.246278
581.433553	89.261309
581.861378	89.291540
582.289184	89.307369
582.716969	89.317349
583.144734	89.329328
583.572479	89.342068
584.000205	89.344617
584.427910	89.360425
584.855594	89.349382
585.283259	89.342861
585.710904	89.333902
586.138528	89.317511
586.566132	89.298445
586.993716	89.283633
587.421280	89.250062
587.848823	89.219620
588.276346	89.184567
588.703849	89.139357
589.131332	89.101580
589.558794	89.052170
589.986236	88.980031
590.413657	88.917581
590.841058	88.849105
591.268438	88.781718
591.695799	88.697129
592.123138	88.632541
592.550458	88.546815
592.977756	88.457646
593.405034	88.355847
593.832292	88.255616
594.259529	88.146369
594.686746	88.054166
595.113942	87.937692
595.541117	87.824532
595.968272	87.708240
596.395406	87.592703
596.822519	87.490060
597.249612	87.393459
597.676684	87.284617
598.103735	87.180001
598.530766	87.087059
598.957775	86.987744
599.384764	86.895512
599.811733	86.780747
600.238680	86.675184
600.665606	86.570340
601.092512	86.461875
601.519397	86.341444
601.946261	86.231490
602.373104	86.101239
602.799926	85.958558
603.226727	85.827412
603.653507	85.677264
604.080266	85.513957
604.507004	85.361839
604.933721	85.188645
605.360417	85.005975
605.787092	84.823586
606.213746	84.625385
606.640379	84.418989
607.066991	84.200536
607.493581	83.975436
607.920150	83.734072
608.346699	83.489748
608.773226	83.251685
609.199731	82.995405
609.626216	82.735817
610.052679	82.463519
610.479121	82.178508
610.905542	81.891095
611.331941	81.606270
611.758319	81.308301
612.184676	81.008158
612.611011	80.699148
613.037325	80.396399
613.463617	80.071037
613.889888	79.745755
614.316138	79.418463
614.742366	79.083396
615.168573	78.737644
615.594758	78.391357
616.020921	78.051393
616.447063	77.700946
616.873184	77.346366
617.299283	76.985355
617.725360	76.623780
618.151416	76.265020
618.577450	75.893363
619.003462	75.508823
619.429453	75.127779
619.855422	74.735361
620.281369	74.344516
620.707295	73.942729
621.133199	73.537405
621.559081	73.112374
621.984941	72.673779
622.410779	72.234547
622.836596	71.772812
623.262391	71.294681
623.688163	70.805867
624.113914	70.306062
624.539644	69.782789
624.965351	69.237388
625.391036	68.659192
625.816699	68.047991
626.242340	67.409896
626.667960	66.742659
627.093557	66.040176
627.519132	65.307501
627.944685	64.544917
628.370216	63.754428
628.795725	62.935535
629.221212	62.083632
629.646677	61.214457
630.072119	60.317797
630.497540	59.404498
630.922938	58.459160
631.348314	57.502872
631.773668	56.525891
632.198999	55.539959
632.624308	54.548069
633.049595	53.566309
633.474860	52.571797
633.900102	51.579975
634.325322	50.588837
634.750520	49.615531
635.175695	48.648495
635.600848	47.685751
636.025978	46.737128
636.451086	45.800264
636.876171	44.872173
637.301234	43.944606
637.726275	43.037036
638.151293	42.137926
638.576288	41.256057
639.001261	40.394321
639.426211	39.560185
639.851139	38.732632
640.276044	37.924167
640.700927	37.144626
641.125787	36.387974
641.550624	35.656654
641.975438	34.954874
642.400230	34.285502
642.824999	33.630838
643.249745	33.016155
643.674469	32.436387
644.099169	31.900112
644.523847	31.397857
644.948502	30.939177
645.373135	30.519359
645.797744	30.134977
646.222330	29.778776
646.646894	29.465158
647.071435	29.190083
647.495953	28.946695
647.920447	28.729716
648.344919	28.546079
648.769368	28.391588
649.193794	28.267585
649.618197	28.171806
650.042576	28.104613
650.466933	28.062848
650.891267	28.042154
651.315577	28.051633
651.739864	28.079433
652.164129	28.129474
652.588370	28.191969
653.012587	28.285124
653.436782	28.404680
653.860953	28.534867
654.285102	28.689620
654.709226	28.858119
655.133328	29.053024
655.557406	29.269870
655.981461	29.516067
656.405493	29.780321
656.829501	30.064644
657.253486	30.362354
657.677448	30.683979
658.101386	31.028195
658.525301	31.395269
658.949192	31.783553
659.373060	32.196224
659.796904	32.629081
660.220725	33.095027
660.644522	33.581239
661.068296	34.097002
661.492046	34.637653
661.915772	35.205910
662.339475	35.795476
662.763154	36.408019
663.186810	37.040545
663.610442	37.697188
664.034050	38.380560
664.457635	39.078522
664.881196	39.797856
665.304733	40.540105
665.728247	41.298346
666.151736	42.071757
666.575202	42.848434
666.998644	43.646119
667.422062	44.454444
667.845457	45.270103
668.268827	46.083470
668.692174	46.910084
669.115496	47.736412
669.538795	48.565953
669.962070	49.401807
670.385321	50.245936
670.808547	51.078419
671.231750	51.913650
671.654929	52.740507
672.078084	53.558023
672.501214	54.366532
672.924321	55.158080
673.347404	55.926601
673.770462	56.674552
674.193496	57.399262
674.616506	58.090938
675.039492	58.763268
675.462454	59.391373
675.885391	59.985437
676.308305	60.553740
676.731194	61.087731
677.154058	61.585292
677.576899	62.041169
677.999715	62.470405
678.422507	62.861985
678.845274	63.214781
679.268017	63.529306
679.690736	63.812844
680.113430	64.049973
680.536100	64.268644
680.958746	64.462559
681.381367	64.630698
681.803963	64.756218
682.226535	64.863967
682.649083	64.960217
683.071605	65.032847
683.494104	65.071776
683.916578	65.101679
684.339027	65.095461
684.761451	65.055200
685.183851	64.992198
685.606227	64.917262
686.028577	64.825829
686.450903	64.710867
686.873204	64.584342
687.295481	64.441587
687.717733	64.289547
688.139959	64.104421
688.562162	63.913244
688.984339	63.709537
689.406492	63.488149
689.828619	63.257873
690.250722	63.016978
690.672800	62.787892
691.094853	62.550431
691.516881	62.303688
691.938884	62.059662
692.360863	61.827160
692.782816	61.601965
693.204744	61.377679
693.626647	61.151843
694.048526	60.935732
694.470379	60.730651
694.892207	60.539965
695.314010	60.360863
695.735788	60.192551
696.157540	60.036843
696.579268	59.903770
697.000970	59.779732
697.422648	59.679114
697.844300	59.602996
698.265926	59.552241
698.687528	59.503613
699.109104	59.480882
699.530655	59.482521
699.952181	59.503112
700.373681	59.537896
700.795156	59.600561
701.216606	59.697902
701.638030	59.825031
702.059429	59.974259
702.480803	60.146548
702.902151	60.347865
703.323473	60.575372
703.744770	60.821142
704.166042	61.091733
704.587288	61.399300
705.008509	61.734143
705.429704	62.079808
705.850873	62.440554
706.272017	62.833601
706.693135	63.248219
707.114228	63.687692
707.535295	64.142233
707.956336	64.615078
708.377352	65.096216
708.798342	65.586434
709.219306	66.079634
709.640245	66.596066
710.061157	67.107257
710.482044	67.622833
710.902905	68.147609
711.323741	68.669402
711.744550	69.208811
712.165334	69.748912
712.586092	70.282566
713.006823	70.814586
713.427529	71.352763
713.848209	71.888966
714.268863	72.416903
714.689492	72.939719
715.110094	73.463404
715.530670	73.988592
715.951220	74.515441
716.371744	75.028533
716.792242	75.535508
717.212714	76.039410
717.633159	76.529224
718.053579	77.028487
718.473973	77.537029
718.894340	78.054133
719.314681	78.564972
719.734996	79.061460
720.155285	79.539957
720.575547	80.016154
720.995784	80.481598
721.415994	80.951287
721.836177	81.411549
722.256335	81.870891
722.676466	82.291955
723.096570	82.725052
723.516649	83.138127
723.936701	83.517393
724.356726	83.876617
724.776725	84.216123
725.196698	84.532653
725.616644	84.846742
726.036564	85.134135
726.456457	85.407328
726.876324	85.661136
727.296164	85.905028
727.715977	86.137512
728.135764	86.351992
728.555525	86.563445
728.975258	86.755058
729.394966	86.946892
729.814646	87.138657
730.234300	87.320905
730.653927	87.507545
731.073527	87.681103
731.493101	87.843057
731.912648	88.002186
732.332168	88.167446
732.751661	88.340734
733.171128	88.526947
733.590568	88.708983
734.009980	88.906282
734.429366	89.102557
734.848726	89.300673
735.268058	89.488788
735.687363	89.698937
736.106641	89.903685
736.525893	90.113973
736.945117	90.346446
737.364314	90.575716
737.783485	90.816545
738.202628	91.067069
738.621744	91.320428
739.040834	91.580480
739.459896	91.858702
739.878931	92.131715
740.297939	92.415148
740.716919	92.725720
741.135873	93.037538
741.554799	93.343854
741.973698	93.650640
742.392570	93.978150
742.811415	94.338631
743.230232	94.688244
743.649022	95.054086
744.067785	95.408712
744.486521	95.767716
744.905229	96.141895
745.323909	96.493922
745.742563	96.840795
746.161189	97.186533
746.579787	97.538056
746.998358	97.870114
747.416902	98.188848
747.835418	98.497252
748.253907	98.802354
748.672368	99.089277
749.090802	99.363445
749.509208	99.631577
749.927586	99.871699
750.345937	100.113379
750.764261	100.351110
751.182556	100.553738
751.600824	100.756875
752.019065	100.959842
752.437277	101.119229
752.855462	101.298612
753.273620	101.453454
753.691749	101.582863
