Time1=100ms:Average1=5:Objective=10X:Aperture=1: (11/21/2018 10:30:29 AM)
11/21/2018 10:30:29 AM
Reflectance
10X
Ap#: 1
Avg1: 5.000000
Avg2: 0.000000
Int.Time1:100.000000

350.166136	99.565016
350.601937	100.554281
351.037728	101.753019
351.473509	102.327856
351.909281	102.308831
352.345042	102.647496
352.780794	102.665214
353.216536	102.567661
353.652267	103.250820
354.087989	103.244104
354.523701	102.877340
354.959403	102.720683
355.395095	102.903739
355.830777	102.431005
356.266449	102.739726
356.702110	102.673743
357.137762	102.495010
357.573404	102.179564
358.009035	101.646214
358.444656	101.813809
358.880268	102.117623
359.315869	102.091714
359.751459	102.114378
360.187040	101.994159
360.622610	101.848298
361.058170	102.328419
361.493720	101.787891
361.929260	101.652976
362.364789	102.237592
362.800308	101.714170
363.235816	101.302504
363.671314	101.586981
364.106802	101.972228
364.542279	102.224469
364.977746	101.674738
365.413203	101.549452
365.848649	101.217794
366.284084	100.554715
366.719509	100.826863
367.154924	100.939109
367.590328	100.958241
368.025721	101.323767
368.461104	101.031345
368.896477	100.796612
369.331838	101.090579
369.767189	101.018145
370.202530	100.824535
370.637859	100.772472
371.073178	100.398486
371.508486	100.566038
371.943784	99.930919
372.379071	99.722964
372.814347	99.565217
373.249612	99.272227
373.684866	98.677637
374.120110	98.961599
374.555343	98.653396
374.990565	98.868624
375.425776	98.981491
375.860976	98.623987
376.296165	98.529269
376.731343	98.355711
377.166511	97.731679
377.601667	97.762646
378.036812	97.888415
378.471946	98.044152
378.907070	98.166731
379.342182	97.979604
379.777283	97.976213
380.212373	97.957031
380.647452	96.979226
381.082520	96.614188
381.517576	96.479074
381.952622	96.769916
382.387656	96.868496
382.822679	96.811731
383.257691	96.091390
383.692692	96.105978
384.127681	96.051268
384.562659	96.188044
384.997626	95.762152
385.432581	96.303300
385.867525	96.407355
386.302458	96.593375
386.737379	96.592620
387.172289	97.067171
387.607188	96.813841
388.042075	96.450486
388.476951	96.233681
388.911815	96.715021
389.346668	96.251748
389.781509	96.501809
390.216338	96.717968
390.651157	96.679886
391.085963	96.702284
391.520758	96.467991
391.955541	96.005863
392.390313	96.180969
392.825073	96.569076
393.259821	97.008782
393.694558	96.430528
394.129283	96.419764
394.563996	96.743929
394.998698	96.394253
395.433388	96.164384
395.868066	96.139102
396.302732	96.269610
396.737386	96.609707
397.172029	96.386417
397.606659	95.810713
398.041278	95.488112
398.475885	95.406742
398.910480	94.632340
399.345063	93.582300
399.779634	92.859010
400.214194	91.740629
400.648741	90.522986
401.083276	89.094582
401.517799	87.646539
401.952310	85.534420
402.386809	83.327059
402.821296	81.218734
403.255771	78.838507
403.690234	76.006522
404.124684	73.311237
404.559123	69.851803
404.993549	66.624741
405.427963	63.855138
405.862365	60.820786
406.296754	58.291446
406.731131	55.692406
407.165496	53.224466
407.599849	51.216321
408.034190	49.326611
408.468518	47.521267
408.902833	45.747701
409.337137	43.965612
409.771428	42.479126
410.205706	40.956097
410.639973	39.774285
411.074226	38.732758
411.508467	37.740241
411.942696	36.794777
412.376912	36.021872
412.811116	35.236366
413.245307	34.646397
413.679486	34.058719
414.113652	33.503888
414.547805	32.973822
414.981946	32.462759
415.416074	32.070062
415.850190	31.701521
416.284293	31.356978
416.718383	31.069029
417.152460	30.761721
417.586525	30.561570
418.020577	30.398713
418.454616	30.226850
418.888643	30.049731
419.322656	29.908094
419.756657	29.748433
420.190645	29.619732
420.624620	29.510712
421.058582	29.408755
421.492531	29.292270
421.926468	29.177112
422.360391	29.090991
422.794301	29.017021
423.228199	28.927298
423.662083	28.901921
424.095955	28.865364
424.529813	28.845084
424.963658	28.786594
425.397491	28.779220
425.831310	28.716814
426.265116	28.665027
426.698909	28.600187
427.132689	28.560225
427.566455	28.505253
428.000209	28.496380
428.433949	28.487643
428.867676	28.460221
429.301389	28.417437
429.735090	28.347474
430.168777	28.295980
430.602451	28.254713
431.036111	28.143311
431.469759	28.098298
431.903392	28.012533
432.337013	27.955869
432.770620	27.881459
433.204213	27.787691
433.637794	27.727658
434.071360	27.649967
434.504914	27.557061
434.938453	27.454447
435.371979	27.353897
435.805492	27.228359
436.238991	27.124094
436.672477	26.999307
437.105949	26.882036
437.539407	26.747856
437.972852	26.571475
438.406283	26.427855
438.839700	26.249608
439.273104	26.099363
439.706494	25.951111
440.139871	25.758025
440.573233	25.571325
441.006582	25.379942
441.439917	25.173403
441.873238	24.956938
442.306546	24.743740
442.739839	24.507318
443.173119	24.291524
443.606385	24.039821
444.039636	23.779075
444.472874	23.549240
444.906099	23.289876
445.339309	23.052807
445.772505	22.794807
446.205687	22.531034
446.638855	22.288605
447.072009	22.025647
447.505149	21.776541
447.938275	21.523712
448.371387	21.279253
448.804485	21.057379
449.237569	20.843875
449.670638	20.598044
450.103694	20.370556
450.536735	20.111175
450.969762	19.876727
451.402774	19.653858
451.835773	19.439672
452.268757	19.221016
452.701727	19.008782
453.134683	18.812555
453.567624	18.645790
454.000551	18.479606
454.433464	18.320849
454.866362	18.159132
455.299246	18.021837
455.732116	17.880792
456.164971	17.761715
456.597811	17.646535
457.030638	17.563061
457.463449	17.498216
457.896246	17.439018
458.329029	17.384253
458.761797	17.352614
459.194551	17.334800
459.627290	17.331269
460.060014	17.336781
460.492724	17.360686
460.925419	17.404671
461.358099	17.464137
461.790765	17.529396
462.223416	17.593894
462.656052	17.683098
463.088674	17.812195
463.521281	17.944920
463.953873	18.097924
464.386450	18.257711
464.819012	18.433281
465.251560	18.608912
465.684093	18.802593
466.116611	18.994262
466.549114	19.205481
466.981602	19.421505
467.414075	19.627223
467.846533	19.844836
468.278977	20.073238
468.711405	20.306587
469.143818	20.551764
469.576216	20.811858
470.008600	21.073712
470.440968	21.342998
470.873321	21.618754
471.305659	21.897801
471.737982	22.195614
472.170289	22.467653
472.602582	22.741102
473.034859	23.015154
473.467122	23.276607
473.899369	23.537390
474.331600	23.787266
474.763817	24.027424
475.196018	24.260596
475.628204	24.483804
476.060375	24.707102
476.492530	24.906996
476.924670	25.105047
477.356795	25.301016
477.788904	25.488429
478.220998	25.662544
478.653076	25.820889
479.085139	25.985574
479.517186	26.145716
479.949219	26.285808
480.381235	26.416569
480.813236	26.551639
481.245221	26.667335
481.677191	26.774268
482.109146	26.879801
482.541084	26.974999
482.973008	27.054059
483.404915	27.121667
483.836807	27.176973
484.268683	27.222379
484.700544	27.258301
485.132388	27.260441
485.564217	27.265242
485.996031	27.280092
486.427828	27.274182
486.859610	27.271026
487.291376	27.249643
487.723126	27.220360
488.154860	27.190300
488.586579	27.158218
489.018281	27.114548
489.449968	27.066022
489.881639	27.017256
490.313293	26.959768
490.744932	26.895289
491.176555	26.815401
491.608162	26.724879
492.039753	26.627248
492.471328	26.509852
492.902886	26.367829
493.334429	26.217022
493.765956	26.043605
494.197466	25.873751
494.628960	25.693838
495.060439	25.519723
495.491901	25.315096
495.923347	25.098244
496.354776	24.887140
496.786190	24.674482
497.217587	24.452245
497.648968	24.222162
498.080332	23.990141
498.511681	23.772417
498.943013	23.543355
499.374328	23.293386
499.805628	23.049259
500.236911	22.805184
500.668177	22.570833
501.099427	22.334285
501.530661	22.099404
501.961878	21.868535
502.393079	21.655322
502.824264	21.441630
503.255431	21.241751
503.686583	21.055967
504.117717	20.877322
504.548835	20.718330
504.979937	20.577162
505.411022	20.441430
505.842090	20.324766
506.273142	20.232098
506.704177	20.144087
507.135195	20.083030
507.566197	20.034548
507.997182	20.007082
508.428150	19.996273
508.859102	20.007226
509.290036	20.044839
509.720954	20.085164
510.151855	20.149249
510.582739	20.220993
511.013607	20.313052
511.444457	20.421142
511.875291	20.533609
512.306107	20.668930
512.736907	20.813410
513.167690	20.969999
513.598456	21.144142
514.029205	21.321292
514.459936	21.530270
514.890651	21.737083
515.321349	21.970926
515.752030	22.215639
516.182693	22.477187
516.613340	22.756091
517.043969	23.042678
517.474582	23.342414
517.905177	23.650439
518.335755	23.971986
518.766315	24.309028
519.196859	24.647596
519.627385	24.988207
520.057894	25.351651
520.488386	25.702011
520.918860	26.072529
521.349318	26.453056
521.779757	26.843742
522.210180	27.247039
522.640585	27.655885
523.070973	28.085444
523.501343	28.515540
523.931696	28.954855
524.362031	29.407261
524.792349	29.888773
525.222650	30.388334
525.652933	30.886128
526.083198	31.411779
526.513446	31.958247
526.943677	32.507990
527.373890	33.083644
527.804085	33.658466
528.234262	34.276446
528.664422	34.885198
529.094565	35.505338
529.524689	36.136291
529.954796	36.782452
530.384885	37.437695
530.814957	38.098637
531.245011	38.773139
531.675047	39.436651
532.105065	40.115066
532.535065	40.805070
532.965048	41.494403
533.395013	42.167592
533.824959	42.856040
534.254888	43.520988
534.684799	44.204584
535.114693	44.877854
535.544568	45.549417
535.974425	46.200211
536.404264	46.845113
536.834086	47.474646
537.263889	48.105410
537.693674	48.714562
538.123441	49.298981
538.553190	49.875133
538.982921	50.461693
539.412634	51.024664
539.842329	51.570253
540.272006	52.111539
540.701664	52.645757
541.131304	53.169212
541.560926	53.656435
541.990530	54.150904
542.420116	54.640883
542.849683	55.133984
543.279232	55.606042
543.708763	56.080445
544.138275	56.541434
544.567769	57.003603
544.997245	57.470965
545.426702	57.941637
545.856141	58.409081
546.285562	58.893848
546.714964	59.389097
547.144347	59.885550
547.573713	60.388544
548.003059	60.874168
548.432387	61.372521
548.861697	61.884089
549.290988	62.412329
549.720260	62.951581
550.149514	63.498134
550.578750	64.037252
551.007966	64.565831
551.437164	65.118317
551.866344	65.652829
552.295504	66.164477
552.724646	66.707839
553.153769	67.244399
553.582874	67.769315
554.011960	68.292497
554.441027	68.811271
554.870075	69.330491
555.299104	69.837124
555.728115	70.329811
556.157106	70.788116
556.586079	71.230740
557.015033	71.649752
557.443968	72.067989
557.872884	72.462726
558.301781	72.846022
558.730659	73.210641
559.159518	73.555352
559.588358	73.894791
560.017180	74.217471
560.445982	74.512999
560.874765	74.810206
561.303528	75.097277
561.732273	75.371079
562.160999	75.629979
562.589705	75.876989
563.018393	76.095272
563.447061	76.317313
563.875710	76.538189
564.304340	76.775566
564.732950	76.963845
565.161542	77.168317
565.590114	77.374695
566.018666	77.564542
566.447200	77.762211
566.875714	77.968673
567.304208	78.160736
567.732684	78.356393
568.161140	78.563971
568.589576	78.763476
569.017993	78.964659
569.446391	79.163448
569.874769	79.371213
570.303128	79.593340
570.731467	79.806300
571.159787	80.010826
571.588087	80.218666
572.016368	80.427650
572.444629	80.633577
572.872870	80.839607
573.301092	81.048036
573.729294	81.260664
574.157476	81.471406
574.585639	81.695829
575.013782	81.911025
575.441906	82.118202
575.870009	82.323425
576.298093	82.535590
576.726157	82.734180
577.154202	82.937461
577.582226	83.138873
578.010231	83.358241
578.438216	83.562101
578.866181	83.785416
579.294126	83.969992
579.722051	84.152741
580.149957	84.337210
580.577842	84.504367
581.005707	84.668289
581.433553	84.803938
581.861378	84.963281
582.289184	85.089615
582.716969	85.214054
583.144734	85.329927
583.572479	85.425203
584.000205	85.515023
584.427910	85.591862
584.855594	85.657381
585.283259	85.706876
585.710904	85.771899
586.138528	85.801952
586.566132	85.827076
586.993716	85.845636
587.421280	85.834860
587.848823	85.820693
588.276346	85.819052
588.703849	85.797602
589.131332	85.777148
589.558794	85.750349
589.986236	85.719902
590.413657	85.674893
590.841058	85.633712
591.268438	85.583354
591.695799	85.537428
592.123138	85.464945
592.550458	85.432710
592.977756	85.389265
593.405034	85.340438
593.832292	85.317045
594.259529	85.292267
594.686746	85.280480
595.113942	85.249940
595.541117	85.259390
595.968272	85.266273
596.395406	85.284053
596.822519	85.317913
597.249612	85.354178
597.676684	85.415547
598.103735	85.490333
598.530766	85.579807
598.957775	85.659684
599.384764	85.760373
599.811733	85.853094
600.238680	85.965729
600.665606	86.087395
601.092512	86.204540
601.519397	86.311737
601.946261	86.441463
602.373104	86.553582
602.799926	86.676409
603.226727	86.778590
603.653507	86.876113
604.080266	86.955333
604.507004	87.025555
604.933721	87.088726
605.360417	87.156527
605.787092	87.188311
606.213746	87.220479
606.640379	87.245328
607.066991	87.240272
607.493581	87.226078
607.920150	87.210456
608.346699	87.180997
608.773226	87.132190
609.199731	87.087701
609.626216	87.021054
610.052679	86.937112
610.479121	86.833243
610.905542	86.716185
611.331941	86.579935
611.758319	86.429140
612.184676	86.258764
612.611011	86.081423
613.037325	85.911910
613.463617	85.720911
613.889888	85.540301
614.316138	85.349540
614.742366	85.142008
615.168573	84.933263
615.594758	84.748651
616.020921	84.524207
616.447063	84.332107
616.873184	84.131653
617.299283	83.920870
617.725360	83.723374
618.151416	83.526718
618.577450	83.336810
619.003462	83.134289
619.429453	82.941332
619.855422	82.747228
620.281369	82.564609
620.707295	82.394794
621.133199	82.213781
621.559081	82.050780
621.984941	81.873331
622.410779	81.703618
622.836596	81.535621
623.262391	81.369879
623.688163	81.227674
624.113914	81.074742
624.539644	80.921525
624.965351	80.763550
625.391036	80.620488
625.816699	80.474732
626.242340	80.317973
626.667960	80.163728
627.093557	80.014094
627.519132	79.847101
627.944685	79.689936
628.370216	79.510137
628.795725	79.319696
629.221212	79.146313
629.646677	78.944155
630.072119	78.731423
630.497540	78.524950
630.922938	78.309044
631.348314	78.092523
631.773668	77.850747
632.198999	77.617302
632.624308	77.376479
633.049595	77.125811
633.474860	76.862179
633.900102	76.577829
634.325322	76.294530
634.750520	75.999061
635.175695	75.714907
635.600848	75.405785
636.025978	75.084919
636.451086	74.754734
636.876171	74.416151
637.301234	74.074934
637.726275	73.719923
638.151293	73.349484
638.576288	72.953967
639.001261	72.557592
639.426211	72.140328
639.851139	71.712584
640.276044	71.248871
640.700927	70.791044
641.125787	70.308603
641.550624	69.816056
641.975438	69.304464
642.400230	68.773673
642.824999	68.233155
643.249745	67.674974
643.674469	67.105507
644.099169	66.522660
644.523847	65.922015
644.948502	65.314699
645.373135	64.692615
645.797744	64.062574
646.222330	63.422425
646.646894	62.785584
647.071435	62.139514
647.495953	61.483024
647.920447	60.813846
648.344919	60.133730
648.769368	59.452337
649.193794	58.774128
649.618197	58.089630
650.042576	57.383731
650.466933	56.668252
650.891267	55.951865
651.315577	55.241165
651.739864	54.534899
652.164129	53.816982
652.588370	53.088399
653.012587	52.352324
653.436782	51.612332
653.860953	50.861953
654.285102	50.104394
654.709226	49.342946
655.133328	48.571771
655.557406	47.793066
655.981461	47.015015
656.405493	46.244848
656.829501	45.468944
657.253486	44.690984
657.677448	43.907907
658.101386	43.141517
658.525301	42.380961
658.949192	41.616285
659.373060	40.860838
659.796904	40.109579
660.220725	39.370923
660.644522	38.649013
661.068296	37.928222
661.492046	37.221851
661.915772	36.518364
662.339475	35.825178
662.763154	35.138741
663.186810	34.458528
663.610442	33.788200
664.034050	33.120273
664.457635	32.454921
664.881196	31.791623
665.304733	31.133486
665.728247	30.487306
666.151736	29.849999
666.575202	29.222687
666.998644	28.599136
667.422062	27.984145
667.845457	27.374219
668.268827	26.779376
668.692174	26.198592
669.115496	25.627477
669.538795	25.068298
669.962070	24.522212
670.385321	23.994000
670.808547	23.493651
671.231750	23.011887
671.654929	22.558908
672.078084	22.134780
672.501214	21.735327
672.924321	21.364596
673.347404	21.022284
673.770462	20.701655
674.193496	20.419446
674.616506	20.171791
675.039492	19.962289
675.462454	19.781785
675.885391	19.637176
676.308305	19.533683
676.731194	19.464002
677.154058	19.433205
677.576899	19.434097
677.999715	19.469637
678.422507	19.536443
678.845274	19.638129
679.268017	19.765220
679.690736	19.921422
680.113430	20.106701
680.536100	20.317998
680.958746	20.557708
681.381367	20.814472
681.803963	21.092453
682.226535	21.398823
682.649083	21.729160
683.071605	22.080051
683.494104	22.452423
683.916578	22.841976
684.339027	23.245400
684.761451	23.665622
685.183851	24.101491
685.606227	24.556240
686.028577	25.031023
686.450903	25.520787
686.873204	26.020918
687.295481	26.536265
687.717733	27.056227
688.139959	27.587048
688.562162	28.129024
688.984339	28.678623
689.406492	29.229453
689.828619	29.786837
690.250722	30.343981
690.672800	30.904736
691.094853	31.466761
691.516881	32.029027
691.938884	32.589819
692.360863	33.146868
692.782816	33.705152
693.204744	34.251376
693.626647	34.804112
694.048526	35.346472
694.470379	35.880745
694.892207	36.410564
695.314010	36.933491
695.735788	37.443285
696.157540	37.956792
696.579268	38.458444
697.000970	38.956325
697.422648	39.449002
697.844300	39.932007
698.265926	40.410386
698.687528	40.888469
699.109104	41.361860
699.530655	41.822452
699.952181	42.294877
700.373681	42.758630
700.795156	43.218103
701.216606	43.675892
701.638030	44.132303
702.059429	44.584353
702.480803	45.038768
702.902151	45.503114
703.323473	45.959823
703.744770	46.417400
704.166042	46.877905
704.587288	47.335048
705.008509	47.782067
705.429704	48.243197
705.850873	48.699497
706.272017	49.158987
706.693135	49.614783
707.114228	50.071044
707.535295	50.532331
707.956336	51.001975
708.377352	51.463692
708.798342	51.931979
709.219306	52.394172
709.640245	52.847690
710.061157	53.292248
710.482044	53.736733
710.902905	54.174267
711.323741	54.610292
711.744550	55.032669
712.165334	55.450774
712.586092	55.875499
713.006823	56.275634
713.427529	56.674033
713.848209	57.070998
714.268863	57.458373
714.689492	57.846436
715.110094	58.222298
715.530670	58.591282
715.951220	58.933904
716.371744	59.282097
716.792242	59.622665
717.212714	59.944258
717.633159	60.265342
718.053579	60.582447
718.473973	60.877501
718.894340	61.152621
719.314681	61.425119
719.734996	61.683517
720.155285	61.931841
720.575547	62.169056
720.995784	62.377569
721.415994	62.582011
721.836177	62.762282
722.256335	62.921030
722.676466	63.081406
723.096570	63.222969
723.516649	63.347457
723.936701	63.478207
724.356726	63.587776
724.776725	63.682806
725.196698	63.755552
725.616644	63.812944
726.036564	63.865130
726.456457	63.904318
726.876324	63.927843
727.296164	63.937221
727.715977	63.931348
728.135764	63.921700
728.555525	63.901758
728.975258	63.879545
729.394966	63.843282
729.814646	63.792795
730.234300	63.751172
730.653927	63.684958
731.073527	63.617978
731.493101	63.535475
731.912648	63.451687
732.332168	63.360229
732.751661	63.263096
733.171128	63.165243
733.590568	63.051396
734.009980	62.948882
734.429366	62.827211
734.848726	62.705700
735.268058	62.580796
735.687363	62.450773
736.106641	62.324503
736.525893	62.194074
736.945117	62.042748
737.364314	61.895050
737.783485	61.738051
738.202628	61.583101
738.621744	61.428877
739.040834	61.266465
739.459896	61.101068
739.878931	60.941339
740.297939	60.787769
740.716919	60.622004
741.135873	60.464243
741.554799	60.307757
741.973698	60.155760
742.392570	59.998925
742.811415	59.870058
743.230232	59.724060
743.649022	59.598971
744.067785	59.466524
744.486521	59.359857
744.905229	59.257924
745.323909	59.161864
745.742563	59.067033
746.161189	58.972813
746.579787	58.899399
746.998358	58.820473
747.416902	58.753581
747.835418	58.710144
748.253907	58.669371
748.672368	58.613851
749.090802	58.578749
749.509208	58.546924
749.927586	58.525124
750.345937	58.501006
750.764261	58.490168
751.182556	58.480316
751.600824	58.476129
752.019065	58.482251
752.437277	58.487034
752.855462	58.493549
