Time1=100ms:Average1=5:Objective=10X:Aperture=1: (11/21/2018 10:30:44 AM)
11/21/2018 10:30:44 AM
Reflectance
10X
Ap#: 1
Avg1: 5.000000
Avg2: 0.000000
Int.Time1:100.000000

350.166136	108.273947
350.601937	109.508792
351.037728	110.177250
351.473509	110.318858
351.909281	110.606808
352.345042	111.204760
352.780794	111.582285
353.216536	111.896500
353.652267	112.118501
354.087989	111.742462
354.523701	111.549184
354.959403	111.548009
355.395095	111.336516
355.830777	111.198565
356.266449	111.428857
356.702110	111.315842
357.137762	111.127745
357.573404	111.217756
358.009035	111.014666
358.444656	111.554264
358.880268	111.581694
359.315869	111.665326
359.751459	111.739831
360.187040	111.884379
360.622610	112.200788
361.058170	112.791052
361.493720	112.413653
361.929260	112.270561
362.364789	112.713588
362.800308	111.978903
363.235816	111.237884
363.671314	111.765895
364.106802	111.410747
364.542279	111.860465
364.977746	111.813963
365.413203	111.832176
365.848649	111.322464
366.284084	110.811901
366.719509	110.305536
367.154924	110.925982
367.590328	111.266895
368.025721	111.772433
368.461104	111.577351
368.896477	111.545830
369.331838	112.188226
369.767189	111.965726
370.202530	111.905480
370.637859	112.018459
371.073178	111.326958
371.508486	111.161867
371.943784	110.549689
372.379071	110.834075
372.814347	111.077075
373.249612	110.660897
373.684866	110.089137
374.120110	110.011755
374.555343	109.806792
374.990565	109.850775
375.425776	109.901087
375.860976	110.002928
376.296165	109.993182
376.731343	110.128430
377.166511	109.150834
377.601667	109.455253
378.036812	109.521503
378.471946	109.440356
378.907070	109.195291
379.342182	108.706946
379.777283	108.833685
380.212373	109.006330
380.647452	108.509625
381.082520	108.127845
381.517576	108.256620
381.952622	108.269395
382.387656	108.268685
382.822679	108.325449
383.257691	108.440332
383.692692	108.014332
384.127681	107.718405
384.562659	108.002270
384.997626	108.050967
385.432581	108.348303
385.867525	108.222537
386.302458	107.936208
386.737379	108.038404
387.172289	108.647114
387.607188	108.641392
388.042075	108.335693
388.476951	108.152531
388.911815	108.628919
389.346668	107.822844
389.781509	107.747982
390.216338	107.713703
390.651157	107.783824
391.085963	107.608696
391.520758	107.413539
391.955541	107.017222
392.390313	106.923711
392.825073	107.337603
393.259821	107.647274
393.694558	107.476721
394.129283	107.206138
394.563996	107.459529
394.998698	106.918642
395.433388	106.529680
395.868066	106.370938
396.302732	106.284203
396.737386	105.744410
397.172029	105.919739
397.606659	105.446978
398.041278	105.214337
398.475885	104.907865
398.910480	104.113868
399.345063	102.947128
399.779634	102.248170
400.214194	101.016803
400.648741	99.046816
401.083276	96.874742
401.517799	95.101975
401.952310	92.609340
402.386809	89.572354
402.821296	86.732400
403.255771	83.571678
403.690234	80.248885
404.124684	76.641414
404.559123	72.824664
404.993549	68.516966
405.427963	64.810935
405.862365	61.023661
406.296754	57.558033
406.731131	54.094873
407.165496	50.819477
407.599849	47.915668
408.034190	45.250385
408.468518	42.731067
408.902833	40.275601
409.337137	37.920254
409.771428	35.681193
410.205706	33.706506
410.639973	31.973737
411.074226	30.383249
411.508467	28.998860
411.942696	27.734410
412.376912	26.535618
412.811116	25.466787
413.245307	24.582437
413.679486	23.651012
414.113652	22.867496
414.547805	22.133131
414.981946	21.363858
415.416074	20.727319
415.850190	20.135512
416.284293	19.528375
416.718383	19.098448
417.152460	18.649589
417.586525	18.262413
418.020577	17.910781
418.454616	17.693262
418.888643	17.374447
419.322656	17.113367
419.756657	16.772970
420.190645	16.495995
420.624620	16.235524
421.058582	15.988900
421.492531	15.728078
421.926468	15.515080
422.360391	15.343745
422.794301	15.194171
423.228199	15.091466
423.662083	15.014078
424.095955	14.968721
424.529813	14.917637
424.963658	14.804935
425.397491	14.737004
425.831310	14.671379
426.265116	14.577616
426.698909	14.484798
427.132689	14.437983
427.566455	14.361181
428.000209	14.337714
428.433949	14.334145
428.867676	14.307383
429.301389	14.300348
429.735090	14.306344
430.168777	14.263514
430.602451	14.218460
431.036111	14.139163
431.469759	14.066073
431.903392	13.975318
432.337013	13.932140
432.770620	13.841091
433.204213	13.821734
433.637794	13.812392
434.071360	13.821016
434.504914	13.841256
434.938453	13.879972
435.371979	13.910997
435.805492	13.945170
436.238991	13.949148
436.672477	13.955764
437.105949	13.958424
437.539407	13.911827
437.972852	13.869057
438.406283	13.840756
438.839700	13.800970
439.273104	13.774779
439.706494	13.776680
440.139871	13.780829
440.573233	13.764720
441.006582	13.775332
441.439917	13.745706
441.873238	13.708786
442.306546	13.674506
442.739839	13.619802
443.173119	13.544803
443.606385	13.468100
444.039636	13.395092
444.472874	13.349930
444.906099	13.313652
445.339309	13.266208
445.772505	13.233023
446.205687	13.230482
446.638855	13.237614
447.072009	13.216166
447.505149	13.212204
447.938275	13.189448
448.371387	13.170700
448.804485	13.147453
449.237569	13.116925
449.670638	13.077386
450.103694	13.025086
450.536735	12.957988
450.969762	12.927577
451.402774	12.895396
451.835773	12.880869
452.268757	12.871225
452.701727	12.882771
453.134683	12.885289
453.567624	12.875954
454.000551	12.879106
454.433464	12.869878
454.866362	12.862823
455.299246	12.869533
455.732116	12.850480
456.164971	12.838112
456.597811	12.843356
457.030638	12.866036
457.463449	12.895949
457.896246	12.926377
458.329029	12.961881
458.761797	13.024182
459.194551	13.073860
459.627290	13.138649
460.060014	13.208767
460.492724	13.306963
460.925419	13.391381
461.358099	13.512536
461.790765	13.630467
462.223416	13.743308
462.656052	13.849673
463.088674	13.985499
463.521281	14.137257
463.953873	14.294279
464.386450	14.439133
464.819012	14.597886
465.251560	14.772462
465.684093	14.957266
466.116611	15.152562
466.549114	15.363398
466.981602	15.601227
467.414075	15.838339
467.846533	16.069774
468.278977	16.310202
468.711405	16.532304
469.143818	16.768246
469.576216	17.001818
470.008600	17.233815
470.440968	17.456409
470.873321	17.668526
471.305659	17.885546
471.737982	18.105471
472.170289	18.328618
472.602582	18.574943
473.034859	18.823218
473.467122	19.076396
473.899369	19.358095
474.331600	19.659337
474.763817	19.953333
475.196018	20.263219
475.628204	20.601123
476.060375	20.951076
476.492530	21.298357
476.924670	21.641196
477.356795	21.953789
477.788904	22.261958
478.220998	22.550208
478.653076	22.809810
479.085139	23.060193
479.517186	23.306745
479.949219	23.545673
480.381235	23.787439
480.813236	24.050965
481.245221	24.330416
481.677191	24.604019
482.109146	24.897419
482.541084	25.187652
482.973008	25.472624
483.404915	25.725830
483.836807	25.956100
484.268683	26.173665
484.700544	26.368422
485.132388	26.543003
485.564217	26.679387
485.996031	26.809295
486.427828	26.918373
486.859610	26.992249
487.291376	27.044398
487.723126	27.083354
488.154860	27.127731
488.586579	27.175899
489.018281	27.226661
489.449968	27.299408
489.881639	27.384507
490.313293	27.472405
490.744932	27.589891
491.176555	27.710392
491.608162	27.825951
492.039753	27.921563
492.471328	27.974274
492.902886	27.988251
493.334429	27.966890
493.765956	27.908342
494.197466	27.830972
494.628960	27.722952
495.060439	27.619502
495.491901	27.530112
495.923347	27.464958
496.354776	27.423471
496.786190	27.417635
497.217587	27.435585
497.648968	27.463970
498.080332	27.495012
498.511681	27.517194
498.943013	27.539873
499.374328	27.522362
499.805628	27.484541
500.236911	27.434899
500.668177	27.362269
501.099427	27.273245
501.530661	27.161220
501.961878	27.031146
502.393079	26.907413
502.824264	26.760937
503.255431	26.626493
503.686583	26.495688
504.117717	26.382884
504.548835	26.310281
504.979937	26.278318
505.411022	26.287867
505.842090	26.362150
506.273142	26.473560
506.704177	26.630178
507.135195	26.812992
507.566197	27.017485
507.997182	27.232571
508.428150	27.450330
508.859102	27.636175
509.290036	27.815256
509.720954	27.969871
510.151855	28.128866
510.582739	28.290122
511.013607	28.479006
511.444457	28.697810
511.875291	28.967537
512.306107	29.292290
512.736907	29.675113
513.167690	30.121580
513.598456	30.628068
514.029205	31.179545
514.459936	31.769797
514.890651	32.370787
515.321349	32.991633
515.752030	33.591726
516.182693	34.175294
516.613340	34.733426
517.043969	35.267863
517.474582	35.765532
517.905177	36.207607
518.335755	36.620344
518.766315	37.008609
519.196859	37.361734
519.627385	37.693930
520.057894	38.022850
520.488386	38.342503
520.918860	38.668263
521.349318	39.039932
521.779757	39.456034
522.210180	39.913097
522.640585	40.404170
523.070973	40.956790
523.501343	41.541077
523.931696	42.160040
524.362031	42.782247
524.792349	43.405340
525.222650	44.006969
525.652933	44.555644
526.083198	45.060374
526.513446	45.496835
526.943677	45.846575
527.373890	46.148699
527.804085	46.411024
528.234262	46.659035
528.664422	46.882794
529.094565	47.120632
529.524689	47.393497
529.954796	47.686749
530.384885	48.028258
530.814957	48.415800
531.245011	48.854050
531.675047	49.307552
532.105065	49.784911
532.535065	50.267709
532.965048	50.748159
533.395013	51.185499
533.824959	51.589972
534.254888	51.939585
534.684799	52.201431
535.114693	52.392550
535.544568	52.530436
535.974425	52.596353
536.404264	52.579862
536.834086	52.503323
537.263889	52.378437
537.693674	52.216561
538.123441	52.030057
538.553190	51.830291
538.982921	51.646380
539.412634	51.484814
539.842329	51.357673
540.272006	51.292811
540.701664	51.263449
541.131304	51.266559
541.560926	51.306193
541.990530	51.396131
542.420116	51.502465
542.849683	51.627116
543.279232	51.752542
543.708763	51.854489
544.138275	51.927505
544.567769	51.974283
544.997245	51.995786
545.426702	51.976371
545.856141	51.928495
546.285562	51.863859
546.714964	51.788931
547.144347	51.711922
547.573713	51.663341
548.003059	51.648586
548.432387	51.682096
548.861697	51.755223
549.290988	51.895285
549.720260	52.112507
550.149514	52.390185
550.578750	52.728571
551.007966	53.108420
551.437164	53.543592
551.866344	54.011545
552.295504	54.484513
552.724646	54.963990
553.153769	55.442351
553.582874	55.874062
554.011960	56.264737
554.441027	56.620739
554.870075	56.917732
555.299104	57.142338
555.728115	57.302092
556.157106	57.411363
556.586079	57.484807
557.015033	57.532488
557.443968	57.567780
557.872884	57.585968
558.301781	57.632914
558.730659	57.702641
559.159518	57.808469
559.588358	57.961475
560.017180	58.166051
560.445982	58.424307
560.874765	58.716789
561.303528	59.059418
561.732273	59.416765
562.160999	59.812014
562.589705	60.219581
563.018393	60.629181
563.447061	61.055986
563.875710	61.472441
564.304340	61.887608
564.732950	62.269663
565.161542	62.642117
565.590114	62.989212
566.018666	63.326534
566.447200	63.635287
566.875714	63.943615
567.304208	64.234309
567.732684	64.518249
568.161140	64.814144
568.589576	65.123322
569.017993	65.457242
569.446391	65.811325
569.874769	66.199737
570.303128	66.632660
570.731467	67.112660
571.159787	67.643932
571.588087	68.197669
572.016368	68.801283
572.444629	69.424320
572.872870	70.047792
573.301092	70.662502
573.729294	71.236914
574.157476	71.781134
574.585639	72.255713
575.013782	72.667592
575.441906	72.980285
575.870009	73.206019
576.298093	73.325444
576.726157	73.334702
577.154202	73.277034
577.582226	73.158553
578.010231	72.987336
578.438216	72.746907
578.866181	72.507420
579.294126	72.238884
579.722051	71.996603
580.149957	71.765186
580.577842	71.558161
581.005707	71.391538
581.433553	71.235658
581.861378	71.119970
582.289184	71.028346
582.716969	70.960699
583.144734	70.913872
583.572479	70.883386
584.000205	70.847210
584.427910	70.814466
584.855594	70.795562
585.283259	70.775271
585.710904	70.779940
586.138528	70.781330
586.566132	70.800595
586.993716	70.836731
587.421280	70.871473
587.848823	70.940466
588.276346	71.021986
588.703849	71.119015
589.131332	71.239338
589.558794	71.385683
589.986236	71.541451
590.413657	71.697105
590.841058	71.861600
591.268438	72.052219
591.695799	72.284686
592.123138	72.540863
592.550458	72.843382
592.977756	73.172756
593.405034	73.541628
593.832292	73.953542
594.259529	74.397076
594.686746	74.901494
595.113942	75.435749
595.541117	75.995649
595.968272	76.559394
596.395406	77.119964
596.822519	77.662300
597.249612	78.180442
597.676684	78.662677
598.103735	79.089162
598.530766	79.445930
598.957775	79.695904
599.384764	79.889985
599.811733	80.006809
600.238680	80.064060
600.665606	80.084972
601.092512	80.050103
601.519397	79.980884
601.946261	79.905867
602.373104	79.812497
602.799926	79.737634
603.226727	79.667691
603.653507	79.613156
604.080266	79.569320
604.507004	79.527532
604.933721	79.490259
605.360417	79.454746
605.787092	79.393371
606.213746	79.307632
606.640379	79.215179
607.066991	79.117295
607.493581	79.001823
607.920150	78.863184
608.346699	78.708755
608.773226	78.559932
609.199731	78.423723
609.626216	78.287039
610.052679	78.176203
610.479121	78.078591
610.905542	78.004178
611.331941	77.948898
611.758319	77.905715
612.184676	77.909492
612.611011	77.932019
613.037325	77.974203
613.463617	78.022478
613.889888	78.076002
614.316138	78.124074
614.742366	78.166800
615.168573	78.206476
615.594758	78.241894
616.020921	78.248678
616.447063	78.265820
616.873184	78.273011
617.299283	78.285196
617.725360	78.326806
618.151416	78.387928
618.577450	78.467017
619.003462	78.583862
619.429453	78.741838
619.855422	78.925114
620.281369	79.121498
620.707295	79.326280
621.133199	79.541040
621.559081	79.755009
621.984941	79.959689
622.410779	80.132344
622.836596	80.274798
623.262391	80.362271
623.688163	80.422624
624.113914	80.442113
624.539644	80.408139
624.965351	80.352480
625.391036	80.252989
625.816699	80.142270
626.242340	80.008238
626.667960	79.878449
627.093557	79.749902
627.519132	79.637360
627.944685	79.545788
628.370216	79.464134
628.795725	79.392399
629.221212	79.346459
629.646677	79.313184
630.072119	79.293548
630.497540	79.282332
630.922938	79.252009
631.348314	79.230550
631.773668	79.178424
632.198999	79.108170
632.624308	79.013982
633.049595	78.904808
633.474860	78.791954
633.900102	78.682219
634.325322	78.573551
634.750520	78.470884
635.175695	78.385601
635.600848	78.336358
636.025978	78.317117
636.451086	78.337655
636.876171	78.401927
637.301234	78.502555
637.726275	78.656108
638.151293	78.840683
638.576288	79.066904
639.001261	79.301766
639.426211	79.550388
639.851139	79.799426
640.276044	80.031867
640.700927	80.261343
641.125787	80.473504
641.550624	80.655470
641.975438	80.800463
642.400230	80.897962
642.824999	80.954539
643.249745	80.979883
643.674469	80.971677
644.099169	80.934470
644.523847	80.868859
644.948502	80.806268
645.373135	80.728511
645.797744	80.649309
646.222330	80.574082
646.646894	80.499315
647.071435	80.428090
647.495953	80.345293
647.920447	80.283447
648.344919	80.217769
648.769368	80.148293
649.193794	80.085514
649.618197	80.023269
650.042576	79.933138
650.466933	79.842921
650.891267	79.745040
651.315577	79.642563
651.739864	79.532730
652.164129	79.432741
652.588370	79.316699
653.012587	79.226319
653.436782	79.144294
653.860953	79.066221
654.285102	78.986468
654.709226	78.923797
655.133328	78.886116
655.557406	78.881778
655.981461	78.896935
656.405493	78.910715
656.829501	78.938388
657.253486	78.980057
657.677448	78.997606
658.101386	79.010101
658.525301	79.011657
658.949192	78.984978
659.373060	78.916584
659.796904	78.829495
660.220725	78.707873
660.644522	78.564561
661.068296	78.365641
661.492046	78.154080
661.915772	77.903423
662.339475	77.656322
662.763154	77.400522
663.186810	77.148197
663.610442	76.902316
664.034050	76.675083
664.457635	76.476493
664.881196	76.302682
665.304733	76.157502
665.728247	76.083335
666.151736	76.024779
666.575202	76.017431
666.998644	76.038334
667.422062	76.108993
667.845457	76.205630
668.268827	76.330426
668.692174	76.462380
669.115496	76.601747
669.538795	76.751056
669.962070	76.880021
670.385321	76.985008
670.808547	77.077664
671.231750	77.130524
671.654929	77.154423
672.078084	77.152664
672.501214	77.126085
672.924321	77.057738
673.347404	76.957237
673.770462	76.838134
674.193496	76.715046
674.616506	76.565451
675.039492	76.419136
675.462454	76.258371
675.885391	76.095005
676.308305	75.957696
676.731194	75.832912
677.154058	75.716458
677.576899	75.619693
677.999715	75.561743
678.422507	75.519893
678.845274	75.495029
679.268017	75.512706
679.690736	75.542956
680.113430	75.619038
680.536100	75.699061
680.958746	75.818914
681.381367	75.955460
681.803963	76.114871
682.226535	76.286827
682.649083	76.488187
683.071605	76.719368
683.494104	76.972893
683.916578	77.245532
684.339027	77.544626
684.761451	77.862600
685.183851	78.197042
685.606227	78.530100
686.028577	78.865271
686.450903	79.203116
686.873204	79.534701
687.295481	79.860423
687.717733	80.156710
688.139959	80.440275
688.562162	80.686992
688.984339	80.886290
689.406492	81.033167
689.828619	81.123954
690.250722	81.171343
690.672800	81.153885
691.094853	81.076104
691.516881	80.942678
691.938884	80.757064
692.360863	80.502837
692.782816	80.227019
693.204744	79.901140
693.626647	79.573216
694.048526	79.204835
694.470379	78.846075
694.892207	78.498233
695.314010	78.177882
695.735788	77.882479
696.157540	77.616261
696.579268	77.393629
697.000970	77.233480
697.422648	77.117243
697.844300	77.049944
698.265926	77.035094
698.687528	77.090694
699.109104	77.193292
699.530655	77.345947
699.952181	77.547738
700.373681	77.775648
700.795156	78.052363
701.216606	78.349657
701.638030	78.659038
702.059429	78.996662
702.480803	79.329201
702.902151	79.660569
703.323473	79.977305
703.744770	80.271007
704.166042	80.540639
704.587288	80.780513
705.008509	80.985558
705.429704	81.182790
705.850873	81.341588
706.272017	81.465847
706.693135	81.559093
707.114228	81.644134
707.535295	81.687624
707.956336	81.700808
708.377352	81.687024
708.798342	81.658130
709.219306	81.628039
709.640245	81.582123
710.061157	81.512347
710.482044	81.445544
710.902905	81.370398
711.323741	81.306238
711.744550	81.240862
712.165334	81.193763
712.586092	81.159210
713.006823	81.126012
713.427529	81.121984
713.848209	81.133093
714.268863	81.158880
714.689492	81.213878
715.110094	81.290668
715.530670	81.393884
715.951220	81.523463
716.371744	81.668726
716.792242	81.850262
717.212714	82.047440
717.633159	82.281354
718.053579	82.514863
718.473973	82.750328
718.894340	82.980983
719.314681	83.220272
719.734996	83.440841
720.155285	83.634582
720.575547	83.803053
720.995784	83.935866
721.415994	84.037081
721.836177	84.087023
722.256335	84.080027
722.676466	84.007940
723.096570	83.884167
723.516649	83.692893
723.936701	83.469352
724.356726	83.157645
724.776725	82.785434
725.196698	82.348403
725.616644	81.859129
726.036564	81.336026
726.456457	80.774125
726.876324	80.182678
727.296164	79.568221
727.715977	78.946907
728.135764	78.336673
728.555525	77.743882
728.975258	77.184871
729.394966	76.659707
729.814646	76.173126
730.234300	75.748878
730.653927	75.360543
731.073527	75.059396
731.493101	74.827381
731.912648	74.665175
732.332168	74.589971
732.751661	74.594285
733.171128	74.696714
733.590568	74.879298
734.009980	75.155338
734.429366	75.507871
734.848726	75.940528
735.268058	76.445803
735.687363	77.025505
736.106641	77.657055
736.525893	78.340621
736.945117	79.032442
737.364314	79.763802
737.783485	80.523110
738.202628	81.289491
738.621744	82.057481
739.040834	82.800787
739.459896	83.510748
739.878931	84.188816
740.297939	84.816002
740.716919	85.384160
741.135873	85.890568
741.554799	86.323441
741.973698	86.668309
742.392570	86.929385
742.811415	87.123583
743.230232	87.210472
743.649022	87.225499
744.067785	87.150713
744.486521	86.995684
744.905229	86.765671
745.323909	86.453010
745.742563	86.076403
746.161189	85.626872
746.579787	85.137960
746.998358	84.592905
747.416902	84.006626
747.835418	83.381462
748.253907	82.733410
748.672368	82.055052
749.090802	81.377260
749.509208	80.699648
749.927586	80.040086
750.345937	79.406122
750.764261	78.793367
751.182556	78.221850
751.600824	77.690992
