Time1=100ms:Average1=5:Objective=10X:Aperture=1: (11/21/2018 10:19:53 AM)
11/21/2018 10:19:53 AM
Reflectance
10X
Ap#: 1
Avg1: 5.000000
Avg2: 0.000000
Int.Time1:100.000000

350.166136	98.352615
350.601937	99.187691
351.037728	99.990261
351.473509	99.970657
351.909281	99.871732
352.345042	99.851264
352.780794	99.900921
353.216536	100.247844
353.652267	100.944428
354.087989	100.885660
354.523701	101.115094
354.959403	101.241188
355.395095	101.551313
355.830777	101.574176
356.266449	101.949805
356.702110	101.832566
357.137762	101.686627
357.573404	101.569686
358.009035	101.456650
358.444656	101.673514
358.880268	101.987154
359.315869	102.242558
359.751459	102.134515
360.187040	101.752442
360.622610	102.171498
361.058170	102.501271
361.493720	101.808208
361.929260	102.068756
362.364789	102.532547
362.800308	102.302465
363.235816	101.474152
363.671314	101.617305
364.106802	101.126987
364.542279	101.294237
364.977746	101.069411
365.413203	100.523191
365.848649	100.523349
366.284084	100.766515
366.719509	100.292427
367.154924	100.494800
367.590328	100.927981
368.025721	100.899353
368.461104	100.748231
368.896477	100.645356
369.331838	101.029991
369.767189	100.645161
370.202530	100.603318
370.637859	100.932986
371.073178	100.627615
371.508486	100.516385
371.943784	99.921050
372.379071	100.118730
372.814347	100.079051
373.249612	99.714792
373.684866	99.823685
374.120110	100.078370
374.555343	99.921936
374.990565	100.468156
375.425776	100.558222
375.860976	100.507466
376.296165	99.873381
376.731343	99.941623
377.166511	99.583172
377.601667	100.272374
378.036812	100.329330
378.471946	100.900465
378.907070	101.437669
379.342182	100.702328
379.777283	100.402839
380.212373	100.546710
380.647452	99.990471
381.082520	99.165402
381.517576	99.307203
381.952622	99.280099
382.387656	99.299905
382.822679	99.299905
383.257691	99.140861
383.692692	98.896851
384.127681	98.548676
384.562659	98.250095
384.997626	98.102879
385.432581	98.837099
385.867525	98.849599
386.302458	98.669435
386.737379	98.691642
387.172289	99.091769
387.607188	98.591283
388.042075	98.319645
388.476951	97.999436
388.911815	97.688348
389.346668	97.240093
389.781509	97.633850
390.216338	98.423883
390.651157	98.247717
391.085963	98.222181
391.520758	97.764901
391.955541	97.068523
392.390313	96.583936
392.825073	97.346752
393.259821	97.539334
393.694558	97.078693
394.129283	97.031692
394.563996	97.231420
394.998698	97.007413
395.433388	96.936073
395.868066	96.882986
396.302732	96.867019
396.737386	97.205054
397.172029	97.090067
397.606659	96.846725
398.041278	96.852486
398.475885	96.265169
398.910480	95.364091
399.345063	94.541216
399.779634	93.669397
400.214194	92.447221
400.648741	91.290595
401.083276	89.886204
401.517799	88.321021
401.952310	85.932018
402.386809	83.537871
402.821296	80.899732
403.255771	78.217649
403.690234	74.655620
404.124684	71.385732
404.559123	67.822283
404.993549	64.344010
405.427963	60.985126
405.862365	57.672566
406.296754	54.480442
406.731131	51.476282
407.165496	48.715360
407.599849	46.159375
408.034190	43.877970
408.468518	41.407271
408.902833	39.140077
409.337137	37.042725
409.771428	35.082985
410.205706	33.291430
410.639973	31.732767
411.074226	30.315107
411.508467	29.114755
411.942696	28.098455
412.376912	27.053453
412.811116	26.123984
413.245307	25.429689
413.679486	24.693216
414.113652	23.976330
414.547805	23.340369
414.981946	22.731380
415.416074	22.235119
415.850190	21.791272
416.284293	21.328609
416.718383	20.981053
417.152460	20.651522
417.586525	20.374690
418.020577	20.138566
418.454616	19.922144
418.888643	19.736482
419.322656	19.573830
419.756657	19.334314
420.190645	19.144397
420.624620	18.973654
421.058582	18.788499
421.492531	18.621636
421.926468	18.490910
422.360391	18.388981
422.794301	18.322088
423.228199	18.316483
423.662083	18.325831
424.095955	18.364612
424.529813	18.408816
424.963658	18.393432
425.397491	18.401986
425.831310	18.401684
426.265116	18.374448
426.698909	18.344921
427.132689	18.364364
427.566455	18.379190
428.000209	18.434696
428.433949	18.484204
428.867676	18.541167
429.301389	18.593789
429.735090	18.639580
430.168777	18.644786
430.602451	18.641702
431.036111	18.603071
431.469759	18.570914
431.903392	18.506550
432.337013	18.459108
432.770620	18.381058
433.204213	18.381041
433.637794	18.397100
434.071360	18.436089
434.504914	18.501008
434.938453	18.575638
435.371979	18.667479
435.805492	18.759781
436.238991	18.806468
436.672477	18.860483
437.105949	18.883223
437.539407	18.886445
437.972852	18.851969
438.406283	18.857858
438.839700	18.829398
439.273104	18.850114
439.706494	18.865173
440.139871	18.892698
440.573233	18.916463
441.006582	18.951695
441.439917	18.968299
441.873238	18.974870
442.306546	18.934541
442.739839	18.895003
443.173119	18.838646
443.606385	18.777721
444.039636	18.715989
444.472874	18.696905
444.906099	18.684495
445.339309	18.690330
445.772505	18.713232
446.205687	18.778319
446.638855	18.831103
447.072009	18.868527
447.505149	18.916718
447.938275	18.963850
448.371387	19.021557
448.804485	19.066222
449.237569	19.095761
449.670638	19.148043
450.103694	19.157082
450.536735	19.148877
450.969762	19.163241
451.402774	19.203641
451.835773	19.245332
452.268757	19.344899
452.701727	19.412499
453.134683	19.502809
453.567624	19.603831
454.000551	19.695531
454.433464	19.761552
454.866362	19.839646
455.299246	19.925324
455.732116	20.000932
456.164971	20.071074
456.597811	20.174353
457.030638	20.289930
457.463449	20.404106
457.896246	20.520090
458.329029	20.644944
458.761797	20.816264
459.194551	20.982698
459.627290	21.142907
460.060014	21.323949
460.492724	21.510386
460.925419	21.701554
461.358099	21.887469
461.790765	22.055475
462.223416	22.215620
462.656052	22.359431
463.088674	22.504077
463.521281	22.650626
463.953873	22.811365
464.386450	22.965201
464.819012	23.117069
465.251560	23.281873
465.684093	23.432669
466.116611	23.614748
466.549114	23.811080
466.981602	24.002367
467.414075	24.203942
467.846533	24.403494
468.278977	24.604551
468.711405	24.792528
469.143818	24.984831
469.576216	25.162978
470.008600	25.314293
470.440968	25.458118
470.873321	25.604454
471.305659	25.720209
471.737982	25.818803
472.170289	25.909741
472.602582	25.994967
473.034859	26.098511
473.467122	26.196039
473.899369	26.315380
474.331600	26.437249
474.763817	26.589293
475.196018	26.763152
475.628204	26.936177
476.060375	27.118057
476.492530	27.303758
476.924670	27.482736
477.356795	27.654864
477.788904	27.826352
478.220998	27.982699
478.653076	28.116114
479.085139	28.231070
479.517186	28.342794
479.949219	28.466838
480.381235	28.595888
480.813236	28.751698
481.245221	28.932058
481.677191	29.108511
482.109146	29.289819
482.541084	29.477020
482.973008	29.653804
483.404915	29.827078
483.836807	29.970645
484.268683	30.102856
484.700544	30.234865
485.132388	30.337064
485.564217	30.413942
485.996031	30.488557
486.427828	30.543145
486.859610	30.581233
487.291376	30.620298
487.723126	30.669520
488.154860	30.716602
488.586579	30.777268
489.018281	30.884267
489.449968	31.035356
489.881639	31.222039
490.313293	31.450088
490.744932	31.714339
491.176555	31.987400
491.608162	32.262633
492.039753	32.550696
492.471328	32.814890
492.902886	33.045067
493.334429	33.231052
493.765956	33.399949
494.197466	33.561790
494.628960	33.715648
495.060439	33.893110
495.491901	34.094013
495.923347	34.345785
496.354776	34.658659
496.786190	35.013860
497.217587	35.417392
497.648968	35.832673
498.080332	36.271550
498.511681	36.732005
498.943013	37.166031
499.374328	37.565059
499.805628	37.936635
500.236911	38.299174
500.668177	38.622795
501.099427	38.915705
501.530661	39.188402
501.961878	39.432746
502.393079	39.661110
502.824264	39.873177
503.255431	40.079181
503.686583	40.279563
504.117717	40.494288
504.548835	40.738230
504.979937	41.043108
505.411022	41.367379
505.842090	41.782639
506.273142	42.234639
506.704177	42.734016
507.135195	43.248117
507.566197	43.753340
507.997182	44.240745
508.428150	44.687075
508.859102	45.100468
509.290036	45.448768
509.720954	45.735999
510.151855	45.989696
510.582739	46.210962
511.013607	46.439531
511.444457	46.675571
511.875291	46.937746
512.306107	47.290090
512.736907	47.682994
513.167690	48.154534
513.598456	48.677761
514.029205	49.232025
514.459936	49.817033
514.890651	50.390540
515.321349	50.952640
515.752030	51.485323
516.182693	51.957181
516.613340	52.368104
517.043969	52.734223
517.474582	53.035129
517.905177	53.268130
518.335755	53.433819
518.766315	53.567945
519.196859	53.634030
519.627385	53.671249
520.057894	53.703309
520.488386	53.733269
520.918860	53.790790
521.349318	53.895624
521.779757	54.054105
522.210180	54.279952
522.640585	54.558496
523.070973	54.908360
523.501343	55.296105
523.931696	55.723720
524.362031	56.178942
524.792349	56.636454
525.222650	57.072138
525.652933	57.435265
526.083198	57.760056
526.513446	58.001481
526.943677	58.162267
527.373890	58.276878
527.804085	58.348842
528.234262	58.419707
528.664422	58.488593
529.094565	58.589720
529.524689	58.752948
529.954796	58.988594
530.384885	59.286205
530.814957	59.655856
531.245011	60.099929
531.675047	60.592759
532.105065	61.122909
532.535065	61.682389
532.965048	62.231716
533.395013	62.744038
533.824959	63.229311
534.254888	63.653269
534.684799	63.999003
535.114693	64.283921
535.544568	64.497737
535.974425	64.635241
536.404264	64.692319
536.834086	64.682963
537.263889	64.652053
537.693674	64.575376
538.123441	64.469886
538.553190	64.373513
538.982921	64.298007
539.412634	64.273610
539.842329	64.293052
540.272006	64.379480
540.701664	64.529531
541.131304	64.737782
541.560926	64.999318
541.990530	65.307763
542.420116	65.654197
542.849683	66.017780
543.279232	66.375575
543.708763	66.709826
544.138275	67.006464
544.567769	67.262324
544.997245	67.467160
545.426702	67.621824
545.856141	67.716225
546.285562	67.787497
546.714964	67.846034
547.144347	67.881614
547.573713	67.937842
548.003059	68.025281
548.432387	68.139550
548.861697	68.297380
549.290988	68.525704
549.720260	68.837943
550.149514	69.232854
550.578750	69.651060
551.007966	70.133070
551.437164	70.662310
551.866344	71.203966
552.295504	71.740572
552.724646	72.274687
553.153769	72.769496
553.582874	73.207387
554.011960	73.565340
554.441027	73.831024
554.870075	74.001275
555.299104	74.085351
555.728115	74.060597
556.157106	73.957206
556.586079	73.774109
557.015033	73.559115
557.443968	73.325907
557.872884	73.064539
558.301781	72.828296
558.730659	72.624338
559.159518	72.459453
559.588358	72.350759
560.017180	72.291007
560.445982	72.292548
560.874765	72.364499
561.303528	72.495452
561.732273	72.658120
562.160999	72.852255
562.589705	73.082529
563.018393	73.307151
563.447061	73.546693
563.875710	73.795496
564.304340	74.017920
564.732950	74.206991
565.161542	74.389535
565.590114	74.551156
566.018666	74.687187
566.447200	74.802335
566.875714	74.897517
567.304208	74.986031
567.732684	75.085972
568.161140	75.191761
568.589576	75.322067
569.017993	75.477262
569.446391	75.671719
569.874769	75.910062
570.303128	76.175619
570.731467	76.477137
571.159787	76.837123
571.588087	77.224677
572.016368	77.651084
572.444629	78.097978
572.872870	78.557756
573.301092	78.995086
573.729294	79.417851
574.157476	79.779076
574.585639	80.050098
575.013782	80.247280
575.441906	80.359258
575.870009	80.366301
576.298093	80.286981
576.726157	80.098704
577.154202	79.828022
577.582226	79.510038
578.010231	79.158593
578.438216	78.764724
578.866181	78.381836
579.294126	77.986719
579.722051	77.639746
580.149957	77.332703
580.577842	77.064099
581.005707	76.851014
581.433553	76.669371
581.861378	76.544175
582.289184	76.450515
582.716969	76.387136
583.144734	76.359914
583.572479	76.364282
584.000205	76.390812
584.427910	76.416931
584.855594	76.451773
585.283259	76.495516
585.710904	76.570363
586.138528	76.626791
586.566132	76.707048
586.993716	76.780540
587.421280	76.834582
587.848823	76.917608
588.276346	77.010164
588.703849	77.080482
589.131332	77.165311
589.558794	77.236774
589.986236	77.301216
590.413657	77.373855
590.841058	77.423103
591.268438	77.478443
591.695799	77.540607
592.123138	77.597899
592.550458	77.681168
592.977756	77.771867
593.405034	77.869626
593.832292	78.005176
594.259529	78.141582
594.686746	78.316162
595.113942	78.491741
595.541117	78.683226
595.968272	78.847790
596.395406	79.007312
596.822519	79.134334
597.249612	79.225139
597.676684	79.267943
598.103735	79.259191
598.530766	79.171355
598.957775	78.982565
599.384764	78.760465
599.811733	78.457952
600.238680	78.133700
600.665606	77.785275
601.092512	77.428130
601.519397	77.063943
601.946261	76.745373
602.373104	76.421302
602.799926	76.150320
603.226727	75.897159
603.653507	75.680645
604.080266	75.516439
604.507004	75.375927
604.933721	75.277603
605.360417	75.201080
605.787092	75.115504
606.213746	75.035471
606.640379	74.965771
607.066991	74.894782
607.493581	74.826343
607.920150	74.764764
608.346699	74.695027
608.773226	74.633862
609.199731	74.599270
609.626216	74.561677
610.052679	74.555220
610.479121	74.567370
610.905542	74.623862
611.331941	74.696481
611.758319	74.805403
612.184676	74.944686
612.611011	75.108317
613.037325	75.306795
613.463617	75.487483
613.889888	75.687271
614.316138	75.865177
614.742366	76.024405
615.168573	76.162073
615.594758	76.287227
616.020921	76.377407
616.447063	76.467756
616.873184	76.549034
617.299283	76.618102
617.725360	76.702816
618.151416	76.780460
618.577450	76.877402
619.003462	77.008209
619.429453	77.155104
619.855422	77.336588
620.281369	77.516095
620.707295	77.721513
621.133199	77.939180
621.559081	78.158124
621.984941	78.366979
622.410779	78.549360
622.836596	78.713538
623.262391	78.835245
623.688163	78.915431
624.113914	78.948084
624.539644	78.941727
624.965351	78.881505
625.391036	78.802854
625.816699	78.691522
626.242340	78.545367
626.667960	78.385898
627.093557	78.216800
627.519132	78.049827
627.944685	77.892634
628.370216	77.728360
628.795725	77.583549
629.221212	77.440217
629.646677	77.301773
630.072119	77.149227
630.497540	76.999547
630.922938	76.832816
631.348314	76.663554
631.773668	76.474814
632.198999	76.254718
632.624308	76.018279
633.049595	75.769028
633.474860	75.520738
633.900102	75.262491
634.325322	74.997344
634.750520	74.749261
635.175695	74.536072
635.600848	74.350973
636.025978	74.202205
636.451086	74.100683
636.876171	74.052522
637.301234	74.057353
637.726275	74.118523
638.151293	74.230684
638.576288	74.392403
639.001261	74.590941
639.426211	74.828601
639.851139	75.104365
640.276044	75.390440
640.700927	75.686232
641.125787	75.992619
641.550624	76.306415
641.975438	76.614746
642.400230	76.909958
642.824999	77.205481
643.249745	77.490178
643.674469	77.766271
644.099169	78.031674
644.523847	78.285500
644.948502	78.543792
645.373135	78.802892
645.797744	79.076666
646.222330	79.335214
646.646894	79.604278
647.071435	79.880240
647.495953	80.159776
647.920447	80.441495
648.344919	80.682330
648.769368	80.935695
649.193794	81.167777
649.618197	81.360583
650.042576	81.512081
650.466933	81.630806
650.891267	81.706380
651.315577	81.753255
651.739864	81.767972
652.164129	81.742657
652.588370	81.672465
653.012587	81.587297
653.436782	81.478285
653.860953	81.343556
654.285102	81.197936
654.709226	81.033718
655.133328	80.865561
655.557406	80.705485
655.981461	80.541930
656.405493	80.384124
656.829501	80.218168
657.253486	80.046454
657.677448	79.852455
658.101386	79.656422
658.525301	79.444935
658.949192	79.207304
659.373060	78.951032
659.796904	78.666183
660.220725	78.349327
660.644522	78.019039
661.068296	77.654766
661.492046	77.304410
661.915772	76.936701
662.339475	76.591242
662.763154	76.277680
663.186810	75.998368
663.610442	75.753562
664.034050	75.568965
664.457635	75.448696
664.881196	75.390394
665.304733	75.411257
665.728247	75.512368
666.151736	75.684023
666.575202	75.933974
666.998644	76.259908
667.422062	76.654655
667.845457	77.103954
668.268827	77.604306
668.692174	78.132303
669.115496	78.677907
669.538795	79.233198
669.962070	79.789000
670.385321	80.332202
670.808547	80.855067
671.231750	81.332425
671.654929	81.787884
672.078084	82.203904
672.501214	82.596226
672.924321	82.936994
673.347404	83.245233
673.770462	83.502127
674.193496	83.740423
674.616506	83.955347
675.039492	84.135076
675.462454	84.291619
675.885391	84.435549
676.308305	84.567560
676.731194	84.697731
677.154058	84.804438
677.576899	84.905875
677.999715	85.001131
678.422507	85.076989
678.845274	85.153919
679.268017	85.221388
679.690736	85.270815
680.113430	85.331604
680.536100	85.346773
680.958746	85.367577
681.381367	85.370152
681.803963	85.363720
682.226535	85.353808
682.649083	85.348432
683.071605	85.345644
683.494104	85.360546
683.916578	85.390101
684.339027	85.428645
684.761451	85.469403
685.183851	85.527807
685.606227	85.568156
686.028577	85.612484
686.450903	85.654374
686.873204	85.685091
687.295481	85.715135
687.717733	85.707575
688.139959	85.692325
688.562162	85.631220
688.984339	85.526334
689.406492	85.376710
689.828619	85.173054
690.250722	84.932725
690.672800	84.637440
691.094853	84.291295
691.516881	83.907873
691.938884	83.478867
692.360863	83.006988
692.782816	82.532639
693.204744	82.018353
693.626647	81.539654
694.048526	81.045722
694.470379	80.581224
694.892207	80.145456
695.314010	79.753738
695.735788	79.404701
696.157540	79.121244
696.579268	78.878408
697.000970	78.714434
697.422648	78.610440
697.844300	78.574140
698.265926	78.602312
698.687528	78.713400
699.109104	78.885789
699.530655	79.115556
699.952181	79.406786
700.373681	79.734682
700.795156	80.114122
701.216606	80.521512
701.638030	80.957091
702.059429	81.412094
702.480803	81.868514
702.902151	82.323785
703.323473	82.775425
703.744770	83.199324
704.166042	83.596184
704.587288	83.963754
705.008509	84.289338
705.429704	84.596253
705.850873	84.847895
706.272017	85.056921
706.693135	85.198282
707.114228	85.317714
707.535295	85.391993
707.956336	85.431952
708.377352	85.437080
708.798342	85.411925
709.219306	85.345410
709.640245	85.263714
710.061157	85.151264
710.482044	85.025668
710.902905	84.886502
711.323741	84.740974
711.744550	84.579322
712.165334	84.441237
712.586092	84.294679
713.006823	84.154955
713.427529	84.023085
713.848209	83.897053
714.268863	83.791913
714.689492	83.706705
715.110094	83.644742
715.530670	83.603730
715.951220	83.583503
716.371744	83.577915
716.792242	83.609760
717.212714	83.658117
717.633159	83.742299
718.053579	83.836088
718.473973	83.932334
718.894340	84.044992
719.314681	84.168869
719.734996	84.294523
720.155285	84.411780
720.575547	84.498441
720.995784	84.564977
721.415994	84.597989
721.836177	84.592971
722.256335	84.549642
722.676466	84.462895
723.096570	84.314518
723.516649	84.115019
723.936701	83.866121
724.356726	83.540208
724.776725	83.155367
725.196698	82.689566
725.616644	82.181747
726.036564	81.625788
726.456457	81.029070
726.876324	80.392834
727.296164	79.724326
727.715977	79.037720
728.135764	78.330731
728.555525	77.630691
728.975258	76.946918
729.394966	76.277881
729.814646	75.638653
730.234300	75.038655
730.653927	74.452078
731.073527	73.944304
731.493101	73.480607
731.912648	73.064777
732.332168	72.716016
732.751661	72.443484
733.171128	72.231927
733.590568	72.076919
734.009980	72.014567
734.429366	72.010732
734.848726	72.070061
735.268058	72.175381
735.687363	72.334410
736.106641	72.542827
736.525893	72.789918
736.945117	73.065505
737.364314	73.379687
737.783485	73.725796
738.202628	74.105222
738.621744	74.489973
739.040834	74.877331
739.459896	75.251543
739.878931	75.633255
740.297939	75.990461
740.716919	76.322403
741.135873	76.638965
741.554799	76.927092
741.973698	77.172860
742.392570	77.385563
742.811415	77.548066
743.230232	77.670624
743.649022	77.780014
744.067785	77.822177
744.486521	77.842692
744.905229	77.817500
745.323909	77.758251
745.742563	77.657142
746.161189	77.524607
746.579787	77.395093
746.998358	77.220277
747.416902	77.026842
747.835418	76.823979
748.253907	76.629397
748.672368	76.422009
749.090802	76.227768
749.509208	76.050004
749.927586	75.892991
750.345937	75.757501
750.764261	75.646131
751.182556	75.556696
751.600824	75.499346
752.019065	75.488982
752.437277	75.517196
752.855462	75.569375
