Time1=100ms:Average1=5:Objective=10X:Aperture=1: (11/21/2018 12:04:55 PM)
11/21/2018 12:04:55 PM
Reflectance
10X
Ap#: 1
Avg1: 5.000000
Avg2: 0.000000
Int.Time1:100.000000

350.166136	94.652149
350.601937	95.192116
351.037728	96.044738
351.473509	95.997170
351.909281	96.111280
352.345042	96.549612
352.780794	96.031908
353.216536	96.089842
353.652267	96.173913
354.087989	95.974252
354.523701	95.978771
354.959403	96.436934
355.395095	96.987644
355.830777	96.932015
356.266449	97.488515
356.702110	97.071045
357.137762	97.402994
357.573404	97.478733
358.009035	96.969387
358.444656	97.206245
358.880268	97.397119
359.315869	97.310665
359.751459	97.011400
360.187040	97.342945
360.622610	97.400186
361.058170	97.361097
361.493720	97.676820
361.929260	97.695805
362.364789	97.542669
362.800308	97.483566
363.235816	97.538366
363.671314	98.029961
364.106802	97.710707
364.542279	97.765707
364.977746	97.803671
365.413203	98.449452
365.848649	97.810144
366.284084	98.002254
366.719509	97.969647
367.154924	98.326317
367.590328	98.136964
368.025721	98.361998
368.461104	98.585051
368.896477	98.187590
369.331838	98.249386
369.767189	97.961254
370.202530	98.294700
370.637859	97.563688
371.073178	97.994531
371.508486	98.205232
371.943784	98.609278
372.379071	98.651663
372.814347	99.247432
373.249612	99.511500
373.684866	99.091001
374.120110	99.423252
374.555343	98.917552
374.990565	98.842243
375.425776	98.621869
375.860976	98.901653
376.296165	98.720919
376.731343	99.058022
377.166511	98.793970
377.601667	98.678811
378.036812	98.786602
378.471946	99.210710
378.907070	99.082752
379.342182	99.502389
379.777283	99.144193
380.212373	98.758812
380.647452	98.486946
381.082520	98.301067
381.517576	97.987769
381.952622	97.904251
382.387656	98.623167
382.822679	98.564736
383.257691	98.658793
383.692692	98.595058
384.127681	98.628766
384.562659	97.725467
384.997626	98.036493
385.432581	97.436909
385.867525	97.451540
386.302458	97.443933
386.737379	97.306034
387.172289	96.692112
387.607188	95.833333
388.042075	96.585603
388.476951	96.447689
388.911815	96.333398
389.346668	96.018690
389.781509	96.414265
390.216338	96.116600
390.651157	96.563842
391.085963	97.283248
391.520758	97.005285
391.955541	97.274243
392.390313	96.419885
392.825073	96.050584
393.259821	96.545650
393.694558	97.059402
394.129283	96.744550
394.563996	97.172590
394.998698	97.631501
395.433388	97.450980
395.868066	96.737119
396.302732	96.693006
396.737386	96.594337
397.172029	96.418519
397.606659	96.294505
398.041278	95.981498
398.475885	95.587250
398.910480	95.423995
399.345063	94.747532
399.779634	93.372958
400.214194	92.129608
400.648741	91.034076
401.083276	89.552703
401.517799	87.087877
401.952310	84.357355
402.386809	81.851957
402.821296	78.801843
403.255771	75.807108
403.690234	72.497629
404.124684	68.717082
404.559123	64.740621
404.993549	61.407193
405.427963	57.568164
405.862365	54.240862
406.296754	51.245947
406.731131	48.210952
407.165496	45.419373
407.599849	42.788525
408.034190	40.302121
408.468518	38.018983
408.902833	35.713105
409.337137	33.691761
409.771428	31.808721
410.205706	29.936840
410.639973	28.330938
411.074226	26.966234
411.508467	25.783488
411.942696	24.587598
412.376912	23.553867
412.811116	22.697993
413.245307	21.945966
413.679486	21.292405
414.113652	20.560659
414.547805	19.860788
414.981946	19.305833
415.416074	18.789168
415.850190	18.338191
416.284293	17.911042
416.718383	17.482118
417.152460	17.079398
417.586525	16.733784
418.020577	16.431185
418.454616	16.140644
418.888643	15.911540
419.322656	15.682493
419.756657	15.400816
420.190645	15.163983
420.624620	14.893739
421.058582	14.631577
421.492531	14.468237
421.926468	14.264548
422.360391	14.158787
422.794301	14.047210
423.228199	13.955566
423.662083	13.907930
424.095955	13.839314
424.529813	13.791639
424.963658	13.715906
425.397491	13.630356
425.831310	13.574169
426.265116	13.501878
426.698909	13.433417
427.132689	13.361753
427.566455	13.332510
428.000209	13.330160
428.433949	13.301930
428.867676	13.331167
429.301389	13.327608
429.735090	13.329979
430.168777	13.323094
430.602451	13.301384
431.036111	13.224813
431.469759	13.197046
431.903392	13.140719
432.337013	13.086288
432.770620	13.030762
433.204213	13.016744
433.637794	13.016789
434.071360	13.064201
434.504914	13.100908
434.938453	13.145538
435.371979	13.224500
435.805492	13.278015
436.238991	13.329954
436.672477	13.380246
437.105949	13.409391
437.539407	13.442165
437.972852	13.450867
438.406283	13.497781
438.839700	13.538916
439.273104	13.568478
439.706494	13.604499
440.139871	13.647920
440.573233	13.710009
441.006582	13.767670
441.439917	13.815193
441.873238	13.876361
442.306546	13.882273
442.739839	13.901055
443.173119	13.904958
443.606385	13.917701
444.039636	13.941649
444.472874	13.995150
444.906099	14.027616
445.339309	14.101080
445.772505	14.179261
446.205687	14.276859
446.638855	14.367722
447.072009	14.465679
447.505149	14.557088
447.938275	14.667378
448.371387	14.753298
448.804485	14.814130
449.237569	14.880628
449.670638	14.906555
450.103694	14.942900
450.536735	14.958536
450.969762	14.992508
451.402774	15.045391
451.835773	15.080290
452.268757	15.135572
452.701727	15.190623
453.134683	15.271100
453.567624	15.350786
454.000551	15.423021
454.433464	15.498295
454.866362	15.545672
455.299246	15.585672
455.732116	15.611614
456.164971	15.631980
456.597811	15.652569
457.030638	15.662349
457.463449	15.673125
457.896246	15.689936
458.329029	15.722969
458.761797	15.742573
459.194551	15.766240
459.627290	15.795922
460.060014	15.817815
460.492724	15.828363
460.925419	15.846462
461.358099	15.864855
461.790765	15.873614
462.223416	15.877120
462.656052	15.871340
463.088674	15.881685
463.521281	15.874129
463.953873	15.891071
464.386450	15.893914
464.819012	15.917897
465.251560	15.934042
465.684093	15.962558
466.116611	15.999878
466.549114	16.039914
466.981602	16.090221
467.414075	16.135304
467.846533	16.170742
468.278977	16.212805
468.711405	16.239282
469.143818	16.274150
469.576216	16.310009
470.008600	16.348934
470.440968	16.393506
470.873321	16.423598
471.305659	16.458392
471.737982	16.496681
472.170289	16.525436
472.602582	16.570396
473.034859	16.618858
473.467122	16.695850
473.899369	16.778222
474.331600	16.872311
474.763817	16.997901
475.196018	17.136395
475.628204	17.306955
476.060375	17.482921
476.492530	17.679686
476.924670	17.882289
477.356795	18.062961
477.788904	18.260310
478.220998	18.440398
478.653076	18.631145
479.085139	18.815882
479.517186	19.011601
479.949219	19.203677
480.381235	19.404319
480.813236	19.626440
481.245221	19.876753
481.677191	20.163959
482.109146	20.454488
482.541084	20.752538
482.973008	21.046250
483.404915	21.333605
483.836807	21.616355
484.268683	21.888635
484.700544	22.144153
485.132388	22.377190
485.564217	22.608264
485.996031	22.835495
486.427828	23.040880
486.859610	23.242566
487.291376	23.456747
487.723126	23.677419
488.154860	23.896685
488.586579	24.135445
489.018281	24.384189
489.449968	24.667400
489.881639	24.967147
490.313293	25.292074
490.744932	25.644377
491.176555	25.971573
491.608162	26.288001
492.039753	26.579383
492.471328	26.841867
492.902886	27.059995
493.334429	27.235803
493.765956	27.366755
494.197466	27.475182
494.628960	27.562334
495.060439	27.638591
495.491901	27.723574
495.923347	27.848558
496.354776	27.987170
496.786190	28.159669
497.217587	28.332516
497.648968	28.531148
498.080332	28.721298
498.511681	28.912671
498.943013	29.086758
499.374328	29.220666
499.805628	29.345201
500.236911	29.438447
500.668177	29.482225
501.099427	29.491117
501.530661	29.466892
501.961878	29.409559
502.393079	29.329747
502.824264	29.241459
503.255431	29.132165
503.686583	29.023404
504.117717	28.935794
504.548835	28.885699
504.979937	28.876807
505.411022	28.893142
505.842090	28.960477
506.273142	29.069561
506.704177	29.233475
507.135195	29.414108
507.566197	29.601477
507.997182	29.782347
508.428150	29.946013
508.859102	30.080163
509.290036	30.180015
509.720954	30.265880
510.151855	30.312774
510.582739	30.357762
511.013607	30.402685
511.444457	30.477543
511.875291	30.574454
512.306107	30.725767
512.736907	30.927219
513.167690	31.175340
513.598456	31.465121
514.029205	31.806691
514.459936	32.194862
514.890651	32.601641
515.321349	33.014922
515.752030	33.426020
516.182693	33.822154
516.613340	34.215697
517.043969	34.575703
517.474582	34.904721
517.905177	35.198575
518.335755	35.460690
518.766315	35.707758
519.196859	35.910108
519.627385	36.092324
520.057894	36.249804
520.488386	36.428281
520.918860	36.612816
521.349318	36.824940
521.779757	37.058719
522.210180	37.342864
522.640585	37.650835
523.070973	38.007150
523.501343	38.408441
523.931696	38.842391
524.362031	39.295154
524.792349	39.754399
525.222650	40.207497
525.652933	40.620984
526.083198	40.999848
526.513446	41.335235
526.943677	41.638047
527.373890	41.911634
527.804085	42.148975
528.234262	42.375177
528.664422	42.618593
529.094565	42.882735
529.524689	43.159776
529.954796	43.472864
530.384885	43.844368
530.814957	44.237884
531.245011	44.687225
531.675047	45.157691
532.105065	45.637581
532.535065	46.138264
532.965048	46.629477
533.395013	47.093583
533.824959	47.510831
534.254888	47.876431
534.684799	48.175616
535.114693	48.439134
535.544568	48.650128
535.974425	48.812545
536.404264	48.899460
536.834086	48.946504
537.263889	48.965642
537.693674	48.963072
538.123441	48.951030
538.553190	48.928773
538.982921	48.951432
539.412634	49.015196
539.842329	49.120570
540.272006	49.270088
540.701664	49.463826
541.131304	49.720104
541.560926	50.028788
541.990530	50.377676
542.420116	50.754641
542.849683	51.161559
543.279232	51.581979
543.708763	51.984566
544.138275	52.377882
544.567769	52.732155
544.997245	53.041709
545.426702	53.336035
545.856141	53.592518
546.285562	53.826867
546.714964	54.041371
547.144347	54.255157
547.573713	54.475915
548.003059	54.729008
548.432387	54.997752
548.861697	55.303892
549.290988	55.658180
549.720260	56.065575
550.149514	56.522890
550.578750	57.011132
551.007966	57.520816
551.437164	58.057251
551.866344	58.608928
552.295504	59.139373
552.724646	59.640642
553.153769	60.107696
553.582874	60.522484
554.011960	60.877725
554.441027	61.143569
554.870075	61.329504
555.299104	61.435829
555.728115	61.460204
556.157106	61.441553
556.586079	61.355685
557.015033	61.240501
557.443968	61.120913
557.872884	60.992760
558.301781	60.906593
558.730659	60.852081
559.159518	60.838216
559.588358	60.882165
560.017180	60.991922
560.445982	61.153458
560.874765	61.384985
561.303528	61.671541
561.732273	62.006725
562.160999	62.360145
562.589705	62.739514
563.018393	63.144661
563.447061	63.552086
563.875710	63.941961
564.304340	64.342931
564.732950	64.711983
565.161542	65.070548
565.590114	65.378876
566.018666	65.669430
566.447200	65.912069
566.875714	66.121756
567.304208	66.304131
567.732684	66.478313
568.161140	66.651492
568.589576	66.816385
569.017993	66.982944
569.446391	67.149373
569.874769	67.342216
570.303128	67.565807
570.731467	67.815250
571.159787	68.095829
571.588087	68.406565
572.016368	68.741547
572.444629	69.104469
572.872870	69.465408
573.301092	69.834246
573.729294	70.176985
574.157476	70.494458
574.585639	70.749811
575.013782	70.948583
575.441906	71.102439
575.870009	71.187428
576.298093	71.202289
576.726157	71.161357
577.154202	71.077993
577.582226	70.962331
578.010231	70.808601
578.438216	70.644942
578.866181	70.504227
579.294126	70.377583
579.722051	70.314715
580.149957	70.305373
580.577842	70.345857
581.005707	70.423071
581.433553	70.544238
581.861378	70.718688
582.289184	70.942441
582.716969	71.192919
583.144734	71.451295
583.572479	71.724707
584.000205	72.000949
584.427910	72.287903
584.855594	72.560669
585.283259	72.817006
585.710904	73.060819
586.138528	73.288238
586.566132	73.495730
586.993716	73.691919
587.421280	73.865472
587.848823	74.037431
588.276346	74.195667
588.703849	74.305760
589.131332	74.396912
589.558794	74.465910
589.986236	74.495366
590.413657	74.518446
590.841058	74.509043
591.268438	74.502834
591.695799	74.482166
592.123138	74.469252
592.550458	74.471057
592.977756	74.489807
593.405034	74.526452
593.832292	74.602459
594.259529	74.713524
594.686746	74.860664
595.113942	75.032465
595.541117	75.219917
595.968272	75.436569
596.395406	75.674703
596.822519	75.899952
597.249612	76.130033
597.676684	76.311626
598.103735	76.466356
598.530766	76.585524
598.957775	76.662609
599.384764	76.682735
599.811733	76.669537
600.238680	76.640389
600.665606	76.592661
601.092512	76.515515
601.519397	76.441221
601.946261	76.405272
602.373104	76.375491
602.799926	76.376996
603.226727	76.420612
603.653507	76.484835
604.080266	76.568962
604.507004	76.680170
604.933721	76.818781
605.360417	76.958526
605.787092	77.076572
606.213746	77.159827
606.640379	77.225501
607.066991	77.251624
607.493581	77.258519
607.920150	77.222212
608.346699	77.166376
608.773226	77.095879
609.199731	77.002390
609.626216	76.899745
610.052679	76.797737
610.479121	76.689370
610.905542	76.601782
611.331941	76.518667
611.758319	76.460284
612.184676	76.410863
612.611011	76.397580
613.037325	76.366036
613.463617	76.333328
613.889888	76.300286
614.316138	76.275018
614.742366	76.230058
615.168573	76.167668
615.594758	76.113691
616.020921	76.047537
616.447063	75.987530
616.873184	75.928842
617.299283	75.887948
617.725360	75.865216
618.151416	75.869893
618.577450	75.891336
619.003462	75.960029
619.429453	76.079324
619.855422	76.231969
620.281369	76.424573
620.707295	76.648861
621.133199	76.902732
621.559081	77.151064
621.984941	77.406735
622.410779	77.639584
622.836596	77.851876
623.262391	78.042008
623.688163	78.176135
624.113914	78.297195
624.539644	78.379085
624.965351	78.386269
625.391036	78.357927
625.816699	78.284342
626.242340	78.192924
626.667960	78.061136
627.093557	77.910088
627.519132	77.764227
627.944685	77.608323
628.370216	77.463435
628.795725	77.311809
629.221212	77.153825
629.646677	76.987046
630.072119	76.817719
630.497540	76.630831
630.922938	76.425404
631.348314	76.193733
631.773668	75.949611
632.198999	75.676473
632.624308	75.378221
633.049595	75.060047
633.474860	74.724994
633.900102	74.375168
634.325322	74.030327
634.750520	73.711050
635.175695	73.400875
635.600848	73.138424
636.025978	72.924386
636.451086	72.752778
636.876171	72.651162
637.301234	72.581382
637.726275	72.583384
638.151293	72.649962
638.576288	72.767775
639.001261	72.945091
639.426211	73.173563
639.851139	73.428521
640.276044	73.712162
640.700927	74.006234
641.125787	74.318290
641.550624	74.622375
641.975438	74.915032
642.400230	75.207790
642.824999	75.477252
643.249745	75.730139
643.674469	75.984511
644.099169	76.222378
644.523847	76.442199
644.948502	76.670599
645.373135	76.892266
645.797744	77.109634
646.222330	77.318343
646.646894	77.536154
647.071435	77.755375
647.495953	77.973026
647.920447	78.174024
648.344919	78.374941
648.769368	78.548952
649.193794	78.701537
649.618197	78.831073
650.042576	78.943516
650.466933	79.031974
650.891267	79.068627
651.315577	79.090131
651.739864	79.080423
652.164129	79.035290
652.588370	78.962226
653.012587	78.882528
653.436782	78.787229
653.860953	78.673631
654.285102	78.549850
654.709226	78.427512
655.133328	78.316065
655.557406	78.192549
655.981461	78.098773
656.405493	78.012814
656.829501	77.921435
657.253486	77.833171
657.677448	77.747299
658.101386	77.647408
658.525301	77.551305
658.949192	77.451314
659.373060	77.331746
659.796904	77.193487
660.220725	77.042169
660.644522	76.857264
661.068296	76.666393
661.492046	76.472666
661.915772	76.278192
662.339475	76.087051
662.763154	75.922059
663.186810	75.773168
663.610442	75.646876
664.034050	75.574258
664.457635	75.547265
664.881196	75.575047
665.304733	75.668744
665.728247	75.820744
666.151736	76.042567
666.575202	76.314558
666.998644	76.653169
667.422062	77.042423
667.845457	77.469837
668.268827	77.920385
668.692174	78.414166
669.115496	78.909277
669.538795	79.406365
669.962070	79.893797
670.385321	80.369953
670.808547	80.815891
671.231750	81.239130
671.654929	81.616645
672.078084	81.943801
672.501214	82.239156
672.924321	82.492585
673.347404	82.706058
673.770462	82.908149
674.193496	83.073749
674.616506	83.198179
675.039492	83.313637
675.462454	83.404711
675.885391	83.457364
676.308305	83.483339
676.731194	83.523604
677.154058	83.553862
677.576899	83.567041
677.999715	83.580795
678.422507	83.587778
678.845274	83.580206
679.268017	83.564382
679.690736	83.548267
680.113430	83.516497
680.536100	83.488978
680.958746	83.451722
681.381367	83.421615
681.803963	83.374545
682.226535	83.317547
682.649083	83.256007
683.071605	83.193955
683.494104	83.143505
683.916578	83.099722
684.339027	83.065945
684.761451	83.037768
685.183851	83.025545
685.606227	83.019110
686.028577	83.007769
686.450903	82.984960
686.873204	82.956318
687.295481	82.921742
687.717733	82.878131
688.139959	82.798236
688.562162	82.694385
688.984339	82.579166
689.406492	82.437038
689.828619	82.258979
690.250722	82.037860
690.672800	81.804147
691.094853	81.535914
691.516881	81.219091
691.938884	80.898769
692.360863	80.560533
692.782816	80.207686
693.204744	79.865911
693.626647	79.519000
694.048526	79.194256
694.470379	78.887943
694.892207	78.614059
695.314010	78.389847
695.735788	78.231825
696.157540	78.125242
696.579268	78.077483
697.000970	78.101173
697.422648	78.176200
697.844300	78.318173
698.265926	78.516965
698.687528	78.765645
699.109104	79.066346
699.530655	79.424336
699.952181	79.803909
700.373681	80.211934
700.795156	80.646141
701.216606	81.096389
701.638030	81.566875
702.059429	82.024009
702.480803	82.462954
702.902151	82.864889
703.323473	83.230772
703.744770	83.541436
704.166042	83.804918
704.587288	84.036843
705.008509	84.186469
705.429704	84.281715
705.850873	84.320792
706.272017	84.291074
706.693135	84.210705
707.114228	84.069942
707.535295	83.889083
707.956336	83.659988
708.377352	83.382086
708.798342	83.066260
709.219306	82.727721
709.640245	82.373307
710.061157	81.992915
710.482044	81.604118
710.902905	81.211522
711.323741	80.832642
711.744550	80.479023
712.165334	80.142922
712.586092	79.815395
713.006823	79.529775
713.427529	79.271645
713.848209	79.044769
714.268863	78.859113
714.689492	78.696330
715.110094	78.567832
715.530670	78.493903
715.951220	78.458121
716.371744	78.452929
716.792242	78.497524
717.212714	78.570168
717.633159	78.677461
718.053579	78.836017
718.473973	79.018730
718.894340	79.230890
719.314681	79.448132
719.734996	79.676738
720.155285	79.894893
720.575547	80.102999
720.995784	80.303968
721.415994	80.486631
721.836177	80.630462
722.256335	80.742545
722.676466	80.796365
723.096570	80.810547
723.516649	80.769462
723.936701	80.665695
724.356726	80.497690
724.776725	80.263548
725.196698	79.970339
725.616644	79.630601
726.036564	79.234821
726.456457	78.807502
726.876324	78.342727
727.296164	77.841555
727.715977	77.328347
728.135764	76.808403
728.555525	76.290557
728.975258	75.782492
729.394966	75.311813
729.814646	74.848567
730.234300	74.421678
730.653927	74.036194
731.073527	73.684696
731.493101	73.402011
731.912648	73.169437
732.332168	73.010213
732.751661	72.918337
733.171128	72.913913
733.590568	72.975191
734.009980	73.111150
734.429366	73.316900
734.848726	73.589257
735.268058	73.925369
735.687363	74.317543
736.106641	74.757289
736.525893	75.246094
736.945117	75.774323
737.364314	76.338013
737.783485	76.935386
738.202628	77.559352
738.621744	78.207259
739.040834	78.849212
739.459896	79.480928
739.878931	80.096693
740.297939	80.707505
740.716919	81.286855
741.135873	81.830685
741.554799	82.329935
741.973698	82.795512
742.392570	83.207273
742.811415	83.581566
743.230232	83.914997
743.649022	84.196405
744.067785	84.426019
744.486521	84.592920
744.905229	84.721605
745.323909	84.803443
745.742563	84.851966
746.161189	84.848925
746.579787	84.818787
746.998358	84.758009
747.416902	84.683444
747.835418	84.585043
748.253907	84.482844
748.672368	84.378367
749.090802	84.283318
749.509208	84.190003
749.927586	84.114527
750.345937	84.046701
750.764261	83.994515
751.182556	83.962310
751.600824	83.951714
752.019065	83.979438
752.437277	84.043291
752.855462	84.157351
753.273620	84.294604
753.691749	84.451078
754.109851	84.642039
