Time1=100ms:Average1=5:Objective=10X:Aperture=1: (11/21/2018 12:03:38 PM)
11/21/2018 12:03:38 PM
Reflectance
10X
Ap#: 1
Avg1: 5.000000
Avg2: 0.000000
Int.Time1:100.000000

350.166136	93.929466
350.601937	94.873582
351.037728	95.434672
351.473509	95.633276
351.909281	95.461468
352.345042	95.355247
352.780794	95.346697
353.216536	95.661052
353.652267	95.672634
354.087989	95.238582
354.523701	95.141866
354.959403	94.838644
355.395095	95.517206
355.830777	95.515238
356.266449	95.650842
356.702110	95.236647
357.137762	95.692026
357.573404	95.336681
358.009035	95.198116
358.444656	95.388250
358.880268	95.761317
359.315869	96.496651
359.751459	96.364383
360.187040	96.313079
360.622610	96.234396
361.058170	96.526131
361.493720	96.695922
361.929260	96.476545
362.364789	95.424635
362.800308	95.100657
363.235816	95.179730
363.671314	95.485327
364.106802	95.267426
364.542279	95.316183
364.977746	95.885750
365.413203	96.423403
365.848649	96.322694
366.284084	96.301608
366.719509	95.652174
367.154924	96.067358
367.590328	95.925888
368.025721	96.222359
368.461104	96.421614
368.896477	96.477575
369.331838	96.375921
369.767189	95.709504
370.202530	96.037986
370.637859	95.279013
371.073178	96.009318
371.508486	95.883188
371.943784	96.122221
372.379071	96.117194
372.814347	96.216821
373.249612	96.722980
373.684866	96.232704
374.120110	96.569867
374.555343	96.439049
374.990565	96.436122
375.425776	96.197566
375.860976	96.311971
376.296165	95.759895
376.731343	95.781140
377.166511	95.809045
377.601667	95.766190
378.036812	95.758123
378.471946	95.534019
378.907070	95.653041
379.342182	95.899682
379.777283	95.770723
380.212373	95.690597
380.647452	95.441060
381.082520	95.634137
381.517576	95.442888
381.952622	95.897894
382.387656	96.408261
382.822679	96.790591
383.257691	97.557802
383.692692	97.279793
384.127681	98.038234
384.562659	97.427493
384.997626	97.669576
385.432581	97.101735
385.867525	96.743088
386.302458	96.327490
386.737379	96.081505
387.172289	96.095126
387.607188	95.726496
388.042075	95.768482
388.476951	95.503650
388.911815	95.623420
389.346668	96.291249
389.781509	97.234978
390.216338	97.094786
390.651157	96.866458
391.085963	97.165555
391.520758	96.878058
391.955541	96.921267
392.390313	96.429614
392.825073	96.001946
393.259821	96.310794
393.694558	96.538159
394.129283	96.245967
394.563996	96.465737
394.998698	96.506464
395.433388	95.921569
395.868066	95.139768
396.302732	95.005365
396.737386	94.609322
397.172029	94.584102
397.606659	94.146672
398.041278	93.813241
398.475885	93.328228
398.910480	92.921493
399.345063	92.286618
399.779634	91.430711
400.214194	89.860542
400.648741	88.742683
401.083276	86.865367
401.517799	85.006249
401.952310	82.713622
402.386809	79.941849
402.821296	76.822987
403.255771	73.769461
403.690234	70.976355
404.124684	67.614032
404.559123	63.966680
404.993549	60.675009
405.427963	57.254923
405.862365	53.842050
406.296754	50.760821
406.731131	47.905638
407.165496	45.352176
407.599849	42.888750
408.034190	40.609155
408.468518	38.312647
408.902833	36.324831
409.337137	34.442510
409.771428	32.717542
410.205706	31.052625
410.639973	29.555355
411.074226	28.283457
411.508467	27.165458
411.942696	26.129839
412.376912	25.254495
412.811116	24.554736
413.245307	23.866446
413.679486	23.366564
414.113652	22.756075
414.547805	22.268740
414.981946	21.746016
415.416074	21.324839
415.850190	20.998625
416.284293	20.638048
416.718383	20.337200
417.152460	20.029947
417.586525	19.798741
418.020577	19.615729
418.454616	19.457998
418.888643	19.295014
419.322656	19.139800
419.756657	18.978180
420.190645	18.818820
420.624620	18.617531
421.058582	18.437450
421.492531	18.268946
421.926468	18.173511
422.360391	18.134797
422.794301	18.105677
423.228199	18.093456
423.662083	18.115262
424.095955	18.172989
424.529813	18.211375
424.963658	18.276038
425.397491	18.290196
425.831310	18.291773
426.265116	18.260947
426.698909	18.267787
427.132689	18.262067
427.566455	18.308315
428.000209	18.323748
428.433949	18.390761
428.867676	18.457452
429.301389	18.529780
429.735090	18.591981
430.168777	18.628188
430.602451	18.644015
431.036111	18.606335
431.469759	18.584602
431.903392	18.564335
432.337013	18.554156
432.770620	18.523935
433.204213	18.541024
433.637794	18.578803
434.071360	18.656766
434.504914	18.760906
434.938453	18.873458
435.371979	18.977768
435.805492	19.075268
436.238991	19.162525
436.672477	19.268198
437.105949	19.341555
437.539407	19.379229
437.972852	19.403724
438.406283	19.412445
438.839700	19.453658
439.273104	19.519630
439.706494	19.596684
440.139871	19.680865
440.573233	19.776312
441.006582	19.877951
441.439917	19.958817
441.873238	19.994724
442.306546	20.033764
442.739839	20.007181
443.173119	19.992613
443.606385	19.967121
444.039636	19.945707
444.472874	19.959473
444.906099	19.988875
445.339309	20.043941
445.772505	20.104364
446.205687	20.209866
446.638855	20.299052
447.072009	20.374846
447.505149	20.454960
447.938275	20.532604
448.371387	20.606955
448.804485	20.671886
449.237569	20.703471
449.670638	20.718521
450.103694	20.686468
450.536735	20.664924
450.969762	20.665182
451.402774	20.672833
451.835773	20.680592
452.268757	20.693084
452.701727	20.683566
453.134683	20.718430
453.567624	20.728664
454.000551	20.725789
454.433464	20.704404
454.866362	20.675873
455.299246	20.659622
455.732116	20.609323
456.164971	20.563692
456.597811	20.521395
457.030638	20.492876
457.463449	20.455390
457.896246	20.420904
458.329029	20.375972
458.761797	20.336632
459.194551	20.297796
459.627290	20.252408
460.060014	20.210941
460.492724	20.184677
460.925419	20.148236
461.358099	20.114756
461.790765	20.065430
462.223416	20.005205
462.656052	19.927967
463.088674	19.843907
463.521281	19.767157
463.953873	19.675785
464.386450	19.581044
464.819012	19.516514
465.251560	19.463164
465.684093	19.419216
466.116611	19.398658
466.549114	19.359312
466.981602	19.350788
467.414075	19.324472
467.846533	19.312252
468.278977	19.305972
468.711405	19.290507
469.143818	19.283133
469.576216	19.288104
470.008600	19.293236
470.440968	19.281617
470.873321	19.280203
471.305659	19.272871
471.737982	19.290520
472.170289	19.284898
472.602582	19.294389
473.034859	19.312170
473.467122	19.354421
473.899369	19.396901
474.331600	19.475641
474.763817	19.558857
475.196018	19.679647
475.628204	19.828919
476.060375	20.012715
476.492530	20.211494
476.924670	20.415186
477.356795	20.634776
477.788904	20.843975
478.220998	21.033574
478.653076	21.225239
479.085139	21.407036
479.517186	21.605008
479.949219	21.811253
480.381235	22.029622
480.813236	22.289540
481.245221	22.569130
481.677191	22.873565
482.109146	23.191662
482.541084	23.491489
482.973008	23.810858
483.404915	24.117833
483.836807	24.422287
484.268683	24.691316
484.700544	24.942808
485.132388	25.173100
485.564217	25.397042
485.996031	25.595224
486.427828	25.793247
486.859610	25.982466
487.291376	26.165415
487.723126	26.342993
488.154860	26.545641
488.586579	26.756466
489.018281	26.982435
489.449968	27.215048
489.881639	27.481641
490.313293	27.771316
490.744932	28.079813
491.176555	28.382266
491.608162	28.695623
492.039753	28.967963
492.471328	29.214662
492.902886	29.405738
493.334429	29.566503
493.765956	29.682856
494.197466	29.764478
494.628960	29.829461
495.060439	29.885534
495.491901	29.933064
495.923347	30.026730
496.354776	30.132374
496.786190	30.264612
497.217587	30.414699
497.648968	30.600251
498.080332	30.779946
498.511681	30.956367
498.943013	31.112671
499.374328	31.258405
499.805628	31.373847
500.236911	31.453751
500.668177	31.491061
501.099427	31.491861
501.530661	31.449600
501.961878	31.355045
502.393079	31.232830
502.824264	31.104554
503.255431	30.949203
503.686583	30.780286
504.117717	30.625223
504.548835	30.510939
504.979937	30.401014
505.411022	30.357538
505.842090	30.342147
506.273142	30.377595
506.704177	30.451800
507.135195	30.538013
507.566197	30.637745
507.997182	30.739056
508.428150	30.836888
508.859102	30.903641
509.290036	30.953817
509.720954	30.992193
510.151855	31.009605
510.582739	31.025342
511.013607	31.044178
511.444457	31.089667
511.875291	31.157649
512.306107	31.283156
512.736907	31.451652
513.167690	31.660019
513.598456	31.911281
514.029205	32.207158
514.459936	32.522122
514.890651	32.852493
515.321349	33.188993
515.752030	33.497701
516.182693	33.793856
516.613340	34.091849
517.043969	34.385150
517.474582	34.636202
517.905177	34.852099
518.335755	35.073390
518.766315	35.254748
519.196859	35.455064
519.627385	35.643742
520.057894	35.829133
520.488386	36.045542
520.918860	36.284373
521.349318	36.555327
521.779757	36.858502
522.210180	37.238158
522.640585	37.654799
523.070973	38.098308
523.501343	38.577568
523.931696	39.081488
524.362031	39.593544
524.792349	40.089502
525.222650	40.572380
525.652933	41.014195
526.083198	41.408077
526.513446	41.741646
526.943677	42.017956
527.373890	42.265994
527.804085	42.488574
528.234262	42.694250
528.664422	42.929599
529.094565	43.205704
529.524689	43.494645
529.954796	43.824212
530.384885	44.197887
530.814957	44.622455
531.245011	45.117306
531.675047	45.634049
532.105065	46.190988
532.535065	46.756672
532.965048	47.323899
533.395013	47.860543
533.824959	48.361580
534.254888	48.828272
534.684799	49.218302
535.114693	49.559344
535.544568	49.831162
535.974425	50.031145
536.404264	50.172812
536.834086	50.265219
537.263889	50.297444
537.693674	50.310315
538.123441	50.311918
538.553190	50.288316
538.982921	50.298492
539.412634	50.322901
539.842329	50.409401
540.272006	50.538307
540.701664	50.697717
541.131304	50.919407
541.560926	51.182293
541.990530	51.479577
542.420116	51.807760
542.849683	52.148983
543.279232	52.497364
543.708763	52.813560
544.138275	53.115139
544.567769	53.355101
544.997245	53.581804
545.426702	53.751067
545.856141	53.878501
546.285562	53.982200
546.714964	54.074999
547.144347	54.157257
547.573713	54.251569
548.003059	54.392648
548.432387	54.576906
548.861697	54.812875
549.290988	55.112406
549.720260	55.481871
550.149514	55.909556
550.578750	56.421968
551.007966	56.987206
551.437164	57.597294
551.866344	58.252726
552.295504	58.882524
552.724646	59.506266
553.153769	60.107007
553.582874	60.662880
554.011960	61.142249
554.441027	61.541276
554.870075	61.854897
555.299104	62.069645
555.728115	62.185595
556.157106	62.239462
556.586079	62.216351
557.015033	62.149082
557.443968	62.053682
557.872884	61.958376
558.301781	61.833297
558.730659	61.756199
559.159518	61.686493
559.588358	61.652242
560.017180	61.653926
560.445982	61.711478
560.874765	61.796403
561.303528	61.930426
561.732273	62.085071
562.160999	62.254429
562.589705	62.451715
563.018393	62.665738
563.447061	62.903255
563.875710	63.124614
564.304340	63.332424
564.732950	63.540827
565.161542	63.744062
565.590114	63.936751
566.018666	64.132245
566.447200	64.300458
566.875714	64.468297
567.304208	64.661291
567.732684	64.855609
568.161140	65.077632
568.589576	65.327013
569.017993	65.607760
569.446391	65.927112
569.874769	66.289420
570.303128	66.705199
570.731467	67.166044
571.159787	67.651026
571.588087	68.187855
572.016368	68.739579
572.444629	69.316826
572.872870	69.888019
573.301092	70.456070
573.729294	70.985050
574.157476	71.480649
574.585639	71.887910
575.013782	72.225313
575.441906	72.472761
575.870009	72.625543
576.298093	72.663446
576.726157	72.618225
577.154202	72.481814
577.582226	72.302527
578.010231	72.035538
578.438216	71.736858
578.866181	71.429603
579.294126	71.118338
579.722051	70.836565
580.149957	70.593516
580.577842	70.383396
581.005707	70.209998
581.433553	70.076668
581.861378	69.985985
582.289184	69.937623
582.716969	69.909073
583.144734	69.907848
583.572479	69.939373
584.000205	69.981842
584.427910	70.057804
584.855594	70.136182
585.283259	70.230546
585.710904	70.357207
586.138528	70.498937
586.566132	70.644734
586.993716	70.817229
587.421280	71.010941
587.848823	71.227544
588.276346	71.456400
588.703849	71.691284
589.131332	71.934807
589.558794	72.189725
589.986236	72.423921
590.413657	72.678613
590.841058	72.915549
591.268438	73.178969
591.695799	73.442121
592.123138	73.719478
592.550458	74.019563
592.977756	74.338991
593.405034	74.663674
593.832292	75.016811
594.259529	75.399896
594.686746	75.810710
595.113942	76.232860
595.541117	76.646177
595.968272	77.072581
596.395406	77.476954
596.822519	77.843750
597.249612	78.171576
597.676684	78.425994
598.103735	78.620019
598.530766	78.740739
598.957775	78.767237
599.384764	78.721177
599.811733	78.612799
600.238680	78.438011
600.665606	78.200004
601.092512	77.926533
601.519397	77.647057
601.946261	77.358978
602.373104	77.069120
602.799926	76.787326
603.226727	76.531229
603.653507	76.298913
604.080266	76.088845
604.507004	75.916911
604.933721	75.761237
605.360417	75.626843
605.787092	75.492697
606.213746	75.339054
606.640379	75.190938
607.066991	75.032950
607.493581	74.872160
607.920150	74.695402
608.346699	74.521004
608.773226	74.366420
609.199731	74.223453
609.626216	74.097445
610.052679	73.992391
610.479121	73.918425
610.905542	73.887707
611.331941	73.893028
611.758319	73.913586
612.184676	73.979919
612.611011	74.075165
613.037325	74.183626
613.463617	74.299912
613.889888	74.423251
614.316138	74.556708
614.742366	74.669911
615.168573	74.785405
615.594758	74.897010
616.020921	75.017266
616.447063	75.145195
616.873184	75.270012
617.299283	75.386492
617.725360	75.516451
618.151416	75.668933
618.577450	75.830720
619.003462	76.015124
619.429453	76.235291
619.855422	76.473736
620.281369	76.719744
620.707295	76.979988
621.133199	77.214638
621.559081	77.441188
621.984941	77.630078
622.410779	77.779243
622.836596	77.872328
623.262391	77.913666
623.688163	77.898532
624.113914	77.821117
624.539644	77.691460
624.965351	77.508383
625.391036	77.272688
625.816699	77.000990
626.242340	76.713129
626.667960	76.400440
627.093557	76.084243
627.519132	75.766567
627.944685	75.448318
628.370216	75.144132
628.795725	74.853905
629.221212	74.564166
629.646677	74.267101
630.072119	73.986634
630.497540	73.711967
630.922938	73.415171
631.348314	73.106169
631.773668	72.779581
632.198999	72.431870
632.624308	72.073938
633.049595	71.703066
633.474860	71.331355
633.900102	70.948403
634.325322	70.595133
634.750520	70.264253
635.175695	69.966504
635.600848	69.720813
636.025978	69.546658
636.451086	69.433569
636.876171	69.379851
637.301234	69.386744
637.726275	69.459993
638.151293	69.609488
638.576288	69.808224
639.001261	70.055413
639.426211	70.343338
639.851139	70.654117
640.276044	70.973993
640.700927	71.308887
641.125787	71.643811
641.550624	71.967987
641.975438	72.264432
642.400230	72.546905
642.824999	72.803636
643.249745	73.024259
643.674469	73.235697
644.099169	73.428387
644.523847	73.605634
644.948502	73.780324
645.373135	73.941482
645.797744	74.105440
646.222330	74.274816
646.646894	74.458873
647.071435	74.635082
647.495953	74.824245
647.920447	75.001562
648.344919	75.193959
648.769368	75.360592
649.193794	75.521580
649.618197	75.651379
650.042576	75.763715
650.466933	75.860198
650.891267	75.917439
651.315577	75.952784
651.739864	75.964929
652.164129	75.956417
652.588370	75.924710
653.012587	75.883432
653.436782	75.848976
653.860953	75.794270
654.285102	75.739479
654.709226	75.682971
655.133328	75.641655
655.557406	75.603820
655.981461	75.588158
656.405493	75.577433
656.829501	75.559456
657.253486	75.554333
657.677448	75.542441
658.101386	75.527443
658.525301	75.505488
658.949192	75.476188
659.373060	75.406861
659.796904	75.311113
660.220725	75.209375
660.644522	75.068985
661.068296	74.903883
661.492046	74.713694
661.915772	74.520648
662.339475	74.310710
662.763154	74.118300
663.186810	73.928732
663.610442	73.760149
664.034050	73.621133
664.457635	73.513992
664.881196	73.453743
665.304733	73.441626
665.728247	73.480491
666.151736	73.570135
666.575202	73.710701
666.998644	73.902969
667.422062	74.149272
667.845457	74.430955
668.268827	74.742840
668.692174	75.094122
669.115496	75.447021
669.538795	75.819343
669.962070	76.192394
670.385321	76.556388
670.808547	76.901838
671.231750	77.227607
671.654929	77.525460
672.078084	77.783792
672.501214	78.019275
672.924321	78.223117
673.347404	78.407825
673.770462	78.573308
674.193496	78.727569
674.616506	78.857204
675.039492	78.976441
675.462454	79.082880
675.885391	79.170217
676.308305	79.261004
676.731194	79.357248
677.154058	79.455870
677.576899	79.552810
677.999715	79.646799
678.422507	79.767144
678.845274	79.871172
679.268017	79.982541
679.690736	80.095765
680.113430	80.201216
680.536100	80.297857
680.958746	80.405089
681.381367	80.500073
681.803963	80.567469
682.226535	80.636158
682.649083	80.692917
683.071605	80.750248
683.494104	80.791971
683.916578	80.835031
684.339027	80.866678
684.761451	80.891207
685.183851	80.904436
685.606227	80.926122
686.028577	80.927536
686.450903	80.895867
686.873204	80.843592
687.295481	80.766677
687.717733	80.677796
688.139959	80.540000
688.562162	80.365580
688.984339	80.163220
689.406492	79.916640
689.828619	79.630923
690.250722	79.303666
690.672800	78.952819
691.094853	78.576972
691.516881	78.137143
691.938884	77.690265
692.360863	77.230901
692.782816	76.753790
693.204744	76.293640
693.626647	75.840928
694.048526	75.409028
694.470379	75.011203
694.892207	74.659942
695.314010	74.369528
695.735788	74.133293
696.157540	73.956396
696.579268	73.857031
697.000970	73.821020
697.422648	73.854918
697.844300	73.972099
698.265926	74.166369
698.687528	74.406869
699.109104	74.712458
699.530655	75.072639
699.952181	75.481432
700.373681	75.929135
700.795156	76.399583
701.216606	76.901077
701.638030	77.418302
702.059429	77.936929
702.480803	78.441101
702.902151	78.907918
703.323473	79.349810
703.744770	79.732416
704.166042	80.061425
704.587288	80.352541
705.008509	80.582307
705.429704	80.748355
705.850873	80.853625
706.272017	80.883118
706.693135	80.862154
707.114228	80.774314
707.535295	80.632291
707.956336	80.446832
708.377352	80.203675
708.798342	79.913891
709.219306	79.596243
709.640245	79.256849
710.061157	78.895633
710.482044	78.524175
710.902905	78.147968
711.323741	77.757719
711.744550	77.396983
712.165334	77.062020
712.586092	76.753115
713.006823	76.463889
713.427529	76.210841
713.848209	75.993218
714.268863	75.810158
714.689492	75.672717
715.110094	75.581607
715.530670	75.550182
715.951220	75.570766
716.371744	75.631213
716.792242	75.751196
717.212714	75.922010
717.633159	76.128660
718.053579	76.391710
718.473973	76.685900
718.894340	77.016046
719.314681	77.372676
719.734996	77.737675
720.155285	78.108335
720.575547	78.477039
720.995784	78.823580
721.415994	79.152896
721.836177	79.453593
722.256335	79.716728
722.676466	79.917301
723.096570	80.076543
723.516649	80.174752
723.936701	80.195856
724.356726	80.151731
724.776725	80.033606
725.196698	79.838190
725.616644	79.562992
726.036564	79.253372
726.456457	78.882973
726.876324	78.458831
727.296164	78.001449
727.715977	77.515135
728.135764	77.013469
728.555525	76.501299
728.975258	75.989123
729.394966	75.495556
729.814646	75.018531
730.234300	74.564757
730.653927	74.150901
731.073527	73.763971
731.493101	73.443269
731.912648	73.172523
732.332168	72.954535
732.751661	72.807497
733.171128	72.730178
733.590568	72.718206
734.009980	72.780406
734.429366	72.910955
734.848726	73.109368
735.268058	73.360252
735.687363	73.677191
736.106641	74.042774
736.525893	74.446099
736.945117	74.892945
737.364314	75.364533
737.783485	75.877691
738.202628	76.405886
738.621744	76.967297
739.040834	77.513072
739.459896	78.070274
739.878931	78.599960
740.297939	79.122077
740.716919	79.612406
741.135873	80.054313
741.554799	80.452328
741.973698	80.803753
742.392570	81.115365
742.811415	81.378637
743.230232	81.579559
743.649022	81.730909
744.067785	81.814279
744.486521	81.830859
744.905229	81.796444
745.323909	81.709750
745.742563	81.581807
746.161189	81.412502
746.579787	81.199707
746.998358	80.957241
747.416902	80.682778
747.835418	80.386313
748.253907	80.094944
748.672368	79.797335
749.090802	79.510022
749.509208	79.244916
749.927586	78.999113
750.345937	78.794015
750.764261	78.619840
751.182556	78.482214
751.600824	78.394083
752.019065	78.350513
752.437277	78.341190
752.855462	78.423857
753.273620	78.540790
753.691749	78.713612
754.109851	78.930362
