Time1=100ms:Average1=5:Objective=10X:Aperture=1: (11/21/2018 11:09:03 AM)
11/21/2018 11:09:03 AM
Reflectance
10X
Ap#: 1
Avg1: 5.000000
Avg2: 0.000000
Int.Time1:100.000000

350.166136	79.986510
350.601937	80.111487
351.037728	79.877987
351.473509	79.945416
351.909281	79.754290
352.345042	79.695794
352.780794	79.842504
353.216536	79.703931
353.652267	79.887468
354.087989	79.707776
354.523701	79.465197
354.959403	79.690522
355.395095	79.515981
355.830777	79.910305
356.266449	79.938744
356.702110	80.287828
357.137762	80.659945
357.573404	80.393564
358.009035	79.911948
358.444656	79.745275
358.880268	79.475309
359.315869	79.062339
359.751459	78.730615
360.187040	78.774459
360.622610	78.861034
361.058170	79.043398
361.493720	79.876097
361.929260	79.489564
362.364789	79.169237
362.800308	79.324158
363.235816	79.029766
363.671314	79.099118
364.106802	78.975465
364.542279	78.999693
364.977746	79.274077
365.413203	79.470746
365.848649	79.082739
366.284084	78.957074
366.719509	79.050451
367.154924	78.960879
367.590328	78.452247
368.025721	78.859541
368.461104	78.755255
368.896477	79.039525
369.331838	78.920966
369.767189	78.456233
370.202530	77.892372
370.637859	77.173474
371.073178	77.808164
371.508486	78.118029
371.943784	78.164653
372.379071	78.304947
372.814347	79.324723
373.249612	79.503358
373.684866	79.123321
374.120110	79.500152
374.555343	78.978250
374.990565	78.616732
375.425776	78.704356
375.860976	78.587263
376.296165	77.953470
376.731343	78.334502
377.166511	78.170854
377.601667	78.720849
378.036812	78.800642
378.471946	78.509342
378.907070	78.454636
379.342182	78.831608
379.777283	78.644641
380.212373	78.006156
380.647452	78.045886
381.082520	78.121296
381.517576	77.914776
381.952622	78.247914
382.387656	78.010576
382.822679	78.112230
383.257691	78.360524
383.692692	78.527302
384.127681	78.730858
384.562659	78.277712
384.997626	78.322094
385.432581	77.878549
385.867525	78.028141
386.302458	77.886593
386.737379	78.252351
387.172289	78.479154
387.607188	78.127428
388.042075	78.336576
388.476951	78.647202
388.911815	78.476950
389.346668	78.944807
389.781509	79.042501
390.216338	78.802700
390.651157	78.758298
391.085963	78.628874
391.520758	78.273635
391.955541	78.870477
392.390313	78.363654
392.825073	78.122568
393.259821	78.168118
393.694558	78.894571
394.129283	78.785805
394.563996	79.314746
394.998698	79.295372
395.433388	79.142157
395.868066	79.278270
396.302732	79.538582
396.737386	79.278972
397.172029	79.195380
397.606659	79.281153
398.041278	78.948636
398.475885	78.410070
398.910480	78.168645
399.345063	77.129092
399.779634	75.906772
400.214194	74.437336
400.648741	73.437996
401.083276	71.856261
401.517799	70.365901
401.952310	68.329918
402.386809	66.458022
402.821296	63.629323
403.255771	61.465922
403.690234	59.238309
404.124684	56.460963
404.559123	53.221645
404.993549	50.602374
405.427963	47.386484
405.862365	44.720197
406.296754	42.196559
406.731131	39.829112
407.165496	37.494146
407.599849	35.322706
408.034190	33.270172
408.468518	31.425327
408.902833	29.654457
409.337137	28.091093
409.771428	26.548421
410.205706	25.153705
410.639973	23.900086
411.074226	22.813191
411.508467	21.907564
411.942696	21.019972
412.376912	20.287772
412.811116	19.681793
413.245307	19.131991
413.679486	18.597146
414.113652	18.020597
414.547805	17.554291
414.981946	17.198236
415.416074	16.751844
415.850190	16.448721
416.284293	16.182820
416.718383	15.909319
417.152460	15.640597
417.586525	15.447349
418.020577	15.318587
418.454616	15.179303
418.888643	15.102269
419.322656	15.015001
419.756657	14.951253
420.190645	14.924224
420.624620	14.877996
421.058582	14.854759
421.492531	14.877544
421.926468	14.885910
422.360391	14.954623
422.794301	15.016516
423.228199	15.111084
423.662083	15.203901
424.095955	15.317597
424.529813	15.428011
424.963658	15.566258
425.397491	15.690519
425.831310	15.845588
426.265116	15.992435
426.698909	16.130454
427.132689	16.298523
427.566455	16.508987
428.000209	16.700832
428.433949	16.864255
428.867676	17.119956
429.301389	17.311174
429.735090	17.533451
430.168777	17.734097
430.602451	17.930689
431.036111	18.141809
431.469759	18.354596
431.903392	18.582898
432.337013	18.793982
432.770620	19.008386
433.204213	19.232363
433.637794	19.450584
434.071360	19.704001
434.504914	19.936703
434.938453	20.146372
435.371979	20.409089
435.805492	20.637563
436.238991	20.843617
436.672477	21.067681
437.105949	21.295884
437.539407	21.497154
437.972852	21.706071
438.406283	21.901157
438.839700	22.130893
439.273104	22.328146
439.706494	22.509482
440.139871	22.708819
440.573233	22.913011
441.006582	23.090374
441.439917	23.292365
441.873238	23.465324
442.306546	23.623179
442.739839	23.807917
443.173119	23.979718
443.606385	24.182627
444.039636	24.383927
444.472874	24.566949
444.906099	24.757940
445.339309	24.942425
445.772505	25.122731
446.205687	25.305318
446.638855	25.481363
447.072009	25.627469
447.505149	25.763372
447.938275	25.898278
448.371387	26.030962
448.804485	26.133934
449.237569	26.255648
449.670638	26.354350
450.103694	26.453970
450.536735	26.553752
450.969762	26.666551
451.402774	26.769495
451.835773	26.884552
452.268757	26.975833
452.701727	27.082400
453.134683	27.198657
453.567624	27.291832
454.000551	27.409833
454.433464	27.532430
454.866362	27.647571
455.299246	27.781611
455.732116	27.898734
456.164971	27.978826
456.597811	28.084065
457.030638	28.166725
457.463449	28.236435
457.896246	28.307306
458.329029	28.354486
458.761797	28.416610
459.194551	28.481852
459.627290	28.528682
460.060014	28.579569
460.492724	28.643520
460.925419	28.668506
461.358099	28.722774
461.790765	28.769967
462.223416	28.799804
462.656052	28.822473
463.088674	28.868146
463.521281	28.881570
463.953873	28.904096
464.386450	28.923191
464.819012	28.956199
465.251560	28.952504
465.684093	28.974504
466.116611	29.004770
466.549114	29.029880
466.981602	29.082295
467.414075	29.103244
467.846533	29.116010
468.278977	29.135847
468.711405	29.133324
469.143818	29.142209
469.576216	29.164852
470.008600	29.150296
470.440968	29.131803
470.873321	29.125627
471.305659	29.107621
471.737982	29.110695
472.170289	29.087244
472.602582	29.057300
473.034859	29.014488
473.467122	28.971347
473.899369	28.928196
474.331600	28.908096
474.763817	28.854765
475.196018	28.800568
475.628204	28.757735
476.060375	28.699974
476.492530	28.653052
476.924670	28.596675
477.356795	28.529275
477.788904	28.457745
478.220998	28.367720
478.653076	28.300921
479.085139	28.220882
479.517186	28.121092
479.949219	28.021873
480.381235	27.901176
480.813236	27.784202
481.245221	27.675025
481.677191	27.548417
482.109146	27.429491
482.541084	27.297974
482.973008	27.163565
483.404915	27.040081
483.836807	26.914773
484.268683	26.766101
484.700544	26.628094
485.132388	26.484989
485.564217	26.343644
485.996031	26.198806
486.427828	26.087096
486.859610	25.979178
487.291376	25.851491
487.723126	25.730720
488.154860	25.632898
488.586579	25.542831
489.018281	25.446433
489.449968	25.358869
489.881639	25.278811
490.313293	25.214160
490.744932	25.154022
491.176555	25.091639
491.608162	25.037585
492.039753	24.981155
492.471328	24.937976
492.902886	24.906697
493.334429	24.877648
493.765956	24.867732
494.197466	24.878172
494.628960	24.896098
495.060439	24.944909
495.491901	24.996576
495.923347	25.089656
496.354776	25.205871
496.786190	25.350862
497.217587	25.511724
497.648968	25.719937
498.080332	25.945887
498.511681	26.193904
498.943013	26.452929
499.374328	26.744727
499.805628	27.046110
500.236911	27.366757
500.668177	27.718077
501.099427	28.080794
501.530661	28.467287
501.961878	28.854017
502.393079	29.274953
502.824264	29.734844
503.255431	30.193451
503.686583	30.672925
504.117717	31.182801
504.548835	31.719797
504.979937	32.278164
505.411022	32.835366
505.842090	33.405817
506.273142	33.985076
506.704177	34.587116
507.135195	35.190518
507.566197	35.793269
507.997182	36.398317
508.428150	36.998070
508.859102	37.610621
509.290036	38.201599
509.720954	38.803667
510.151855	39.387675
510.582739	39.980116
511.013607	40.552244
511.444457	41.146014
511.875291	41.733585
512.306107	42.359251
512.736907	42.997767
513.167690	43.652262
513.598456	44.321316
514.029205	45.027095
514.459936	45.742023
514.890651	46.462825
515.321349	47.220721
515.752030	47.982606
516.182693	48.735083
516.613340	49.487300
517.043969	50.230575
517.474582	50.962985
517.905177	51.674164
518.335755	52.353002
518.766315	53.034386
519.196859	53.683410
519.627385	54.315598
520.057894	54.915786
520.488386	55.520397
520.918860	56.114840
521.349318	56.708937
521.779757	57.292854
522.210180	57.888981
522.640585	58.476753
523.070973	59.068678
523.501343	59.662598
523.931696	60.250015
524.362031	60.851737
524.792349	61.437824
525.222650	62.025885
525.652933	62.586179
526.083198	63.132909
526.513446	63.654646
526.943677	64.165978
527.373890	64.648980
527.804085	65.122340
528.234262	65.578574
528.664422	66.018606
529.094565	66.445120
529.524689	66.852500
529.954796	67.249543
530.384885	67.631209
530.814957	68.002808
531.245011	68.387943
531.675047	68.769051
532.105065	69.163019
532.535065	69.575564
532.965048	69.988049
533.395013	70.396756
533.824959	70.807714
534.254888	71.236294
534.684799	71.665917
535.114693	72.100995
535.544568	72.514476
535.974425	72.953066
536.404264	73.347888
536.834086	73.751273
537.263889	74.165150
537.693674	74.555383
538.123441	74.938966
538.553190	75.293507
538.982921	75.643667
539.412634	75.990573
539.842329	76.338997
540.272006	76.669185
540.701664	76.957368
541.131304	77.243180
541.560926	77.518343
541.990530	77.775539
542.420116	78.030755
542.849683	78.266002
543.279232	78.516075
543.708763	78.753363
544.138275	78.981678
544.567769	79.181614
544.997245	79.405619
545.426702	79.608214
545.856141	79.813081
546.285562	80.024302
546.714964	80.227561
547.144347	80.440537
547.573713	80.642991
548.003059	80.837580
548.432387	81.037903
548.861697	81.264897
549.290988	81.471471
549.720260	81.706007
550.149514	81.921639
550.578750	82.125692
551.007966	82.319720
551.437164	82.527390
551.866344	82.733351
552.295504	82.928628
552.724646	83.124702
553.153769	83.324332
553.582874	83.525756
554.011960	83.739719
554.441027	83.949213
554.870075	84.146391
555.299104	84.342570
555.728115	84.504960
556.157106	84.694127
556.586079	84.845329
557.015033	84.993804
557.443968	85.134454
557.872884	85.258482
558.301781	85.367560
558.730659	85.488979
559.159518	85.571355
559.588358	85.649014
560.017180	85.732245
560.445982	85.805366
560.874765	85.855972
561.303528	85.907991
561.732273	85.974258
562.160999	86.009454
562.589705	86.051496
563.018393	86.082766
563.447061	86.139153
563.875710	86.180147
564.304340	86.224283
564.732950	86.267110
565.161542	86.318081
565.590114	86.367339
566.018666	86.427640
566.447200	86.481539
566.875714	86.536552
567.304208	86.606805
567.732684	86.681747
568.161140	86.758474
568.589576	86.854036
569.017993	86.955603
569.446391	87.050198
569.874769	87.156730
570.303128	87.245576
570.731467	87.341778
571.159787	87.444827
571.588087	87.542608
572.016368	87.625629
572.444629	87.707297
572.872870	87.788239
573.301092	87.862545
573.729294	87.915424
574.157476	87.981167
574.585639	88.034766
575.013782	88.059358
575.441906	88.083808
575.870009	88.094293
576.298093	88.101481
576.726157	88.078580
577.154202	88.052721
577.582226	88.039573
578.010231	87.997117
578.438216	87.951527
578.866181	87.909649
579.294126	87.855891
579.722051	87.799494
580.149957	87.747124
580.577842	87.673356
581.005707	87.610078
581.433553	87.542993
581.861378	87.470588
582.289184	87.391551
582.716969	87.310378
583.144734	87.216667
583.572479	87.161815
584.000205	87.108643
584.427910	87.042497
584.855594	86.971511
585.283259	86.900880
585.710904	86.849834
586.138528	86.774020
586.566132	86.704987
586.993716	86.639140
587.421280	86.570317
587.848823	86.514581
588.276346	86.459098
588.703849	86.385211
589.131332	86.315944
589.558794	86.253095
589.986236	86.173081
590.413657	86.107370
590.841058	86.032582
591.268438	85.960522
591.695799	85.887709
592.123138	85.797701
592.550458	85.687023
592.977756	85.581614
593.405034	85.473031
593.832292	85.367195
594.259529	85.244829
594.686746	85.119666
595.113942	84.977207
595.541117	84.839493
595.968272	84.688735
596.395406	84.542064
596.822519	84.374917
597.249612	84.205186
597.676684	84.046293
598.103735	83.875997
598.530766	83.705156
598.957775	83.521639
599.384764	83.348849
599.811733	83.168766
600.238680	82.985215
600.665606	82.800001
601.092512	82.601386
601.519397	82.399400
601.946261	82.212593
602.373104	82.004839
602.799926	81.779408
603.226727	81.565450
603.653507	81.337760
604.080266	81.102127
604.507004	80.859202
604.933721	80.594739
605.360417	80.351003
605.787092	80.106130
606.213746	79.834563
606.640379	79.549993
607.066991	79.254334
607.493581	78.945082
607.920150	78.631025
608.346699	78.310271
608.773226	77.981365
609.199731	77.649862
609.626216	77.312479
610.052679	76.963245
610.479121	76.580827
610.905542	76.197386
611.331941	75.812728
611.758319	75.399548
612.184676	74.989029
612.611011	74.564970
613.037325	74.121296
613.463617	73.660361
613.889888	73.186218
614.316138	72.690724
614.742366	72.183849
615.168573	71.647386
615.594758	71.106985
616.020921	70.565535
616.447063	70.008955
616.873184	69.423987
617.299283	68.829324
617.725360	68.229969
618.151416	67.630122
618.577450	66.997298
619.003462	66.355282
619.429453	65.718307
619.855422	65.064345
620.281369	64.414793
620.707295	63.769731
621.133199	63.106336
621.559081	62.439240
621.984941	61.773756
622.410779	61.096061
622.836596	60.408205
623.262391	59.720852
623.688163	59.041108
624.113914	58.353791
624.539644	57.654662
624.965351	56.955434
625.391036	56.242761
625.816699	55.517277
626.242340	54.784905
626.667960	54.035599
627.093557	53.278460
627.519132	52.510795
627.944685	51.733909
628.370216	50.954029
628.795725	50.163505
629.221212	49.351019
629.646677	48.524486
630.072119	47.712958
630.497540	46.885451
630.922938	46.049579
631.348314	45.209740
631.773668	44.375246
632.198999	43.537706
632.624308	42.703118
633.049595	41.876251
633.474860	41.053197
633.900102	40.227168
634.325322	39.415145
634.750520	38.619749
635.175695	37.826248
635.600848	37.040135
636.025978	36.267372
636.451086	35.499823
636.876171	34.747397
637.301234	33.993629
637.726275	33.260851
638.151293	32.533656
638.576288	31.814394
639.001261	31.117756
639.426211	30.437033
639.851139	29.764871
640.276044	29.100173
640.700927	28.465349
641.125787	27.841079
641.550624	27.246398
641.975438	26.667291
642.400230	26.111577
642.824999	25.590993
643.249745	25.091390
643.674469	24.632266
644.099169	24.205363
644.523847	23.816754
644.948502	23.463229
645.373135	23.142793
645.797744	22.859835
646.222330	22.622702
646.646894	22.425337
647.071435	22.266764
647.495953	22.153483
647.920447	22.066675
648.344919	22.012937
648.769368	22.003663
649.193794	22.032739
649.618197	22.101763
650.042576	22.190475
650.466933	22.319941
650.891267	22.485281
651.315577	22.681985
651.739864	22.910355
652.164129	23.165789
652.588370	23.449266
653.012587	23.764747
653.436782	24.112219
653.860953	24.486521
654.285102	24.885181
654.709226	25.308789
655.133328	25.763793
655.557406	26.247027
655.981461	26.754115
656.405493	27.282265
656.829501	27.830569
657.253486	28.401608
657.677448	28.985911
658.101386	29.589556
658.525301	30.222639
658.949192	30.866146
659.373060	31.518904
659.796904	32.184581
660.220725	32.859942
660.644522	33.545422
661.068296	34.252344
661.492046	34.982056
661.915772	35.711461
662.339475	36.450676
662.763154	37.204932
663.186810	37.974274
663.610442	38.745471
664.034050	39.519616
664.457635	40.311655
664.881196	41.117874
665.304733	41.930637
665.728247	42.746378
666.151736	43.582857
666.575202	44.423395
666.998644	45.274697
667.422062	46.130148
667.845457	46.991706
668.268827	47.863306
668.692174	48.749524
669.115496	49.643562
669.538795	50.539008
669.962070	51.440008
670.385321	52.348455
670.808547	53.265804
671.231750	54.179243
671.654929	55.079451
672.078084	55.970825
672.501214	56.866805
672.924321	57.752088
673.347404	58.631740
673.770462	59.493391
674.193496	60.326694
674.616506	61.136328
675.039492	61.935843
675.462454	62.710557
675.885391	63.442868
676.308305	64.157966
676.731194	64.849430
677.154058	65.503588
677.576899	66.115481
677.999715	66.697486
678.422507	67.248614
678.845274	67.773307
679.268017	68.258686
679.690736	68.721360
680.113430	69.137865
680.536100	69.541952
680.958746	69.921309
681.381367	70.271385
681.803963	70.578289
682.226535	70.879709
682.649083	71.169025
683.071605	71.440191
683.494104	71.686534
683.916578	71.908855
684.339027	72.111695
684.761451	72.303146
685.183851	72.490082
685.606227	72.652441
686.028577	72.801133
686.450903	72.940265
686.873204	73.067460
687.295481	73.193803
687.717733	73.305758
688.139959	73.391847
688.562162	73.463787
688.984339	73.540750
689.406492	73.593253
689.828619	73.638534
690.250722	73.690594
690.672800	73.750802
691.094853	73.795748
691.516881	73.829380
691.938884	73.858161
692.360863	73.888980
692.782816	73.910608
693.204744	73.935552
693.626647	73.946746
694.048526	73.952637
694.470379	73.959091
694.892207	73.966968
695.314010	73.966512
695.735788	73.973000
696.157540	73.970232
696.579268	73.978797
697.000970	73.990639
697.422648	74.002533
697.844300	74.003797
698.265926	74.009172
698.687528	74.012861
699.109104	74.030893
699.530655	74.035705
699.952181	74.049972
700.373681	74.056198
700.795156	74.084231
701.216606	74.127376
701.638030	74.166543
702.059429	74.216170
702.480803	74.269054
702.902151	74.341418
703.323473	74.405544
703.744770	74.477972
704.166042	74.563562
704.587288	74.675021
705.008509	74.791258
705.429704	74.917109
705.850873	75.041883
706.272017	75.179029
706.693135	75.345829
707.114228	75.517358
707.535295	75.700347
707.956336	75.894471
708.377352	76.088265
708.798342	76.285738
709.219306	76.493709
709.640245	76.709875
710.061157	76.931033
710.482044	77.150842
710.902905	77.381666
711.323741	77.615287
711.744550	77.865591
712.165334	78.112643
712.586092	78.372964
713.006823	78.627133
713.427529	78.897240
713.848209	79.160081
714.268863	79.427739
714.689492	79.709492
715.110094	79.982287
715.530670	80.278529
715.951220	80.567136
716.371744	80.859509
716.792242	81.151190
717.212714	81.449964
717.633159	81.742029
718.053579	82.059913
718.473973	82.373495
718.894340	82.700955
719.314681	83.025615
719.734996	83.345456
720.155285	83.673021
720.575547	83.986993
720.995784	84.306691
721.415994	84.626373
721.836177	84.947206
722.256335	85.276767
722.676466	85.592190
723.096570	85.899750
723.516649	86.208528
723.936701	86.510258
724.356726	86.790112
724.776725	87.063679
725.196698	87.331052
725.616644	87.588395
726.036564	87.848594
726.456457	88.100837
726.876324	88.340129
727.296164	88.578216
727.715977	88.810750
728.135764	89.030624
728.555525	89.252808
728.975258	89.458724
729.394966	89.670954
729.814646	89.878383
730.234300	90.078745
730.653927	90.287235
731.073527	90.490595
731.493101	90.691771
731.912648	90.893941
732.332168	91.109348
732.751661	91.309387
733.171128	91.513369
733.590568	91.732952
734.009980	91.963275
734.429366	92.199576
734.848726	92.436936
735.268058	92.670187
735.687363	92.912949
736.106641	93.172020
736.525893	93.425388
736.945117	93.696874
737.364314	93.979805
737.783485	94.267826
738.202628	94.557617
738.621744	94.871631
739.040834	95.186309
739.459896	95.505126
739.878931	95.824559
740.297939	96.154409
740.716919	96.499055
741.135873	96.848957
741.554799	97.187766
741.973698	97.542826
742.392570	97.899054
742.811415	98.277003
743.230232	98.649847
743.649022	99.022600
744.067785	99.369511
744.486521	99.722739
744.905229	100.076324
745.323909	100.406960
745.742563	100.761831
746.161189	101.096556
746.579787	101.410673
746.998358	101.719113
747.416902	102.016237
747.835418	102.289900
748.253907	102.574251
748.672368	102.854282
749.090802	103.108706
749.509208	103.369656
749.927586	103.619930
750.345937	103.848649
750.764261	104.082167
751.182556	104.299339
751.600824	104.498963
752.019065	104.692016
752.437277	104.874123
752.855462	105.059681
753.273620	105.232546
753.691749	105.394304
