Time1=100ms:Average1=5:Objective=10X:Aperture=1: (11/21/2018 11:09:20 AM)
11/21/2018 11:09:20 AM
Reflectance
10X
Ap#: 1
Avg1: 5.000000
Avg2: 0.000000
Int.Time1:100.000000

350.166136	78.001542
350.601937	78.220187
351.037728	78.068124
351.473509	78.045082
351.909281	77.591634
352.345042	77.970600
352.780794	78.185723
353.216536	78.397141
353.652267	78.260870
354.087989	78.287524
354.523701	78.393550
354.959403	78.387458
355.395095	78.688859
355.830777	78.931811
356.266449	79.795814
356.702110	79.487179
357.137762	79.936857
357.573404	79.932356
358.009035	80.086004
358.444656	80.341002
358.880268	80.853909
359.315869	81.112828
359.751459	81.010578
360.187040	81.040165
360.622610	81.729083
361.058170	81.785383
361.493720	82.157976
361.929260	82.341393
362.364789	81.513469
362.800308	81.224322
363.235816	81.676795
363.671314	81.571927
364.106802	81.500873
364.542279	81.777186
364.977746	82.150959
365.413203	82.768245
365.848649	82.140275
366.284084	81.948571
366.719509	81.767843
367.154924	82.226101
367.590328	81.564131
368.025721	81.787469
368.461104	81.882498
368.896477	81.947573
369.331838	81.889844
369.767189	81.073131
370.202530	81.211069
370.637859	80.367974
371.073178	80.867011
371.508486	80.957209
371.943784	81.047609
372.379071	80.890105
372.814347	80.860368
373.249612	80.714431
373.684866	80.395920
374.120110	80.087018
374.555343	79.544765
374.990565	79.945636
375.425776	79.810884
375.860976	80.028214
376.296165	79.937557
376.731343	79.817617
377.166511	79.668342
377.601667	79.811831
378.036812	79.683113
378.471946	79.658308
378.907070	79.920239
379.342182	80.334395
379.777283	80.236839
380.212373	80.210505
380.647452	80.003956
381.082520	80.136310
381.517576	79.512724
381.952622	79.688121
382.387656	79.826399
382.822679	79.348151
383.257691	79.521569
383.692692	79.493822
384.127681	79.861876
384.562659	79.221295
384.997626	78.887346
385.432581	78.312303
385.867525	78.648037
386.302458	78.464401
386.737379	79.045846
387.172289	78.880407
387.607188	78.690754
388.042075	79.095331
388.476951	79.163017
388.911815	79.235557
389.346668	79.460722
389.781509	79.687347
390.216338	79.643940
390.651157	79.714955
391.085963	79.678305
391.520758	79.418673
391.955541	79.782332
392.390313	78.879268
392.825073	78.774319
393.259821	78.823760
393.694558	79.091267
394.129283	79.010656
394.563996	79.334381
394.998698	79.739465
395.433388	79.602941
395.868066	79.210091
396.302732	79.909277
396.737386	80.067140
397.172029	79.884500
397.606659	79.561726
398.041278	79.285921
398.475885	79.108835
398.910480	79.012346
399.345063	78.106844
399.779634	77.203164
400.214194	75.454504
400.648741	74.631335
401.083276	73.104429
401.517799	71.421799
401.952310	69.170605
402.386809	66.777046
402.821296	64.097897
403.255771	61.639732
403.690234	59.002916
404.124684	56.060154
404.559123	52.851770
404.993549	50.126892
405.427963	46.953395
405.862365	44.052125
406.296754	41.361195
406.731131	39.049355
407.165496	36.636869
407.599849	34.303436
408.034190	32.292928
408.468518	30.459966
408.902833	28.579802
409.337137	26.891845
409.771428	25.352604
410.205706	23.865339
410.639973	22.633332
411.074226	21.525031
411.508467	20.449844
411.942696	19.454074
412.376912	18.664135
412.811116	17.984476
413.245307	17.382928
413.679486	16.829951
414.113652	16.243097
414.547805	15.749933
414.981946	15.267287
415.416074	14.782739
415.850190	14.472367
416.284293	14.094072
416.718383	13.737453
417.152460	13.408969
417.586525	13.155542
418.020577	12.962290
418.454616	12.764433
418.888643	12.601262
419.322656	12.444243
419.756657	12.231659
420.190645	12.075243
420.624620	11.891234
421.058582	11.734372
421.492531	11.593677
421.926468	11.468423
422.360391	11.418417
422.794301	11.363833
423.228199	11.340860
423.662083	11.339013
424.095955	11.319817
424.529813	11.352089
424.963658	11.396169
425.397491	11.411929
425.831310	11.414642
426.265116	11.413092
426.698909	11.405770
427.132689	11.418316
427.566455	11.483804
428.000209	11.496911
428.433949	11.572655
428.867676	11.693205
429.301389	11.761292
429.735090	11.850598
430.168777	11.921824
430.602451	11.999752
431.036111	12.038854
431.469759	12.083918
431.903392	12.110843
432.337013	12.161007
432.770620	12.197473
433.204213	12.282749
433.637794	12.389837
434.071360	12.538625
434.504914	12.705881
434.938453	12.878261
435.371979	13.052439
435.805492	13.222646
436.238991	13.402111
436.672477	13.565503
437.105949	13.715797
437.539407	13.848495
437.972852	13.966154
438.406283	14.093857
438.839700	14.251236
439.273104	14.399861
439.706494	14.581489
440.139871	14.762063
440.573233	14.959487
441.006582	15.133398
441.439917	15.338310
441.873238	15.485805
442.306546	15.615008
442.739839	15.722647
443.173119	15.841273
443.606385	15.975022
444.039636	16.097051
444.472874	16.249329
444.906099	16.389406
445.339309	16.553044
445.772505	16.741307
446.205687	16.947161
446.638855	17.150506
447.072009	17.334345
447.505149	17.548498
447.938275	17.754198
448.371387	17.961534
448.804485	18.148484
449.237569	18.317068
449.670638	18.470791
450.103694	18.617134
450.536735	18.765894
450.969762	18.919992
451.402774	19.068913
451.835773	19.243394
452.268757	19.424938
452.701727	19.638070
453.134683	19.830712
453.567624	20.037901
454.000551	20.246473
454.433464	20.422134
454.866362	20.578929
455.299246	20.733939
455.732116	20.871413
456.164971	21.027111
456.597811	21.177750
457.030638	21.309315
457.463449	21.459111
457.896246	21.594768
458.329029	21.753810
458.761797	21.933548
459.194551	22.088316
459.627290	22.265696
460.060014	22.465080
460.492724	22.669621
460.925419	22.851529
461.358099	23.054391
461.790765	23.246661
462.223416	23.443590
462.656052	23.620725
463.088674	23.805947
463.521281	23.961113
463.953873	24.121687
464.386450	24.298905
464.819012	24.487077
465.251560	24.666039
465.684093	24.836196
466.116611	25.018482
466.549114	25.194640
466.981602	25.396169
467.414075	25.588832
467.846533	25.785132
468.278977	25.989476
468.711405	26.177746
469.143818	26.376303
469.576216	26.537260
470.008600	26.681420
470.440968	26.834839
470.873321	26.956858
471.305659	27.091407
471.737982	27.223413
472.170289	27.330088
472.602582	27.454026
473.034859	27.573403
473.467122	27.702490
473.899369	27.844816
474.331600	28.003202
474.763817	28.167451
475.196018	28.327338
475.628204	28.495207
476.060375	28.682043
476.492530	28.864115
476.924670	29.055914
477.356795	29.225900
477.788904	29.367773
478.220998	29.496020
478.653076	29.598032
479.085139	29.704738
479.517186	29.781982
479.949219	29.888123
480.381235	29.989421
480.813236	30.097784
481.245221	30.234827
481.677191	30.391640
482.109146	30.553161
482.541084	30.709129
482.973008	30.887634
483.404915	31.047168
483.836807	31.165016
484.268683	31.260366
484.700544	31.319995
485.132388	31.356500
485.564217	31.379657
485.996031	31.368168
486.427828	31.335406
486.859610	31.281843
487.291376	31.202526
487.723126	31.138147
488.154860	31.068499
488.586579	31.018998
489.018281	30.990356
489.449968	30.989475
489.881639	31.008861
490.313293	31.056448
490.744932	31.141688
491.176555	31.224960
491.608162	31.314721
492.039753	31.394979
492.471328	31.447834
492.902886	31.472480
493.334429	31.466793
493.765956	31.426834
494.197466	31.385528
494.628960	31.317615
495.060439	31.259485
495.491901	31.237126
495.923347	31.258342
496.354776	31.302477
496.786190	31.403985
497.217587	31.539035
497.648968	31.705093
498.080332	31.889288
498.511681	32.085573
498.943013	32.270828
499.374328	32.455206
499.805628	32.631623
500.236911	32.783949
500.668177	32.928929
501.099427	33.037739
501.530661	33.138512
501.961878	33.222426
502.393079	33.296305
502.824264	33.362703
503.255431	33.429514
503.686583	33.506817
504.117717	33.597635
504.548835	33.728298
504.979937	33.888177
505.411022	34.085541
505.842090	34.334649
506.273142	34.637465
506.704177	34.985922
507.135195	35.355922
507.566197	35.723390
507.997182	36.115148
508.428150	36.475195
508.859102	36.798104
509.290036	37.095250
509.720954	37.364885
510.151855	37.601006
510.582739	37.838382
511.013607	38.091054
511.444457	38.361315
511.875291	38.658901
512.306107	39.007768
512.736907	39.385394
513.167690	39.805051
513.598456	40.266470
514.029205	40.756533
514.459936	41.254639
514.890651	41.739967
515.321349	42.211777
515.752030	42.644605
516.182693	43.037186
516.613340	43.391590
517.043969	43.703356
517.474582	43.955469
517.905177	44.157060
518.335755	44.318389
518.766315	44.458611
519.196859	44.563257
519.627385	44.640509
520.057894	44.703531
520.488386	44.774701
520.918860	44.843244
521.349318	44.935171
521.779757	45.065297
522.210180	45.240125
522.640585	45.439741
523.070973	45.676363
523.501343	45.931680
523.931696	46.195981
524.362031	46.445689
524.792349	46.686024
525.222650	46.902007
525.652933	47.068141
526.083198	47.179155
526.513446	47.238562
526.943677	47.254846
527.373890	47.227262
527.804085	47.195716
528.234262	47.167766
528.664422	47.160558
529.094565	47.210609
529.524689	47.306630
529.954796	47.461951
530.384885	47.690001
530.814957	47.984786
531.245011	48.349256
531.675047	48.759863
532.105065	49.206072
532.535065	49.663952
532.965048	50.127499
533.395013	50.551419
533.824959	50.934896
534.254888	51.286105
534.684799	51.554560
535.114693	51.775063
535.544568	51.940877
535.974425	52.033369
536.404264	52.066580
536.834086	52.060969
537.263889	52.026955
537.693674	51.986987
538.123441	51.936693
538.553190	51.884576
538.982921	51.879808
539.412634	51.925169
539.842329	52.040062
540.272006	52.200944
540.701664	52.433006
541.131304	52.729364
541.560926	53.073651
541.990530	53.470849
542.420116	53.899936
542.849683	54.351576
543.279232	54.810862
543.708763	55.255149
544.138275	55.675623
544.567769	56.049658
544.997245	56.380719
545.426702	56.662469
545.856141	56.908475
546.285562	57.111047
546.714964	57.296565
547.144347	57.478636
547.573713	57.665359
548.003059	57.887150
548.432387	58.146722
548.861697	58.442854
549.290988	58.798663
549.720260	59.214440
550.149514	59.690704
550.578750	60.217957
551.007966	60.785055
551.437164	61.405140
551.866344	62.046869
552.295504	62.664046
552.724646	63.274779
553.153769	63.844854
553.582874	64.374764
554.011960	64.828844
554.441027	65.188245
554.870075	65.475458
555.299104	65.680720
555.728115	65.797104
556.157106	65.852639
556.586079	65.838021
557.015033	65.778208
557.443968	65.697372
557.872884	65.609731
558.301781	65.527259
558.730659	65.486144
559.159518	65.461341
559.588358	65.499775
560.017180	65.595442
560.445982	65.737257
560.874765	65.929048
561.303528	66.161151
561.732273	66.432243
562.160999	66.716434
562.589705	67.024890
563.018393	67.336332
563.447061	67.637722
563.875710	67.936531
564.304340	68.221656
564.732950	68.465164
565.161542	68.683098
565.590114	68.882401
566.018666	69.041974
566.447200	69.160771
566.875714	69.248793
567.304208	69.338401
567.732684	69.424810
568.161140	69.510938
568.589576	69.605747
569.017993	69.726059
569.446391	69.880091
569.874769	70.085384
570.303128	70.324290
570.731467	70.615184
571.159787	70.964439
571.588087	71.373586
572.016368	71.828941
572.444629	72.336119
572.872870	72.870069
573.301092	73.413624
573.729294	73.955053
574.157476	74.493015
574.585639	74.982586
575.013782	75.409708
575.441906	75.798353
575.870009	76.099445
576.298093	76.336298
576.726157	76.518633
577.154202	76.623785
577.582226	76.673540
578.010231	76.665908
578.438216	76.638018
578.866181	76.589005
579.294126	76.553369
579.722051	76.547284
580.149957	76.570956
580.577842	76.603912
581.005707	76.671785
581.433553	76.764219
581.861378	76.884989
582.289184	77.018001
582.716969	77.138370
583.144734	77.265952
583.572479	77.401836
584.000205	77.522692
584.427910	77.639412
584.855594	77.736670
585.283259	77.797444
585.710904	77.859510
586.138528	77.887015
586.566132	77.917252
586.993716	77.942218
587.421280	77.951205
587.848823	77.971252
588.276346	77.989181
588.703849	77.987353
589.131332	78.009154
589.558794	78.024620
589.986236	78.024090
590.413657	78.042462
590.841058	78.070985
591.268438	78.144764
591.695799	78.232908
592.123138	78.359508
592.550458	78.521541
592.977756	78.719512
593.405034	78.975306
593.832292	79.303125
594.259529	79.678658
594.686746	80.106875
595.113942	80.570618
595.541117	81.062077
595.968272	81.604756
596.395406	82.141464
596.822519	82.674362
597.249612	83.191669
597.676684	83.650797
598.103735	84.058847
598.530766	84.422763
598.957775	84.700313
599.384764	84.924571
599.811733	85.065533
600.238680	85.152051
600.665606	85.181620
601.092512	85.159554
601.519397	85.104015
601.946261	85.055152
602.373104	84.976318
602.799926	84.902319
603.226727	84.852823
603.653507	84.809917
604.080266	84.773402
604.507004	84.739247
604.933721	84.710009
605.360417	84.667520
605.787092	84.615940
606.213746	84.538410
606.640379	84.426568
607.066991	84.280981
607.493581	84.106835
607.920150	83.914187
608.346699	83.713805
608.773226	83.511113
609.199731	83.296859
609.626216	83.111640
610.052679	82.936872
610.479121	82.782796
610.905542	82.669499
611.331941	82.600720
611.758319	82.547520
612.184676	82.532877
612.611011	82.536453
613.037325	82.563767
613.463617	82.597556
613.889888	82.643241
614.316138	82.701692
614.742366	82.764425
615.168573	82.802631
615.594758	82.848288
616.020921	82.895049
616.447063	82.928729
616.873184	82.967358
617.299283	83.018425
617.725360	83.089252
618.151416	83.182172
618.577450	83.308576
619.003462	83.453850
619.429453	83.643665
619.855422	83.855530
620.281369	84.101191
620.707295	84.366417
621.133199	84.631411
621.559081	84.885391
621.984941	85.128143
622.410779	85.336940
622.836596	85.486862
623.262391	85.599132
623.688163	85.643044
624.113914	85.628685
624.539644	85.550316
624.965351	85.420673
625.391036	85.233526
625.816699	85.009771
626.242340	84.757943
626.667960	84.471639
627.093557	84.165079
627.519132	83.853765
627.944685	83.536000
628.370216	83.215256
628.795725	82.897828
629.221212	82.566054
629.646677	82.240826
630.072119	81.898313
630.497540	81.535428
630.922938	81.148908
631.348314	80.731707
631.773668	80.273893
632.198999	79.787743
632.624308	79.276058
633.049595	78.742984
633.474860	78.170555
633.900102	77.583742
634.325322	76.992485
634.750520	76.405457
635.175695	75.829885
635.600848	75.283856
636.025978	74.792896
636.451086	74.329304
636.876171	73.938562
637.301234	73.590599
637.726275	73.300871
638.151293	73.066199
638.576288	72.879267
639.001261	72.755272
639.426211	72.661722
639.851139	72.599966
640.276044	72.572041
640.700927	72.574892
641.125787	72.580804
641.550624	72.608593
641.975438	72.629346
642.400230	72.665495
642.824999	72.694150
643.249745	72.730073
643.674469	72.784142
644.099169	72.843007
644.523847	72.923075
644.948502	73.036789
645.373135	73.174194
645.797744	73.327694
646.222330	73.507616
646.646894	73.722361
647.071435	73.962266
647.495953	74.229632
647.920447	74.510229
648.344919	74.806446
648.769368	75.105963
649.193794	75.387300
649.618197	75.672788
650.042576	75.926815
650.466933	76.174998
650.891267	76.387154
651.315577	76.584474
651.739864	76.746144
652.164129	76.856944
652.588370	76.951565
653.012587	77.029389
653.436782	77.072828
653.860953	77.088723
654.285102	77.080471
654.709226	77.051558
655.133328	77.022389
655.557406	76.974987
655.981461	76.917953
656.405493	76.847319
656.829501	76.757147
657.253486	76.643364
657.677448	76.508600
658.101386	76.339549
658.525301	76.142755
658.949192	75.918901
659.373060	75.659922
659.796904	75.368479
660.220725	75.047071
660.644522	74.689962
661.068296	74.315151
661.492046	73.934121
661.915772	73.545420
662.339475	73.159343
662.763154	72.786478
663.186810	72.447588
663.610442	72.141578
664.034050	71.891727
664.457635	71.680972
664.881196	71.564396
665.304733	71.522304
665.728247	71.550122
666.151736	71.656795
666.575202	71.847938
666.998644	72.109708
667.422062	72.451261
667.845457	72.835740
668.268827	73.266388
668.692174	73.737946
669.115496	74.232581
669.538795	74.739258
669.962070	75.240836
670.385321	75.738338
670.808547	76.195102
671.231750	76.625085
671.654929	77.011535
672.078084	77.357809
672.501214	77.659226
672.924321	77.903539
673.347404	78.108070
673.770462	78.273410
674.193496	78.395473
674.616506	78.463656
675.039492	78.503669
675.462454	78.518526
675.885391	78.501906
676.308305	78.461746
676.731194	78.404449
677.154058	78.328606
677.576899	78.241255
677.999715	78.142940
678.422507	78.041964
678.845274	77.921581
679.268017	77.804808
679.690736	77.666808
680.113430	77.512331
680.536100	77.360887
680.958746	77.218012
681.381367	77.069760
681.803963	76.926502
682.226535	76.784934
682.649083	76.655548
683.071605	76.545048
683.494104	76.453082
683.916578	76.386838
684.339027	76.346666
684.761451	76.338646
685.183851	76.347611
685.606227	76.374146
686.028577	76.425029
686.450903	76.487791
686.873204	76.566537
687.295481	76.657419
687.717733	76.749832
688.139959	76.823441
688.562162	76.875600
688.984339	76.909193
689.406492	76.913240
689.828619	76.888935
690.250722	76.815890
690.672800	76.714085
691.094853	76.555324
691.516881	76.332951
691.938884	76.068400
692.360863	75.757334
692.782816	75.423000
693.204744	75.062985
693.626647	74.673439
694.048526	74.264675
694.470379	73.865293
694.892207	73.454078
695.314010	73.073985
695.735788	72.714719
696.157540	72.383438
696.579268	72.086207
697.000970	71.835379
697.422648	71.630311
697.844300	71.452471
698.265926	71.323033
698.687528	71.239609
699.109104	71.198989
699.530655	71.180671
699.952181	71.195671
700.373681	71.231890
700.795156	71.299678
701.216606	71.396663
701.638030	71.504498
702.059429	71.630852
702.480803	71.748763
702.902151	71.852285
703.323473	71.959995
703.744770	72.030659
704.166042	72.092743
704.587288	72.151792
705.008509	72.201285
705.429704	72.225133
705.850873	72.235165
706.272017	72.227066
706.693135	72.216050
707.114228	72.199829
707.535295	72.178680
707.956336	72.159782
708.377352	72.124503
708.798342	72.097667
709.219306	72.083353
709.640245	72.077724
710.061157	72.085625
710.482044	72.101265
710.902905	72.151322
711.323741	72.220414
711.744550	72.319287
712.165334	72.442690
712.586092	72.596881
713.006823	72.781429
713.427529	72.995498
713.848209	73.227461
714.268863	73.486696
714.689492	73.779516
715.110094	74.085585
715.530670	74.432706
715.951220	74.801427
716.371744	75.181872
716.792242	75.598047
717.212714	76.026979
717.633159	76.464330
718.053579	76.923380
718.473973	77.390303
718.894340	77.857795
719.314681	78.308002
719.734996	78.749170
720.155285	79.159473
720.575547	79.529994
720.995784	79.869959
721.415994	80.165552
721.836177	80.411169
722.256335	80.597423
722.676466	80.715117
723.096570	80.775014
723.516649	80.764564
723.936701	80.681626
724.356726	80.523956
724.776725	80.297562
725.196698	80.006044
725.616644	79.656511
726.036564	79.245227
726.456457	78.781570
726.876324	78.294901
727.296164	77.775153
727.715977	77.244214
728.135764	76.715669
728.555525	76.191510
728.975258	75.686614
729.394966	75.214809
729.814646	74.778033
730.234300	74.378422
730.653927	74.035021
731.073527	73.751939
731.493101	73.533944
731.912648	73.367436
732.332168	73.307583
732.751661	73.304873
733.171128	73.410525
733.590568	73.585558
734.009980	73.851981
734.429366	74.219361
734.848726	74.651204
735.268058	75.142675
735.687363	75.715935
736.106641	76.334772
736.525893	77.015520
736.945117	77.733191
737.364314	78.479847
737.783485	79.260062
738.202628	80.062587
738.621744	80.879075
739.040834	81.697336
739.459896	82.512533
739.878931	83.285114
740.297939	84.039732
740.716919	84.754014
741.135873	85.413448
741.554799	86.013407
741.973698	86.552485
742.392570	87.029581
742.811415	87.451950
743.230232	87.814144
743.649022	88.117599
744.067785	88.324863
744.486521	88.469789
744.905229	88.576052
745.323909	88.606675
745.742563	88.596205
746.161189	88.521527
746.579787	88.417908
746.998358	88.266776
747.416902	88.070413
747.835418	87.851779
748.253907	87.627462
748.672368	87.390198
749.090802	87.155735
749.509208	86.917024
749.927586	86.685467
750.345937	86.471201
750.764261	86.277107
751.182556	86.088759
751.600824	85.943780
752.019065	85.827684
752.437277	85.744400
752.855462	85.711683
753.273620	85.714479
753.691749	85.749075
754.109851	85.818215
