Time1=100ms:Average1=5:Objective=10X:Aperture=1: (11/28/2018 9:39:52 AM)
11/28/2018 9:39:52 AM
Reflectance
10X
Ap#: 1
Avg1: 5.000000
Avg2: 0.000000
Int.Time1:100.000000

350.166136	72.490956
350.601937	72.274738
351.037728	72.279078
351.473509	71.793275
351.909281	71.784121
352.345042	71.479788
352.780794	71.563258
353.216536	71.660974
353.652267	71.580561
354.087989	71.591114
354.523701	71.235834
354.959403	70.960187
355.395095	71.063983
355.830777	70.696923
356.266449	70.812455
356.702110	70.978144
357.137762	71.181117
357.573404	71.111707
358.009035	70.693812
358.444656	70.959100
358.880268	70.739119
359.315869	70.696886
359.751459	70.527625
360.187040	70.950218
360.622610	70.624170
361.058170	70.067126
361.493720	70.350380
361.929260	70.333068
362.364789	70.299920
362.800308	70.583015
363.235816	71.012037
363.671314	71.289776
364.106802	71.471712
364.542279	71.541117
364.977746	71.921749
365.413203	72.009230
365.848649	72.138287
366.284084	71.527286
366.719509	71.477937
367.154924	71.299655
367.590328	71.245356
368.025721	71.353982
368.461104	71.170457
368.896477	71.040085
369.331838	71.110915
369.767189	70.974032
370.202530	70.415194
370.637859	70.249824
371.073178	70.498420
371.508486	70.540801
371.943784	70.320996
372.379071	70.447578
372.814347	70.630046
373.249612	71.048472
373.684866	71.004107
374.120110	71.549764
374.555343	71.944396
374.990565	71.801818
375.425776	71.692201
375.860976	71.591702
376.296165	71.284635
376.731343	71.299827
377.166511	70.933748
377.601667	71.067659
378.036812	71.395188
378.471946	71.241887
378.907070	71.258106
379.342182	71.553214
379.777283	72.037422
380.212373	72.134695
380.647452	72.378318
381.082520	72.579115
381.517576	72.500862
381.952622	72.812095
382.387656	72.968092
382.822679	72.945736
383.257691	72.802881
383.692692	72.716408
384.127681	72.752160
384.562659	72.307692
384.997626	72.266689
385.432581	72.464015
385.867525	72.802597
386.302458	72.879188
386.737379	72.386537
387.172289	71.898863
387.607188	71.606297
388.042075	71.393560
388.476951	71.689807
388.911815	71.930420
389.346668	72.007429
389.781509	72.195946
390.216338	72.040472
390.651157	72.162777
391.085963	72.247997
391.520758	72.198821
391.955541	72.112723
392.390313	72.194263
392.825073	71.897230
393.259821	72.048132
393.694558	71.969318
394.129283	71.586654
394.563996	71.427381
394.998698	71.376330
395.433388	71.136712
395.868066	70.780700
396.302732	70.755768
396.737386	70.857472
397.172029	70.977259
397.606659	70.611231
398.041278	70.333050
398.475885	69.808352
398.910480	68.950920
399.345063	68.076060
399.779634	67.352564
400.214194	66.509020
400.648741	65.328699
401.083276	63.967877
401.517799	62.560893
401.952310	60.735542
402.386809	58.734730
402.821296	56.500334
403.255771	54.285109
403.690234	51.852278
404.124684	49.262769
404.559123	46.762792
404.993549	44.198022
405.427963	41.599605
405.862365	39.128708
406.296754	36.848758
406.731131	34.705723
407.165496	32.655947
407.599849	30.940420
408.034190	29.105679
408.468518	27.497881
408.902833	26.018066
409.337137	24.649782
409.771428	23.333692
410.205706	22.050851
410.639973	20.902976
411.074226	19.963844
411.508467	19.096279
411.942696	18.354817
412.376912	17.639206
412.811116	16.983712
413.245307	16.369957
413.679486	15.818035
414.113652	15.377924
414.547805	14.903528
414.981946	14.458527
415.416074	14.025240
415.850190	13.699848
416.284293	13.362844
416.718383	13.077707
417.152460	12.815880
417.586525	12.616952
418.020577	12.345482
418.454616	12.165557
418.888643	11.992144
419.322656	11.866789
419.756657	11.694591
420.190645	11.534042
420.624620	11.407974
421.058582	11.251309
421.492531	11.120340
421.926468	11.005320
422.360391	10.907152
422.794301	10.814055
423.228199	10.731636
423.662083	10.651600
424.095955	10.601525
424.529813	10.530920
424.963658	10.475190
425.397491	10.429265
425.831310	10.398337
426.265116	10.372482
426.698909	10.321453
427.132689	10.280550
427.566455	10.236690
428.000209	10.221359
428.433949	10.205934
428.867676	10.191668
429.301389	10.166966
429.735090	10.137747
430.168777	10.092752
430.602451	10.047394
431.036111	9.990603
431.469759	9.966292
431.903392	9.924260
432.337013	9.896806
432.770620	9.847027
433.204213	9.842783
433.637794	9.829677
434.071360	9.796589
434.504914	9.785212
434.938453	9.775777
435.371979	9.749670
435.805492	9.724113
436.238991	9.710024
436.672477	9.700848
437.105949	9.689973
437.539407	9.669680
437.972852	9.658218
438.406283	9.631721
438.839700	9.613616
439.273104	9.580383
439.706494	9.542060
440.139871	9.512890
440.573233	9.495805
441.006582	9.465044
441.439917	9.423356
441.873238	9.377484
442.306546	9.356219
442.739839	9.319089
443.173119	9.292525
443.606385	9.285256
444.039636	9.273290
444.472874	9.257221
444.906099	9.252151
445.339309	9.236256
445.772505	9.219675
446.205687	9.201206
446.638855	9.170230
447.072009	9.143074
447.505149	9.125529
447.938275	9.093791
448.371387	9.065550
448.804485	9.055573
449.237569	9.032018
449.670638	9.004932
450.103694	8.984782
450.536735	8.960266
450.969762	8.938019
451.402774	8.921015
451.835773	8.900459
452.268757	8.881908
452.701727	8.868491
453.134683	8.853364
453.567624	8.833156
454.000551	8.812787
454.433464	8.793416
454.866362	8.785473
455.299246	8.780826
455.732116	8.764948
456.164971	8.763188
456.597811	8.757153
457.030638	8.744514
457.463449	8.742548
457.896246	8.733960
458.329029	8.729244
458.761797	8.719349
459.194551	8.707687
459.627290	8.684668
460.060014	8.676134
460.492724	8.663216
460.925419	8.648331
461.358099	8.650873
461.790765	8.643220
462.223416	8.628755
462.656052	8.620128
463.088674	8.616534
463.521281	8.603931
463.953873	8.601123
464.386450	8.597382
464.819012	8.592666
465.251560	8.590574
465.684093	8.576779
466.116611	8.567726
466.549114	8.565556
466.981602	8.563012
467.414075	8.554249
467.846533	8.548217
468.278977	8.531769
468.711405	8.517862
469.143818	8.500673
469.576216	8.478496
470.008600	8.461749
470.440968	8.442919
470.873321	8.421820
471.305659	8.400376
471.737982	8.364466
472.170289	8.338943
472.602582	8.313591
473.034859	8.291645
473.467122	8.257837
473.899369	8.228733
474.331600	8.200399
474.763817	8.158418
475.196018	8.133590
475.628204	8.110590
476.060375	8.091102
476.492530	8.068013
476.924670	8.046842
477.356795	8.022866
477.788904	8.004301
478.220998	7.981016
478.653076	7.959649
479.085139	7.953811
479.517186	7.946336
479.949219	7.943004
480.381235	7.932309
480.813236	7.925830
481.245221	7.920456
481.677191	7.919415
482.109146	7.910876
482.541084	7.905910
482.973008	7.902724
483.404915	7.900058
483.836807	7.896181
484.268683	7.895925
484.700544	7.901823
485.132388	7.917063
485.564217	7.924429
485.996031	7.939194
486.427828	7.959749
486.859610	7.984019
487.291376	8.012673
487.723126	8.033812
488.154860	8.068780
488.586579	8.095945
489.018281	8.113772
489.449968	8.134566
489.881639	8.153755
490.313293	8.173240
490.744932	8.192067
491.176555	8.216422
491.608162	8.244681
492.039753	8.283215
492.471328	8.315294
492.902886	8.358238
493.334429	8.401202
493.765956	8.448379
494.197466	8.502141
494.628960	8.559173
495.060439	8.626056
495.491901	8.693795
495.923347	8.761842
496.354776	8.832950
496.786190	8.903823
497.217587	8.974159
497.648968	9.044103
498.080332	9.113586
498.511681	9.182911
498.943013	9.260315
499.374328	9.334319
499.805628	9.415340
500.236911	9.507541
500.668177	9.596863
501.099427	9.699879
501.530661	9.809377
501.961878	9.921400
502.393079	10.044548
502.824264	10.169489
503.255431	10.290648
503.686583	10.423463
504.117717	10.548477
504.548835	10.669846
504.979937	10.796349
505.411022	10.909546
505.842090	11.028477
506.273142	11.133173
506.704177	11.242518
507.135195	11.355886
507.566197	11.470277
507.997182	11.583035
508.428150	11.699502
508.859102	11.823794
509.290036	11.953605
509.720954	12.091827
510.151855	12.237635
510.582739	12.395348
511.013607	12.567573
511.444457	12.747540
511.875291	12.925767
512.306107	13.121125
512.736907	13.313110
513.167690	13.521136
513.598456	13.714814
514.029205	13.918056
514.459936	14.124153
514.890651	14.330365
515.321349	14.531761
515.752030	14.740925
516.182693	14.946239
516.613340	15.158080
517.043969	15.367197
517.474582	15.596960
517.905177	15.822258
518.335755	16.047160
518.766315	16.290402
519.196859	16.538140
519.627385	16.806542
520.057894	17.073253
520.488386	17.357978
520.918860	17.656526
521.349318	17.973419
521.779757	18.305900
522.210180	18.654622
522.640585	19.019409
523.070973	19.400619
523.501343	19.796701
523.931696	20.205554
524.362031	20.624722
524.792349	21.067347
525.222650	21.522736
525.652933	21.999554
526.083198	22.508289
526.513446	23.029161
526.943677	23.575665
527.373890	24.149496
527.804085	24.753186
528.234262	25.370351
528.664422	26.015727
529.094565	26.676351
529.524689	27.367188
529.954796	28.083579
530.384885	28.820872
530.814957	29.572528
531.245011	30.338776
531.675047	31.131477
532.105065	31.936871
532.535065	32.757820
532.965048	33.582717
533.395013	34.429406
533.824959	35.267734
534.254888	36.117922
534.684799	36.988593
535.114693	37.853311
535.544568	38.711286
535.974425	39.542639
536.404264	40.380389
536.834086	41.198618
537.263889	42.010415
537.693674	42.802810
538.123441	43.583730
538.553190	44.373502
538.982921	45.129266
539.412634	45.868084
539.842329	46.608412
540.272006	47.342792
540.701664	48.053166
541.131304	48.759088
541.560926	49.472896
541.990530	50.170655
542.420116	50.867679
542.849683	51.547445
543.279232	52.233764
543.708763	52.912487
544.138275	53.582001
544.567769	54.260280
544.997245	54.934897
545.426702	55.616055
545.856141	56.298728
546.285562	56.990907
546.714964	57.691294
547.144347	58.400709
547.573713	59.098798
548.003059	59.795260
548.432387	60.491422
548.861697	61.191073
549.290988	61.909562
549.720260	62.616051
550.149514	63.337839
550.578750	64.049858
551.007966	64.759359
551.437164	65.454854
551.866344	66.146808
552.295504	66.829847
552.724646	67.504130
553.153769	68.158157
553.582874	68.809809
554.011960	69.449444
554.441027	70.057766
554.870075	70.628601
555.299104	71.181141
555.728115	71.697702
556.157106	72.197771
556.586079	72.646099
557.015033	73.079848
557.443968	73.480541
557.872884	73.869535
558.301781	74.207482
558.730659	74.524725
559.159518	74.816899
559.588358	75.100037
560.017180	75.346394
560.445982	75.597602
560.874765	75.849504
561.303528	76.095338
561.732273	76.323125
562.160999	76.542924
562.589705	76.766837
563.018393	76.985092
563.447061	77.196054
563.875710	77.401630
564.304340	77.620400
564.732950	77.843301
565.161542	78.071340
565.590114	78.320022
566.018666	78.569317
566.447200	78.819803
566.875714	79.077243
567.304208	79.342611
567.732684	79.602425
568.161140	79.866533
568.589576	80.128938
569.017993	80.398728
569.446391	80.662298
569.874769	80.930105
570.303128	81.170189
570.731467	81.420702
571.159787	81.653066
571.588087	81.890213
572.016368	82.106936
572.444629	82.304367
572.872870	82.498720
573.301092	82.694739
573.729294	82.854903
574.157476	83.000231
574.585639	83.118922
575.013782	83.226317
575.441906	83.329371
575.870009	83.408453
576.298093	83.469293
576.726157	83.542160
577.154202	83.600012
577.582226	83.630010
578.010231	83.657479
578.438216	83.670529
578.866181	83.665634
579.294126	83.661657
579.722051	83.650984
580.149957	83.637041
580.577842	83.602166
581.005707	83.580361
581.433553	83.550529
581.861378	83.541169
582.289184	83.523305
582.716969	83.492710
583.144734	83.468310
583.572479	83.457934
584.000205	83.437508
584.427910	83.419848
584.855594	83.399067
585.283259	83.394300
585.710904	83.391246
586.138528	83.379305
586.566132	83.344776
586.993716	83.329350
587.421280	83.309022
587.848823	83.280781
588.276346	83.249566
588.703849	83.227048
589.131332	83.200672
589.558794	83.168931
589.986236	83.114076
590.413657	83.055623
590.841058	83.003456
591.268438	82.933582
591.695799	82.859368
592.123138	82.792326
592.550458	82.731088
592.977756	82.663541
593.405034	82.591282
593.832292	82.530742
594.259529	82.472931
594.686746	82.433171
595.113942	82.388331
595.541117	82.352176
595.968272	82.331131
596.395406	82.336618
596.822519	82.337486
597.249612	82.344607
597.676684	82.366519
598.103735	82.396027
598.530766	82.420548
598.957775	82.471879
599.384764	82.526377
599.811733	82.600770
600.238680	82.654867
600.665606	82.731821
601.092512	82.806355
601.519397	82.883990
601.946261	82.937476
602.373104	82.985317
602.799926	83.020380
603.226727	83.041219
603.653507	83.048942
604.080266	83.034787
604.507004	83.003842
604.933721	82.956114
605.360417	82.873967
605.787092	82.754921
606.213746	82.601739
606.640379	82.417453
607.066991	82.205453
607.493581	81.955947
607.920150	81.665481
608.346699	81.336577
608.773226	80.976784
609.199731	80.587412
609.626216	80.161009
610.052679	79.709949
610.479121	79.252163
610.905542	78.757679
611.331941	78.247323
611.758319	77.737555
612.184676	77.203810
612.611011	76.640590
613.037325	76.066400
613.463617	75.494682
613.889888	74.881605
614.316138	74.264067
614.742366	73.651837
615.168573	73.036565
615.594758	72.423090
616.020921	71.824944
616.447063	71.230889
616.873184	70.656698
617.299283	70.099113
617.725360	69.551816
618.151416	69.023746
618.577450	68.523980
619.003462	68.047569
619.429453	67.606593
619.855422	67.181195
620.281369	66.796943
620.707295	66.438118
621.133199	66.107681
621.559081	65.806776
621.984941	65.540102
622.410779	65.300949
622.836596	65.066346
623.262391	64.862963
623.688163	64.664779
624.113914	64.488435
624.539644	64.309352
624.965351	64.126030
625.391036	63.947740
625.816699	63.766055
626.242340	63.568277
626.667960	63.358294
627.093557	63.134636
627.519132	62.891964
627.944685	62.607126
628.370216	62.299415
628.795725	61.953336
629.221212	61.551342
629.646677	61.119133
630.072119	60.626824
630.497540	60.088330
630.922938	59.508852
631.348314	58.878168
631.773668	58.188527
632.198999	57.458135
632.624308	56.683702
633.049595	55.888116
633.474860	55.044669
633.900102	54.172897
634.325322	53.281503
634.750520	52.375517
635.175695	51.448507
635.600848	50.514763
636.025978	49.578306
636.451086	48.651360
636.876171	47.723721
637.301234	46.801554
637.726275	45.901100
638.151293	45.019348
638.576288	44.146980
639.001261	43.306487
639.426211	42.486357
639.851139	41.706184
640.276044	40.958873
640.700927	40.255436
641.125787	39.608369
641.550624	39.016820
641.975438	38.483446
642.400230	38.032477
642.824999	37.650062
643.249745	37.352082
643.674469	37.132134
644.099169	36.996913
644.523847	36.948473
644.948502	36.998452
645.373135	37.128414
645.797744	37.338431
646.222330	37.614815
646.646894	37.969064
647.071435	38.383696
647.495953	38.853201
647.920447	39.370800
648.344919	39.925802
648.769368	40.509859
649.193794	41.120746
649.618197	41.734893
650.042576	42.361411
650.466933	42.995097
650.891267	43.623326
651.315577	44.242562
651.739864	44.844723
652.164129	45.421116
652.588370	45.982533
653.012587	46.505451
653.436782	47.000078
653.860953	47.456490
654.285102	47.871955
654.709226	48.242677
655.133328	48.580629
655.557406	48.868538
655.981461	49.108060
656.405493	49.300983
656.829501	49.451924
657.253486	49.561726
657.677448	49.620398
658.101386	49.639434
658.525301	49.622334
658.949192	49.571766
659.373060	49.504925
659.796904	49.413813
660.220725	49.313707
660.644522	49.213847
661.068296	49.098813
661.492046	48.989650
661.915772	48.897810
662.339475	48.815764
662.763154	48.734252
663.186810	48.670977
663.610442	48.617143
664.034050	48.582682
664.457635	48.567069
664.881196	48.569290
665.304733	48.593351
665.728247	48.638870
666.151736	48.700880
666.575202	48.793296
666.998644	48.904978
667.422062	49.042269
667.845457	49.205728
668.268827	49.387980
668.692174	49.598033
669.115496	49.835759
669.538795	50.104164
669.962070	50.407436
670.385321	50.736832
670.808547	51.089836
671.231750	51.468330
671.654929	51.874811
672.078084	52.300272
672.501214	52.739243
672.924321	53.192054
673.347404	53.649300
673.770462	54.096904
674.193496	54.563394
674.616506	55.030554
675.039492	55.472762
675.462454	55.914540
675.885391	56.355763
676.308305	56.797352
676.731194	57.221971
677.154058	57.634621
677.576899	58.032721
677.999715	58.424689
678.422507	58.802956
678.845274	59.165676
679.268017	59.518288
679.690736	59.846101
680.113430	60.169275
680.536100	60.477497
680.958746	60.764880
681.381367	61.039776
681.803963	61.287998
682.226535	61.516583
682.649083	61.722758
683.071605	61.902170
683.494104	62.052637
683.916578	62.185480
684.339027	62.274904
684.761451	62.326165
685.183851	62.351711
685.606227	62.344551
686.028577	62.315156
686.450903	62.262409
686.873204	62.183927
687.295481	62.064653
687.717733	61.931967
688.139959	61.772723
688.562162	61.593461
688.984339	61.400734
689.406492	61.181843
689.828619	60.960511
690.250722	60.728407
690.672800	60.486891
691.094853	60.237168
691.516881	59.982764
691.938884	59.727759
692.360863	59.475935
692.782816	59.238898
693.204744	59.007365
693.626647	58.772771
694.048526	58.549054
694.470379	58.336939
694.892207	58.146657
695.314010	57.962805
695.735788	57.784045
696.157540	57.616472
696.579268	57.462070
697.000970	57.319204
697.422648	57.200290
697.844300	57.097873
698.265926	57.017405
698.687528	56.947425
699.109104	56.892983
699.530655	56.844532
699.952181	56.813499
700.373681	56.799199
700.795156	56.784878
701.216606	56.793189
701.638030	56.811852
702.059429	56.846617
702.480803	56.890712
702.902151	56.935726
703.323473	56.995100
703.744770	57.060418
704.166042	57.129222
704.587288	57.215419
705.008509	57.306583
705.429704	57.406566
705.850873	57.509313
706.272017	57.615738
706.693135	57.735511
707.114228	57.868636
707.535295	57.998903
707.956336	58.129889
708.377352	58.265717
708.798342	58.413502
709.219306	58.562744
709.640245	58.718169
710.061157	58.867972
710.482044	59.007652
710.902905	59.152752
711.323741	59.276811
711.744550	59.418690
712.165334	59.546683
712.586092	59.676282
713.006823	59.803151
713.427529	59.937434
713.848209	60.061836
714.268863	60.189966
714.689492	60.308320
715.110094	60.417026
715.530670	60.532654
715.951220	60.652992
716.371744	60.770572
716.792242	60.884695
717.212714	60.998863
717.633159	61.112171
718.053579	61.227723
718.473973	61.344200
718.894340	61.458782
719.314681	61.565186
719.734996	61.669983
720.155285	61.753433
720.575547	61.842406
720.995784	61.924338
721.415994	62.000698
721.836177	62.072652
722.256335	62.139390
722.676466	62.206255
723.096570	62.284762
723.516649	62.372135
723.936701	62.452314
724.356726	62.546604
724.776725	62.638922
725.196698	62.746118
725.616644	62.854750
726.036564	62.973699
726.456457	63.082958
726.876324	63.209300
727.296164	63.343662
727.715977	63.487729
728.135764	63.645187
728.555525	63.798574
728.975258	63.959683
729.394966	64.139458
729.814646	64.319198
730.234300	64.519097
730.653927	64.719731
731.073527	64.936965
731.493101	65.153093
731.912648	65.368844
732.332168	65.612345
732.751661	65.863122
733.171128	66.123702
733.590568	66.397645
734.009980	66.674969
734.429366	66.970451
734.848726	67.274546
735.268058	67.585147
735.687363	67.909694
736.106641	68.235123
736.525893	68.567694
736.945117	68.904761
737.364314	69.244422
737.783485	69.577370
738.202628	69.905449
738.621744	70.240604
739.040834	70.568207
739.459896	70.897254
739.878931	71.209009
740.297939	71.514032
740.716919	71.816257
741.135873	72.087589
741.554799	72.349935
741.973698	72.600789
742.392570	72.815842
742.811415	73.015752
743.230232	73.185463
743.649022	73.351696
744.067785	73.486140
744.486521	73.600643
744.905229	73.706790
745.323909	73.773882
745.742563	73.830167
746.161189	73.884897
746.579787	73.919390
746.998358	73.945755
747.416902	73.964181
747.835418	73.981186
748.253907	73.981932
748.672368	73.980522
749.090802	73.968544
749.509208	73.947484
749.927586	73.922538
750.345937	73.902146
750.764261	73.883535
751.182556	73.863936
751.600824	73.846412
752.019065	73.830877
752.437277	73.814546
752.855462	73.801514
753.273620	73.796008
753.691749	73.770090
754.109851	73.769528
754.527925	73.771454
754.945971	73.750954
755.363989	73.741565
755.781980	73.738108
756.199943	73.735306
756.617877	73.707601
757.035784	73.679743
757.453663	73.655426
