Time1=100ms:Average1=5:Objective=10X:Aperture=1: (11/28/2018 9:42:06 AM)
11/28/2018 9:42:06 AM
Reflectance
10X
Ap#: 1
Avg1: 5.000000
Avg2: 0.000000
Int.Time1:100.000000

350.166136	83.015058
350.601937	82.794207
351.037728	83.456439
351.473509	83.214730
351.909281	83.291704
352.345042	83.185444
352.780794	83.559307
353.216536	83.525076
353.652267	83.391939
354.087989	83.276142
354.523701	82.865623
354.959403	82.678797
355.395095	82.692308
355.830777	82.563459
356.266449	82.802434
356.702110	82.730204
357.137762	83.270508
357.573404	83.158930
358.009035	82.873471
358.444656	83.059475
358.880268	83.242470
359.315869	83.322923
359.751459	83.211938
360.187040	83.596046
360.622610	83.098716
361.058170	83.103692
361.493720	82.834896
361.929260	82.507289
362.364789	82.526763
362.800308	82.633774
363.235816	83.031654
363.671314	82.895089
364.106802	83.018030
364.542279	82.641409
364.977746	82.924670
365.413203	83.244586
365.848649	83.398507
366.284084	83.061658
366.719509	83.404218
367.154924	83.287623
367.590328	83.407041
368.025721	83.380531
368.461104	83.077737
368.896477	83.074342
369.331838	83.155387
369.767189	83.071878
370.202530	82.994700
370.637859	82.494722
371.073178	82.616708
371.508486	82.838110
371.943784	83.064375
372.379071	82.885171
372.814347	82.897508
373.249612	83.201616
373.684866	82.906580
374.120110	83.347910
374.555343	83.275048
374.990565	83.109053
375.425776	83.443593
375.860976	83.237448
376.296165	83.184227
376.731343	83.067591
377.166511	82.948951
377.601667	83.310261
378.036812	83.347758
378.471946	83.366508
378.907070	83.303070
379.342182	83.189357
379.777283	83.645184
380.212373	83.197715
380.647452	83.340538
381.082520	83.314650
381.517576	83.376422
381.952622	83.740821
382.387656	83.675927
382.822679	83.565891
383.257691	83.511961
383.692692	82.960560
384.127681	83.214988
384.562659	82.846154
384.997626	82.757153
385.432581	82.906056
385.867525	83.334757
386.302458	83.357490
386.737379	82.942376
387.172289	82.776175
387.607188	82.616791
388.042075	82.650216
388.476951	83.101930
388.911815	82.944421
389.346668	82.812764
389.781509	82.888514
390.216338	82.512648
390.651157	82.391103
391.085963	82.311261
391.520758	82.493682
391.955541	82.152143
392.390313	82.301627
392.825073	82.216085
393.259821	81.866800
393.694558	82.016008
394.129283	82.020135
394.563996	81.876510
394.998698	81.840093
395.433388	81.791057
395.868066	81.942431
396.302732	81.871466
396.737386	81.650848
397.172029	81.585741
397.606659	81.194771
398.041278	80.883008
398.475885	80.173492
398.910480	79.186135
399.345063	77.930003
399.779634	77.109135
400.214194	75.979252
400.648741	74.705685
401.083276	73.097281
401.517799	71.382854
401.952310	69.209069
402.386809	67.073857
402.821296	64.558651
403.255771	62.031907
403.690234	59.350481
404.124684	56.455861
404.559123	53.584280
404.993549	50.623907
405.427963	47.631750
405.862365	44.749880
406.296754	42.120923
406.731131	39.629328
407.165496	37.277549
407.599849	35.176925
408.034190	33.119605
408.468518	31.166507
408.902833	29.441561
409.337137	27.769274
409.771428	26.221887
410.205706	24.853468
410.639973	23.582462
411.074226	22.409567
411.508467	21.421482
411.942696	20.508278
412.376912	19.681897
412.811116	18.884632
413.245307	18.156607
413.679486	17.481055
414.113652	16.880694
414.547805	16.325910
414.981946	15.770314
415.416074	15.315695
415.850190	14.913036
416.284293	14.522692
416.718383	14.193930
417.152460	13.895026
417.586525	13.619675
418.020577	13.331509
418.454616	13.050325
418.888643	12.856850
419.322656	12.687071
419.756657	12.484169
420.190645	12.306425
420.624620	12.133211
421.058582	11.948044
421.492531	11.789442
421.926468	11.650233
422.360391	11.521229
422.794301	11.390126
423.228199	11.288110
423.662083	11.186663
424.095955	11.108938
424.529813	11.025371
424.963658	10.925455
425.397491	10.876072
425.831310	10.807161
426.265116	10.745010
426.698909	10.676039
427.132689	10.633764
427.566455	10.599864
428.000209	10.550574
428.433949	10.526294
428.867676	10.488381
429.301389	10.463379
429.735090	10.456303
430.168777	10.394569
430.602451	10.349767
431.036111	10.301174
431.469759	10.253770
431.903392	10.235283
432.337013	10.190554
432.770620	10.139070
433.204213	10.116527
433.637794	10.090158
434.071360	10.075343
434.504914	10.059005
434.938453	10.045516
435.371979	10.037119
435.805492	10.010591
436.238991	10.005273
436.672477	9.997938
437.105949	9.993333
437.539407	9.984436
437.972852	9.995318
438.406283	9.978485
438.839700	9.961027
439.273104	9.960048
439.706494	9.966937
440.139871	9.970631
440.573233	9.959767
441.006582	9.945041
441.439917	9.941426
441.873238	9.923797
442.306546	9.909228
442.739839	9.875705
443.173119	9.852166
443.606385	9.833563
444.039636	9.810396
444.472874	9.811917
444.906099	9.819608
445.339309	9.818448
445.772505	9.828505
446.205687	9.838098
446.638855	9.834871
447.072009	9.843751
447.505149	9.854435
447.938275	9.853633
448.371387	9.864161
448.804485	9.870101
449.237569	9.869262
449.670638	9.868441
450.103694	9.874097
450.536735	9.867434
450.969762	9.867239
451.402774	9.858365
451.835773	9.872399
452.268757	9.887940
452.701727	9.899735
453.134683	9.909342
453.567624	9.912263
454.000551	9.912756
454.433464	9.920018
454.866362	9.922149
455.299246	9.936987
455.732116	9.937000
456.164971	9.950750
456.597811	9.955986
457.030638	9.969936
457.463449	9.985101
457.896246	9.986824
458.329029	9.994047
458.761797	10.003046
459.194551	10.000287
459.627290	9.985183
460.060014	9.982955
460.492724	9.974506
460.925419	9.952744
461.358099	9.956243
461.790765	9.944772
462.223416	9.932322
462.656052	9.924082
463.088674	9.919184
463.521281	9.915001
463.953873	9.914532
464.386450	9.911207
464.819012	9.915133
465.251560	9.922968
465.684093	9.921475
466.116611	9.921982
466.549114	9.935611
466.981602	9.947129
467.414075	9.971867
467.846533	9.992814
468.278977	10.016041
468.711405	10.042391
469.143818	10.077056
469.576216	10.100713
470.008600	10.122446
470.440968	10.144221
470.873321	10.168541
471.305659	10.192400
471.737982	10.228414
472.170289	10.270327
472.602582	10.314525
473.034859	10.370759
473.467122	10.425172
473.899369	10.480104
474.331600	10.543749
474.763817	10.598252
475.196018	10.659052
475.628204	10.734326
476.060375	10.802479
476.492530	10.863322
476.924670	10.921956
477.356795	10.988400
477.788904	11.058753
478.220998	11.119655
478.653076	11.175490
479.085139	11.244273
479.517186	11.314526
479.949219	11.376720
480.381235	11.451154
480.813236	11.512647
481.245221	11.581930
481.677191	11.657980
482.109146	11.722496
482.541084	11.792034
482.973008	11.869118
483.404915	11.945777
483.836807	12.019593
484.268683	12.097721
484.700544	12.175538
485.132388	12.255347
485.564217	12.318541
485.996031	12.391078
486.427828	12.469234
486.859610	12.546132
487.291376	12.634589
487.723126	12.729318
488.154860	12.831660
488.586579	12.937964
489.018281	13.040659
489.449968	13.155818
489.881639	13.267156
490.313293	13.377190
490.744932	13.485816
491.176555	13.586956
491.608162	13.687382
492.039753	13.787063
492.471328	13.880714
492.902886	13.965600
493.334429	14.048398
493.765956	14.127377
494.197466	14.207682
494.628960	14.283033
495.060439	14.362938
495.491901	14.440484
495.923347	14.526931
496.354776	14.610146
496.786190	14.708372
497.217587	14.808544
497.648968	14.916146
498.080332	15.030184
498.511681	15.137548
498.943013	15.254539
499.374328	15.369629
499.805628	15.477128
500.236911	15.576358
500.668177	15.667602
501.099427	15.758542
501.530661	15.835552
501.961878	15.917966
502.393079	15.994665
502.824264	16.062116
503.255431	16.142625
503.686583	16.223944
504.117717	16.307697
504.548835	16.402248
504.979937	16.502026
505.411022	16.614500
505.842090	16.727969
506.273142	16.843164
506.704177	16.966868
507.135195	17.086097
507.566197	17.205173
507.997182	17.322979
508.428150	17.428827
508.859102	17.542330
509.290036	17.631510
509.720954	17.725385
510.151855	17.815049
510.582739	17.908938
511.013607	18.001061
511.444457	18.093205
511.875291	18.192846
512.306107	18.312501
512.736907	18.449830
513.167690	18.603818
513.598456	18.776319
514.029205	18.975653
514.459936	19.193584
514.890651	19.443160
515.321349	19.715630
515.752030	20.008510
516.182693	20.332465
516.613340	20.672008
517.043969	21.028484
517.474582	21.382857
517.905177	21.751629
518.335755	22.124234
518.766315	22.496191
519.196859	22.881649
519.627385	23.263124
520.057894	23.649531
520.488386	24.030397
520.918860	24.406783
521.349318	24.780280
521.779757	25.169041
522.210180	25.554592
522.640585	25.944916
523.070973	26.334917
523.501343	26.724132
523.931696	27.114845
524.362031	27.510274
524.792349	27.909697
525.222650	28.303348
525.652933	28.691614
526.083198	29.070698
526.513446	29.450375
526.943677	29.825910
527.373890	30.193337
527.804085	30.555995
528.234262	30.907179
528.664422	31.257744
529.094565	31.606199
529.524689	31.960986
529.954796	32.325727
530.384885	32.709639
530.814957	33.123936
531.245011	33.553848
531.675047	34.010167
532.105065	34.497285
532.535065	35.014525
532.965048	35.568742
533.395013	36.150750
533.824959	36.780129
534.254888	37.449912
534.684799	38.182255
535.114693	38.931967
535.544568	39.707015
535.974425	40.509951
536.404264	41.356068
536.834086	42.214980
537.263889	43.100359
537.693674	43.991774
538.123441	44.906463
538.553190	45.831485
538.982921	46.743916
539.412634	47.668152
539.842329	48.597294
540.272006	49.524863
540.701664	50.445520
541.131304	51.369042
541.560926	52.315305
541.990530	53.245865
542.420116	54.176004
542.849683	55.100005
543.279232	56.012419
543.708763	56.925631
544.138275	57.826055
544.567769	58.707342
544.997245	59.594539
545.426702	60.461838
545.856141	61.321439
546.285562	62.178823
546.714964	63.025819
547.144347	63.884092
547.573713	64.728814
548.003059	65.561232
548.432387	66.402895
548.861697	67.235620
549.290988	68.091609
549.720260	68.927595
550.149514	69.771920
550.578750	70.605415
551.007966	71.438207
551.437164	72.249529
551.866344	73.079672
552.295504	73.923414
552.724646	74.764544
553.153769	75.600195
553.582874	76.447179
554.011960	77.298003
554.441027	78.138415
554.870075	78.944388
555.299104	79.741294
555.728115	80.511346
556.157106	81.267433
556.586079	81.974919
557.015033	82.656972
557.443968	83.322055
557.872884	83.966485
558.301781	84.557214
558.730659	85.135383
559.159518	85.683215
559.588358	86.199522
560.017180	86.690762
560.445982	87.139179
560.874765	87.587018
561.303528	88.007247
561.732273	88.387595
562.160999	88.756255
562.589705	89.090130
563.018393	89.396729
563.447061	89.711688
563.875710	90.007795
564.304340	90.290835
564.732950	90.564382
565.161542	90.822014
565.590114	91.082868
566.018666	91.335492
566.447200	91.566927
566.875714	91.803341
567.304208	92.014508
567.732684	92.219281
568.161140	92.422323
568.589576	92.610119
569.017993	92.792958
569.446391	92.962872
569.874769	93.160432
570.303128	93.316683
570.731467	93.465397
571.159787	93.601071
571.588087	93.744041
572.016368	93.870234
572.444629	93.980373
572.872870	94.105738
573.301092	94.210876
573.729294	94.319662
574.157476	94.407727
574.585639	94.485365
575.013782	94.575413
575.441906	94.663544
575.870009	94.752692
576.298093	94.840660
576.726157	94.911171
577.154202	94.968945
577.582226	95.016587
578.010231	95.085165
578.438216	95.157134
578.866181	95.207887
579.294126	95.272824
579.722051	95.344688
580.149957	95.434701
580.577842	95.520137
581.005707	95.622683
581.433553	95.712585
581.861378	95.829816
582.289184	95.950246
582.716969	96.064790
583.144734	96.176743
583.572479	96.318031
584.000205	96.448961
584.427910	96.600209
584.855594	96.731704
585.283259	96.860300
585.710904	96.996122
586.138528	97.113914
586.566132	97.238187
586.993716	97.351234
587.421280	97.469272
587.848823	97.578754
588.276346	97.667729
588.703849	97.744277
589.131332	97.799815
589.558794	97.858423
589.986236	97.886293
590.413657	97.902715
590.841058	97.924924
591.268438	97.894246
591.695799	97.855184
592.123138	97.815904
592.550458	97.744391
592.977756	97.677991
593.405034	97.566330
593.832292	97.462226
594.259529	97.332658
594.686746	97.211544
595.113942	97.083134
595.541117	96.962441
595.968272	96.846065
596.395406	96.734128
596.822519	96.618392
597.249612	96.516704
597.676684	96.414360
598.103735	96.333264
598.530766	96.244590
598.957775	96.194260
599.384764	96.158520
599.811733	96.135713
600.238680	96.127370
600.665606	96.114090
601.092512	96.118779
601.519397	96.126793
601.946261	96.162984
602.373104	96.216037
602.799926	96.275009
603.226727	96.340178
603.653507	96.421938
604.080266	96.501102
604.507004	96.606349
604.933721	96.714539
605.360417	96.826052
605.787092	96.936151
606.213746	97.037520
606.640379	97.144094
607.066991	97.262273
607.493581	97.365211
607.920150	97.464979
608.346699	97.533057
608.773226	97.605905
609.199731	97.654254
609.626216	97.684132
610.052679	97.696688
610.479121	97.696933
610.905542	97.663612
611.331941	97.617785
611.758319	97.580377
612.184676	97.489451
612.611011	97.370024
613.037325	97.212727
613.463617	97.045324
613.889888	96.839443
614.316138	96.607451
614.742366	96.359969
615.168573	96.081216
615.594758	95.770867
616.020921	95.439414
616.447063	95.079468
616.873184	94.697620
617.299283	94.294649
617.725360	93.870661
618.151416	93.426918
618.577450	92.956572
619.003462	92.476487
619.429453	91.974195
619.855422	91.444627
620.281369	90.896002
620.707295	90.340520
621.133199	89.763730
621.559081	89.186908
621.984941	88.586590
622.410779	87.984445
622.836596	87.369378
623.262391	86.749536
623.688163	86.112375
624.113914	85.482358
624.539644	84.831193
624.965351	84.190070
625.391036	83.535108
625.816699	82.881392
626.242340	82.230719
626.667960	81.569627
627.093557	80.918520
627.519132	80.269611
627.944685	79.613069
628.370216	78.968889
628.795725	78.331827
629.221212	77.682705
629.646677	77.055673
630.072119	76.430705
630.497540	75.815818
630.922938	75.213907
631.348314	74.615958
631.773668	74.033950
632.198999	73.458153
632.624308	72.915511
633.049595	72.399880
633.474860	71.890206
633.900102	71.404323
634.325322	70.929516
634.750520	70.467285
635.175695	70.009170
635.600848	69.553377
636.025978	69.097077
636.451086	68.648751
636.876171	68.197519
637.301234	67.743703
637.726275	67.294330
638.151293	66.825636
638.576288	66.357681
639.001261	65.884774
639.426211	65.407524
639.851139	64.913141
640.276044	64.418014
640.700927	63.909964
641.125787	63.415380
641.550624	62.899528
641.975438	62.380417
642.400230	61.870725
642.824999	61.363146
643.249745	60.851822
643.674469	60.344599
644.099169	59.843281
644.523847	59.347116
644.948502	58.866182
645.373135	58.411068
645.797744	57.956600
646.222330	57.523427
646.646894	57.117914
647.071435	56.728195
647.495953	56.378867
647.920447	56.062737
648.344919	55.775421
648.769368	55.528193
649.193794	55.322932
649.618197	55.149159
650.042576	55.029185
650.466933	54.953240
650.891267	54.909346
651.315577	54.913403
651.739864	54.955519
652.164129	55.037900
652.588370	55.172040
653.012587	55.351390
653.436782	55.562021
653.860953	55.809980
654.285102	56.091216
654.709226	56.409031
655.133328	56.757927
655.557406	57.130433
655.981461	57.526774
656.405493	57.956904
656.829501	58.402512
657.253486	58.853380
657.677448	59.302878
658.101386	59.760747
658.525301	60.199026
658.949192	60.637615
659.373060	61.055185
659.796904	61.456760
660.220725	61.839985
660.644522	62.196976
661.068296	62.511881
661.492046	62.804732
661.915772	63.081969
662.339475	63.322790
662.763154	63.543913
663.186810	63.730785
663.610442	63.888640
664.034050	64.030760
664.457635	64.160081
664.881196	64.280761
665.304733	64.385106
665.728247	64.471109
666.151736	64.549306
666.575202	64.626271
666.998644	64.691179
667.422062	64.741639
667.845457	64.778889
668.268827	64.812492
668.692174	64.839211
669.115496	64.865023
669.538795	64.872036
669.962070	64.876955
670.385321	64.884667
670.808547	64.906114
671.231750	64.927391
671.654929	64.963273
672.078084	64.995419
672.501214	65.044749
672.924321	65.099480
673.347404	65.166971
673.770462	65.234530
674.193496	65.338323
674.616506	65.445757
675.039492	65.545779
675.462454	65.673772
675.885391	65.799917
676.308305	65.947680
676.731194	66.099474
677.154058	66.263102
677.576899	66.424188
677.999715	66.588113
678.422507	66.762844
678.845274	66.939060
679.268017	67.115120
679.690736	67.291318
680.113430	67.481877
680.536100	67.674599
680.958746	67.873147
681.381367	68.067107
681.803963	68.260557
682.226535	68.459073
682.649083	68.668226
683.071605	68.877148
683.494104	69.091521
683.916578	69.304411
684.339027	69.510066
684.761451	69.708985
685.183851	69.911388
685.606227	70.116112
686.028577	70.320190
686.450903	70.523467
686.873204	70.741994
687.295481	70.944344
687.717733	71.150566
688.139959	71.369148
688.562162	71.567197
688.984339	71.772655
689.406492	71.972518
689.828619	72.180664
690.250722	72.390841
690.672800	72.593887
691.094853	72.795702
691.516881	72.978718
691.938884	73.165585
692.360863	73.331064
692.782816	73.492026
693.204744	73.648250
693.626647	73.803203
694.048526	73.940232
694.470379	74.086866
694.892207	74.225246
695.314010	74.358550
695.735788	74.486717
696.157540	74.600529
696.579268	74.715497
697.000970	74.820810
697.422648	74.927459
697.844300	75.038919
698.265926	75.145647
698.687528	75.253162
699.109104	75.357382
699.530655	75.447932
699.952181	75.529921
700.373681	75.604390
700.795156	75.667624
701.216606	75.709449
701.638030	75.760316
702.059429	75.801547
702.480803	75.816306
702.902151	75.809492
703.323473	75.785685
703.744770	75.739828
704.166042	75.660943
704.587288	75.573649
705.008509	75.459668
705.429704	75.350197
705.850873	75.212753
706.272017	75.046058
706.693135	74.856153
707.114228	74.660538
707.535295	74.436935
707.956336	74.203019
708.377352	73.954702
708.798342	73.699114
709.219306	73.451732
709.640245	73.187112
710.061157	72.928203
710.482044	72.665273
710.902905	72.402290
711.323741	72.153420
711.744550	71.911021
712.165334	71.668258
712.586092	71.451321
713.006823	71.249789
713.427529	71.069113
713.848209	70.901201
714.268863	70.765293
714.689492	70.641485
715.110094	70.540148
715.530670	70.468671
715.951220	70.417443
716.371744	70.394381
716.792242	70.401564
717.212714	70.449904
717.633159	70.536569
718.053579	70.649564
718.473973	70.789374
718.894340	70.976925
719.314681	71.186469
719.734996	71.426018
720.155285	71.694788
720.575547	71.987985
720.995784	72.313875
721.415994	72.646982
721.836177	73.003014
722.256335	73.364759
722.676466	73.738211
723.096570	74.116154
723.516649	74.498126
723.936701	74.885330
724.356726	75.254750
724.776725	75.605630
725.196698	75.956962
725.616644	76.272012
726.036564	76.564259
726.456457	76.821979
726.876324	77.078459
727.296164	77.290280
727.715977	77.465475
728.135764	77.615677
728.555525	77.733103
728.975258	77.823998
729.394966	77.875338
729.814646	77.895810
730.234300	77.885344
730.653927	77.835026
731.073527	77.763796
731.493101	77.657730
731.912648	77.513678
732.332168	77.366326
732.751661	77.193358
733.171128	76.994460
733.590568	76.787913
734.009980	76.553068
734.429366	76.317752
734.848726	76.062815
735.268058	75.795909
735.687363	75.524462
736.106641	75.249485
736.525893	74.971038
736.945117	74.678597
737.364314	74.401611
737.783485	74.122705
738.202628	73.851370
738.621744	73.593391
739.040834	73.347522
739.459896	73.117294
739.878931	72.890485
740.297939	72.684292
740.716919	72.507411
741.135873	72.333074
741.554799	72.184306
741.973698	72.053347
742.392570	71.958374
742.811415	71.880608
743.230232	71.818049
743.649022	71.792634
744.067785	71.772699
744.486521	71.761541
744.905229	71.774539
745.323909	71.789962
745.742563	71.820757
746.161189	71.868060
746.579787	71.910507
746.998358	71.972100
747.416902	72.041467
747.835418	72.111906
748.253907	72.200485
748.672368	72.297608
749.090802	72.392337
749.509208	72.480600
749.927586	72.584608
750.345937	72.678161
750.764261	72.770976
751.182556	72.859794
751.600824	72.955298
752.019065	73.043599
752.437277	73.134877
752.855462	73.230063
753.273620	73.343167
753.691749	73.427652
754.109851	73.528911
754.527925	73.627245
754.945971	73.728949
755.363989	73.815844
