Time1=100ms:Average1=5:Objective=10X:Aperture=1: (11/28/2018 9:42:45 AM)
11/28/2018 9:42:45 AM
Reflectance
10X
Ap#: 1
Avg1: 5.000000
Avg2: 0.000000
Int.Time1:100.000000

350.166136	75.889627
350.601937	76.350707
351.037728	76.168016
351.473509	76.134140
351.909281	76.369313
352.345042	76.149503
352.780794	76.394002
353.216536	76.235844
353.652267	76.106753
354.087989	75.889471
354.523701	76.056845
354.959403	76.049360
355.395095	76.159238
355.830777	75.988878
356.266449	76.020043
356.702110	75.931566
357.137762	76.108419
357.573404	76.191754
358.009035	75.685329
358.444656	75.772459
358.880268	75.949593
359.315869	76.014991
359.751459	75.901581
360.187040	76.329148
360.622610	75.891988
361.058170	75.922982
361.493720	75.464520
361.929260	75.439526
362.364789	75.130496
362.800308	75.259562
363.235816	75.568435
363.671314	75.345396
364.106802	74.988898
364.542279	75.090732
364.977746	75.214659
365.413203	75.177494
365.848649	74.893352
366.284084	74.707654
366.719509	74.968988
367.154924	74.750066
367.590328	74.907129
368.025721	74.920354
368.461104	74.422704
368.896477	74.359880
369.331838	74.472779
369.767189	74.510325
370.202530	74.637809
370.637859	74.234694
371.073178	73.876799
371.508486	74.038040
371.943784	73.758990
372.379071	73.644565
372.814347	73.613549
373.249612	73.840885
373.684866	73.590842
374.120110	74.103551
374.555343	73.710439
374.990565	74.091227
375.425776	74.042479
375.860976	74.128312
376.296165	73.820898
376.731343	73.838821
377.166511	73.671936
377.601667	73.974736
378.036812	73.887831
378.471946	73.890091
378.907070	73.912668
379.342182	74.196614
379.777283	74.419612
380.212373	74.108379
380.647452	74.176537
381.082520	74.165733
381.517576	73.940021
381.952622	74.315335
382.387656	74.301195
382.822679	74.160207
383.257691	74.071851
383.692692	73.578624
384.127681	73.795876
384.562659	73.880342
384.997626	73.790872
385.432581	73.946001
385.867525	74.015546
386.302458	73.996078
386.737379	73.839878
387.172289	73.706092
387.607188	73.341232
388.042075	73.523198
388.476951	73.509990
388.911815	73.661434
389.346668	74.050312
389.781509	74.138514
390.216338	73.962901
390.651157	73.940517
391.085963	73.867566
391.520758	74.069082
391.955541	74.024994
392.390313	74.006039
392.825073	73.989455
393.259821	73.886521
393.694558	73.936968
394.129283	73.883019
394.563996	74.010499
394.998698	74.143949
395.433388	74.166011
395.868066	74.089874
396.302732	74.086763
396.737386	73.926620
397.172029	73.980742
397.606659	73.539113
398.041278	73.202218
398.475885	72.919104
398.910480	72.369314
399.345063	71.579859
399.779634	71.149590
400.214194	69.895877
400.648741	68.677355
401.083276	67.048732
401.517799	65.597554
401.952310	63.811195
402.386809	61.654583
402.821296	59.212909
403.255771	56.943057
403.690234	54.473344
404.124684	51.940153
404.559123	49.284165
404.993549	46.679281
405.427963	43.863621
405.862365	41.361289
406.296754	38.906283
406.731131	36.607902
407.165496	34.342958
407.599849	32.492918
408.034190	30.588235
408.468518	28.797439
408.902833	27.184599
409.337137	25.717831
409.771428	24.348434
410.205706	23.116086
410.639973	21.925019
411.074226	20.945089
411.508467	20.006671
411.942696	19.201692
412.376912	18.461737
412.811116	17.817734
413.245307	17.135481
413.679486	16.550441
414.113652	16.034885
414.547805	15.586488
414.981946	15.132983
415.416074	14.700398
415.850190	14.371033
416.284293	14.003130
416.718383	13.673940
417.152460	13.378448
417.586525	13.111208
418.020577	12.852560
418.454616	12.626984
418.888643	12.454875
419.322656	12.293991
419.756657	12.110158
420.190645	11.943852
420.624620	11.818159
421.058582	11.628408
421.492531	11.430496
421.926468	11.306882
422.360391	11.190276
422.794301	11.076100
423.228199	10.994430
423.662083	10.901466
424.095955	10.848714
424.529813	10.782078
424.963658	10.705625
425.397491	10.663779
425.831310	10.593700
426.265116	10.525501
426.698909	10.453361
427.132689	10.408832
427.566455	10.347672
428.000209	10.293149
428.433949	10.241901
428.867676	10.203619
429.301389	10.175087
429.735090	10.144551
430.168777	10.107724
430.602451	10.062144
431.036111	10.040263
431.469759	10.023036
431.903392	9.991198
432.337013	9.948858
432.770620	9.896119
433.204213	9.861503
433.637794	9.834901
434.071360	9.806900
434.504914	9.808651
434.938453	9.823813
435.371979	9.813806
435.805492	9.806669
436.238991	9.799217
436.672477	9.789459
437.105949	9.783118
437.539407	9.757129
437.972852	9.746239
438.406283	9.724500
438.839700	9.700393
439.273104	9.693801
439.706494	9.670801
440.139871	9.668998
440.573233	9.678076
441.006582	9.674126
441.439917	9.664193
441.873238	9.653028
442.306546	9.638270
442.739839	9.612995
443.173119	9.581390
443.606385	9.564205
444.039636	9.559852
444.472874	9.531325
444.906099	9.517802
445.339309	9.518861
445.772505	9.501657
446.205687	9.500308
446.638855	9.501814
447.072009	9.496693
447.505149	9.507074
447.938275	9.500883
448.371387	9.504031
448.804485	9.513176
449.237569	9.506780
449.670638	9.491284
450.103694	9.488577
450.536735	9.468334
450.969762	9.459605
451.402774	9.438046
451.835773	9.433812
452.268757	9.418614
452.701727	9.410498
453.134683	9.417662
453.567624	9.425409
454.000551	9.418585
454.433464	9.417963
454.866362	9.421278
455.299246	9.425350
455.732116	9.423021
456.164971	9.423909
456.597811	9.430530
457.030638	9.433613
457.463449	9.429345
457.896246	9.435341
458.329029	9.432442
458.761797	9.417042
459.194551	9.416364
459.627290	9.417185
460.060014	9.409670
460.492724	9.410634
460.925419	9.401739
461.358099	9.403820
461.790765	9.396715
462.223416	9.379430
462.656052	9.377983
463.088674	9.374299
463.521281	9.349692
463.953873	9.346770
464.386450	9.342707
464.819012	9.340679
465.251560	9.342276
465.684093	9.358189
466.116611	9.367380
466.549114	9.377011
466.981602	9.384523
467.414075	9.404760
467.846533	9.423099
468.278977	9.443692
468.711405	9.469973
469.143818	9.506993
469.576216	9.526526
470.008600	9.555143
470.440968	9.590218
470.873321	9.624289
471.305659	9.644357
471.737982	9.678119
472.170289	9.723035
472.602582	9.770267
473.034859	9.806257
473.467122	9.845451
473.899369	9.890027
474.331600	9.938965
474.763817	9.987323
475.196018	10.036092
475.628204	10.103228
476.060375	10.164099
476.492530	10.235115
476.924670	10.319220
477.356795	10.394960
477.788904	10.476688
478.220998	10.559389
478.653076	10.635881
479.085139	10.701654
479.517186	10.760024
479.949219	10.833507
480.381235	10.896850
480.813236	10.952391
481.245221	11.016514
481.677191	11.079322
482.109146	11.145376
482.541084	11.218041
482.973008	11.297920
483.404915	11.377906
483.836807	11.460126
484.268683	11.540519
484.700544	11.628705
485.132388	11.702774
485.564217	11.770982
485.996031	11.843986
486.427828	11.917648
486.859610	11.984636
487.291376	12.059238
487.723126	12.113953
488.154860	12.175576
488.586579	12.233182
489.018281	12.284128
489.449968	12.338973
489.881639	12.398829
490.313293	12.457041
490.744932	12.522334
491.176555	12.592760
491.608162	12.666762
492.039753	12.746642
492.471328	12.830182
492.902886	12.913998
493.334429	12.982597
493.765956	13.055206
494.197466	13.131228
494.628960	13.201778
495.060439	13.270417
495.491901	13.331148
495.923347	13.385346
496.354776	13.446148
496.786190	13.505954
497.217587	13.553911
497.648968	13.615567
498.080332	13.676726
498.511681	13.740244
498.943013	13.813707
499.374328	13.885790
499.805628	13.956232
500.236911	14.038640
500.668177	14.109482
501.099427	14.196783
501.530661	14.274439
501.961878	14.360358
502.393079	14.435892
502.824264	14.518058
503.255431	14.588740
503.686583	14.655739
504.117717	14.725645
504.548835	14.789152
504.979937	14.861657
505.411022	14.925988
505.842090	14.995344
506.273142	15.074551
506.704177	15.163769
507.135195	15.252965
507.566197	15.350355
507.997182	15.457224
508.428150	15.573444
508.859102	15.706824
509.290036	15.836632
509.720954	15.974583
510.151855	16.118403
510.582739	16.275559
511.013607	16.436301
511.444457	16.604144
511.875291	16.772844
512.306107	16.950593
512.736907	17.131981
513.167690	17.323773
513.598456	17.519479
514.029205	17.722117
514.459936	17.935286
514.890651	18.151795
515.321349	18.379113
515.752030	18.628611
516.182693	18.882639
516.613340	19.150744
517.043969	19.432839
517.474582	19.718880
517.905177	20.024225
518.335755	20.326458
518.766315	20.648555
519.196859	20.970938
519.627385	21.297280
520.057894	21.628251
520.488386	21.964306
520.918860	22.296269
521.349318	22.633346
521.779757	22.977595
522.210180	23.317522
522.640585	23.668058
523.070973	24.022083
523.501343	24.389168
523.931696	24.766475
524.362031	25.145831
524.792349	25.527978
525.222650	25.928777
525.652933	26.335380
526.083198	26.752707
526.513446	27.180901
526.943677	27.619801
527.373890	28.073597
527.804085	28.540265
528.234262	29.017921
528.664422	29.513447
529.094565	30.010316
529.524689	30.525662
529.954796	31.058542
530.384885	31.587641
530.814957	32.131223
531.245011	32.676784
531.675047	33.238937
532.105065	33.809633
532.535065	34.396884
532.965048	34.992759
533.395013	35.601537
533.824959	36.230249
534.254888	36.881670
534.684799	37.567471
535.114693	38.260209
535.544568	38.962231
535.974425	39.679126
536.404264	40.413264
536.834086	41.149175
537.263889	41.895633
537.693674	42.660590
538.123441	43.438674
538.553190	44.241073
538.982921	45.028722
539.412634	45.842107
539.842329	46.664272
540.272006	47.498147
540.701664	48.329894
541.131304	49.174321
541.560926	50.048672
541.990530	50.918146
542.420116	51.796973
542.849683	52.671224
543.279232	53.561581
543.708763	54.472017
544.138275	55.381006
544.567769	56.289273
544.997245	57.208923
545.426702	58.136021
545.856141	59.076058
546.285562	60.031368
546.714964	60.982789
547.144347	61.958277
547.573713	62.929900
548.003059	63.892257
548.432387	64.873208
548.861697	65.834725
549.290988	66.797040
549.720260	67.745469
550.149514	68.699915
550.578750	69.649407
551.007966	70.573210
551.437164	71.477764
551.866344	72.359233
552.295504	73.252119
552.724646	74.107072
553.153769	74.965848
553.582874	75.806213
554.011960	76.637072
554.441027	77.433404
554.870075	78.180754
555.299104	78.899223
555.728115	79.606221
556.157106	80.289864
556.586079	80.923430
557.015033	81.524809
557.443968	82.104598
557.872884	82.651292
558.301781	83.151202
558.730659	83.640357
559.159518	84.102643
559.588358	84.539493
560.017180	84.960772
560.445982	85.343701
560.874765	85.732215
561.303528	86.117110
561.732273	86.461002
562.160999	86.818935
562.589705	87.154317
563.018393	87.486174
563.447061	87.813603
563.875710	88.119165
564.304340	88.438492
564.732950	88.757319
565.161542	89.089443
565.590114	89.404911
566.018666	89.727518
566.447200	90.021808
566.875714	90.324789
567.304208	90.616792
567.732684	90.887059
568.161140	91.171860
568.589576	91.443614
569.017993	91.692678
569.446391	91.930601
569.874769	92.150961
570.303128	92.353069
570.731467	92.547007
571.159787	92.741022
571.588087	92.930045
572.016368	93.080429
572.444629	93.212064
572.872870	93.346863
573.301092	93.472534
573.729294	93.582010
574.157476	93.662421
574.585639	93.722928
575.013782	93.779457
575.441906	93.811284
575.870009	93.854970
576.298093	93.878158
576.726157	93.899593
577.154202	93.905387
577.582226	93.896280
578.010231	93.878217
578.438216	93.849036
578.866181	93.827717
579.294126	93.804840
579.722051	93.788814
580.149957	93.783126
580.577842	93.767540
581.005707	93.773319
581.433553	93.752357
581.861378	93.761378
582.289184	93.770207
582.716969	93.776934
583.144734	93.797199
583.572479	93.843092
584.000205	93.864249
584.427910	93.911854
584.855594	93.950445
585.283259	94.011177
585.710904	94.070020
586.138528	94.132944
586.566132	94.186308
586.993716	94.229786
587.421280	94.281067
587.848823	94.338713
588.276346	94.396788
588.703849	94.454532
589.131332	94.486968
589.558794	94.533691
589.986236	94.559260
590.413657	94.590753
590.841058	94.614389
591.268438	94.626052
591.695799	94.626542
592.123138	94.631925
592.550458	94.635756
592.977756	94.631377
593.405034	94.612729
593.832292	94.605386
594.259529	94.587726
594.686746	94.593363
595.113942	94.578074
595.541117	94.574845
595.968272	94.578498
596.395406	94.596052
596.822519	94.601334
597.249612	94.639723
597.676684	94.657387
598.103735	94.696930
598.530766	94.729956
598.957775	94.781266
599.384764	94.823750
599.811733	94.882864
600.238680	94.953594
600.665606	95.018299
601.092512	95.070444
601.519397	95.116852
601.946261	95.188017
602.373104	95.261379
602.799926	95.314904
603.226727	95.363126
603.653507	95.414534
604.080266	95.469126
604.507004	95.522379
604.933721	95.579607
605.360417	95.611533
605.787092	95.621404
606.213746	95.616367
606.640379	95.601471
607.066991	95.568242
607.493581	95.522994
607.920150	95.454653
608.346699	95.387452
608.773226	95.304347
609.199731	95.192429
609.626216	95.065463
610.052679	94.916560
610.479121	94.743279
610.905542	94.562024
611.331941	94.368319
611.758319	94.177719
612.184676	93.966584
612.611011	93.732500
613.037325	93.488014
613.463617	93.246316
613.889888	92.986456
614.316138	92.715468
614.742366	92.451949
615.168573	92.160148
615.594758	91.874495
616.020921	91.596915
616.447063	91.313885
616.873184	91.017330
617.299283	90.713277
617.725360	90.410119
618.151416	90.096709
618.577450	89.779550
619.003462	89.466470
619.429453	89.152046
619.855422	88.825055
620.281369	88.505531
620.707295	88.183512
621.133199	87.864150
621.559081	87.526461
621.984941	87.180065
622.410779	86.840207
622.836596	86.468472
623.262391	86.094298
623.688163	85.706677
624.113914	85.307031
624.539644	84.865137
624.965351	84.404040
625.391036	83.904374
625.816699	83.385128
626.242340	82.827857
626.667960	82.235675
627.093557	81.601030
627.519132	80.932933
627.944685	80.216332
628.370216	79.481778
628.795725	78.691371
629.221212	77.858578
629.646677	77.004770
630.072119	76.106589
630.497540	75.175237
630.922938	74.216357
631.348314	73.236649
631.773668	72.243860
632.198999	71.233475
632.624308	70.206088
633.049595	69.181513
633.474860	68.147129
633.900102	67.123827
634.325322	66.099776
634.750520	65.083014
635.175695	64.077442
635.600848	63.075576
636.025978	62.093405
636.451086	61.144619
636.876171	60.219286
637.301234	59.311797
637.726275	58.449058
638.151293	57.605033
638.576288	56.805966
639.001261	56.038423
639.426211	55.302766
639.851139	54.599329
640.276044	53.940130
640.700927	53.328511
641.125787	52.763280
641.550624	52.225584
641.975438	51.743887
642.400230	51.299009
642.824999	50.895014
643.249745	50.543626
643.674469	50.233502
644.099169	49.960184
644.523847	49.726359
644.948502	49.524104
645.373135	49.350671
645.797744	49.212030
646.222330	49.095310
646.646894	49.005049
647.071435	48.928479
647.495953	48.876680
647.920447	48.842534
648.344919	48.813415
648.769368	48.797880
649.193794	48.798575
649.618197	48.788104
650.042576	48.785270
650.466933	48.785922
650.891267	48.781453
651.315577	48.782213
651.739864	48.778374
652.164129	48.773901
652.588370	48.768503
653.012587	48.766900
653.436782	48.763520
653.860953	48.757218
654.285102	48.753409
654.709226	48.749521
655.133328	48.748241
655.557406	48.752087
655.981461	48.755872
656.405493	48.767416
656.829501	48.781989
657.253486	48.817143
657.677448	48.853399
658.101386	48.907097
658.525301	48.975187
658.949192	49.071048
659.373060	49.179635
659.796904	49.314010
660.220725	49.471483
660.644522	49.647157
661.068296	49.841069
661.492046	50.062055
661.915772	50.306500
662.339475	50.568414
662.763154	50.843836
663.186810	51.129367
663.610442	51.423051
664.034050	51.724111
664.457635	52.033308
664.881196	52.346434
665.304733	52.664832
665.728247	52.994827
666.151736	53.311381
666.575202	53.649621
666.998644	53.975528
667.422062	54.305873
667.845457	54.636696
668.268827	54.971200
668.692174	55.304537
669.115496	55.638569
669.538795	55.972588
669.962070	56.312100
670.385321	56.640453
670.808547	56.960602
671.231750	57.275204
671.654929	57.583823
672.078084	57.869752
672.501214	58.145237
672.924321	58.406978
673.347404	58.648932
673.770462	58.854657
674.193496	59.056534
674.616506	59.227645
675.039492	59.371250
675.462454	59.493673
675.885391	59.603166
676.308305	59.695112
676.731194	59.769005
677.154058	59.829411
677.576899	59.874787
677.999715	59.914988
678.422507	59.940789
678.845274	59.946127
679.268017	59.953660
679.690736	59.939928
680.113430	59.926808
680.536100	59.901236
680.958746	59.870035
681.381367	59.828088
681.803963	59.778593
682.226535	59.732790
682.649083	59.674343
683.071605	59.612393
683.494104	59.550585
683.916578	59.492506
684.339027	59.434973
684.761451	59.380525
685.183851	59.323672
685.606227	59.282274
686.028577	59.244707
686.450903	59.215366
686.873204	59.201994
687.295481	59.188842
687.717733	59.187831
688.139959	59.201569
688.562162	59.227675
688.984339	59.257929
689.406492	59.300820
689.828619	59.360097
690.250722	59.428621
690.672800	59.498930
691.094853	59.570913
691.516881	59.642114
691.938884	59.716922
692.360863	59.790238
692.782816	59.861072
693.204744	59.933690
693.626647	60.004742
694.048526	60.068515
694.470379	60.136113
694.892207	60.198930
695.314010	60.249398
695.735788	60.298046
696.157540	60.345391
696.579268	60.394616
697.000970	60.435670
697.422648	60.466564
697.844300	60.495158
698.265926	60.538201
698.687528	60.563593
699.109104	60.578616
699.530655	60.583219
699.952181	60.590751
700.373681	60.587213
700.795156	60.586131
701.216606	60.568038
701.638030	60.548498
702.059429	60.527215
702.480803	60.496093
702.902151	60.454786
703.323473	60.409766
703.744770	60.356928
704.166042	60.287425
704.587288	60.231661
705.008509	60.170250
705.429704	60.114425
705.850873	60.060690
706.272017	60.003034
706.693135	59.934565
707.114228	59.882605
707.535295	59.827051
707.956336	59.766777
708.377352	59.712969
708.798342	59.659316
709.219306	59.602338
709.640245	59.537322
710.061157	59.471939
710.482044	59.402735
710.902905	59.333385
711.323741	59.248281
711.744550	59.172901
712.165334	59.089503
712.586092	59.011696
713.006823	58.925920
713.427529	58.847157
713.848209	58.759716
714.268863	58.688389
714.689492	58.600744
715.110094	58.517161
715.530670	58.442449
715.951220	58.366876
716.371744	58.288306
716.792242	58.225521
717.212714	58.177772
717.633159	58.134685
718.053579	58.104066
718.473973	58.086917
718.894340	58.078600
719.314681	58.083048
719.734996	58.111063
720.155285	58.133892
720.575547	58.173338
720.995784	58.232630
721.415994	58.302171
721.836177	58.391210
722.256335	58.488937
722.676466	58.603470
723.096570	58.728967
723.516649	58.872015
723.936701	59.031525
724.356726	59.208465
724.776725	59.386586
725.196698	59.579545
725.616644	59.772692
726.036564	59.977888
726.456457	60.177477
726.876324	60.396470
727.296164	60.602393
727.715977	60.821163
728.135764	61.044202
728.555525	61.251751
728.975258	61.465387
729.394966	61.673305
729.814646	61.872878
730.234300	62.056360
730.653927	62.221951
731.073527	62.375051
731.493101	62.500614
731.912648	62.610807
732.332168	62.717185
732.751661	62.810848
733.171128	62.891246
733.590568	62.951952
734.009980	63.000244
734.429366	63.026182
734.848726	63.038622
735.268058	63.037608
735.687363	63.031354
736.106641	63.009669
736.525893	62.984158
736.945117	62.953059
737.364314	62.904065
737.783485	62.841901
738.202628	62.788143
738.621744	62.722452
739.040834	62.653837
739.459896	62.583053
739.878931	62.498124
740.297939	62.421805
740.716919	62.342660
741.135873	62.245254
741.554799	62.158700
741.973698	62.072275
742.392570	61.994434
742.811415	61.906399
743.230232	61.833871
743.649022	61.777853
744.067785	61.722069
744.486521	61.671769
744.905229	61.638300
745.323909	61.601015
745.742563	61.569521
746.161189	61.557366
746.579787	61.556915
746.998358	61.572510
747.416902	61.612490
747.835418	61.656439
748.253907	61.719125
748.672368	61.786147
749.090802	61.868207
749.509208	61.939003
749.927586	62.006741
750.345937	62.085551
750.764261	62.171723
751.182556	62.240038
751.600824	62.318951
752.019065	62.394439
752.437277	62.465201
752.855462	62.531866
753.273620	62.599196
753.691749	62.647606
754.109851	62.709174
754.527925	62.756204
754.945971	62.781286
755.363989	62.790305
755.781980	62.802884
756.199943	62.799192
