Time1=100ms:Average1=5:Objective=10X:Aperture=1: (11/21/2018 11:14:23 AM)
11/21/2018 11:14:23 AM
Reflectance
10X
Ap#: 1
Avg1: 5.000000
Avg2: 0.000000
Int.Time1:100.000000

350.166136	81.277703
350.601937	81.375672
351.037728	81.392984
351.473509	81.694127
351.909281	81.328054
352.345042	80.941200
352.780794	80.834526
353.216536	81.020929
353.652267	80.450128
354.087989	80.371922
354.523701	80.210247
354.959403	80.077369
355.395095	79.720208
355.830777	79.777800
356.266449	80.071465
356.702110	79.639201
357.137762	79.610958
357.573404	79.696628
358.009035	79.625269
358.444656	79.303615
358.880268	79.732510
359.315869	79.659969
359.751459	79.541953
360.187040	79.824923
360.622610	79.768905
361.058170	79.703123
361.493720	79.834796
361.929260	79.830544
362.364789	79.025293
362.800308	79.149548
363.235816	79.390256
363.671314	79.827622
364.106802	79.848065
364.542279	79.758122
364.977746	79.356568
365.413203	79.884226
365.848649	79.361636
366.284084	79.039033
366.719509	78.353158
367.154924	78.570695
367.590328	78.339646
368.025721	78.388616
368.461104	78.427151
368.896477	78.455867
369.331838	78.122441
369.767189	77.188356
370.202530	77.228633
370.637859	76.617469
371.073178	76.086296
371.508486	76.069763
371.943784	76.063344
372.379071	75.841444
372.814347	76.141564
373.249612	75.951557
373.684866	75.436825
374.120110	75.614692
374.555343	75.316136
374.990565	75.203866
375.425776	75.123227
375.860976	75.211608
376.296165	74.720516
376.731343	74.536527
377.166511	74.351759
377.601667	73.986588
378.036812	73.706378
378.471946	74.043361
378.907070	73.968096
379.342182	74.263535
379.777283	74.206389
380.212373	74.143581
380.647452	73.882516
381.082520	73.794943
381.517576	73.693036
381.952622	73.957092
382.387656	73.959892
382.822679	74.324728
383.257691	74.527074
383.692692	74.551614
384.127681	74.977480
384.562659	75.079460
384.997626	75.277668
385.432581	74.871845
385.867525	74.731871
386.302458	74.899618
386.737379	75.146944
387.172289	75.063613
387.607188	74.611500
388.042075	74.815175
388.476951	75.017032
388.911815	74.965960
389.346668	75.245790
389.781509	75.192965
390.216338	75.036682
390.651157	75.000000
391.085963	75.117693
391.520758	75.210413
391.955541	75.242671
392.390313	74.822454
392.825073	75.252918
393.259821	75.574909
393.694558	75.835956
394.129283	75.764982
394.563996	76.094640
394.998698	76.699891
395.433388	76.813725
395.868066	76.916334
396.302732	76.646181
396.737386	76.724725
397.172029	76.773755
397.606659	76.731811
398.041278	76.573191
398.475885	76.184551
398.910480	76.085609
399.345063	75.612867
399.779634	74.741424
400.214194	73.558245
400.648741	72.734698
401.083276	71.576423
401.517799	70.103004
401.952310	67.940943
402.386809	65.856318
402.821296	63.300159
403.255771	61.188566
403.690234	58.946703
404.124684	56.570274
404.559123	53.628819
404.993549	50.809486
405.427963	47.841364
405.862365	45.103767
406.296754	42.293584
406.731131	39.862060
407.165496	37.626504
407.599849	35.419149
408.034190	33.468428
408.468518	31.524296
408.902833	29.588325
409.337137	28.040950
409.771428	26.558763
410.205706	25.136926
410.639973	23.897858
411.074226	22.821495
411.508467	21.759947
411.942696	20.825258
412.376912	20.101285
412.811116	19.364553
413.245307	18.755783
413.679486	18.159650
414.113652	17.586399
414.547805	17.080406
414.981946	16.595195
415.416074	16.222279
415.850190	15.929612
416.284293	15.632598
416.718383	15.321272
417.152460	15.009023
417.586525	14.694472
418.020577	14.468194
418.454616	14.296438
418.888643	14.149074
419.322656	14.014159
419.756657	13.899717
420.190645	13.772052
420.624620	13.675134
421.058582	13.577355
421.492531	13.501089
421.926468	13.445422
422.360391	13.458146
422.794301	13.408222
423.228199	13.417049
423.662083	13.446222
424.095955	13.445606
424.529813	13.449524
424.963658	13.516168
425.397491	13.603163
425.831310	13.627984
426.265116	13.703547
426.698909	13.749148
427.132689	13.813679
427.566455	13.930970
428.000209	14.007306
428.433949	14.115875
428.867676	14.240099
429.301389	14.321526
429.735090	14.420073
430.168777	14.536536
430.602451	14.659762
431.036111	14.761456
431.469759	14.907075
431.903392	15.042254
432.337013	15.175015
432.770620	15.283502
433.204213	15.438043
433.637794	15.573403
434.071360	15.702262
434.504914	15.842500
434.938453	15.981585
435.371979	16.124202
435.805492	16.254083
436.238991	16.407207
436.672477	16.559271
437.105949	16.704152
437.539407	16.846024
437.972852	16.970169
438.406283	17.089949
438.839700	17.185334
439.273104	17.318388
439.706494	17.437748
440.139871	17.546755
440.573233	17.671132
441.006582	17.769116
441.439917	17.870403
441.873238	17.953999
442.306546	18.033054
442.739839	18.132040
443.173119	18.229995
443.606385	18.325902
444.039636	18.424124
444.472874	18.541337
444.906099	18.620242
445.339309	18.702522
445.772505	18.798823
446.205687	18.912581
446.638855	18.982923
447.072009	19.055985
447.505149	19.138544
447.938275	19.204868
448.371387	19.255290
448.804485	19.298125
449.237569	19.344920
449.670638	19.362817
450.103694	19.384572
450.536735	19.399156
450.969762	19.425563
451.402774	19.452864
451.835773	19.471582
452.268757	19.488669
452.701727	19.493488
453.134683	19.499078
453.567624	19.509508
454.000551	19.519812
454.433464	19.524725
454.866362	19.531166
455.299246	19.559734
455.732116	19.549116
456.164971	19.534716
456.597811	19.529355
457.030638	19.522400
457.463449	19.495956
457.896246	19.480069
458.329029	19.471592
458.761797	19.462609
459.194551	19.439071
459.627290	19.402150
460.060014	19.382005
460.492724	19.362805
460.925419	19.317984
461.358099	19.294334
461.790765	19.262411
462.223416	19.230697
462.656052	19.174861
463.088674	19.145522
463.521281	19.093559
463.953873	19.054018
464.386450	19.012158
464.819012	18.981762
465.251560	18.949885
465.684093	18.925187
466.116611	18.900712
466.549114	18.882179
466.981602	18.864196
467.414075	18.833551
467.846533	18.800124
468.278977	18.783821
468.711405	18.744595
469.143818	18.719088
469.576216	18.687309
470.008600	18.646205
470.440968	18.596691
470.873321	18.545021
471.305659	18.493414
471.737982	18.434561
472.170289	18.364434
472.602582	18.301214
473.034859	18.227576
473.467122	18.155489
473.899369	18.101373
474.331600	18.054733
474.763817	17.998721
475.196018	17.947371
475.628204	17.895038
476.060375	17.848745
476.492530	17.795252
476.924670	17.740830
477.356795	17.678229
477.788904	17.605300
478.220998	17.536482
478.653076	17.472567
479.085139	17.403374
479.517186	17.329295
479.949219	17.242250
480.381235	17.161242
480.813236	17.076392
481.245221	16.992798
481.677191	16.897053
482.109146	16.791942
482.541084	16.686050
482.973008	16.585039
483.404915	16.476706
483.836807	16.369282
484.268683	16.256248
484.700544	16.137936
485.132388	16.020747
485.564217	15.902574
485.996031	15.775550
486.427828	15.659344
486.859610	15.538597
487.291376	15.402253
487.723126	15.268899
488.154860	15.138901
488.586579	15.014157
489.018281	14.894726
489.449968	14.774099
489.881639	14.660234
490.313293	14.551344
490.744932	14.447098
491.176555	14.340629
491.608162	14.230347
492.039753	14.114596
492.471328	13.999844
492.902886	13.890353
493.334429	13.784137
493.765956	13.680771
494.197466	13.583447
494.628960	13.487358
495.060439	13.403567
495.491901	13.326905
495.923347	13.260087
496.354776	13.196013
496.786190	13.137948
497.217587	13.077980
497.648968	13.045652
498.080332	13.003743
498.511681	12.971021
498.943013	12.945073
499.374328	12.927448
499.805628	12.923121
500.236911	12.922183
500.668177	12.936169
501.099427	12.956593
501.530661	12.978785
501.961878	13.004220
502.393079	13.037716
502.824264	13.078508
503.255431	13.112378
503.686583	13.159165
504.117717	13.217580
504.548835	13.290915
504.979937	13.364680
505.411022	13.441025
505.842090	13.516672
506.273142	13.592868
506.704177	13.682668
507.135195	13.770927
507.566197	13.867456
507.997182	13.961855
508.428150	14.056520
508.859102	14.149819
509.290036	14.244886
509.720954	14.342221
510.151855	14.429253
510.582739	14.537177
511.013607	14.623738
511.444457	14.716026
511.875291	14.805826
512.306107	14.896505
512.736907	14.994672
513.167690	15.081583
513.598456	15.179247
514.029205	15.273907
514.459936	15.368467
514.890651	15.469473
515.321349	15.564046
515.752030	15.652530
516.182693	15.741096
516.613340	15.834551
517.043969	15.914802
517.474582	15.986934
517.905177	16.050204
518.335755	16.113245
518.766315	16.171940
519.196859	16.218367
519.627385	16.260616
520.057894	16.294217
520.488386	16.324488
520.918860	16.339727
521.349318	16.365714
521.779757	16.380500
522.210180	16.396814
522.640585	16.411654
523.070973	16.417289
523.501343	16.428524
523.931696	16.423459
524.362031	16.422172
524.792349	16.416735
525.222650	16.413696
525.652933	16.408418
526.083198	16.390211
526.513446	16.375057
526.943677	16.358825
527.373890	16.345522
527.804085	16.328819
528.234262	16.311605
528.664422	16.310866
529.094565	16.312319
529.524689	16.321342
529.954796	16.339247
530.384885	16.365676
530.814957	16.402019
531.245011	16.456023
531.675047	16.532993
532.105065	16.623800
532.535065	16.743909
532.965048	16.886161
533.395013	17.051898
533.824959	17.243857
534.254888	17.470355
534.684799	17.737628
535.114693	18.034892
535.544568	18.354842
535.974425	18.702398
536.404264	19.083152
536.834086	19.499568
537.263889	19.950786
537.693674	20.443584
538.123441	20.974919
538.553190	21.533219
538.982921	22.122574
539.412634	22.756607
539.842329	23.436911
540.272006	24.150428
540.701664	24.892610
541.131304	25.683725
541.560926	26.512192
541.990530	27.366774
542.420116	28.268902
542.849683	29.192255
543.279232	30.156903
543.708763	31.156967
544.138275	32.179786
544.567769	33.228864
544.997245	34.299293
545.426702	35.406515
545.856141	36.554473
546.285562	37.721393
546.714964	38.892961
547.144347	40.095974
547.573713	41.339866
548.003059	42.585206
548.432387	43.832804
548.861697	45.105670
549.290988	46.394195
549.720260	47.684620
550.149514	48.981240
550.578750	50.275658
551.007966	51.568822
551.437164	52.858882
551.866344	54.146889
552.295504	55.423996
552.724646	56.694069
553.153769	57.951346
553.582874	59.189085
554.011960	60.408105
554.441027	61.608518
554.870075	62.774055
555.299104	63.904731
555.728115	64.980130
556.157106	66.051484
556.586079	67.071595
557.015033	68.062501
557.443968	69.013029
557.872884	69.931463
558.301781	70.816665
558.730659	71.677156
559.159518	72.483734
559.588358	73.273394
560.017180	74.058720
560.445982	74.822979
560.874765	75.534117
561.303528	76.224243
561.732273	76.910667
562.160999	77.571058
562.589705	78.195959
563.018393	78.795854
563.447061	79.385965
563.875710	79.958136
564.304340	80.506314
564.732950	81.042493
565.161542	81.563390
565.590114	82.090237
566.018666	82.603286
566.447200	83.098076
566.875714	83.585891
567.304208	84.095280
567.732684	84.588250
568.161140	85.072142
568.589576	85.561479
569.017993	86.045808
569.446391	86.522271
569.874769	86.984361
570.303128	87.438312
570.731467	87.887620
571.159787	88.311026
571.588087	88.733816
572.016368	89.126571
572.444629	89.520475
572.872870	89.905256
573.301092	90.252188
573.729294	90.573145
574.157476	90.886885
574.585639	91.178350
575.013782	91.450978
575.441906	91.709223
575.870009	91.960637
576.298093	92.206844
576.726157	92.443677
577.154202	92.651281
577.582226	92.885535
578.010231	93.077770
578.438216	93.292734
578.866181	93.484931
579.294126	93.680249
579.722051	93.865961
580.149957	94.066973
580.577842	94.258137
581.005707	94.441975
581.433553	94.630620
581.861378	94.823784
582.289184	95.020033
582.716969	95.202874
583.144734	95.383212
583.572479	95.560347
584.000205	95.741099
584.427910	95.938373
584.855594	96.111302
585.283259	96.272314
585.710904	96.435178
586.138528	96.570316
586.566132	96.717880
586.993716	96.856669
587.421280	96.990011
587.848823	97.122711
588.276346	97.236961
588.703849	97.332558
589.131332	97.410559
589.558794	97.479616
589.986236	97.518150
590.413657	97.574880
590.841058	97.584466
591.268438	97.612107
591.695799	97.598075
592.123138	97.577250
592.550458	97.538757
592.977756	97.521238
593.405034	97.479431
593.832292	97.433067
594.259529	97.371858
594.686746	97.321268
595.113942	97.269061
595.541117	97.207133
595.968272	97.153538
596.395406	97.121510
596.822519	97.089936
597.249612	97.078249
597.676684	97.056178
598.103735	97.046455
598.530766	97.067475
598.957775	97.089855
599.384764	97.122355
599.811733	97.167621
600.238680	97.235578
600.665606	97.314297
601.092512	97.399547
601.519397	97.506072
601.946261	97.621422
602.373104	97.740110
602.799926	97.875850
603.226727	98.017163
603.653507	98.152987
604.080266	98.299446
604.507004	98.460211
604.933721	98.614392
605.360417	98.786021
605.787092	98.942907
606.213746	99.072558
606.640379	99.203552
607.066991	99.302987
607.493581	99.410549
607.920150	99.505865
608.346699	99.576394
608.773226	99.626251
609.199731	99.668963
609.626216	99.673679
610.052679	99.673163
610.479121	99.627537
610.905542	99.572384
611.331941	99.513400
611.758319	99.421557
612.184676	99.318763
612.611011	99.210710
613.037325	99.088204
613.463617	98.933513
613.889888	98.764934
614.316138	98.585673
614.742366	98.400748
615.168573	98.202534
615.594758	97.991039
616.020921	97.780702
616.447063	97.571027
616.873184	97.347819
617.299283	97.130544
617.725360	96.909423
618.151416	96.703480
618.577450	96.464611
619.003462	96.237218
619.429453	96.030288
619.855422	95.820163
620.281369	95.630066
620.707295	95.450338
621.133199	95.259740
621.559081	95.074908
621.984941	94.916584
622.410779	94.745965
622.836596	94.582223
623.262391	94.421224
623.688163	94.271582
624.113914	94.135721
624.539644	93.985898
624.965351	93.841617
625.391036	93.694872
625.816699	93.537909
626.242340	93.369379
626.667960	93.192830
627.093557	93.005871
627.519132	92.804001
627.944685	92.581402
628.370216	92.347906
628.795725	92.125649
629.221212	91.869551
629.646677	91.596611
630.072119	91.317080
630.497540	91.010797
630.922938	90.682161
631.348314	90.330828
631.773668	89.980207
632.198999	89.612930
632.624308	89.233026
633.049595	88.832300
633.474860	88.418576
633.900102	87.976238
634.325322	87.527671
634.750520	87.072453
635.175695	86.592152
635.600848	86.101412
636.025978	85.621514
636.451086	85.111212
636.876171	84.594667
637.301234	84.038347
637.726275	83.487863
638.151293	82.910457
638.576288	82.306728
639.001261	81.698044
639.426211	81.079841
639.851139	80.424520
640.276044	79.746303
640.700927	79.061425
641.125787	78.349426
641.550624	77.618822
641.975438	76.848046
642.400230	76.061762
642.824999	75.245342
643.249745	74.399090
643.674469	73.530315
644.099169	72.625812
644.523847	71.699867
644.948502	70.758031
645.373135	69.782379
645.797744	68.768243
646.222330	67.739537
646.646894	66.682514
647.071435	65.605626
647.495953	64.507329
647.920447	63.372112
648.344919	62.229518
648.769368	61.053415
649.193794	59.851991
649.618197	58.630184
650.042576	57.387366
650.466933	56.140159
650.891267	54.856443
651.315577	53.561291
651.739864	52.251269
652.164129	50.921170
652.588370	49.569798
653.012587	48.213379
653.436782	46.851402
653.860953	45.477001
654.285102	44.091943
654.709226	42.709167
655.133328	41.335646
655.557406	39.968118
655.981461	38.618236
656.405493	37.294498
656.829501	36.000885
657.253486	34.748283
657.677448	33.540103
658.101386	32.372860
658.525301	31.263520
658.949192	30.218091
659.373060	29.230545
659.796904	28.304834
660.220725	27.445255
660.644522	26.652578
661.068296	25.939838
661.492046	25.297616
661.915772	24.735029
662.339475	24.241804
662.763154	23.830555
663.186810	23.487039
663.610442	23.222111
664.034050	23.032420
664.457635	22.916830
664.881196	22.877630
665.304733	22.912665
665.728247	23.017698
666.151736	23.196641
666.575202	23.443776
666.998644	23.758528
667.422062	24.141587
667.845457	24.585165
668.268827	25.086049
668.692174	25.646305
669.115496	26.265099
669.538795	26.942739
669.962070	27.671144
670.385321	28.452083
670.808547	29.280104
671.231750	30.148742
671.654929	31.055224
672.078084	31.990302
672.501214	32.961738
672.924321	33.969231
673.347404	34.999205
673.770462	36.042150
674.193496	37.094773
674.616506	38.150398
675.039492	39.209017
675.462454	40.255140
675.885391	41.292531
676.308305	42.318559
676.731194	43.324169
677.154058	44.308575
677.576899	45.262025
677.999715	46.182629
678.422507	47.076814
678.845274	47.930088
679.268017	48.759125
679.690736	49.536663
680.113430	50.277764
680.536100	50.986270
680.958746	51.655712
681.381367	52.295787
681.803963	52.902484
682.226535	53.476906
682.649083	54.027044
683.071605	54.553372
683.494104	55.051909
683.916578	55.515478
684.339027	55.960872
684.761451	56.377089
685.183851	56.768344
685.606227	57.148361
686.028577	57.503750
686.450903	57.838452
686.873204	58.159723
687.295481	58.464529
687.717733	58.749673
688.139959	59.014205
688.562162	59.262384
688.984339	59.500977
689.406492	59.726277
689.828619	59.949052
690.250722	60.147449
690.672800	60.365240
691.094853	60.579258
691.516881	60.775243
691.938884	60.984683
692.360863	61.190321
692.782816	61.407058
693.204744	61.619609
693.626647	61.834890
694.048526	62.054262
694.470379	62.280658
694.892207	62.504470
695.314010	62.747052
695.735788	62.986169
696.157540	63.236222
696.579268	63.494473
697.000970	63.761567
697.422648	64.025269
697.844300	64.296939
698.265926	64.579697
698.687528	64.859272
699.109104	65.154058
699.530655	65.448196
699.952181	65.752919
700.373681	66.057704
700.795156	66.377212
701.216606	66.704992
701.638030	67.053131
702.059429	67.395732
702.480803	67.748306
702.902151	68.091924
703.323473	68.468230
703.744770	68.819039
704.166042	69.180573
704.587288	69.558003
705.008509	69.933128
705.429704	70.307313
705.850873	70.689191
706.272017	71.068619
706.693135	71.447525
707.114228	71.822303
707.535295	72.196982
707.956336	72.587509
708.377352	72.948217
708.798342	73.304520
709.219306	73.652672
709.640245	73.998750
710.061157	74.339539
710.482044	74.669604
710.902905	74.998976
711.323741	75.322263
711.744550	75.648488
712.165334	75.970460
712.586092	76.288089
713.006823	76.599278
713.427529	76.911544
713.848209	77.217708
714.268863	77.527418
714.689492	77.827060
715.110094	78.136441
715.530670	78.452026
715.951220	78.764044
716.371744	79.067126
716.792242	79.391869
717.212714	79.711596
717.633159	80.034010
718.053579	80.372458
718.473973	80.704674
718.894340	81.040090
719.314681	81.385532
719.734996	81.736668
720.155285	82.100998
720.575547	82.448232
720.995784	82.787472
721.415994	83.154544
721.836177	83.523301
722.256335	83.887621
722.676466	84.252891
723.096570	84.623623
723.516649	84.996516
723.936701	85.359783
724.356726	85.707871
724.776725	86.052047
725.196698	86.392321
725.616644	86.734242
726.036564	87.058407
726.456457	87.381726
726.876324	87.702031
727.296164	88.002672
727.715977	88.301289
728.135764	88.589295
728.555525	88.864531
728.975258	89.138756
729.394966	89.410795
729.814646	89.668876
730.234300	89.903437
730.653927	90.139616
731.073527	90.360254
731.493101	90.581210
731.912648	90.789657
732.332168	90.998100
732.751661	91.196024
733.171128	91.390359
733.590568	91.590290
734.009980	91.791119
734.429366	91.970668
734.848726	92.155680
735.268058	92.330943
735.687363	92.496719
736.106641	92.658022
736.525893	92.806028
736.945117	92.963630
737.364314	93.127102
737.783485	93.283812
738.202628	93.437786
738.621744	93.588500
739.040834	93.746979
739.459896	93.911108
739.878931	94.054337
740.297939	94.218526
740.716919	94.393333
741.135873	94.562073
741.554799	94.726907
741.973698	94.908333
742.392570	95.093843
742.811415	95.299128
743.230232	95.519908
743.649022	95.735501
744.067785	95.946007
744.486521	96.155759
744.905229	96.372672
745.323909	96.583528
745.742563	96.816130
746.161189	97.042214
746.579787	97.277276
746.998358	97.509607
747.416902	97.741956
747.835418	97.958257
748.253907	98.193660
748.672368	98.426440
749.090802	98.664576
749.509208	98.913146
749.927586	99.142236
750.345937	99.370333
750.764261	99.604815
751.182556	99.806482
751.600824	100.022741
752.019065	100.217293
752.437277	100.397432
752.855462	100.593410
753.273620	100.759682
753.691749	100.908490
