Time1=100ms:Average1=5:Objective=10X:Aperture=1: (11/21/2018 11:46:14 AM)
11/21/2018 11:46:14 AM
Reflectance
10X
Ap#: 1
Avg1: 5.000000
Avg2: 0.000000
Int.Time1:100.000000

350.166136	96.107150
350.601937	96.525980
351.037728	96.888663
351.473509	96.603659
351.909281	96.710326
352.345042	97.019192
352.780794	97.351197
353.216536	97.355794
353.652267	96.818414
354.087989	96.372739
354.523701	96.203307
354.959403	95.856663
355.395095	96.334116
355.830777	96.086026
356.266449	96.702399
356.702110	96.290666
357.137762	96.374376
357.573404	96.074613
358.009035	95.658851
358.444656	96.035333
358.880268	95.956790
359.315869	96.053581
359.751459	95.850878
360.187040	96.323378
360.622610	96.213763
361.058170	96.165344
361.493720	96.427465
361.929260	96.652201
362.364789	96.679005
362.800308	96.343468
363.235816	96.580492
363.671314	96.603735
364.106802	96.776512
364.542279	96.812545
364.977746	97.081873
365.413203	97.281373
365.848649	96.487966
366.284084	96.434792
366.719509	96.195652
367.154924	96.529418
367.590328	96.447948
368.025721	96.416871
368.461104	96.759971
368.896477	96.416138
369.331838	96.693284
369.767189	95.679075
370.202530	95.588686
370.637859	94.773554
371.073178	95.644688
371.508486	95.680389
371.943784	95.614658
372.379071	95.884023
372.814347	95.708329
373.249612	95.583147
373.684866	95.414605
374.120110	95.851462
374.555343	95.791603
374.990565	95.862277
375.425776	95.895785
375.860976	96.080210
376.296165	95.538322
376.731343	95.169857
377.166511	94.994975
377.601667	94.845361
378.036812	94.484557
378.471946	94.444999
378.907070	94.476570
379.342182	94.645701
379.777283	94.606429
380.212373	94.508986
380.647452	94.185127
381.082520	94.053734
381.517576	94.111265
381.952622	94.586810
382.387656	95.560212
382.822679	95.604505
383.257691	96.376739
383.692692	96.442806
384.127681	96.576919
384.562659	95.758840
384.997626	95.854820
385.432581	95.317429
385.867525	95.326183
386.302458	95.730095
386.737379	96.277429
387.172289	95.772167
387.607188	95.396270
388.042075	95.291829
388.476951	94.676399
388.911815	94.485509
389.346668	94.801908
389.781509	95.163654
390.216338	95.431869
390.651157	95.646232
391.085963	95.978815
391.520758	95.948326
391.955541	96.225120
392.390313	95.252456
392.825073	95.291829
393.259821	95.567081
393.694558	95.879229
394.129283	95.982012
394.563996	96.554094
394.998698	96.842001
395.433388	96.475490
395.868066	95.670595
396.302732	95.761389
396.737386	95.966722
397.172029	95.908959
397.606659	95.854296
398.041278	95.735762
398.475885	95.371877
398.910480	95.328662
399.345063	95.030939
399.779634	94.271540
400.214194	92.525429
400.648741	91.705613
401.083276	90.094612
401.517799	88.199802
401.952310	86.323142
402.386809	83.846868
402.821296	80.939473
403.255771	78.092526
403.690234	75.188842
404.124684	71.718176
404.559123	67.768004
404.993549	64.522622
405.427963	61.016534
405.862365	58.203572
406.296754	55.183757
406.731131	52.270081
407.165496	49.650777
407.599849	47.236247
408.034190	44.958507
408.468518	42.808469
408.902833	40.818842
409.337137	39.075145
409.771428	37.374116
410.205706	35.652393
410.639973	34.328242
411.074226	33.126771
411.508467	32.056250
411.942696	31.115964
412.376912	30.217797
412.811116	29.455055
413.245307	28.760183
413.679486	28.222047
414.113652	27.677445
414.547805	27.103908
414.981946	26.633692
415.416074	26.173022
415.850190	25.798185
416.284293	25.446466
416.718383	25.100679
417.152460	24.744682
417.586525	24.468056
418.020577	24.310606
418.454616	24.164904
418.888643	23.991085
419.322656	23.790815
419.756657	23.653032
420.190645	23.531109
420.624620	23.444007
421.058582	23.327349
421.492531	23.218270
421.926468	23.111114
422.360391	23.042457
422.794301	22.949116
423.228199	22.907510
423.662083	22.875817
424.095955	22.813073
424.529813	22.773847
424.963658	22.752391
425.397491	22.717261
425.831310	22.686488
426.265116	22.653250
426.698909	22.608571
427.132689	22.566180
427.566455	22.548390
428.000209	22.533323
428.433949	22.530786
428.867676	22.531165
429.301389	22.516132
429.735090	22.484847
430.168777	22.473909
430.602451	22.464234
431.036111	22.441618
431.469759	22.430773
431.903392	22.365296
432.337013	22.327890
432.770620	22.277820
433.204213	22.253655
433.637794	22.226234
434.071360	22.167002
434.504914	22.128893
434.938453	22.117877
435.371979	22.092641
435.805492	22.053206
436.238991	22.022935
436.672477	21.997994
437.105949	21.977871
437.539407	21.950381
437.972852	21.917561
438.406283	21.871475
438.839700	21.820589
439.273104	21.761743
439.706494	21.695380
440.139871	21.638270
440.573233	21.593405
441.006582	21.541963
441.439917	21.476143
441.873238	21.403623
442.306546	21.335668
442.739839	21.279665
443.173119	21.228337
443.606385	21.179595
444.039636	21.121866
444.472874	21.074393
444.906099	20.997097
445.339309	20.961995
445.772505	20.919264
446.205687	20.886978
446.638855	20.833669
447.072009	20.758379
447.505149	20.705447
447.938275	20.652033
448.371387	20.588008
448.804485	20.534616
449.237569	20.467780
449.670638	20.388685
450.103694	20.294601
450.536735	20.216616
450.969762	20.145966
451.402774	20.066891
451.835773	19.981977
452.268757	19.918013
452.701727	19.852573
453.134683	19.808666
453.567624	19.738679
454.000551	19.677442
454.433464	19.625471
454.866362	19.581433
455.299246	19.554188
455.732116	19.518192
456.164971	19.480936
456.597811	19.432188
457.030638	19.397855
457.463449	19.352178
457.896246	19.311633
458.329029	19.276990
458.761797	19.229713
459.194551	19.166920
459.627290	19.117269
460.060014	19.057253
460.492724	18.997745
460.925419	18.932904
461.358099	18.882116
461.790765	18.813978
462.223416	18.751615
462.656052	18.705627
463.088674	18.682190
463.521281	18.634288
463.953873	18.579899
464.386450	18.540035
464.819012	18.509252
465.251560	18.489858
465.684093	18.467549
466.116611	18.470574
466.549114	18.450319
466.981602	18.468819
467.414075	18.480888
467.846533	18.464925
468.278977	18.485518
468.711405	18.482891
469.143818	18.489233
469.576216	18.510716
470.008600	18.532741
470.440968	18.551194
470.873321	18.580263
471.305659	18.603984
471.737982	18.643859
472.170289	18.670859
472.602582	18.723523
473.034859	18.760859
473.467122	18.812002
473.899369	18.874361
474.331600	18.935665
474.763817	18.994098
475.196018	19.061530
475.628204	19.125054
476.060375	19.175382
476.492530	19.208037
476.924670	19.261877
477.356795	19.308806
477.788904	19.357596
478.220998	19.407568
478.653076	19.451514
479.085139	19.505066
479.517186	19.540394
479.949219	19.571452
480.381235	19.587778
480.813236	19.604349
481.245221	19.633394
481.677191	19.635083
482.109146	19.629176
482.541084	19.613692
482.973008	19.585267
483.404915	19.558545
483.836807	19.526204
484.268683	19.481333
484.700544	19.432061
485.132388	19.391947
485.564217	19.352337
485.996031	19.290931
486.427828	19.232915
486.859610	19.165709
487.291376	19.082751
487.723126	19.006891
488.154860	18.921711
488.586579	18.832579
489.018281	18.748733
489.449968	18.671733
489.881639	18.605440
490.313293	18.535553
490.744932	18.478825
491.176555	18.405913
491.608162	18.338298
492.039753	18.255053
492.471328	18.151245
492.902886	18.043366
493.334429	17.939482
493.765956	17.825699
494.197466	17.708599
494.628960	17.589122
495.060439	17.477120
495.491901	17.371566
495.923347	17.276480
496.354776	17.180251
496.786190	17.096057
497.217587	17.024374
497.648968	16.965752
498.080332	16.914692
498.511681	16.861563
498.943013	16.814693
499.374328	16.793129
499.805628	16.773371
500.236911	16.770472
500.668177	16.782835
501.099427	16.806658
501.530661	16.858061
501.961878	16.919857
502.393079	16.995128
502.824264	17.097630
503.255431	17.219626
503.686583	17.357739
504.117717	17.515836
504.548835	17.708933
504.979937	17.912569
505.411022	18.145109
505.842090	18.407209
506.273142	18.697781
506.704177	19.025510
507.135195	19.375869
507.566197	19.763237
507.997182	20.183197
508.428150	20.632996
508.859102	21.113723
509.290036	21.630085
509.720954	22.179901
510.151855	22.742091
510.582739	23.338086
511.013607	23.949791
511.444457	24.585507
511.875291	25.240576
512.306107	25.929147
512.736907	26.629552
513.167690	27.364158
513.598456	28.119202
514.029205	28.913913
514.459936	29.728841
514.890651	30.563389
515.321349	31.436432
515.752030	32.326938
516.182693	33.234076
516.613340	34.152727
517.043969	35.097306
517.474582	36.046264
517.905177	36.989743
518.335755	37.931524
518.766315	38.885282
519.196859	39.836717
519.627385	40.778781
520.057894	41.705368
520.488386	42.630269
520.918860	43.551832
521.349318	44.468446
521.779757	45.386521
522.210180	46.300990
522.640585	47.198520
523.070973	48.093189
523.501343	48.987006
523.931696	49.859045
524.362031	50.732887
524.792349	51.611145
525.222650	52.490536
525.652933	53.368974
526.083198	54.233022
526.513446	55.072153
526.943677	55.917879
527.373890	56.758767
527.804085	57.591629
528.234262	58.414062
528.664422	59.241878
529.094565	60.070401
529.524689	60.875092
529.954796	61.679392
530.384885	62.474656
530.814957	63.247686
531.245011	64.029837
531.675047	64.802589
532.105065	65.563904
532.535065	66.331569
532.965048	67.088072
533.395013	67.821912
533.824959	68.551568
534.254888	69.268338
534.684799	69.988199
535.114693	70.698813
535.544568	71.394651
535.974425	72.083278
536.404264	72.736862
536.834086	73.375569
537.263889	74.018612
537.693674	74.628873
538.123441	75.214641
538.553190	75.771926
538.982921	76.308822
539.412634	76.831514
539.842329	77.367269
540.272006	77.857979
540.701664	78.312521
541.131304	78.772467
541.560926	79.199987
541.990530	79.609181
542.420116	79.993167
542.849683	80.371692
543.279232	80.746717
543.708763	81.089526
544.138275	81.431368
544.567769	81.744639
544.997245	82.072402
545.426702	82.386412
545.856141	82.695009
546.285562	83.008464
546.714964	83.323838
547.144347	83.638453
547.573713	83.962741
548.003059	84.274229
548.432387	84.591236
548.861697	84.922167
549.290988	85.243297
549.720260	85.574622
550.149514	85.904191
550.578750	86.225297
551.007966	86.546182
551.437164	86.865651
551.866344	87.186267
552.295504	87.478210
552.724646	87.799403
553.153769	88.095507
553.582874	88.408358
554.011960	88.711741
554.441027	88.993585
554.870075	89.277351
555.299104	89.544240
555.728115	89.781065
556.157106	90.030855
556.586079	90.243028
557.015033	90.450068
557.443968	90.646032
557.872884	90.829043
558.301781	90.986004
558.730659	91.165616
559.159518	91.313405
559.588358	91.468319
560.017180	91.607382
560.445982	91.735066
560.874765	91.845319
561.303528	91.958902
561.732273	92.079589
562.160999	92.176057
562.589705	92.284450
563.018393	92.388679
563.447061	92.501328
563.875710	92.614321
564.304340	92.735043
564.732950	92.856758
565.161542	92.974174
565.590114	93.105621
566.018666	93.227849
566.447200	93.350386
566.875714	93.467182
567.304208	93.599383
567.732684	93.710762
568.161140	93.837442
568.589576	93.954077
569.017993	94.082711
569.446391	94.195606
569.874769	94.307777
570.303128	94.404328
570.731467	94.507343
571.159787	94.590474
571.588087	94.672712
572.016368	94.716798
572.444629	94.755967
572.872870	94.775773
573.301092	94.795553
573.729294	94.800699
574.157476	94.793621
574.585639	94.786970
575.013782	94.755377
575.441906	94.726544
575.870009	94.698839
576.298093	94.666578
576.726157	94.643972
577.154202	94.602973
577.582226	94.573760
578.010231	94.527757
578.438216	94.504744
578.866181	94.475102
579.294126	94.457596
579.722051	94.445719
580.149957	94.457325
580.577842	94.465539
581.005707	94.477706
581.433553	94.497491
581.861378	94.539408
582.289184	94.588372
582.716969	94.637212
583.144734	94.679966
583.572479	94.741439
584.000205	94.811164
584.427910	94.892753
584.855594	94.954157
585.283259	95.020100
585.710904	95.112411
586.138528	95.182126
586.566132	95.247214
586.993716	95.315705
587.421280	95.380544
587.848823	95.428671
588.276346	95.479029
588.703849	95.504796
589.131332	95.518895
589.558794	95.527549
589.986236	95.484691
590.413657	95.446155
590.841058	95.394142
591.268438	95.338529
591.695799	95.252849
592.123138	95.154927
592.550458	95.027228
592.977756	94.905168
593.405034	94.750082
593.832292	94.583749
594.259529	94.414964
594.686746	94.225460
595.113942	94.028583
595.541117	93.819541
595.968272	93.594784
596.395406	93.392933
596.822519	93.193906
597.249612	92.987550
597.676684	92.779201
598.103735	92.580599
598.530766	92.392967
598.957775	92.205913
599.384764	92.031482
599.811733	91.845304
600.238680	91.680381
600.665606	91.514920
601.092512	91.363390
601.519397	91.214880
601.946261	91.071303
602.373104	90.917643
602.799926	90.772822
603.226727	90.649320
603.653507	90.512799
604.080266	90.361169
604.507004	90.216819
604.933721	90.054830
605.360417	89.902678
605.787092	89.738124
606.213746	89.552065
606.640379	89.367398
607.066991	89.159324
607.493581	88.952343
607.920150	88.739027
608.346699	88.511132
608.773226	88.277817
609.199731	88.051338
609.626216	87.812777
610.052679	87.550778
610.479121	87.275989
610.905542	86.997056
611.331941	86.735924
611.758319	86.444828
612.184676	86.135835
612.611011	85.829165
613.037325	85.516883
613.463617	85.180918
613.889888	84.842958
614.316138	84.474561
614.742366	84.093614
615.168573	83.719487
615.594758	83.329438
616.020921	82.927864
616.447063	82.522281
616.873184	82.113819
617.299283	81.701159
617.725360	81.277855
618.151416	80.877219
618.577450	80.453098
619.003462	80.033022
619.429453	79.622267
619.855422	79.203735
620.281369	78.805984
620.707295	78.412423
621.133199	78.002655
621.559081	77.573192
621.984941	77.141949
622.410779	76.692421
622.836596	76.232078
623.262391	75.772212
623.688163	75.291878
624.113914	74.802516
624.539644	74.274269
624.965351	73.730994
625.391036	73.162136
625.816699	72.556391
626.242340	71.934787
626.667960	71.267784
627.093557	70.567668
627.519132	69.864911
627.944685	69.115116
628.370216	68.327350
628.795725	67.525818
629.221212	66.686195
629.646677	65.817178
630.072119	64.930676
630.497540	64.029198
630.922938	63.110033
631.348314	62.165409
631.773668	61.229227
632.198999	60.290221
632.624308	59.341814
633.049595	58.402733
633.474860	57.467658
633.900102	56.525254
634.325322	55.602148
634.750520	54.697914
635.175695	53.790969
635.600848	52.899665
636.025978	52.014171
636.451086	51.129118
636.876171	50.253024
637.301234	49.373883
637.726275	48.503770
638.151293	47.640349
638.576288	46.774871
639.001261	45.930060
639.426211	45.099576
639.851139	44.272335
640.276044	43.460098
640.700927	42.657106
641.125787	41.878740
641.550624	41.134650
641.975438	40.404123
642.400230	39.700283
642.824999	39.030085
643.249745	38.390188
643.674469	37.780999
644.099169	37.208191
644.523847	36.666027
644.948502	36.151875
645.373135	35.663997
645.797744	35.211502
646.222330	34.782169
646.646894	34.373954
647.071435	33.997007
647.495953	33.650181
647.920447	33.327520
648.344919	33.050661
648.769368	32.796991
649.193794	32.575838
649.618197	32.399385
650.042576	32.267704
650.466933	32.180168
650.891267	32.137499
651.315577	32.143307
651.739864	32.204401
652.164129	32.311171
652.588370	32.455082
653.012587	32.661072
653.436782	32.916566
653.860953	33.205630
654.285102	33.536836
654.709226	33.896963
655.133328	34.301697
655.557406	34.733589
655.981461	35.198430
656.405493	35.686046
656.829501	36.194503
657.253486	36.719037
657.677448	37.257971
658.101386	37.811481
658.525301	38.380164
658.949192	38.959869
659.373060	39.554693
659.796904	40.165493
660.220725	40.793366
660.644522	41.422987
661.068296	42.079189
661.492046	42.748371
661.915772	43.434235
662.339475	44.131160
662.763154	44.839297
663.186810	45.547581
663.610442	46.263776
664.034050	46.986615
664.457635	47.713881
664.881196	48.430723
665.304733	49.159587
665.728247	49.881228
666.151736	50.596185
666.575202	51.300408
666.998644	52.014136
667.422062	52.723903
667.845457	53.427940
668.268827	54.121719
668.692174	54.816497
669.115496	55.490028
669.538795	56.165639
669.962070	56.834302
670.385321	57.504202
670.808547	58.168536
671.231750	58.831696
671.654929	59.487754
672.078084	60.141213
672.501214	60.780842
672.924321	61.411902
673.347404	62.048864
673.770462	62.672597
674.193496	63.280680
674.616506	63.863598
675.039492	64.433959
675.462454	64.988971
675.885391	65.512999
676.308305	66.013480
676.731194	66.501972
677.154058	66.966251
677.576899	67.398563
677.999715	67.821130
678.422507	68.210172
678.845274	68.581278
679.268017	68.940322
679.690736	69.285308
680.113430	69.596913
680.536100	69.901022
680.958746	70.190842
681.381367	70.484589
681.803963	70.756306
682.226535	71.047578
682.649083	71.332622
683.071605	71.621153
683.494104	71.899772
683.916578	72.184987
684.339027	72.466294
684.761451	72.752451
685.183851	73.034612
685.606227	73.333743
686.028577	73.645509
686.450903	73.950773
686.873204	74.266133
687.295481	74.602039
687.717733	74.950165
688.139959	75.300233
688.562162	75.651252
688.984339	76.015752
689.406492	76.391281
689.828619	76.774669
690.250722	77.152225
690.672800	77.561876
691.094853	77.976215
691.516881	78.378318
691.938884	78.795426
692.360863	79.197993
692.782816	79.609412
693.204744	80.028025
693.626647	80.435418
694.048526	80.844023
694.470379	81.241012
694.892207	81.639718
695.314010	82.022515
695.735788	82.409409
696.157540	82.786864
696.579268	83.171803
697.000970	83.552619
697.422648	83.930740
697.844300	84.297418
698.265926	84.664011
698.687528	85.002197
699.109104	85.335159
699.530655	85.644676
699.952181	85.944002
700.373681	86.212210
700.795156	86.485403
701.216606	86.737376
701.638030	86.972909
702.059429	87.190802
702.480803	87.394878
702.902151	87.560163
703.323473	87.728053
703.744770	87.847952
704.166042	87.957676
704.587288	88.066710
705.008509	88.159652
705.429704	88.244371
705.850873	88.304005
706.272017	88.347418
706.693135	88.390585
707.114228	88.428624
707.535295	88.458790
707.956336	88.483593
708.377352	88.503132
708.798342	88.508102
709.219306	88.514953
709.640245	88.527857
710.061157	88.535584
710.482044	88.531119
710.902905	88.542802
711.323741	88.549329
711.744550	88.577557
712.165334	88.614403
712.586092	88.661960
713.006823	88.716363
713.427529	88.779842
713.848209	88.828690
714.268863	88.887950
714.689492	88.953439
715.110094	89.029058
715.530670	89.114592
715.951220	89.213419
716.371744	89.310963
716.792242	89.428448
717.212714	89.545774
717.633159	89.664721
718.053579	89.797991
718.473973	89.946043
718.894340	90.109799
719.314681	90.283793
719.734996	90.462927
720.155285	90.639263
720.575547	90.810240
720.995784	91.000851
721.415994	91.192608
721.836177	91.390362
722.256335	91.600776
722.676466	91.789054
723.096570	91.985326
723.516649	92.177194
723.936701	92.350101
724.356726	92.512776
724.776725	92.665149
725.196698	92.793534
725.616644	92.918553
726.036564	93.028647
726.456457	93.114767
726.876324	93.196006
727.296164	93.246723
727.715977	93.295120
728.135764	93.321448
728.555525	93.336570
728.975258	93.322296
729.394966	93.301364
729.814646	93.263582
730.234300	93.201266
730.653927	93.133835
731.073527	93.050493
731.493101	92.962491
731.912648	92.861864
732.332168	92.748509
732.751661	92.629641
733.171128	92.516528
733.590568	92.395041
734.009980	92.280353
734.429366	92.165144
734.848726	92.038613
735.268058	91.899694
735.687363	91.769551
736.106641	91.623098
736.525893	91.484391
736.945117	91.348699
737.364314	91.212835
737.783485	91.079513
738.202628	90.957995
738.621744	90.842254
739.040834	90.727507
739.459896	90.635837
739.878931	90.534550
740.297939	90.467811
740.716919	90.422664
741.135873	90.392858
741.554799	90.368924
741.973698	90.393439
742.392570	90.435263
742.811415	90.515051
743.230232	90.638538
743.649022	90.793341
744.067785	90.952529
744.486521	91.138711
744.905229	91.353007
745.323909	91.601102
745.742563	91.867437
746.161189	92.156898
746.579787	92.468816
746.998358	92.780921
747.416902	93.106548
747.835418	93.447902
748.253907	93.807396
748.672368	94.183705
749.090802	94.571631
749.509208	94.967671
749.927586	95.359534
750.345937	95.761211
750.764261	96.177940
751.182556	96.572190
751.600824	96.971811
752.019065	97.362748
752.437277	97.747623
752.855462	98.165977
753.273620	98.566864
753.691749	98.951744
754.109851	99.330398
