Time1=100ms:Average1=5:Objective=10X:Aperture=1: (11/21/2018 11:48:18 AM)
11/21/2018 11:48:18 AM
Reflectance
10X
Ap#: 1
Avg1: 5.000000
Avg2: 0.000000
Int.Time1:100.000000

350.166136	93.611486
350.601937	94.176787
351.037728	94.448399
351.473509	94.309107
351.909281	93.979084
352.345042	93.926092
352.780794	93.925138
353.216536	94.129658
353.652267	93.964194
354.087989	93.869419
354.523701	94.019188
354.959403	93.779904
355.395095	94.118248
355.830777	94.363470
356.266449	95.089331
356.702110	94.902199
357.137762	95.192993
357.573404	95.111202
358.009035	94.522371
358.444656	94.854150
358.880268	95.010288
359.315869	95.033488
359.751459	94.854678
360.187040	95.005149
360.622610	95.182090
361.058170	95.350995
361.493720	95.818276
361.929260	96.073569
362.364789	95.280691
362.800308	94.802794
363.235816	95.148831
363.671314	95.464806
364.106802	95.493276
364.542279	95.603157
364.977746	96.195092
365.413203	96.650817
365.848649	96.364012
366.284084	96.055732
366.719509	95.652174
367.154924	96.488346
367.590328	96.151090
368.025721	95.618346
368.461104	95.724392
368.896477	95.668646
369.331838	95.126945
369.767189	94.137336
370.202530	94.179516
370.637859	93.580671
371.073178	94.084878
371.508486	94.402758
371.943784	94.599533
372.379071	94.809408
372.814347	95.026950
373.249612	95.399959
373.684866	94.697505
374.120110	94.910452
374.555343	94.658574
374.990565	94.684385
375.425776	94.356705
375.860976	94.760177
376.296165	95.054890
376.731343	94.708889
377.166511	94.211055
377.601667	93.604244
378.036812	93.541917
378.471946	93.405935
378.907070	93.619143
379.342182	93.819666
379.777283	94.069062
380.212373	93.933075
380.647452	93.601661
381.082520	93.500593
381.517576	93.775893
381.952622	94.427890
382.387656	94.841864
382.822679	95.365295
383.257691	95.786208
383.692692	95.546034
384.127681	95.976379
384.562659	95.530393
384.997626	95.398651
385.432581	94.449921
385.867525	94.598052
386.302458	94.701792
386.737379	94.641458
387.172289	94.627129
387.607188	93.997669
388.042075	94.319066
388.476951	94.277372
388.911815	94.446606
389.346668	94.743502
389.781509	94.704446
390.216338	94.619975
390.651157	95.041000
391.085963	96.086701
391.520758	95.801527
391.955541	96.068242
392.390313	95.320556
392.825073	95.583658
393.259821	95.400724
393.694558	95.810386
394.129283	95.199922
394.563996	96.014137
394.998698	96.338695
395.433388	95.691176
395.868066	94.891400
396.302732	94.727344
396.737386	94.672570
397.172029	94.404542
397.606659	93.909636
398.041278	93.712056
398.475885	93.400019
398.910480	93.436293
399.345063	92.683388
399.779634	91.823841
400.214194	90.578543
400.648741	89.504968
401.083276	87.807045
401.517799	85.738913
401.952310	83.274081
402.386809	80.652587
402.821296	77.582001
403.255771	74.686587
403.690234	72.149809
404.124684	68.925768
404.559123	65.104280
404.993549	61.882676
405.427963	58.404380
405.862365	55.457617
406.296754	52.346357
406.731131	49.741911
407.165496	47.221487
407.599849	44.984021
408.034190	42.865414
408.468518	40.850166
408.902833	38.989674
409.337137	37.366112
409.771428	35.707729
410.205706	34.100361
410.639973	32.849806
411.074226	31.803320
411.508467	30.759743
411.942696	29.886720
412.376912	29.148488
412.811116	28.546813
413.245307	28.088166
413.679486	27.684143
414.113652	27.296164
414.547805	26.893292
414.981946	26.558160
415.416074	26.268992
415.850190	26.035744
416.284293	25.825857
416.718383	25.672697
417.152460	25.471282
417.586525	25.368375
418.020577	25.380684
418.454616	25.416269
418.888643	25.458299
419.322656	25.455974
419.756657	25.435204
420.190645	25.412917
420.624620	25.363864
421.058582	25.329748
421.492531	25.325967
421.926468	25.404015
422.360391	25.553088
422.794301	25.685690
423.228199	25.883241
423.662083	26.137296
424.095955	26.402114
424.529813	26.638497
424.963658	26.898067
425.397491	27.103536
425.831310	27.299126
426.265116	27.446278
426.698909	27.566977
427.132689	27.745493
427.566455	27.971558
428.000209	28.251176
428.433949	28.542120
428.867676	28.846598
429.301389	29.121675
429.735090	29.390911
430.168777	29.613131
430.602451	29.820050
431.036111	29.962140
431.469759	30.081918
431.903392	30.168468
432.337013	30.246299
432.770620	30.363584
433.204213	30.540879
433.637794	30.749604
434.071360	30.999573
434.504914	31.307769
434.938453	31.645802
435.371979	31.961005
435.805492	32.260502
436.238991	32.567967
436.672477	32.849810
437.105949	33.075823
437.539407	33.242043
437.972852	33.417977
438.406283	33.583124
438.839700	33.797640
439.273104	33.997146
439.706494	34.263993
440.139871	34.546423
440.573233	34.840498
441.006582	35.112622
441.439917	35.326727
441.873238	35.509133
442.306546	35.646575
442.739839	35.753043
443.173119	35.829612
443.606385	35.899389
444.039636	35.943259
444.472874	36.056608
444.906099	36.187645
445.339309	36.356658
445.772505	36.555991
446.205687	36.782286
446.638855	37.042417
447.072009	37.296239
447.505149	37.545775
447.938275	37.791563
448.371387	38.001137
448.804485	38.178367
449.237569	38.327561
449.670638	38.407918
450.103694	38.453410
450.536735	38.497261
450.969762	38.570309
451.402774	38.639632
451.835773	38.732174
452.268757	38.845324
452.701727	38.976310
453.134683	39.098538
453.567624	39.204580
454.000551	39.303029
454.433464	39.371655
454.866362	39.408818
455.299246	39.421172
455.732116	39.419979
456.164971	39.405558
456.597811	39.393107
457.030638	39.371758
457.463449	39.359860
457.896246	39.346234
458.329029	39.339994
458.761797	39.346873
459.194551	39.361452
459.627290	39.364697
460.060014	39.332474
460.492724	39.314391
460.925419	39.313965
461.358099	39.281371
461.790765	39.229451
462.223416	39.182733
462.656052	39.104124
463.088674	39.068941
463.521281	39.014532
463.953873	38.943211
464.386450	38.863113
464.819012	38.818251
465.251560	38.765180
465.684093	38.748140
466.116611	38.723218
466.549114	38.732257
466.981602	38.771947
467.414075	38.793313
467.846533	38.833513
468.278977	38.906840
468.711405	38.968425
469.143818	39.020082
469.576216	39.093047
470.008600	39.152390
470.440968	39.217983
470.873321	39.296353
471.305659	39.365241
471.737982	39.454415
472.170289	39.530811
472.602582	39.603700
473.034859	39.684363
473.467122	39.823030
473.899369	39.994077
474.331600	40.185715
474.763817	40.422550
475.196018	40.695758
475.628204	41.005415
476.060375	41.367417
476.492530	41.724113
476.924670	42.105369
477.356795	42.488643
477.788904	42.865603
478.220998	43.218616
478.653076	43.582871
479.085139	43.927379
479.517186	44.305491
479.949219	44.682513
480.381235	45.097890
480.813236	45.559136
481.245221	46.072403
481.677191	46.625837
482.109146	47.210806
482.541084	47.804269
482.973008	48.392587
483.404915	48.991540
483.836807	49.558368
484.268683	50.062282
484.700544	50.532371
485.132388	50.965576
485.564217	51.377963
485.996031	51.761157
486.427828	52.124147
486.859610	52.456220
487.291376	52.767698
487.723126	53.089298
488.154860	53.449549
488.586579	53.828542
489.018281	54.236753
489.449968	54.681171
489.881639	55.185898
490.313293	55.725520
490.744932	56.350003
491.176555	56.947961
491.608162	57.534167
492.039753	58.070754
492.471328	58.550752
492.902886	58.927080
493.334429	59.249542
493.765956	59.478554
494.197466	59.669322
494.628960	59.810259
495.060439	59.945008
495.491901	60.111234
495.923347	60.342855
496.354776	60.601002
496.786190	60.920462
497.217587	61.271496
497.648968	61.671796
498.080332	62.068250
498.511681	62.444366
498.943013	62.788479
499.374328	63.088964
499.805628	63.345883
500.236911	63.524358
500.668177	63.629267
501.099427	63.660987
501.530661	63.631579
501.961878	63.534677
502.393079	63.402900
502.824264	63.247558
503.255431	63.076760
503.686583	62.914647
504.117717	62.759607
504.548835	62.676335
504.979937	62.664798
505.411022	62.733466
505.842090	62.865991
506.273142	63.097742
506.704177	63.400804
507.135195	63.730708
507.566197	64.051700
507.997182	64.378553
508.428150	64.638097
508.859102	64.848102
509.290036	64.980252
509.720954	65.078861
510.151855	65.124689
510.582739	65.172103
511.013607	65.231316
511.444457	65.351616
511.875291	65.539646
512.306107	65.841859
512.736907	66.232992
513.167690	66.720839
513.598456	67.313510
514.029205	67.997027
514.459936	68.739201
514.890651	69.477124
515.321349	70.225977
515.752030	70.941323
516.182693	71.603961
516.613340	72.208495
517.043969	72.750561
517.474582	73.198873
517.905177	73.584354
518.335755	73.887852
518.766315	74.131817
519.196859	74.333595
519.627385	74.505377
520.057894	74.642824
520.488386	74.803126
520.918860	74.986722
521.349318	75.230191
521.779757	75.563284
522.210180	75.972444
522.640585	76.452322
523.070973	77.028386
523.501343	77.649628
523.931696	78.303856
524.362031	78.984761
524.792349	79.650580
525.222650	80.270376
525.652933	80.812588
526.083198	81.267685
526.513446	81.590259
526.943677	81.825088
527.373890	81.975795
527.804085	82.055651
528.234262	82.117540
528.664422	82.188632
529.094565	82.296797
529.524689	82.474035
529.954796	82.699922
530.384885	83.024721
530.814957	83.445904
531.245011	83.964889
531.675047	84.567575
532.105065	85.225025
532.535065	85.907883
532.965048	86.576588
533.395013	87.225632
533.824959	87.831287
534.254888	88.369834
534.684799	88.772359
535.114693	89.093075
535.544568	89.316552
535.974425	89.461812
536.404264	89.454811
536.834086	89.395174
537.263889	89.275294
537.693674	89.122328
538.123441	88.928656
538.553190	88.734992
538.982921	88.563860
539.412634	88.457984
539.842329	88.462364
540.272006	88.518793
540.701664	88.630721
541.131304	88.846624
541.560926	89.122729
541.990530	89.472747
542.420116	89.851309
542.849683	90.226977
543.279232	90.633043
543.708763	90.976508
544.138275	91.261738
544.567769	91.444581
544.997245	91.563359
545.426702	91.584123
545.856141	91.540180
546.285562	91.446859
546.714964	91.291990
547.144347	91.108058
547.573713	90.947695
548.003059	90.846143
548.432387	90.780909
548.861697	90.780267
549.290988	90.868505
549.720260	91.051761
550.149514	91.320696
550.578750	91.664002
551.007966	92.051609
551.437164	92.525545
551.866344	93.019760
552.295504	93.512452
552.724646	93.993586
553.153769	94.409648
553.582874	94.770579
554.011960	95.055428
554.441027	95.230210
554.870075	95.299809
555.299104	95.246299
555.728115	95.074149
556.157106	94.840884
556.586079	94.520644
557.015033	94.155485
557.443968	93.766438
557.872884	93.396059
558.301781	93.019061
558.730659	92.725753
559.159518	92.471144
559.588358	92.297874
560.017180	92.210038
560.445982	92.203997
560.874765	92.265041
561.303528	92.377505
561.732273	92.558535
562.160999	92.764148
562.589705	92.972637
563.018393	93.209130
563.447061	93.448511
563.875710	93.690348
564.304340	93.915581
564.732950	94.092686
565.161542	94.237595
565.590114	94.345691
566.018666	94.415496
566.447200	94.437811
566.875714	94.440639
567.304208	94.435538
567.732684	94.402127
568.161140	94.371613
568.589576	94.359981
569.017993	94.377875
569.446391	94.416277
569.874769	94.491676
570.303128	94.615394
570.731467	94.799040
571.159787	95.020230
571.588087	95.295963
572.016368	95.605621
572.444629	95.937441
572.872870	96.278117
573.301092	96.605078
573.729294	96.893207
574.157476	97.127167
574.585639	97.286326
575.013782	97.355846
575.441906	97.323659
575.870009	97.205645
576.298093	96.975711
576.726157	96.635268
577.154202	96.201694
577.582226	95.721546
578.010231	95.163812
578.438216	94.604996
578.866181	94.041466
579.294126	93.493293
579.722051	93.015632
580.149957	92.597991
580.577842	92.211407
581.005707	91.913358
581.433553	91.668101
581.861378	91.478775
582.289184	91.334026
582.716969	91.225216
583.144734	91.128034
583.572479	91.071295
584.000205	91.025139
584.427910	91.003512
584.855594	90.982154
585.283259	90.945709
585.710904	90.922087
586.138528	90.891522
586.566132	90.862153
586.993716	90.838547
587.421280	90.831903
587.848823	90.829948
588.276346	90.820646
588.703849	90.803872
589.131332	90.781260
589.558794	90.746553
589.986236	90.702882
590.413657	90.662999
590.841058	90.587096
591.268438	90.528834
591.695799	90.464102
592.123138	90.399542
592.550458	90.356305
592.977756	90.321012
593.405034	90.316555
593.832292	90.364317
594.259529	90.421239
594.686746	90.513888
595.113942	90.627946
595.541117	90.744894
595.968272	90.876131
596.395406	91.012507
596.822519	91.116862
597.249612	91.169979
597.676684	91.139493
598.103735	91.035505
598.530766	90.865529
598.957775	90.612892
599.384764	90.266294
599.811733	89.832156
600.238680	89.338996
600.665606	88.762939
601.092512	88.164633
601.519397	87.529570
601.946261	86.901527
602.373104	86.254276
602.799926	85.632803
603.226727	85.031444
603.653507	84.452040
604.080266	83.912101
604.507004	83.409894
604.933721	82.910467
605.360417	82.444362
605.787092	81.980423
606.213746	81.517249
606.640379	81.037732
607.066991	80.548623
607.493581	80.065831
607.920150	79.585022
608.346699	79.112879
608.773226	78.662284
609.199731	78.231081
609.626216	77.830686
610.052679	77.468124
610.479121	77.167260
610.905542	76.930764
611.331941	76.766027
611.758319	76.649677
612.184676	76.610886
612.611011	76.641623
613.037325	76.725257
613.463617	76.844051
613.889888	77.013762
614.316138	77.194233
614.742366	77.406305
615.168573	77.631228
615.594758	77.874945
616.020921	78.122501
616.447063	78.374998
616.873184	78.611614
617.299283	78.857383
617.725360	79.104562
618.151416	79.377106
618.577450	79.642496
619.003462	79.921570
619.429453	80.206000
619.855422	80.509070
620.281369	80.825448
620.707295	81.144253
621.133199	81.448574
621.559081	81.718829
621.984941	81.980216
622.410779	82.195175
622.836596	82.360073
623.262391	82.480175
623.688163	82.535652
624.113914	82.551985
624.539644	82.496370
624.965351	82.394283
625.391036	82.227101
625.816699	82.021633
626.242340	81.797485
626.667960	81.548677
627.093557	81.283694
627.519132	81.035319
627.944685	80.793817
628.370216	80.549447
628.795725	80.327799
629.221212	80.121759
629.646677	79.935886
630.072119	79.787858
630.497540	79.650851
630.922938	79.513932
631.348314	79.374642
631.773668	79.239504
632.198999	79.107208
632.624308	78.969809
633.049595	78.819166
633.474860	78.650538
633.900102	78.465054
634.325322	78.276368
634.750520	78.108299
635.175695	77.947290
635.600848	77.800137
636.025978	77.688295
636.451086	77.592321
636.876171	77.538016
637.301234	77.494447
637.726275	77.506781
638.151293	77.533759
638.576288	77.586335
639.001261	77.677726
639.426211	77.782570
639.851139	77.898122
640.276044	78.030712
640.700927	78.163340
641.125787	78.294293
641.550624	78.436860
641.975438	78.553827
642.400230	78.668112
642.824999	78.754133
643.249745	78.816428
643.674469	78.877347
644.099169	78.939336
644.523847	78.997043
644.948502	79.085128
645.373135	79.162400
645.797744	79.262915
646.222330	79.372809
646.646894	79.518039
647.071435	79.690344
647.495953	79.893393
647.920447	80.095249
648.344919	80.322303
648.769368	80.564514
649.193794	80.807824
649.618197	81.055870
650.042576	81.291747
650.466933	81.523552
650.891267	81.724466
651.315577	81.914771
651.739864	82.076044
652.164129	82.183523
652.588370	82.262784
653.012587	82.317423
653.436782	82.317328
653.860953	82.275891
654.285102	82.181260
654.709226	82.045494
655.133328	81.884525
655.557406	81.686431
655.981461	81.461131
656.405493	81.214618
656.829501	80.916704
657.253486	80.585837
657.677448	80.232300
658.101386	79.823587
658.525301	79.393534
658.949192	78.923802
659.373060	78.416338
659.796904	77.879043
660.220725	77.308654
660.644522	76.704013
661.068296	76.092161
661.492046	75.454579
661.915772	74.808366
662.339475	74.174023
662.763154	73.561652
663.186810	72.971749
663.610442	72.427012
664.034050	71.933581
664.457635	71.504791
664.881196	71.166960
665.304733	70.911121
665.728247	70.737303
666.151736	70.660235
666.575202	70.682384
666.998644	70.803511
667.422062	71.019160
667.845457	71.306574
668.268827	71.666733
668.692174	72.099945
669.115496	72.581845
669.538795	73.100061
669.962070	73.648407
670.385321	74.212862
670.808547	74.757164
671.231750	75.308897
671.654929	75.829416
672.078084	76.323829
672.501214	76.784200
672.924321	77.189068
673.347404	77.572307
673.770462	77.913315
674.193496	78.204515
674.616506	78.453903
675.039492	78.669359
675.462454	78.835378
675.885391	78.953260
676.308305	79.049820
676.731194	79.117540
677.154058	79.152205
677.576899	79.155775
677.999715	79.127766
678.422507	79.087122
678.845274	79.013725
679.268017	78.918105
679.690736	78.798685
680.113430	78.638948
680.536100	78.463975
680.958746	78.263356
681.381367	78.044268
681.803963	77.784188
682.226535	77.503355
682.649083	77.208418
683.071605	76.897243
683.494104	76.570034
683.916578	76.245464
684.339027	75.916876
684.761451	75.579565
685.183851	75.241792
685.606227	74.913505
686.028577	74.589062
686.450903	74.252980
686.873204	73.919307
687.295481	73.601105
687.717733	73.284425
688.139959	72.945640
688.562162	72.602475
688.984339	72.255162
689.406492	71.876363
689.828619	71.488207
690.250722	71.076687
690.672800	70.658944
691.094853	70.211217
691.516881	69.734915
691.938884	69.247622
692.360863	68.735837
692.782816	68.223813
693.204744	67.705559
693.626647	67.188506
694.048526	66.689155
694.470379	66.208341
694.892207	65.746767
695.314010	65.344532
695.735788	64.978220
696.157540	64.661878
696.579268	64.405668
697.000970	64.220895
697.422648	64.085252
697.844300	64.028559
698.265926	64.029282
698.687528	64.079318
699.109104	64.184339
699.530655	64.338575
699.952181	64.540190
700.373681	64.776741
700.795156	65.055883
701.216606	65.370353
701.638030	65.712955
702.059429	66.069842
702.480803	66.445976
702.902151	66.809613
703.323473	67.178838
703.744770	67.524522
704.166042	67.865348
704.587288	68.197208
705.008509	68.500623
705.429704	68.789868
705.850873	69.055885
706.272017	69.298929
706.693135	69.525426
707.114228	69.726135
707.535295	69.917881
707.956336	70.102822
708.377352	70.255583
708.798342	70.401305
709.219306	70.547172
709.640245	70.682527
710.061157	70.799061
710.482044	70.908941
710.902905	71.014719
711.323741	71.124710
711.744550	71.238347
712.165334	71.364155
712.586092	71.487719
713.006823	71.613962
713.427529	71.746874
713.848209	71.870390
714.268863	72.005808
714.689492	72.139970
715.110094	72.275724
715.530670	72.416683
715.951220	72.559677
716.371744	72.688357
716.792242	72.821442
717.212714	72.958598
717.633159	73.073793
718.053579	73.196315
718.473973	73.297959
718.894340	73.390975
719.314681	73.475378
719.734996	73.533692
720.155285	73.568686
720.575547	73.555096
720.995784	73.506693
721.415994	73.423458
721.836177	73.292290
722.256335	73.128308
722.676466	72.905903
723.096570	72.644330
723.516649	72.340091
723.936701	71.980352
724.356726	71.580275
724.776725	71.142239
725.196698	70.657491
725.616644	70.149997
726.036564	69.612738
726.456457	69.052062
726.876324	68.490446
727.296164	67.919343
727.715977	67.353299
728.135764	66.798027
728.555525	66.269375
728.975258	65.759716
729.394966	65.295847
729.814646	64.863370
730.234300	64.460259
730.653927	64.114507
731.073527	63.818161
731.493101	63.588463
731.912648	63.397538
732.332168	63.267768
732.751661	63.203587
733.171128	63.205871
733.590568	63.270174
734.009980	63.400229
734.429366	63.579423
734.848726	63.813901
735.268058	64.092414
735.687363	64.427562
736.106641	64.804789
736.525893	65.215005
736.945117	65.667843
737.364314	66.143927
737.783485	66.648638
738.202628	67.180403
738.621744	67.729268
739.040834	68.291755
739.459896	68.847421
739.878931	69.386286
740.297939	69.921436
740.716919	70.449369
741.135873	70.941131
741.554799	71.398317
741.973698	71.830332
742.392570	72.232087
742.811415	72.610955
743.230232	72.945503
743.649022	73.253718
744.067785	73.509376
744.486521	73.732234
744.905229	73.924379
745.323909	74.079160
745.742563	74.201137
746.161189	74.291687
746.579787	74.368469
746.998358	74.413576
747.416902	74.444562
747.835418	74.459025
748.253907	74.453496
748.672368	74.446411
749.090802	74.435300
749.509208	74.408197
749.927586	74.383634
750.345937	74.347558
750.764261	74.313007
751.182556	74.266728
751.600824	74.221667
752.019065	74.173618
752.437277	74.138609
752.855462	74.105846
753.273620	74.069552
753.691749	74.022942
754.109851	73.990908
