Time1=100ms:Average1=5:Objective=10X:Aperture=1: (11/21/2018 11:49:28 AM)
11/21/2018 11:49:28 AM
Reflectance
10X
Ap#: 1
Avg1: 5.000000
Avg2: 0.000000
Int.Time1:100.000000

350.166136	97.118905
350.601937	96.983874
351.037728	97.651246
351.473509	97.331446
351.909281	96.954005
352.345042	97.029400
352.780794	96.890980
353.216536	96.886166
353.652267	96.654731
354.087989	96.699704
354.523701	96.774852
354.959403	96.783060
355.395095	97.048912
355.830777	97.390684
356.266449	97.733538
356.702110	97.648728
357.137762	97.718709
357.573404	97.222507
358.009035	97.163919
358.444656	97.699260
358.880268	97.705761
359.315869	97.722823
359.751459	97.504365
360.187040	98.187436
360.622610	98.235840
361.058170	97.886816
361.493720	98.089830
361.929260	97.819797
362.364789	97.234218
362.800308	97.267872
363.235816	97.352971
363.671314	97.383542
364.106802	97.885227
364.542279	97.939941
364.977746	98.308930
365.413203	98.687203
365.848649	98.336949
366.284084	98.268620
366.719509	98.184988
367.154924	98.418729
367.590328	97.747978
368.025721	97.379197
368.461104	97.344407
368.896477	97.614172
369.331838	97.450860
369.767189	96.257227
370.202530	96.364750
370.637859	96.259604
371.073178	96.779094
371.508486	96.329345
371.943784	95.787230
372.379071	95.579886
372.814347	95.545612
373.249612	95.542438
373.684866	94.980305
374.120110	95.092583
374.555343	95.113809
374.990565	94.764925
375.425776	94.889850
375.860976	94.810560
376.296165	94.641958
376.731343	94.829141
377.166511	95.025126
377.601667	95.045541
378.036812	94.875652
378.471946	95.014487
378.907070	95.074776
379.342182	95.242834
379.777283	95.123893
380.212373	94.926025
380.647452	95.035601
381.082520	95.031608
381.517576	95.423160
381.952622	95.738975
382.387656	96.148858
382.822679	96.421808
383.257691	97.097388
383.692692	96.871263
384.127681	97.337604
384.562659	97.020262
384.997626	97.104324
385.432581	96.638407
385.867525	96.644692
386.302458	96.826951
386.737379	97.031740
387.172289	97.024858
387.607188	96.697747
388.042075	97.130350
388.476951	97.712895
388.911815	97.889516
389.346668	98.403582
389.781509	98.729849
390.216338	99.070723
390.651157	98.926201
391.085963	99.156532
391.520758	99.109415
391.955541	99.284244
392.390313	98.579628
392.825073	98.297665
393.259821	99.041002
393.694558	99.439418
394.129283	99.051716
394.563996	99.734930
394.998698	100.108556
395.433388	100.063725
395.868066	99.644492
396.302732	99.458589
396.737386	99.498881
397.172029	99.461322
397.606659	99.105070
398.041278	98.752048
398.475885	99.009285
398.910480	99.399399
399.345063	98.960843
399.779634	98.109234
400.214194	96.584894
400.648741	95.072372
401.083276	93.639231
401.517799	91.811404
401.952310	88.958133
402.386809	86.084077
402.821296	83.100337
403.255771	80.045117
403.690234	76.741735
404.124684	73.480407
404.559123	69.738601
404.993549	66.424550
405.427963	62.797919
405.862365	59.448269
406.296754	56.740895
406.731131	53.737343
407.165496	51.120976
407.599849	48.654526
408.034190	46.305946
408.468518	44.096698
408.902833	42.072355
409.337137	40.320357
409.771428	38.703088
410.205706	37.104951
410.639973	35.821162
411.074226	34.631873
411.508467	33.623712
411.942696	32.518994
412.376912	31.651525
412.811116	30.992947
413.245307	30.418228
413.679486	29.900308
414.113652	29.403384
414.547805	28.862034
414.981946	28.413576
415.416074	28.049627
415.850190	27.747044
416.284293	27.445083
416.718383	27.179379
417.152460	26.883207
417.586525	26.641909
418.020577	26.455191
418.454616	26.290603
418.888643	26.223980
419.322656	26.145689
419.756657	26.031048
420.190645	25.985674
420.624620	25.875492
421.058582	25.796905
421.492531	25.776944
421.926468	25.706864
422.360391	25.667322
422.794301	25.618265
423.228199	25.613378
423.662083	25.589387
424.095955	25.597354
424.529813	25.623481
424.963658	25.655252
425.397491	25.682959
425.831310	25.690537
426.265116	25.646411
426.698909	25.606475
427.132689	25.584891
427.566455	25.617223
428.000209	25.614969
428.433949	25.618230
428.867676	25.622007
429.301389	25.645977
429.735090	25.622470
430.168777	25.625526
430.602451	25.627430
431.036111	25.603448
431.469759	25.599797
431.903392	25.592885
432.337013	25.561392
432.770620	25.541536
433.204213	25.538525
433.637794	25.493923
434.071360	25.461445
434.504914	25.422594
434.938453	25.390975
435.371979	25.354994
435.805492	25.324824
436.238991	25.297420
436.672477	25.270746
437.105949	25.249452
437.539407	25.194573
437.972852	25.123517
438.406283	25.051943
438.839700	24.991898
439.273104	24.901314
439.706494	24.841067
440.139871	24.802995
440.573233	24.727469
441.006582	24.647578
441.439917	24.600238
441.873238	24.515403
442.306546	24.461305
442.739839	24.380241
443.173119	24.293228
443.606385	24.223273
444.039636	24.138894
444.472874	24.076349
444.906099	23.974250
445.339309	23.881721
445.772505	23.803018
446.205687	23.728661
446.638855	23.641726
447.072009	23.564636
447.505149	23.476864
447.938275	23.413186
448.371387	23.333502
448.804485	23.261548
449.237569	23.167132
449.670638	23.054705
450.103694	22.946007
450.536735	22.842891
450.969762	22.749735
451.402774	22.678101
451.835773	22.585795
452.268757	22.490962
452.701727	22.412154
453.134683	22.322656
453.567624	22.191836
454.000551	22.092151
454.433464	21.988913
454.866362	21.865463
455.299246	21.763504
455.732116	21.655054
456.164971	21.537154
456.597811	21.444796
457.030638	21.328623
457.463449	21.227176
457.896246	21.127673
458.329029	21.048349
458.761797	20.979792
459.194551	20.889604
459.627290	20.787704
460.060014	20.693633
460.492724	20.599127
460.925419	20.517086
461.358099	20.422963
461.790765	20.335247
462.223416	20.248209
462.656052	20.161287
463.088674	20.098749
463.521281	20.007573
463.953873	19.918400
464.386450	19.836423
464.819012	19.754260
465.251560	19.694044
465.684093	19.636362
466.116611	19.592568
466.549114	19.553195
466.981602	19.536720
467.414075	19.525663
467.846533	19.504566
468.278977	19.499974
468.711405	19.486302
469.143818	19.468068
469.576216	19.454913
470.008600	19.441553
470.440968	19.420583
470.873321	19.405389
471.305659	19.402856
471.737982	19.411534
472.170289	19.389169
472.602582	19.390635
473.034859	19.400711
473.467122	19.405929
473.899369	19.420821
474.331600	19.456472
474.763817	19.503582
475.196018	19.537664
475.628204	19.584340
476.060375	19.640099
476.492530	19.691986
476.924670	19.743691
477.356795	19.789556
477.788904	19.844127
478.220998	19.882628
478.653076	19.909940
479.085139	19.943510
479.517186	19.962872
479.949219	19.977399
480.381235	19.984691
480.813236	19.974107
481.245221	19.965381
481.677191	19.950902
482.109146	19.929597
482.541084	19.912941
482.973008	19.894993
483.404915	19.881262
483.836807	19.872399
484.268683	19.860243
484.700544	19.826137
485.132388	19.791460
485.564217	19.761797
485.996031	19.709681
486.427828	19.655420
486.859610	19.578624
487.291376	19.499002
487.723126	19.399352
488.154860	19.284872
488.586579	19.162526
489.018281	19.033782
489.449968	18.909338
489.881639	18.779112
490.313293	18.654823
490.744932	18.539814
491.176555	18.403695
491.608162	18.268741
492.039753	18.132572
492.471328	17.989077
492.902886	17.852590
493.334429	17.710306
493.765956	17.562756
494.197466	17.435235
494.628960	17.298110
495.060439	17.167768
495.491901	17.048672
495.923347	16.930612
496.354776	16.809509
496.786190	16.691246
497.217587	16.560742
497.648968	16.443552
498.080332	16.329892
498.511681	16.216087
498.943013	16.113687
499.374328	16.034003
499.805628	15.954709
500.236911	15.916990
500.668177	15.877332
501.099427	15.862889
501.530661	15.868610
501.961878	15.899378
502.393079	15.959939
502.824264	16.028518
503.255431	16.109405
503.686583	16.226967
504.117717	16.339841
504.548835	16.484470
504.979937	16.652023
505.411022	16.833493
505.842090	17.035208
506.273142	17.266634
506.704177	17.520770
507.135195	17.805795
507.566197	18.106538
507.997182	18.444908
508.428150	18.818306
508.859102	19.211644
509.290036	19.634737
509.720954	20.105197
510.151855	20.598852
510.582739	21.135052
511.013607	21.686524
511.444457	22.275222
511.875291	22.876667
512.306107	23.509713
512.736907	24.152913
513.167690	24.839880
513.598456	25.533940
514.029205	26.260334
514.459936	27.019395
514.890651	27.787713
515.321349	28.587997
515.752030	29.405691
516.182693	30.249916
516.613340	31.127819
517.043969	32.008816
517.474582	32.925687
517.905177	33.842060
518.335755	34.768543
518.766315	35.707432
519.196859	36.658452
519.627385	37.602041
520.057894	38.554626
520.488386	39.510125
520.918860	40.461311
521.349318	41.417137
521.779757	42.379563
522.210180	43.364612
522.640585	44.339818
523.070973	45.318522
523.501343	46.294439
523.931696	47.263773
524.362031	48.234714
524.792349	49.199291
525.222650	50.176464
525.652933	51.144692
526.083198	52.099291
526.513446	53.039396
526.943677	53.973647
527.373890	54.904519
527.804085	55.826000
528.234262	56.722800
528.664422	57.620962
529.094565	58.502729
529.524689	59.356485
529.954796	60.208287
530.384885	61.032212
530.814957	61.827712
531.245011	62.639774
531.675047	63.432163
532.105065	64.198443
532.535065	64.975216
532.965048	65.738638
533.395013	66.461784
533.824959	67.173818
534.254888	67.889707
534.684799	68.602256
535.114693	69.298748
535.544568	69.962623
535.974425	70.630343
536.404264	71.249991
536.834086	71.867595
537.263889	72.474340
537.693674	73.073422
538.123441	73.669629
538.553190	74.227046
538.982921	74.764237
539.412634	75.300091
539.842329	75.836625
540.272006	76.347909
540.701664	76.841086
541.131304	77.323061
541.560926	77.798924
541.990530	78.249463
542.420116	78.701195
542.849683	79.144909
543.279232	79.572560
543.708763	79.995915
544.138275	80.424557
544.567769	80.805319
544.997245	81.192229
545.426702	81.582521
545.856141	81.952454
546.285562	82.324736
546.714964	82.697711
547.144347	83.059102
547.573713	83.410528
548.003059	83.745619
548.432387	84.093966
548.861697	84.441507
549.290988	84.788066
549.720260	85.140184
550.149514	85.485735
550.578750	85.824588
551.007966	86.135199
551.437164	86.453280
551.866344	86.769708
552.295504	87.080693
552.724646	87.391676
553.153769	87.692601
553.582874	88.000970
554.011960	88.296015
554.441027	88.572795
554.870075	88.855446
555.299104	89.135699
555.728115	89.375010
556.157106	89.627342
556.586079	89.856874
557.015033	90.075089
557.443968	90.280053
557.872884	90.476799
558.301781	90.651114
558.730659	90.845974
559.159518	90.998187
559.588358	91.145046
560.017180	91.285884
560.445982	91.419796
560.874765	91.552480
561.303528	91.677765
561.732273	91.794674
562.160999	91.892181
562.589705	91.992030
563.018393	92.094252
563.447061	92.188330
563.875710	92.285710
564.304340	92.404195
564.732950	92.501445
565.161542	92.593060
565.590114	92.692331
566.018666	92.784145
566.447200	92.888061
566.875714	92.971571
567.304208	93.079579
567.732684	93.189662
568.161140	93.302144
568.589576	93.422372
569.017993	93.547465
569.446391	93.659300
569.874769	93.793540
570.303128	93.923653
570.731467	94.040566
571.159787	94.163569
571.588087	94.303176
572.016368	94.409243
572.444629	94.527889
572.872870	94.643443
573.301092	94.768616
573.729294	94.863847
574.157476	94.966151
574.585639	95.064801
575.013782	95.142160
575.441906	95.229846
575.870009	95.302959
576.298093	95.360484
576.726157	95.437356
577.154202	95.483815
577.582226	95.541508
578.010231	95.577069
578.438216	95.619190
578.866181	95.647737
579.294126	95.679566
579.722051	95.694032
580.149957	95.737823
580.577842	95.773208
581.005707	95.786618
581.433553	95.804229
581.861378	95.814452
582.289184	95.832295
582.716969	95.847846
583.144734	95.838774
583.572479	95.840510
584.000205	95.851899
584.427910	95.867509
584.855594	95.859570
585.283259	95.860038
585.710904	95.873758
586.138528	95.855751
586.566132	95.837018
586.993716	95.831395
587.421280	95.808762
587.848823	95.797569
588.276346	95.790725
588.703849	95.765240
589.131332	95.735588
589.558794	95.717640
589.986236	95.653512
590.413657	95.606629
590.841058	95.537781
591.268438	95.474461
591.695799	95.403796
592.123138	95.322241
592.550458	95.238220
592.977756	95.155654
593.405034	95.060879
593.832292	94.946139
594.259529	94.839414
594.686746	94.717750
595.113942	94.593239
595.541117	94.469250
595.968272	94.336330
596.395406	94.202573
596.822519	94.077202
597.249612	93.958876
597.676684	93.823278
598.103735	93.682431
598.530766	93.564935
598.957775	93.424034
599.384764	93.299091
599.811733	93.165327
600.238680	93.063216
600.665606	92.952393
601.092512	92.836279
601.519397	92.715367
601.946261	92.628083
602.373104	92.511127
602.799926	92.385764
603.226727	92.287267
603.653507	92.184980
604.080266	92.076433
604.507004	91.980499
604.933721	91.866812
605.360417	91.777647
605.787092	91.679235
606.213746	91.559577
606.640379	91.426448
607.066991	91.299422
607.493581	91.170938
607.920150	91.038185
608.346699	90.895084
608.773226	90.736190
609.199731	90.578774
609.626216	90.417613
610.052679	90.225251
610.479121	90.013453
610.905542	89.806924
611.331941	89.604150
611.758319	89.354306
612.184676	89.107069
612.611011	88.856885
613.037325	88.586937
613.463617	88.281611
613.889888	87.970842
614.316138	87.643477
614.742366	87.305783
615.168573	86.931928
615.594758	86.561769
616.020921	86.185711
616.447063	85.790588
616.873184	85.374780
617.299283	84.955788
617.725360	84.511813
618.151416	84.079846
618.577450	83.618767
619.003462	83.149360
619.429453	82.688807
619.855422	82.231386
620.281369	81.763468
620.707295	81.294990
621.133199	80.811280
621.559081	80.324836
621.984941	79.846679
622.410779	79.350081
622.836596	78.850120
623.262391	78.358265
623.688163	77.864231
624.113914	77.355682
624.539644	76.845484
624.965351	76.323426
625.391036	75.798229
625.816699	75.240795
626.242340	74.686822
626.667960	74.104839
627.093557	73.507842
627.519132	72.905811
627.944685	72.287556
628.370216	71.648907
628.795725	71.012951
629.221212	70.336717
629.646677	69.654579
630.072119	68.970934
630.497540	68.266485
630.922938	67.557979
631.348314	66.846209
631.773668	66.115788
632.198999	65.387006
632.624308	64.649664
633.049595	63.897501
633.474860	63.141555
633.900102	62.374302
634.325322	61.612826
634.750520	60.851931
635.175695	60.082387
635.600848	59.320573
636.025978	58.551721
636.451086	57.780374
636.876171	57.006972
637.301234	56.221447
637.726275	55.443207
638.151293	54.667688
638.576288	53.875636
639.001261	53.105945
639.426211	52.331709
639.851139	51.551648
640.276044	50.775947
640.700927	50.001758
641.125787	49.224866
641.550624	48.460587
641.975438	47.685435
642.400230	46.935111
642.824999	46.182554
643.249745	45.431107
643.674469	44.694163
644.099169	43.966012
644.523847	43.246847
644.948502	42.562626
645.373135	41.878894
645.797744	41.220179
646.222330	40.585422
646.646894	39.982926
647.071435	39.406145
647.495953	38.863339
647.920447	38.345986
648.344919	37.858239
648.769368	37.403375
649.193794	36.993864
649.618197	36.614474
650.042576	36.273685
650.466933	35.982091
650.891267	35.719886
651.315577	35.506417
651.739864	35.339813
652.164129	35.212235
652.588370	35.124573
653.012587	35.090255
653.436782	35.097087
653.860953	35.144020
654.285102	35.238293
654.709226	35.380983
655.133328	35.570507
655.557406	35.803449
655.981461	36.091207
656.405493	36.424433
656.829501	36.805335
657.253486	37.230995
657.677448	37.697924
658.101386	38.195811
658.525301	38.749908
658.949192	39.331211
659.373060	39.947810
659.796904	40.583153
660.220725	41.258713
660.644522	41.942654
661.068296	42.658246
661.492046	43.390704
661.915772	44.139882
662.339475	44.889163
662.763154	45.659979
663.186810	46.438942
663.610442	47.215246
664.034050	47.993069
664.457635	48.771315
664.881196	49.558612
665.304733	50.341692
665.728247	51.119156
666.151736	51.896624
666.575202	52.667260
666.998644	53.443965
667.422062	54.216667
667.845457	54.978230
668.268827	55.728924
668.692174	56.480547
669.115496	57.210279
669.538795	57.935511
669.962070	58.651312
670.385321	59.367853
670.808547	60.063455
671.231750	60.750087
671.654929	61.417850
672.078084	62.071071
672.501214	62.716972
672.924321	63.349668
673.347404	63.977931
673.770462	64.597785
674.193496	65.194772
674.616506	65.783044
675.039492	66.361339
675.462454	66.923361
675.885391	67.453053
676.308305	67.975864
676.731194	68.503816
677.154058	69.005089
677.576899	69.483366
677.999715	69.950105
678.422507	70.400652
678.845274	70.834223
679.268017	71.257871
679.690736	71.668151
680.113430	72.052807
680.536100	72.432549
680.958746	72.804737
681.381367	73.176782
681.803963	73.522073
682.226535	73.877459
682.649083	74.236183
683.071605	74.599635
683.494104	74.948063
683.916578	75.304044
684.339027	75.646813
684.761451	75.991615
685.183851	76.330320
685.606227	76.676873
686.028577	77.035779
686.450903	77.373528
686.873204	77.712570
687.295481	78.069565
687.717733	78.412216
688.139959	78.752556
688.562162	79.091371
688.984339	79.441656
689.406492	79.781786
689.828619	80.112020
690.250722	80.447316
690.672800	80.801327
691.094853	81.156737
691.516881	81.494466
691.938884	81.838303
692.360863	82.174156
692.782816	82.513402
693.204744	82.851942
693.626647	83.180498
694.048526	83.506558
694.470379	83.824168
694.892207	84.141204
695.314010	84.449788
695.735788	84.760670
696.157540	85.052695
696.579268	85.353393
697.000970	85.634545
697.422648	85.924316
697.844300	86.198848
698.265926	86.475665
698.687528	86.723829
699.109104	86.967054
699.530655	87.197100
699.952181	87.423301
700.373681	87.622573
700.795156	87.827221
701.216606	88.023720
701.638030	88.200851
702.059429	88.369736
702.480803	88.521029
702.902151	88.652404
703.323473	88.778424
703.744770	88.870497
704.166042	88.954127
704.587288	89.044850
705.008509	89.114926
705.429704	89.164441
705.850873	89.202700
706.272017	89.219277
706.693135	89.240939
707.114228	89.241167
707.535295	89.239932
707.956336	89.242098
708.377352	89.223934
708.798342	89.189457
709.219306	89.156155
709.640245	89.117351
710.061157	89.078898
710.482044	89.041326
710.902905	88.994595
711.323741	88.951823
711.744550	88.933642
712.165334	88.910572
712.586092	88.897610
713.006823	88.878864
713.427529	88.875928
713.848209	88.875527
714.268863	88.869580
714.689492	88.881364
715.110094	88.901414
715.530670	88.929070
715.951220	88.972689
716.371744	89.012437
716.792242	89.078088
717.212714	89.136098
717.633159	89.203625
718.053579	89.297411
718.473973	89.420385
718.894340	89.565639
719.314681	89.722180
719.734996	89.885093
720.155285	90.074047
720.575547	90.265808
720.995784	90.470286
721.415994	90.705285
721.836177	90.955558
722.256335	91.221800
722.676466	91.482521
723.096570	91.761330
723.516649	92.030602
723.936701	92.310317
724.356726	92.586563
724.776725	92.856963
725.196698	93.128024
725.616644	93.403174
726.036564	93.684257
726.456457	93.946024
726.876324	94.215483
727.296164	94.470469
727.715977	94.731273
728.135764	94.976173
728.555525	95.224193
728.975258	95.457221
729.394966	95.688359
729.814646	95.902034
730.234300	96.106637
730.653927	96.306770
731.073527	96.496046
731.493101	96.668822
731.912648	96.826222
732.332168	96.986202
732.751661	97.115855
733.171128	97.248189
733.590568	97.370538
734.009980	97.480842
734.429366	97.572255
734.848726	97.644395
735.268058	97.708975
735.687363	97.755030
736.106641	97.788353
736.525893	97.810386
736.945117	97.821778
737.364314	97.818572
737.783485	97.806405
738.202628	97.787427
738.621744	97.752587
739.040834	97.705086
739.459896	97.648896
739.878931	97.574215
740.297939	97.519012
740.716919	97.451597
741.135873	97.387402
741.554799	97.311916
741.973698	97.235522
742.392570	97.177674
742.811415	97.134124
743.230232	97.095016
743.649022	97.071507
744.067785	97.031838
744.486521	97.002434
744.905229	96.990937
745.323909	96.972333
745.742563	96.991140
746.161189	97.006988
746.579787	97.043196
746.998358	97.095292
747.416902	97.154051
747.835418	97.227011
748.253907	97.306420
748.672368	97.408468
749.090802	97.526184
749.509208	97.663933
749.927586	97.807365
750.345937	97.968339
750.764261	98.150106
751.182556	98.319531
751.600824	98.520434
752.019065	98.730864
752.437277	98.957850
752.855462	99.196299
753.273620	99.441624
753.691749	99.692364
754.109851	99.947032
