Time1=100ms:Average1=5:Objective=10X:Aperture=1: (11/21/2018 11:47:55 AM)
11/21/2018 11:47:55 AM
Reflectance
10X
Ap#: 1
Avg1: 5.000000
Avg2: 0.000000
Int.Time1:100.000000

350.166136	96.810561
350.601937	97.083416
351.037728	97.081851
351.473509	97.098959
351.909281	97.187532
352.345042	97.396897
352.780794	97.085294
353.216536	97.263910
353.652267	97.207161
354.087989	96.965362
354.523701	97.019800
354.959403	97.057925
355.395095	97.385888
355.830777	97.594537
356.266449	97.733538
356.702110	97.810885
357.137762	97.871474
357.573404	97.837450
358.009035	97.614416
358.444656	97.843057
358.880268	97.921811
359.315869	97.918599
359.751459	98.130841
360.187040	98.414006
360.622610	98.565975
361.058170	98.288836
361.493720	98.606092
361.929260	98.873734
362.364789	98.550278
362.800308	98.603122
363.235816	98.558039
363.671314	98.450646
364.106802	98.490915
364.542279	98.975095
364.977746	99.484430
365.413203	99.968989
365.848649	99.163310
366.284084	98.852577
366.719509	98.390074
367.154924	98.387925
367.590328	98.003890
368.025721	97.839885
368.461104	97.898083
368.896477	97.911120
369.331838	97.655610
369.767189	96.500659
370.202530	96.599612
370.637859	96.198949
371.073178	96.718323
371.508486	96.552423
371.943784	96.812506
372.379071	96.877534
372.814347	97.304993
373.249612	97.262365
373.684866	96.515503
374.120110	96.620459
374.555343	96.691958
374.990565	97.009967
375.425776	96.851423
375.860976	96.573962
376.296165	96.666331
376.731343	96.853392
377.166511	96.834171
377.601667	96.516865
378.036812	96.089049
378.471946	95.344190
378.907070	94.775673
379.342182	95.133360
379.777283	95.024381
380.212373	94.717506
380.647452	94.590585
381.082520	94.537732
381.517576	94.555139
381.952622	95.152960
382.387656	95.400579
382.822679	95.464966
383.257691	95.916325
383.692692	95.625747
384.127681	95.866280
384.562659	95.123162
384.997626	95.081317
385.432581	94.144322
385.867525	94.401259
386.302458	94.554892
386.737379	94.827586
387.172289	94.910941
387.607188	94.784382
388.042075	94.844358
388.476951	94.296837
388.911815	94.378526
389.346668	94.694831
389.781509	94.772838
390.216338	95.040595
390.651157	94.953143
391.085963	95.390349
391.520758	95.429634
391.955541	96.185901
392.390313	95.836171
392.825073	95.865759
393.259821	96.428222
393.694558	96.931550
394.129283	97.008505
394.563996	97.643825
394.998698	97.878220
395.433388	97.460784
395.868066	97.136457
396.302732	96.829578
396.737386	96.788946
397.172029	96.777638
397.606659	96.391254
398.041278	96.000771
398.475885	96.046712
398.910480	96.177130
399.345063	95.267111
399.779634	94.449385
400.214194	92.985686
400.648741	91.778211
401.083276	89.819216
401.517799	87.898117
401.952310	85.854699
402.386809	83.451117
402.821296	80.567711
403.255771	77.929810
403.690234	74.942908
404.124684	71.651926
404.559123	68.022876
404.993549	64.901841
405.427963	61.436004
405.862365	58.330581
406.296754	55.387273
406.731131	52.423836
407.165496	49.935857
407.599849	47.289197
408.034190	44.983069
408.468518	42.688408
408.902833	40.652007
409.337137	38.825824
409.771428	37.303013
410.205706	35.682355
410.639973	34.262509
411.074226	33.026085
411.508467	31.892123
411.942696	30.834812
412.376912	29.911547
412.811116	29.179684
413.245307	28.511400
413.679486	27.996844
414.113652	27.453561
414.547805	26.993463
414.981946	26.486282
415.416074	26.043521
415.850190	25.657410
416.284293	25.318605
416.718383	25.031556
417.152460	24.721646
417.586525	24.488329
418.020577	24.270744
418.454616	24.094104
418.888643	23.948319
419.322656	23.813832
419.756657	23.653032
420.190645	23.582169
420.624620	23.444007
421.058582	23.314873
421.492531	23.192731
421.926468	23.098060
422.360391	23.040553
422.794301	22.973240
423.228199	22.926829
423.662083	22.902386
424.095955	22.917136
424.529813	22.863341
424.963658	22.858918
425.397491	22.852683
425.831310	22.837276
426.265116	22.816257
426.698909	22.785913
427.132689	22.737601
427.566455	22.721213
428.000209	22.686337
428.433949	22.705818
428.867676	22.702591
429.301389	22.697646
429.735090	22.679262
430.168777	22.655881
430.602451	22.631815
431.036111	22.613471
431.469759	22.604565
431.903392	22.577515
432.337013	22.553193
432.770620	22.511059
433.204213	22.474175
433.637794	22.433763
434.071360	22.418040
434.504914	22.415588
434.938453	22.406950
435.371979	22.388737
435.805492	22.358482
436.238991	22.339689
436.672477	22.324939
437.105949	22.323029
437.539407	22.261841
437.972852	22.249297
438.406283	22.220670
438.839700	22.162958
439.273104	22.112211
439.706494	22.045386
440.139871	21.996007
440.573233	21.934830
441.006582	21.884209
441.439917	21.811718
441.873238	21.712226
442.306546	21.637532
442.739839	21.551433
443.173119	21.486899
443.606385	21.404807
444.039636	21.330367
444.472874	21.258845
444.906099	21.201928
445.339309	21.120685
445.772505	21.048798
446.205687	20.990480
446.638855	20.925873
447.072009	20.845808
447.505149	20.775964
447.938275	20.704604
448.371387	20.641647
448.804485	20.581605
449.237569	20.521287
449.670638	20.428399
450.103694	20.349854
450.536735	20.257828
450.969762	20.185161
451.402774	20.094089
451.835773	19.996027
452.268757	19.924721
452.701727	19.831242
453.134683	19.761055
453.567624	19.680227
454.000551	19.624899
454.433464	19.573509
454.866362	19.524434
455.299246	19.505827
455.732116	19.454149
456.164971	19.408073
456.597811	19.356043
457.030638	19.306196
457.463449	19.248699
457.896246	19.188472
458.329029	19.117526
458.761797	19.073500
459.194551	19.026013
459.627290	18.978216
460.060014	18.951565
460.492724	18.925514
460.925419	18.873779
461.358099	18.826670
461.790765	18.769134
462.223416	18.701628
462.656052	18.625817
463.088674	18.598282
463.521281	18.526671
463.953873	18.469343
464.386450	18.431574
464.819012	18.421588
465.251560	18.407290
465.684093	18.404894
466.116611	18.421460
466.549114	18.413461
466.981602	18.409955
467.414075	18.398957
467.846533	18.385217
468.278977	18.373918
468.711405	18.349307
469.143818	18.342686
469.576216	18.347694
470.008600	18.364419
470.440968	18.377564
470.873321	18.396238
471.305659	18.414846
471.737982	18.432159
472.170289	18.433057
472.602582	18.421265
473.034859	18.416580
473.467122	18.399793
473.899369	18.382861
474.331600	18.371164
474.763817	18.373087
475.196018	18.372629
475.628204	18.391457
476.060375	18.416566
476.492530	18.429113
476.924670	18.456004
477.356795	18.490206
477.788904	18.499701
478.220998	18.500789
478.653076	18.504091
479.085139	18.491492
479.517186	18.483695
479.949219	18.492108
480.381235	18.496982
480.813236	18.496308
481.245221	18.496779
481.677191	18.502629
482.109146	18.502239
482.541084	18.503442
482.973008	18.490777
483.404915	18.463571
483.836807	18.427036
484.268683	18.381253
484.700544	18.332946
485.132388	18.292061
485.564217	18.250508
485.996031	18.202962
486.427828	18.163036
486.859610	18.136986
487.291376	18.107665
487.723126	18.088857
488.154860	18.058340
488.586579	18.022892
489.018281	17.982508
489.449968	17.933323
489.881639	17.875277
490.313293	17.812070
490.744932	17.727766
491.176555	17.640332
491.608162	17.545613
492.039753	17.442098
492.471328	17.351579
492.902886	17.240811
493.334429	17.132304
493.765956	17.017563
494.197466	16.916637
494.628960	16.803986
495.060439	16.690676
495.491901	16.578211
495.923347	16.462276
496.354776	16.352731
496.786190	16.240616
497.217587	16.129864
497.648968	16.026133
498.080332	15.920415
498.511681	15.820340
498.943013	15.720657
499.374328	15.646715
499.805628	15.572632
500.236911	15.501769
500.668177	15.451062
501.099427	15.413141
501.530661	15.400328
501.961878	15.398619
502.393079	15.410334
502.824264	15.440099
503.255431	15.485017
503.686583	15.543290
504.117717	15.635705
504.548835	15.755286
504.979937	15.899441
505.411022	16.070299
505.842090	16.248434
506.273142	16.453842
506.704177	16.681349
507.135195	16.940933
507.566197	17.216290
507.997182	17.526036
508.428150	17.867973
508.859102	18.225617
509.290036	18.624498
509.720954	19.056704
510.151855	19.512467
510.582739	20.004927
511.013607	20.516636
511.444457	21.059872
511.875291	21.618029
512.306107	22.220272
512.736907	22.838172
513.167690	23.489243
513.598456	24.164686
514.029205	24.863691
514.459936	25.598896
514.890651	26.365965
515.321349	27.144872
515.752030	27.974053
516.182693	28.814330
516.613340	29.686940
517.043969	30.588733
517.474582	31.502092
517.905177	32.421267
518.335755	33.343977
518.766315	34.278462
519.196859	35.223760
519.627385	36.161746
520.057894	37.095787
520.488386	38.029333
520.918860	38.961396
521.349318	39.917039
521.779757	40.860927
522.210180	41.831005
522.640585	42.784073
523.070973	43.749234
523.501343	44.721960
523.931696	45.690627
524.362031	46.673296
524.792349	47.656533
525.222650	48.637250
525.652933	49.610996
526.083198	50.582868
526.513446	51.528334
526.943677	52.468464
527.373890	53.412298
527.804085	54.344306
528.234262	55.261943
528.664422	56.200019
529.094565	57.110048
529.524689	58.018797
529.954796	58.912050
530.384885	59.788674
530.814957	60.639792
531.245011	61.501676
531.675047	62.358538
532.105065	63.206309
532.535065	64.043351
532.965048	64.885376
533.395013	65.706664
533.824959	66.509206
534.254888	67.311692
534.684799	68.098195
535.114693	68.890606
535.544568	69.653690
535.974425	70.425836
536.404264	71.136559
536.834086	71.827702
537.263889	72.507757
537.693674	73.178053
538.123441	73.821517
538.553190	74.439955
538.982921	75.031390
539.412634	75.605671
539.842329	76.195544
540.272006	76.749316
540.701664	77.267425
541.131304	77.768692
541.560926	78.245470
541.990530	78.704197
542.420116	79.159985
542.849683	79.582176
543.279232	80.010848
543.708763	80.421786
544.138275	80.841011
544.567769	81.218106
544.997245	81.593224
545.426702	81.956586
545.856141	82.321527
546.285562	82.700016
546.714964	83.062439
547.144347	83.424436
547.573713	83.793050
548.003059	84.146144
548.432387	84.501794
548.861697	84.864365
549.290988	85.221486
549.720260	85.586774
550.149514	85.955989
550.578750	86.330246
551.007966	86.670654
551.437164	87.032896
551.866344	87.375818
552.295504	87.721388
552.724646	88.062361
553.153769	88.396872
553.582874	88.737524
554.011960	89.077281
554.441027	89.397131
554.870075	89.712644
555.299104	90.022335
555.728115	90.287396
556.157106	90.572806
556.586079	90.816382
557.015033	91.069805
557.443968	91.290034
557.872884	91.510987
558.301781	91.693393
558.730659	91.903947
559.159518	92.074768
559.588358	92.218534
560.017180	92.371633
560.445982	92.519456
560.874765	92.642196
561.303528	92.765988
561.732273	92.896764
562.160999	93.010420
562.589705	93.112234
563.018393	93.228621
563.447061	93.343832
563.875710	93.442663
564.304340	93.561435
564.732950	93.670669
565.161542	93.794698
565.590114	93.919010
566.018666	94.046485
566.447200	94.171118
566.875714	94.290278
567.304208	94.418577
567.732684	94.549336
568.161140	94.691843
568.589576	94.831399
569.017993	94.970480
569.446391	95.094661
569.874769	95.231717
570.303128	95.343451
570.731467	95.474220
571.159787	95.590046
571.588087	95.724812
572.016368	95.809876
572.444629	95.905960
572.872870	95.984365
573.301092	96.054573
573.729294	96.100073
574.157476	96.151825
574.585639	96.190356
575.013782	96.209574
575.441906	96.215203
575.870009	96.226021
576.298093	96.228567
576.726157	96.219397
577.154202	96.215526
577.582226	96.212894
578.010231	96.191998
578.438216	96.184704
578.866181	96.160578
579.294126	96.151801
579.722051	96.138681
580.149957	96.146520
580.577842	96.155442
581.005707	96.161468
581.433553	96.171006
581.861378	96.198707
582.289184	96.242357
582.716969	96.296043
583.144734	96.336692
583.572479	96.410764
584.000205	96.459946
584.427910	96.520764
584.855594	96.574039
585.283259	96.623083
585.710904	96.685741
586.138528	96.750179
586.566132	96.812761
586.993716	96.884434
587.421280	96.940457
587.848823	96.998591
588.276346	97.039238
588.703849	97.080648
589.131332	97.106797
589.558794	97.129288
589.986236	97.134449
590.413657	97.130140
590.841058	97.102138
591.268438	97.072596
591.695799	97.017288
592.123138	96.951934
592.550458	96.878502
592.977756	96.784993
593.405034	96.676664
593.832292	96.559470
594.259529	96.427847
594.686746	96.277809
595.113942	96.107195
595.541117	95.935615
595.968272	95.751913
596.395406	95.569237
596.822519	95.365318
597.249612	95.186638
597.676684	94.999826
598.103735	94.801545
598.530766	94.634291
598.957775	94.450540
599.384764	94.275484
599.811733	94.082938
600.238680	93.906157
600.665606	93.739064
601.092512	93.569026
601.519397	93.425320
601.946261	93.297868
602.373104	93.156747
602.799926	92.998100
603.226727	92.853578
603.653507	92.703720
604.080266	92.556843
604.507004	92.421470
604.933721	92.281627
605.360417	92.160097
605.787092	92.033606
606.213746	91.898039
606.640379	91.759443
607.066991	91.606381
607.493581	91.466618
607.920150	91.315203
608.346699	91.162863
608.773226	91.003633
609.199731	90.845240
609.626216	90.679800
610.052679	90.503561
610.479121	90.296146
610.905542	90.092653
611.331941	89.900915
611.758319	89.671769
612.184676	89.442606
612.611011	89.207445
613.037325	88.976748
613.463617	88.708277
613.889888	88.434322
614.316138	88.144171
614.742366	87.830476
615.168573	87.498471
615.594758	87.161546
616.020921	86.836229
616.447063	86.492822
616.873184	86.142569
617.299283	85.790349
617.725360	85.424593
618.151416	85.066062
618.577450	84.680587
619.003462	84.270127
619.429453	83.875592
619.855422	83.462490
620.281369	83.048578
620.707295	82.626884
621.133199	82.201804
621.559081	81.762997
621.984941	81.316519
622.410779	80.854592
622.836596	80.375716
623.262391	79.889260
623.688163	79.402533
624.113914	78.905611
624.539644	78.386269
624.965351	77.845776
625.391036	77.292623
625.816699	76.702862
626.242340	76.089628
626.667960	75.455497
627.093557	74.791098
627.519132	74.115360
627.944685	73.416162
628.370216	72.689312
628.795725	71.948527
629.221212	71.172558
629.646677	70.386036
630.072119	69.588414
630.497540	68.768338
630.922938	67.924714
631.348314	67.064032
631.773668	66.200552
632.198999	65.330611
632.624308	64.450347
633.049595	63.571654
633.474860	62.693950
633.900102	61.813982
634.325322	60.925130
634.750520	60.048669
635.175695	59.160603
635.600848	58.278921
636.025978	57.413657
636.451086	56.555473
636.876171	55.704361
637.301234	54.835740
637.726275	53.981109
638.151293	53.145244
638.576288	52.297323
639.001261	51.468901
639.426211	50.648530
639.851139	49.827733
640.276044	49.010338
640.700927	48.196310
641.125787	47.381578
641.550624	46.574282
641.975438	45.767909
642.400230	44.978700
642.824999	44.188489
643.249745	43.402058
643.674469	42.628863
644.099169	41.869993
644.523847	41.117630
644.948502	40.383873
645.373135	39.661807
645.797744	38.960764
646.222330	38.281307
646.646894	37.623465
647.071435	36.989756
647.495953	36.393746
647.920447	35.820033
648.344919	35.288108
648.769368	34.787061
649.193794	34.322712
649.618197	33.894352
650.042576	33.496216
650.466933	33.149386
650.891267	32.832358
651.315577	32.553174
651.739864	32.314521
652.164129	32.107584
652.588370	31.945231
653.012587	31.833606
653.436782	31.761064
653.860953	31.739842
654.285102	31.766472
654.709226	31.837905
655.133328	31.972238
655.557406	32.148251
655.981461	32.385610
656.405493	32.675879
656.829501	33.025444
657.253486	33.425501
657.677448	33.874829
658.101386	34.362485
658.525301	34.907031
658.949192	35.483775
659.373060	36.096759
659.796904	36.744173
660.220725	37.418467
660.644522	38.115084
661.068296	38.837090
661.492046	39.580390
661.915772	40.337028
662.339475	41.104004
662.763154	41.880774
663.186810	42.669705
663.610442	43.458051
664.034050	44.256985
664.457635	45.059132
664.881196	45.865372
665.304733	46.684353
665.728247	47.495804
666.151736	48.310807
666.575202	49.125573
666.998644	49.940997
667.422062	50.758374
667.845457	51.573988
668.268827	52.375325
668.692174	53.178518
669.115496	53.962219
669.538795	54.734194
669.962070	55.492115
670.385321	56.241726
670.808547	56.970582
671.231750	57.696700
671.654929	58.406970
672.078084	59.102032
672.501214	59.783018
672.924321	60.452804
673.347404	61.114861
673.770462	61.763726
674.193496	62.386686
674.616506	62.991276
675.039492	63.582699
675.462454	64.146879
675.885391	64.690273
676.308305	65.213505
676.731194	65.729480
677.154058	66.227170
677.576899	66.685285
677.999715	67.140086
678.422507	67.576943
678.845274	67.997242
679.268017	68.396187
679.690736	68.779883
680.113430	69.135670
680.536100	69.485092
680.958746	69.820661
681.381367	70.152766
681.803963	70.471157
682.226535	70.796805
682.649083	71.132007
683.071605	71.471883
683.494104	71.804691
683.916578	72.153070
684.339027	72.491665
684.761451	72.828800
685.183851	73.170190
685.606227	73.523477
686.028577	73.879900
686.450903	74.235849
686.873204	74.593888
687.295481	74.965933
687.717733	75.343467
688.139959	75.720403
688.562162	76.098511
688.984339	76.472959
689.406492	76.861373
689.828619	77.250851
690.250722	77.638421
690.672800	78.058433
691.094853	78.480116
691.516881	78.893956
691.938884	79.319220
692.360863	79.748196
692.782816	80.189178
693.204744	80.640091
693.626647	81.083373
694.048526	81.535097
694.470379	81.979933
694.892207	82.418750
695.314010	82.870912
695.735788	83.303026
696.157540	83.725963
696.579268	84.158119
697.000970	84.575319
697.422648	84.998204
697.844300	85.407568
698.265926	85.807382
698.687528	86.188316
699.109104	86.560478
699.530655	86.915014
699.952181	87.260864
700.373681	87.592333
700.795156	87.920082
701.216606	88.231077
701.638030	88.532457
702.059429	88.824235
702.480803	89.090894
702.902151	89.335889
703.323473	89.561713
703.744770	89.755468
704.166042	89.932243
704.587288	90.102082
705.008509	90.244876
705.429704	90.371142
705.850873	90.475179
706.272017	90.550539
706.693135	90.614486
707.114228	90.661952
707.535295	90.700189
707.956336	90.735827
708.377352	90.726794
708.798342	90.712474
709.219306	90.683519
709.640245	90.653979
710.061157	90.614587
710.482044	90.560939
710.902905	90.510574
711.323741	90.468693
711.744550	90.426061
712.165334	90.382036
712.586092	90.342525
713.006823	90.308477
713.427529	90.273843
713.848209	90.238811
714.268863	90.212636
714.689492	90.196918
715.110094	90.195395
715.530670	90.201284
715.951220	90.220517
716.371744	90.243117
716.792242	90.285883
717.212714	90.335002
717.633159	90.382073
718.053579	90.455828
718.473973	90.547801
718.894340	90.657610
719.314681	90.791814
719.734996	90.932406
720.155285	91.078319
720.575547	91.226083
720.995784	91.380767
721.415994	91.559089
721.836177	91.750949
722.256335	91.949528
722.676466	92.131412
723.096570	92.327455
723.516649	92.516521
723.936701	92.698978
724.356726	92.864373
724.776725	93.031994
725.196698	93.190764
725.616644	93.354367
726.036564	93.502186
726.456457	93.646939
726.876324	93.778988
727.296164	93.893618
727.715977	93.996006
728.135764	94.080604
728.555525	94.165066
728.975258	94.232520
729.394966	94.287409
729.814646	94.325811
730.234300	94.349981
730.653927	94.369276
731.073527	94.363049
731.493101	94.347048
731.912648	94.307194
732.332168	94.254206
732.751661	94.199942
733.171128	94.127067
733.590568	94.044227
734.009980	93.951626
734.429366	93.857691
734.848726	93.736706
735.268058	93.615401
735.687363	93.486455
736.106641	93.347986
736.525893	93.209568
736.945117	93.063319
737.364314	92.917427
737.783485	92.778368
738.202628	92.648147
738.621744	92.503748
739.040834	92.367315
739.459896	92.238636
739.878931	92.108812
740.297939	92.005353
740.716919	91.919361
741.135873	91.849357
741.554799	91.778635
741.973698	91.732101
742.392570	91.712932
742.811415	91.728102
743.230232	91.760109
743.649022	91.824295
744.067785	91.899233
744.486521	91.994966
744.905229	92.120072
745.323909	92.259414
745.742563	92.419442
746.161189	92.601549
746.579787	92.814116
746.998358	93.042594
747.416902	93.274048
747.835418	93.534918
748.253907	93.809343
748.672368	94.111435
749.090802	94.423562
749.509208	94.742440
749.927586	95.083866
750.345937	95.433913
750.764261	95.795536
751.182556	96.143411
751.600824	96.514051
752.019065	96.887894
752.437277	97.265534
752.855462	97.661831
753.273620	98.054504
753.691749	98.445166
754.109851	98.835086
