Time1=100ms:Average1=5:Objective=10X:Aperture=1: (11/21/2018 2:38:26 PM)
11/21/2018 2:38:26 PM
Reflectance
10X
Ap#: 1
Avg1: 5.000000
Avg2: 0.000000
Int.Time1:100.000000

350.166136	80.018596
350.601937	80.440639
351.037728	80.756789
351.473509	81.147059
351.909281	81.130964
352.345042	81.346894
352.780794	81.541802
353.216536	81.491740
353.652267	81.610220
354.087989	81.764182
354.523701	81.904386
354.959403	81.492449
355.395095	81.824478
355.830777	81.393508
356.266449	80.537443
356.702110	80.606419
357.137762	80.288320
357.573404	80.305703
358.009035	79.878646
358.444656	80.468673
358.880268	80.946803
359.315869	80.709123
359.751459	80.514275
360.187040	80.780869
360.622610	81.089303
361.058170	81.318898
361.493720	81.056574
361.929260	81.560841
362.364789	81.667325
362.800308	81.781296
363.235816	81.837902
363.671314	82.036399
364.106802	82.293921
364.542279	82.053809
364.977746	82.281099
365.413203	82.453708
365.848649	82.130142
366.284084	82.256786
366.719509	82.051535
367.154924	82.225733
367.590328	82.162908
368.025721	81.884486
368.461104	82.068761
368.896477	82.483919
369.331838	82.534989
369.767189	83.581942
370.202530	83.645555
370.637859	84.203187
371.073178	83.829830
371.508486	84.131409
371.943784	83.770362
372.379071	82.846643
372.814347	83.084232
373.249612	83.541172
373.684866	83.308554
374.120110	83.703704
374.555343	83.885974
374.990565	84.433214
375.425776	84.170381
375.860976	84.122122
376.296165	84.331524
376.731343	84.463333
377.166511	85.014381
377.601667	84.711681
378.036812	85.175335
378.471946	84.962554
378.907070	84.585987
379.342182	84.566514
379.777283	84.784952
380.212373	84.887712
380.647452	84.657588
381.082520	84.204857
381.517576	83.906922
381.952622	83.334944
382.387656	82.754652
382.822679	82.956505
383.257691	82.582554
383.692692	82.615736
384.127681	82.454640
384.562659	82.485073
384.997626	82.390175
385.432581	82.260507
385.867525	82.709125
386.302458	82.557147
386.737379	82.789459
387.172289	82.690847
387.607188	82.378604
388.042075	81.565776
388.476951	81.190454
388.911815	81.066591
389.346668	80.798426
389.781509	80.731707
390.216338	80.713416
390.651157	80.207651
391.085963	79.842638
391.520758	79.955018
391.955541	79.319981
392.390313	79.445792
392.825073	79.303279
393.259821	78.944439
393.694558	78.769915
394.129283	78.954672
394.563996	79.196743
394.998698	79.768304
395.433388	80.417328
395.868066	80.448628
396.302732	80.103612
396.737386	79.658414
397.172029	79.519695
397.606659	79.428334
398.041278	78.806943
398.475885	78.469052
398.910480	77.919617
399.345063	77.113475
399.779634	76.040980
400.214194	74.370128
400.648741	73.162120
401.083276	71.990142
401.517799	70.561439
401.952310	68.776878
402.386809	66.754113
402.821296	64.946485
403.255771	62.644292
403.690234	60.266527
404.124684	57.877255
404.559123	55.520763
404.993549	52.885169
405.427963	50.732258
405.862365	48.336806
406.296754	46.019119
406.731131	43.829373
407.165496	41.828249
407.599849	40.048748
408.034190	38.223213
408.468518	36.813908
408.902833	35.153447
409.337137	33.687101
409.771428	32.218078
410.205706	30.980105
410.639973	29.853676
411.074226	28.755059
411.508467	27.974807
411.942696	27.328874
412.376912	26.667974
412.811116	26.213398
413.245307	25.816045
413.679486	25.460308
414.113652	25.006820
414.547805	24.618927
414.981946	24.262946
415.416074	23.928694
415.850190	23.708434
416.284293	23.464440
416.718383	23.317347
417.152460	23.144012
417.586525	23.057686
418.020577	23.008850
418.454616	22.916070
418.888643	22.813442
419.322656	22.720597
419.756657	22.670791
420.190645	22.527824
420.624620	22.399863
421.058582	22.272002
421.492531	22.229890
421.926468	22.139623
422.360391	22.153507
422.794301	22.168587
423.228199	22.258807
423.662083	22.315520
424.095955	22.420582
424.529813	22.562261
424.963658	22.654679
425.397491	22.664721
425.831310	22.711928
426.265116	22.697958
426.698909	22.674242
427.132689	22.683447
427.566455	22.744421
428.000209	22.856279
428.433949	22.931299
428.867676	23.043567
429.301389	23.144130
429.735090	23.221345
430.168777	23.267987
430.602451	23.270609
431.036111	23.253617
431.469759	23.196772
431.903392	23.152787
432.337013	23.114907
432.770620	23.084725
433.204213	23.083720
433.637794	23.126882
434.071360	23.186462
434.504914	23.275814
434.938453	23.355110
435.371979	23.456400
435.805492	23.566088
436.238991	23.664561
436.672477	23.743895
437.105949	23.809028
437.539407	23.818424
437.972852	23.782392
438.406283	23.787900
438.839700	23.805821
439.273104	23.834481
439.706494	23.882463
440.139871	23.979603
440.573233	24.056207
441.006582	24.135152
441.439917	24.129970
441.873238	24.166077
442.306546	24.149333
442.739839	24.093413
443.173119	24.012060
443.606385	23.935752
444.039636	23.857248
444.472874	23.786674
444.906099	23.749004
445.339309	23.740559
445.772505	23.736274
446.205687	23.763562
446.638855	23.763003
447.072009	23.797904
447.505149	23.839855
447.938275	23.859986
448.371387	23.879709
448.804485	23.856710
449.237569	23.812354
449.670638	23.762694
450.103694	23.676896
450.536735	23.591339
450.969762	23.523772
451.402774	23.465858
451.835773	23.392131
452.268757	23.346690
452.701727	23.303650
453.134683	23.275901
453.567624	23.231727
454.000551	23.178025
454.433464	23.088792
454.866362	23.008684
455.299246	22.903168
455.732116	22.809602
456.164971	22.698932
456.597811	22.607200
457.030638	22.504419
457.463449	22.459440
457.896246	22.385694
458.329029	22.319190
458.761797	22.248941
459.194551	22.183283
459.627290	22.132580
460.060014	22.096068
460.492724	22.060820
460.925419	22.011266
461.358099	21.988185
461.790765	21.940437
462.223416	21.900130
462.656052	21.840766
463.088674	21.778069
463.521281	21.730823
463.953873	21.694521
464.386450	21.640129
464.819012	21.600351
465.251560	21.584898
465.684093	21.562367
466.116611	21.573491
466.549114	21.585577
466.981602	21.607923
467.414075	21.640499
467.846533	21.689857
468.278977	21.735507
468.711405	21.788219
469.143818	21.824040
469.576216	21.882363
470.008600	21.932225
470.440968	21.987783
470.873321	22.012199
471.305659	22.048440
471.737982	22.086836
472.170289	22.134806
472.602582	22.197445
473.034859	22.261126
473.467122	22.334941
473.899369	22.430483
474.331600	22.557755
474.763817	22.689041
475.196018	22.846834
475.628204	23.031381
476.060375	23.234687
476.492530	23.446593
476.924670	23.670731
477.356795	23.887893
477.788904	24.106279
478.220998	24.314612
478.653076	24.515935
479.085139	24.712947
479.517186	24.902886
479.949219	25.103962
480.381235	25.350638
480.813236	25.610487
481.245221	25.901817
481.677191	26.224182
482.109146	26.549555
482.541084	26.901069
482.973008	27.230231
483.404915	27.567843
483.836807	27.883539
484.268683	28.191124
484.700544	28.476815
485.132388	28.751933
485.564217	29.004600
485.996031	29.246618
486.427828	29.472682
486.859610	29.688309
487.291376	29.911323
487.723126	30.127543
488.154860	30.346655
488.586579	30.589335
489.018281	30.855090
489.449968	31.154538
489.881639	31.489403
490.313293	31.846495
490.744932	32.222238
491.176555	32.608497
491.608162	32.989970
492.039753	33.366675
492.471328	33.694242
492.902886	33.981362
493.334429	34.219396
493.765956	34.388098
494.197466	34.533970
494.628960	34.649371
495.060439	34.776392
495.491901	34.917184
495.923347	35.076654
496.354776	35.267395
496.786190	35.473999
497.217587	35.714088
497.648968	35.966888
498.080332	36.226791
498.511681	36.459410
498.943013	36.675441
499.374328	36.848629
499.805628	36.985850
500.236911	37.083772
500.668177	37.107845
501.099427	37.099492
501.530661	37.047225
501.961878	36.962163
502.393079	36.836383
502.824264	36.687447
503.255431	36.529085
503.686583	36.347666
504.117717	36.187684
504.548835	36.050219
504.979937	35.939825
505.411022	35.860418
505.842090	35.841049
506.273142	35.854477
506.704177	35.899096
507.135195	35.956555
507.566197	36.014954
507.997182	36.058764
508.428150	36.070072
508.859102	36.036831
509.290036	35.945640
509.720954	35.828126
510.151855	35.693588
510.582739	35.529846
511.013607	35.384978
511.444457	35.254491
511.875291	35.169393
512.306107	35.139630
512.736907	35.156454
513.167690	35.240163
513.598456	35.357232
514.029205	35.538663
514.459936	35.738426
514.890651	35.952123
515.321349	36.151139
515.752030	36.342880
516.182693	36.518890
516.613340	36.650476
517.043969	36.773276
517.474582	36.848820
517.905177	36.903879
518.335755	36.925598
518.766315	36.921835
519.196859	36.905916
519.627385	36.876827
520.057894	36.863517
520.488386	36.869878
520.918860	36.909039
521.349318	36.993803
521.779757	37.123438
522.210180	37.320388
522.640585	37.583743
523.070973	37.898338
523.501343	38.254865
523.931696	38.663718
524.362031	39.090227
524.792349	39.539769
525.222650	39.971284
525.652933	40.382666
526.083198	40.779618
526.513446	41.129448
526.943677	41.459802
527.373890	41.743733
527.804085	42.034489
528.234262	42.324854
528.664422	42.651873
529.094565	43.020162
529.524689	43.423370
529.954796	43.895823
530.384885	44.421037
530.814957	45.019616
531.245011	45.668092
531.675047	46.360151
532.105065	47.107327
532.535065	47.868892
532.965048	48.641436
533.395013	49.401004
533.824959	50.120765
534.254888	50.802344
534.684799	51.436575
535.114693	52.027310
535.544568	52.570426
535.974425	53.062082
536.404264	53.498298
536.834086	53.898892
537.263889	54.261964
537.693674	54.577569
538.123441	54.897902
538.553190	55.218961
538.982921	55.549786
539.412634	55.891861
539.842329	56.270534
540.272006	56.692678
540.701664	57.162117
541.131304	57.652677
541.560926	58.191658
541.990530	58.751953
542.420116	59.330768
542.849683	59.916028
543.279232	60.476334
543.708763	61.017052
544.138275	61.514723
544.567769	61.970418
544.997245	62.375004
545.426702	62.712739
545.856141	62.995485
546.285562	63.232686
546.714964	63.435633
547.144347	63.637203
547.573713	63.825486
548.003059	64.050244
548.432387	64.293010
548.861697	64.556822
549.290988	64.856592
549.720260	65.214462
550.149514	65.604896
550.578750	66.035157
551.007966	66.528557
551.437164	67.020376
551.866344	67.541542
552.295504	68.048546
552.724646	68.531443
553.153769	68.986562
553.582874	69.384006
554.011960	69.713030
554.441027	69.960069
554.870075	70.117208
555.299104	70.182376
555.728115	70.153517
556.157106	70.071297
556.586079	69.933960
557.015033	69.752673
557.443968	69.546113
557.872884	69.336214
558.301781	69.137294
558.730659	68.940133
559.159518	68.808343
559.588358	68.727049
560.017180	68.692533
560.445982	68.704847
560.874765	68.773001
561.303528	68.873105
561.732273	69.007332
562.160999	69.184450
562.589705	69.383605
563.018393	69.596105
563.447061	69.812452
563.875710	70.025084
564.304340	70.217885
564.732950	70.402508
565.161542	70.561177
565.590114	70.703701
566.018666	70.838163
566.447200	70.950501
566.875714	71.058644
567.304208	71.156676
567.732684	71.269478
568.161140	71.397166
568.589576	71.554957
569.017993	71.739077
569.446391	71.939234
569.874769	72.202474
570.303128	72.514375
570.731467	72.873153
571.159787	73.271666
571.588087	73.715361
572.016368	74.227850
572.444629	74.752547
572.872870	75.288795
573.301092	75.847891
573.729294	76.373233
574.157476	76.870803
574.585639	77.310366
575.013782	77.682307
575.441906	77.983545
575.870009	78.203147
576.298093	78.341286
576.726157	78.411349
577.154202	78.396755
577.582226	78.328452
578.010231	78.233036
578.438216	78.115718
578.866181	78.002414
579.294126	77.900550
579.722051	77.825365
580.149957	77.775621
580.577842	77.783268
581.005707	77.830110
581.433553	77.928532
581.861378	78.058149
582.289184	78.232251
582.716969	78.436515
583.144734	78.654617
583.572479	78.896936
584.000205	79.141819
584.427910	79.410379
584.855594	79.697811
585.283259	79.961411
585.710904	80.234543
586.138528	80.519830
586.566132	80.760638
586.993716	81.042911
587.421280	81.304223
587.848823	81.574382
588.276346	81.836436
588.703849	82.086817
589.131332	82.312556
589.558794	82.531171
589.986236	82.703666
590.413657	82.883055
590.841058	83.028777
591.268438	83.158161
591.695799	83.274328
592.123138	83.389212
592.550458	83.510530
592.977756	83.640598
593.405034	83.808546
593.832292	83.978464
594.259529	84.163163
594.686746	84.366751
595.113942	84.591646
595.541117	84.817119
595.968272	85.051013
596.395406	85.257830
596.822519	85.425672
597.249612	85.567349
597.676684	85.626509
598.103735	85.619389
598.530766	85.553575
598.957775	85.401007
599.384764	85.173337
599.811733	84.905696
600.238680	84.545800
600.665606	84.163521
601.092512	83.731444
601.519397	83.299891
601.946261	82.856121
602.373104	82.432800
602.799926	82.038327
603.226727	81.690462
603.653507	81.370112
604.080266	81.095515
604.507004	80.856549
604.933721	80.644193
605.360417	80.441829
605.787092	80.244290
606.213746	80.053142
606.640379	79.837346
607.066991	79.618460
607.493581	79.403166
607.920150	79.186020
608.346699	78.958362
608.773226	78.753816
609.199731	78.538168
609.626216	78.345349
610.052679	78.176801
610.479121	78.035844
610.905542	77.934071
611.331941	77.850805
611.758319	77.815112
612.184676	77.818392
612.611011	77.842294
613.037325	77.886686
613.463617	77.962503
613.889888	78.033372
614.316138	78.130813
614.742366	78.234931
615.168573	78.327433
615.594758	78.412914
616.020921	78.503105
616.447063	78.590505
616.873184	78.694362
617.299283	78.805078
617.725360	78.921695
618.151416	79.058455
618.577450	79.216313
619.003462	79.411848
619.429453	79.621913
619.855422	79.874640
620.281369	80.154936
620.707295	80.430524
621.133199	80.689354
621.559081	80.947515
621.984941	81.160417
622.410779	81.346724
622.836596	81.492059
623.262391	81.572113
623.688163	81.574773
624.113914	81.535780
624.539644	81.432391
624.965351	81.251477
625.391036	81.024579
625.816699	80.750484
626.242340	80.431362
626.667960	80.088669
627.093557	79.734245
627.519132	79.365006
627.944685	78.976286
628.370216	78.597109
628.795725	78.241494
629.221212	77.846948
629.646677	77.468992
630.072119	77.090320
630.497540	76.697430
630.922938	76.296759
631.348314	75.871207
631.773668	75.425883
632.198999	74.965282
632.624308	74.474410
633.049595	73.962486
633.474860	73.438515
633.900102	72.913538
634.325322	72.399948
634.750520	71.895805
635.175695	71.432213
635.600848	71.011656
636.025978	70.631186
636.451086	70.310630
636.876171	70.060067
637.301234	69.855175
637.726275	69.721062
638.151293	69.656434
638.576288	69.636597
639.001261	69.669780
639.426211	69.751418
639.851139	69.864454
640.276044	70.000991
640.700927	70.152081
641.125787	70.312424
641.550624	70.478672
641.975438	70.635280
642.400230	70.802580
642.824999	70.959006
643.249745	71.085734
643.674469	71.221204
644.099169	71.338505
644.523847	71.480419
644.948502	71.626124
645.373135	71.769991
645.797744	71.950941
646.222330	72.144766
646.646894	72.352525
647.071435	72.579079
647.495953	72.830869
647.920447	73.098823
648.344919	73.364078
648.769368	73.624657
649.193794	73.896094
649.618197	74.143825
650.042576	74.377522
650.466933	74.602786
650.891267	74.799022
651.315577	74.952452
651.739864	75.081325
652.164129	75.170076
652.588370	75.231957
653.012587	75.258301
653.436782	75.256780
653.860953	75.224066
654.285102	75.162527
654.709226	75.080290
655.133328	74.976382
655.557406	74.846199
655.981461	74.695507
656.405493	74.531883
656.829501	74.335958
657.253486	74.132594
657.677448	73.883292
658.101386	73.618251
658.525301	73.323311
658.949192	72.981394
659.373060	72.602518
659.796904	72.190092
660.220725	71.748159
660.644522	71.266086
661.068296	70.757367
661.492046	70.218959
661.915772	69.684196
662.339475	69.132954
662.763154	68.596289
663.186810	68.081662
663.610442	67.580190
664.034050	67.123919
664.457635	66.718185
664.881196	66.365986
665.304733	66.081101
665.728247	65.860860
666.151736	65.708925
666.575202	65.618995
666.998644	65.602571
667.422062	65.664521
667.845457	65.774890
668.268827	65.938180
668.692174	66.157160
669.115496	66.412068
669.538795	66.696666
669.962070	67.013563
670.385321	67.333040
670.808547	67.665802
671.231750	67.983094
671.654929	68.289680
672.078084	68.596446
672.501214	68.878509
672.924321	69.154752
673.347404	69.416315
673.770462	69.661932
674.193496	69.894547
674.616506	70.139264
675.039492	70.365428
675.462454	70.595160
675.885391	70.824155
676.308305	71.045369
676.731194	71.274656
677.154058	71.504175
677.576899	71.751719
677.999715	71.997767
678.422507	72.240900
678.845274	72.482480
679.268017	72.736017
679.690736	72.983385
680.113430	73.221116
680.536100	73.445127
680.958746	73.667821
681.381367	73.878156
681.803963	74.058003
682.226535	74.219781
682.649083	74.361462
683.071605	74.478749
683.494104	74.579295
683.916578	74.656408
684.339027	74.733300
684.761451	74.789218
685.183851	74.822483
685.606227	74.842368
686.028577	74.826348
686.450903	74.793562
686.873204	74.737322
687.295481	74.662764
687.717733	74.544411
688.139959	74.394262
688.562162	74.212340
688.984339	73.993118
689.406492	73.737529
689.828619	73.440657
690.250722	73.107061
690.672800	72.719140
691.094853	72.302946
691.516881	71.854596
691.938884	71.380559
692.360863	70.867311
692.782816	70.351481
693.204744	69.833345
693.626647	69.312159
694.048526	68.811529
694.470379	68.323320
694.892207	67.872925
695.314010	67.470725
695.735788	67.126589
696.157540	66.832084
696.579268	66.605353
697.000970	66.445742
697.422648	66.350845
697.844300	66.317404
698.265926	66.362477
698.687528	66.465779
699.109104	66.638063
699.530655	66.857666
699.952181	67.131671
700.373681	67.434210
700.795156	67.772306
701.216606	68.129352
701.638030	68.492656
702.059429	68.856765
702.480803	69.220404
702.902151	69.567229
703.323473	69.881566
703.744770	70.164602
704.166042	70.397595
704.587288	70.612920
705.008509	70.780159
705.429704	70.913779
705.850873	71.001968
706.272017	71.046300
706.693135	71.055600
707.114228	71.021901
707.535295	70.956228
707.956336	70.872685
708.377352	70.748616
708.798342	70.610105
709.219306	70.442600
709.640245	70.263293
710.061157	70.073134
710.482044	69.861403
710.902905	69.650929
711.323741	69.423721
711.744550	69.202997
712.165334	68.989281
712.586092	68.785209
713.006823	68.574572
713.427529	68.381781
713.848209	68.202753
714.268863	68.041248
714.689492	67.892755
715.110094	67.758281
715.530670	67.645123
715.951220	67.555800
716.371744	67.486874
716.792242	67.443435
717.212714	67.431720
717.633159	67.424296
718.053579	67.448462
718.473973	67.477442
718.894340	67.519894
719.314681	67.568028
719.734996	67.611743
720.155285	67.648720
720.575547	67.682659
720.995784	67.690907
721.415994	67.675995
721.836177	67.624257
722.256335	67.564464
722.676466	67.452381
723.096570	67.298109
723.516649	67.110977
723.936701	66.891598
724.356726	66.621821
724.776725	66.310642
725.196698	65.948290
725.616644	65.565738
726.036564	65.143288
726.456457	64.697029
726.876324	64.222752
727.296164	63.740010
727.715977	63.256786
728.135764	62.778719
728.555525	62.306918
728.975258	61.837839
729.394966	61.402877
729.814646	60.989200
730.234300	60.598364
730.653927	60.244259
731.073527	59.916494
731.493101	59.637009
731.912648	59.400604
732.332168	59.206980
732.751661	59.068260
733.171128	58.981746
733.590568	58.949593
734.009980	58.968953
734.429366	59.057611
734.848726	59.191454
735.268058	59.377794
735.687363	59.627968
736.106641	59.923432
736.525893	60.266154
736.945117	60.644222
737.364314	61.071735
737.783485	61.537130
738.202628	62.042535
738.621744	62.563985
739.040834	63.122252
739.459896	63.694241
739.878931	64.279576
740.297939	64.867787
740.716919	65.449736
741.135873	66.030718
741.554799	66.592960
741.973698	67.153419
742.392570	67.678057
742.811415	68.184309
743.230232	68.661988
743.649022	69.110745
744.067785	69.527841
744.486521	69.920871
744.905229	70.292852
745.323909	70.638984
745.742563	70.964764
746.161189	71.275408
746.579787	71.563570
746.998358	71.840936
747.416902	72.102120
747.835418	72.361660
748.253907	72.615239
748.672368	72.857696
749.090802	73.113362
749.509208	73.371692
749.927586	73.635509
750.345937	73.919518
750.764261	74.229838
751.182556	74.553704
751.600824	74.884330
752.019065	75.250657
752.437277	75.642495
752.855462	76.065316
753.273620	76.506641
753.691749	76.978842
754.109851	77.479683
