Time1=100ms:Average1=5:Objective=10X:Aperture=1: (11/21/2018 11:42:04 AM)
11/21/2018 11:42:04 AM
Reflectance
10X
Ap#: 1
Avg1: 5.000000
Avg2: 0.000000
Int.Time1:100.000000

350.166136	93.669300
350.601937	93.340633
351.037728	93.085918
351.473509	92.863641
351.909281	92.649000
352.345042	92.711311
352.780794	92.728574
353.216536	92.924962
353.652267	92.930946
354.087989	92.602432
354.523701	92.396407
354.959403	92.436119
355.395095	92.647810
355.830777	92.610335
356.266449	92.598264
356.702110	92.104996
357.137762	92.860780
357.573404	93.030645
358.009035	92.873963
358.444656	93.251849
358.880268	93.539095
359.315869	93.467285
359.751459	93.232002
360.187040	93.171988
360.622610	92.994945
361.058170	92.959489
361.493720	92.978833
361.929260	93.438727
362.364789	92.730825
362.800308	92.235004
363.235816	92.924091
363.671314	92.971475
364.106802	93.563289
364.542279	93.440607
364.977746	93.761600
365.413203	93.994211
365.848649	93.709328
366.284084	93.340846
366.719509	92.832240
367.154924	92.812404
367.590328	92.742348
368.025721	92.710893
368.461104	93.171332
368.896477	93.129224
369.331838	92.843980
369.767189	92.433310
370.202530	93.097110
370.637859	92.468662
371.073178	92.666869
371.508486	92.790509
371.943784	92.904274
372.379071	92.700730
372.814347	93.481135
373.249612	94.056585
373.684866	93.990506
374.120110	94.627138
374.555343	95.042994
374.990565	95.348837
375.425776	95.050800
375.860976	95.767836
376.296165	95.699466
376.731343	95.109730
377.166511	95.256281
377.601667	94.935442
378.036812	95.326915
378.471946	95.703867
378.907070	96.181456
379.342182	96.228105
379.777283	96.735994
380.212373	96.832489
380.647452	96.884889
381.082520	96.720664
381.517576	96.685737
381.952622	96.891140
382.387656	96.996907
382.822679	97.597927
383.257691	98.358523
383.692692	98.156636
384.127681	98.468622
384.562659	98.073103
384.997626	97.719159
385.432581	97.013013
385.867525	96.910361
386.302458	96.307903
386.737379	96.140282
387.172289	96.378939
387.607188	95.872183
388.042075	95.836576
388.476951	95.737226
388.911815	95.924917
389.346668	95.882410
389.781509	96.336102
390.216338	96.703512
390.651157	96.573604
391.085963	97.087093
391.520758	96.975925
391.955541	97.323267
392.390313	96.770114
392.825073	97.120623
393.259821	97.005578
393.694558	97.206924
394.129283	96.920520
394.563996	97.584920
394.998698	97.828876
395.433388	97.504902
395.868066	97.297166
396.302732	97.136865
396.737386	96.998151
397.172029	97.034844
397.606659	96.415441
398.041278	96.651248
398.475885	96.778980
398.910480	96.901664
399.345063	96.372396
399.779634	95.909580
400.214194	94.642611
400.648741	93.429829
401.083276	91.729223
401.517799	89.880619
401.952310	87.678280
402.386809	85.429875
402.821296	82.713085
403.255771	80.067305
403.690234	77.121175
404.124684	74.149525
404.559123	70.559165
404.993549	67.690557
405.427963	64.268788
405.862365	61.251810
406.296754	58.501550
406.731131	55.942627
407.165496	53.711132
407.599849	51.491084
408.034190	49.351720
408.468518	47.438955
408.902833	45.538304
409.337137	43.955707
409.771428	42.503846
410.205706	40.908927
410.639973	39.546776
411.074226	38.526453
411.508467	37.498665
411.942696	36.542468
412.376912	35.742271
412.811116	35.136397
413.245307	34.554998
413.679486	34.019938
414.113652	33.525557
414.547805	33.049944
414.981946	32.594659
415.416074	32.173993
415.850190	31.841628
416.284293	31.490526
416.718383	31.191521
417.152460	30.856945
417.586525	30.569404
418.020577	30.413061
418.454616	30.191415
418.888643	30.051566
419.322656	29.846659
419.756657	29.688062
420.190645	29.555411
420.624620	29.352415
421.058582	29.202853
421.492531	29.082991
421.926468	28.942903
422.360391	28.880498
422.794301	28.758768
423.228199	28.671215
423.662083	28.594033
424.095955	28.553919
424.529813	28.493506
424.963658	28.398322
425.397491	28.333216
425.831310	28.258738
426.265116	28.137490
426.698909	28.019046
427.132689	27.918422
427.566455	27.824906
428.000209	27.718785
428.433949	27.622008
428.867676	27.551958
429.301389	27.453229
429.735090	27.373573
430.168777	27.305608
430.602451	27.232747
431.036111	27.132239
431.469759	27.006870
431.903392	26.890671
432.337013	26.758863
432.770620	26.682815
433.204213	26.557023
433.637794	26.418082
434.071360	26.360250
434.504914	26.254822
434.938453	26.141951
435.371979	26.051936
435.805492	25.913303
436.238991	25.799934
436.672477	25.697643
437.105949	25.599681
437.539407	25.459134
437.972852	25.286202
438.406283	25.148321
438.839700	24.993277
439.273104	24.837964
439.706494	24.699718
440.139871	24.547088
440.573233	24.402177
441.006582	24.262022
441.439917	24.102185
441.873238	23.939830
442.306546	23.776307
442.739839	23.606412
443.173119	23.434204
443.606385	23.239926
444.039636	23.067876
444.472874	22.916856
444.906099	22.738019
445.339309	22.583556
445.772505	22.417830
446.205687	22.238397
446.638855	22.074535
447.072009	21.910355
447.505149	21.697047
447.938275	21.529283
448.371387	21.361112
448.804485	21.167380
449.237569	20.998932
449.670638	20.830701
450.103694	20.652603
450.536735	20.477710
450.969762	20.333261
451.402774	20.192343
451.835773	20.059978
452.268757	19.928315
452.701727	19.812517
453.134683	19.690929
453.567624	19.573759
454.000551	19.484247
454.433464	19.373833
454.866362	19.294864
455.299246	19.231409
455.732116	19.139860
456.164971	19.073032
456.597811	19.016497
457.030638	18.962477
457.463449	18.910137
457.896246	18.861568
458.329029	18.849356
458.761797	18.845892
459.194551	18.853906
459.627290	18.867650
460.060014	18.891426
460.492724	18.938399
460.925419	18.997245
461.358099	19.062414
461.790765	19.116528
462.223416	19.188199
462.656052	19.248560
463.088674	19.325248
463.521281	19.394124
463.953873	19.462557
464.386450	19.533726
464.819012	19.625043
465.251560	19.701677
465.684093	19.798921
466.116611	19.890486
466.549114	20.006429
466.981602	20.133037
467.414075	20.256098
467.846533	20.386101
468.278977	20.545412
468.711405	20.678114
469.143818	20.838915
469.576216	20.985544
470.008600	21.118207
470.440968	21.230391
470.873321	21.332061
471.305659	21.416037
471.737982	21.489046
472.170289	21.530731
472.602582	21.570359
473.034859	21.597813
473.467122	21.618911
473.899369	21.621895
474.331600	21.623423
474.763817	21.615914
475.196018	21.603675
475.628204	21.605639
476.060375	21.611037
476.492530	21.599226
476.924670	21.578512
477.356795	21.575483
477.788904	21.531552
478.220998	21.488461
478.653076	21.452130
479.085139	21.394121
479.517186	21.323568
479.949219	21.223993
480.381235	21.122036
480.813236	20.997730
481.245221	20.880427
481.677191	20.723323
482.109146	20.566121
482.541084	20.405907
482.973008	20.248897
483.404915	20.096249
483.836807	19.961989
484.268683	19.818142
484.700544	19.682095
485.132388	19.553826
485.564217	19.435313
485.996031	19.316872
486.427828	19.191396
486.859610	19.071771
487.291376	18.949390
487.723126	18.842085
488.154860	18.739971
488.586579	18.651477
489.018281	18.570473
489.449968	18.506974
489.881639	18.455521
490.313293	18.429353
490.744932	18.414181
491.176555	18.421644
491.608162	18.444337
492.039753	18.466956
492.471328	18.510190
492.902886	18.564664
493.334429	18.643170
493.765956	18.729204
494.197466	18.832580
494.628960	18.941679
495.060439	19.074817
495.491901	19.221643
495.923347	19.391894
496.354776	19.577783
496.786190	19.785625
497.217587	20.002606
497.648968	20.266335
498.080332	20.561358
498.511681	20.884435
498.943013	21.237823
499.374328	21.632034
499.805628	22.083119
500.236911	22.564949
500.668177	23.094013
501.099427	23.640820
501.530661	24.219326
501.961878	24.824034
502.393079	25.434031
502.824264	26.075912
503.255431	26.715901
503.686583	27.378741
504.117717	28.042401
504.548835	28.725755
504.979937	29.410607
505.411022	30.105023
505.842090	30.819700
506.273142	31.562516
506.704177	32.328116
507.135195	33.128606
507.566197	33.955114
507.997182	34.813274
508.428150	35.699381
508.859102	36.609578
509.290036	37.539937
509.720954	38.495405
510.151855	39.454964
510.582739	40.424513
511.013607	41.383342
511.444457	42.338114
511.875291	43.284213
512.306107	44.237857
512.736907	45.165204
513.167690	46.077407
513.598456	46.979684
514.029205	47.871063
514.459936	48.756010
514.890651	49.626989
515.321349	50.498476
515.752030	51.359514
516.182693	52.195487
516.613340	53.036415
517.043969	53.874014
517.474582	54.694665
517.905177	55.516058
518.335755	56.326520
518.766315	57.142308
519.196859	57.949217
519.627385	58.737509
520.057894	59.510745
520.488386	60.258945
520.918860	60.997079
521.349318	61.741494
521.779757	62.485654
522.210180	63.217778
522.640585	63.918872
523.070973	64.600060
523.501343	65.275104
523.931696	65.950058
524.362031	66.609765
524.792349	67.266423
525.222650	67.915695
525.652933	68.545173
526.083198	69.163941
526.513446	69.766114
526.943677	70.363551
527.373890	70.962592
527.804085	71.541508
528.234262	72.110883
528.664422	72.681164
529.094565	73.243361
529.524689	73.791936
529.954796	74.312935
530.384885	74.826233
530.814957	75.320740
531.245011	75.815283
531.675047	76.297081
532.105065	76.751457
532.535065	77.206520
532.965048	77.638670
533.395013	78.043053
533.824959	78.456390
534.254888	78.862089
534.684799	79.253155
535.114693	79.629291
535.544568	79.997768
535.974425	80.350797
536.404264	80.699163
536.834086	81.044207
537.263889	81.364053
537.693674	81.703241
538.123441	82.042489
538.553190	82.366884
538.982921	82.693287
539.412634	83.020107
539.842329	83.362468
540.272006	83.682743
540.701664	83.974498
541.131304	84.286182
541.560926	84.580336
541.990530	84.863603
542.420116	85.145024
542.849683	85.423258
543.279232	85.708786
543.708763	85.957907
544.138275	86.219525
544.567769	86.452836
544.997245	86.687535
545.426702	86.911542
545.856141	87.134367
546.285562	87.367491
546.714964	87.592038
547.144347	87.795473
547.573713	88.003180
548.003059	88.189572
548.432387	88.386109
548.861697	88.575893
549.290988	88.774741
549.720260	88.969371
550.149514	89.142364
550.578750	89.324909
551.007966	89.484404
551.437164	89.637060
551.866344	89.791872
552.295504	89.933878
552.724646	90.080442
553.153769	90.230639
553.582874	90.385829
554.011960	90.552980
554.441027	90.708131
554.870075	90.865258
555.299104	91.014604
555.728115	91.143372
556.157106	91.294944
556.586079	91.421237
557.015033	91.548748
557.443968	91.685193
557.872884	91.804654
558.301781	91.919254
558.730659	92.053495
559.159518	92.147817
559.588358	92.247199
560.017180	92.342160
560.445982	92.432280
560.874765	92.518660
561.303528	92.603084
561.732273	92.670822
562.160999	92.735620
562.589705	92.801412
563.018393	92.849891
563.447061	92.920024
563.875710	92.968513
564.304340	93.014993
564.732950	93.063309
565.161542	93.102649
565.590114	93.139527
566.018666	93.177398
566.447200	93.206980
566.875714	93.242143
567.304208	93.267011
567.732684	93.287483
568.161140	93.309880
568.589576	93.335445
569.017993	93.359689
569.446391	93.358616
569.874769	93.387705
570.303128	93.405135
570.731467	93.409261
571.159787	93.422611
571.588087	93.434819
572.016368	93.432866
572.444629	93.445280
572.872870	93.446170
573.301092	93.451954
573.729294	93.453334
574.157476	93.446679
574.585639	93.432380
575.013782	93.420400
575.441906	93.404673
575.870009	93.384742
576.298093	93.377016
576.726157	93.368575
577.154202	93.361714
577.582226	93.363204
578.010231	93.330706
578.438216	93.308887
578.866181	93.281047
579.294126	93.260340
579.722051	93.220985
580.149957	93.186087
580.577842	93.128604
581.005707	93.081178
581.433553	93.033932
581.861378	92.981532
582.289184	92.942384
582.716969	92.882173
583.144734	92.797939
583.572479	92.736013
584.000205	92.654858
584.427910	92.578299
584.855594	92.484568
585.283259	92.380530
585.710904	92.279292
586.138528	92.165126
586.566132	92.048378
586.993716	91.932365
587.421280	91.802941
587.848823	91.683542
588.276346	91.549300
588.703849	91.412960
589.131332	91.256706
589.558794	91.096085
589.986236	90.912965
590.413657	90.742014
590.841058	90.553240
591.268438	90.378369
591.695799	90.195214
592.123138	89.988833
592.550458	89.784313
592.977756	89.581357
593.405034	89.363007
593.832292	89.161313
594.259529	88.946291
594.686746	88.714300
595.113942	88.480862
595.541117	88.232730
595.968272	88.009287
596.395406	87.784211
596.822519	87.552515
597.249612	87.334807
597.676684	87.095299
598.103735	86.853116
598.530766	86.621307
598.957775	86.381976
599.384764	86.133241
599.811733	85.877286
600.238680	85.618902
600.665606	85.353657
601.092512	85.068921
601.519397	84.794626
601.946261	84.520774
602.373104	84.237914
602.799926	83.933033
603.226727	83.621376
603.653507	83.285706
604.080266	82.934460
604.507004	82.572824
604.933721	82.189006
605.360417	81.819440
605.787092	81.422502
606.213746	81.004284
606.640379	80.587795
607.066991	80.145754
607.493581	79.689875
607.920150	79.231866
608.346699	78.757260
608.773226	78.281415
609.199731	77.783518
609.626216	77.282823
610.052679	76.759724
610.479121	76.218706
610.905542	75.672158
611.331941	75.119485
611.758319	74.541093
612.184676	73.957183
612.611011	73.366465
613.037325	72.758434
613.463617	72.127268
613.889888	71.482947
614.316138	70.831453
614.742366	70.149132
615.168573	69.439751
615.594758	68.731985
616.020921	68.011589
616.447063	67.270518
616.873184	66.526133
617.299283	65.767134
617.725360	65.000604
618.151416	64.238297
618.577450	63.455536
619.003462	62.653316
619.429453	61.849974
619.855422	61.031473
620.281369	60.221540
620.707295	59.398409
621.133199	58.575733
621.559081	57.743222
621.984941	56.903892
622.410779	56.052878
622.836596	55.186859
623.262391	54.325040
623.688163	53.449486
624.113914	52.576236
624.539644	51.696740
624.965351	50.805886
625.391036	49.897122
625.816699	48.978055
626.242340	48.052493
626.667960	47.114312
627.093557	46.167302
627.519132	45.215246
627.944685	44.258243
628.370216	43.300389
628.795725	42.332068
629.221212	41.369721
629.646677	40.417266
630.072119	39.472135
630.497540	38.546232
630.922938	37.632851
631.348314	36.727326
631.773668	35.844668
632.198999	34.991063
632.624308	34.177388
633.049595	33.388232
633.474860	32.629216
633.900102	31.905013
634.325322	31.210646
634.750520	30.556294
635.175695	29.928550
635.600848	29.340342
636.025978	28.795836
636.451086	28.279402
636.876171	27.804082
637.301234	27.353858
637.726275	26.945672
638.151293	26.579922
638.576288	26.248036
639.001261	25.957307
639.426211	25.705722
639.851139	25.493728
640.276044	25.329162
640.700927	25.205060
641.125787	25.126050
641.550624	25.091858
641.975438	25.105576
642.400230	25.166757
642.824999	25.275658
643.249745	25.435098
643.674469	25.642018
644.099169	25.898110
644.523847	26.201457
644.948502	26.554562
645.373135	26.949810
645.797744	27.385874
646.222330	27.864717
646.646894	28.381150
647.071435	28.944885
647.495953	29.541648
647.920447	30.170536
648.344919	30.834670
648.769368	31.536147
649.193794	32.264187
649.618197	33.031428
650.042576	33.815358
650.466933	34.638084
650.891267	35.474147
651.315577	36.332425
651.739864	37.208416
652.164129	38.100786
652.588370	39.014001
653.012587	39.948469
653.436782	40.903298
653.860953	41.875200
654.285102	42.855735
654.709226	43.840864
655.133328	44.841184
655.557406	45.852989
655.981461	46.867586
656.405493	47.882439
656.829501	48.902828
657.253486	49.915250
657.677448	50.916486
658.101386	51.899632
658.525301	52.869261
658.949192	53.819976
659.373060	54.752975
659.796904	55.663133
660.220725	56.545719
660.644522	57.404916
661.068296	58.249823
661.492046	59.081090
661.915772	59.884503
662.339475	60.663872
662.763154	61.414960
663.186810	62.158900
663.610442	62.865133
664.034050	63.559366
664.457635	64.231706
664.881196	64.899180
665.304733	65.543915
665.728247	66.169426
666.151736	66.781909
666.575202	67.370239
666.998644	67.942335
667.422062	68.501025
667.845457	69.047393
668.268827	69.576212
668.692174	70.092240
669.115496	70.591941
669.538795	71.086387
669.962070	71.547167
670.385321	72.004911
670.808547	72.452692
671.231750	72.889692
671.654929	73.325436
672.078084	73.742837
672.501214	74.158872
672.924321	74.575787
673.347404	74.986219
673.770462	75.409412
674.193496	75.807960
674.616506	76.193798
675.039492	76.584826
675.462454	76.974461
675.885391	77.352373
676.308305	77.725404
676.731194	78.108178
677.154058	78.482835
677.576899	78.839153
677.999715	79.188708
678.422507	79.542655
678.845274	79.891943
679.268017	80.244136
679.690736	80.591884
680.113430	80.932893
680.536100	81.293005
680.958746	81.660402
681.381367	82.031984
681.803963	82.394038
682.226535	82.770094
682.649083	83.153948
683.071605	83.556807
683.494104	83.965523
683.916578	84.375009
684.339027	84.793979
684.761451	85.211282
685.183851	85.636410
685.606227	86.071576
686.028577	86.519301
686.450903	86.970023
686.873204	87.412436
687.295481	87.891990
687.717733	88.365716
688.139959	88.831953
688.562162	89.288030
688.984339	89.755101
689.406492	90.217917
689.828619	90.683082
690.250722	91.144685
690.672800	91.626372
691.094853	92.104834
691.516881	92.581251
691.938884	93.041358
692.360863	93.495079
692.782816	93.952345
693.204744	94.414525
693.626647	94.848550
694.048526	95.265571
694.470379	95.674555
694.892207	96.072129
695.314010	96.460951
695.735788	96.831742
696.157540	97.204116
696.579268	97.553572
697.000970	97.908553
697.422648	98.248929
697.844300	98.577474
698.265926	98.904881
698.687528	99.202208
699.109104	99.485658
699.530655	99.749182
699.952181	99.995341
700.373681	100.218513
700.795156	100.438509
701.216606	100.653390
701.638030	100.852440
702.059429	101.035927
702.480803	101.208153
702.902151	101.351618
703.323473	101.497863
703.744770	101.620983
704.166042	101.738028
704.587288	101.846417
705.008509	101.953828
705.429704	102.036692
705.850873	102.105815
706.272017	102.151006
706.693135	102.199616
707.114228	102.247706
707.535295	102.287660
707.956336	102.322525
708.377352	102.336860
708.798342	102.344781
709.219306	102.338733
709.640245	102.344007
710.061157	102.327096
710.482044	102.300057
710.902905	102.274751
711.323741	102.245239
711.744550	102.230325
712.165334	102.208953
712.586092	102.201854
713.006823	102.195239
713.427529	102.187164
713.848209	102.175847
714.268863	102.153991
714.689492	102.146363
715.110094	102.147683
715.530670	102.153112
715.951220	102.151968
716.371744	102.140922
716.792242	102.137580
717.212714	102.124330
717.633159	102.098730
718.053579	102.091086
718.473973	102.093732
718.894340	102.100339
719.314681	102.110870
719.734996	102.124639
720.155285	102.131552
720.575547	102.133555
720.995784	102.141003
721.415994	102.165892
721.836177	102.184724
722.256335	102.214164
722.676466	102.233385
723.096570	102.262154
723.516649	102.297024
723.936701	102.325407
724.356726	102.341343
724.776725	102.358859
725.196698	102.378892
725.616644	102.388479
726.036564	102.410066
726.456457	102.419967
726.876324	102.447973
727.296164	102.465004
727.715977	102.492260
728.135764	102.506879
728.555525	102.520179
728.975258	102.541687
729.394966	102.559082
729.814646	102.580081
730.234300	102.595125
730.653927	102.619174
731.073527	102.622834
731.493101	102.623635
731.912648	102.627925
732.332168	102.636185
732.751661	102.627645
733.171128	102.631812
733.590568	102.627119
734.009980	102.637825
734.429366	102.637734
734.848726	102.639263
735.268058	102.624577
735.687363	102.611513
736.106641	102.589133
736.525893	102.571665
736.945117	102.557374
737.364314	102.534320
737.783485	102.503190
738.202628	102.478239
738.621744	102.447602
739.040834	102.402759
739.459896	102.362028
739.878931	102.288777
740.297939	102.230999
740.716919	102.172301
741.135873	102.106931
741.554799	102.031114
741.973698	101.958219
742.392570	101.881910
742.811415	101.813319
743.230232	101.739279
743.649022	101.679641
744.067785	101.606466
744.486521	101.534220
744.905229	101.459564
745.323909	101.382530
745.742563	101.325917
746.161189	101.257200
746.579787	101.197747
746.998358	101.134371
747.416902	101.080219
747.835418	101.027725
748.253907	100.988489
748.672368	100.960277
749.090802	100.934818
749.509208	100.915928
749.927586	100.894661
750.345937	100.883956
750.764261	100.895397
751.182556	100.886112
751.600824	100.900687
