PE UV       SUBTECH     SPECTRUM    ASCII       PEDS        4.00        
   -1
4-C. AURIGANS INBIO DESCABEZADO.ASC
23/11/21
15:48:28.00
23/11/21
15:48:28.00
Vinicio Soto Monge

250,000000
1
Lambda 1050
1050L1511233
PerkinElmer UV WinLab 6.3.2.0749 / 2.02.05 Lambda 900 UV/VIS/NIR, Aug  7 2015 09:38:08

0
0
3350/servo 860,8/2
0
0
UV/VIS
1
1
1
DoubleDePol,CommonBeamDepol,RBeamAtt,SBeamAtt,60mm sphere, WB InGaAs Detector
0
0
0
0
Program
Program
3350/servo 860,8/2
3350/0,4 860,8/0,4
3350/0,4 860,8/0,4
0
20.00
 
 
 
0
 
860,8
319,2
860,8
Front
100
on
S:100 R:100
0
0
0
0
 
0
 
 
 
0
 
 
0
0
0
0
0
 
 
 
 
0
0


0
0
#HDR
-1
-1
#GR
nm
%R
1.0
0.0
2200,000000
-1,000000
1951
8
105,761148
5,757553
#DATA
284.000000	5.910475
285.000000	5.898278
286.000000	5.886324
287.000000	5.872943
288.000000	5.861939
289.000000	5.851819
290.000000	5.843408
291.000000	5.835922
292.000000	5.827818
293.000000	5.823299
294.000000	5.818706
295.000000	5.816217
296.000000	5.814721
297.000000	5.812175
298.000000	5.810976
299.000000	5.810337
300.000000	5.811650
301.000000	5.812426
302.000000	5.813273
303.000000	5.814429
304.000000	5.817387
305.000000	5.819726
306.000000	5.820826
307.000000	5.824067
308.000000	5.828630
309.000000	5.833936
310.000000	5.837884
311.000000	5.842555
312.000000	5.846482
313.000000	5.849586
314.000000	5.852846
315.000000	5.856088
316.000000	5.858395
317.000000	5.856718
318.000000	5.861397
319.000000	5.865126
320.000000	5.869621
321.000000	5.868207
322.000000	5.868469
323.000000	5.867616
324.000000	5.867659
325.000000	5.867302
326.000000	5.867844
327.000000	5.867990
328.000000	5.868964
329.000000	5.869784
330.000000	5.869383
331.000000	5.866815
332.000000	5.866691
333.000000	5.864484
334.000000	5.861749
335.000000	5.861737
336.000000	5.863415
337.000000	5.863792
338.000000	5.863353
339.000000	5.862564
340.000000	5.862454
341.000000	5.865230
342.000000	5.868519
343.000000	5.870593
344.000000	5.871896
345.000000	5.874356
346.000000	5.878681
347.000000	5.882515
348.000000	5.886169
349.000000	5.891327
350.000000	5.896836
351.000000	5.902547
352.000000	5.910946
353.000000	5.915404
354.000000	5.921166
355.000000	5.929263
356.000000	5.942251
357.000000	5.955623
358.000000	5.970817
359.000000	5.982936
360.000000	5.994131
361.000000	6.005346
362.000000	6.019072
363.000000	6.029178
364.000000	6.040951
365.000000	6.055137
366.000000	6.069076
367.000000	6.080469
368.000000	6.094559
369.000000	6.109915
370.000000	6.123357
371.000000	6.135316
372.000000	6.148096
373.000000	6.161428
374.000000	6.173275
375.000000	6.186654
376.000000	6.197728
377.000000	6.206636
378.000000	6.216769
379.000000	6.227046
380.000000	6.237945
381.000000	6.246992
382.000000	6.256494
383.000000	6.266710
384.000000	6.275509
385.000000	6.284532
386.000000	6.294610
387.000000	6.303490
388.000000	6.311771
389.000000	6.319308
390.000000	6.324888
391.000000	6.330945
392.000000	6.336243
393.000000	6.340775
394.000000	6.347669
395.000000	6.353749
396.000000	6.359288
397.000000	6.363642
398.000000	6.369308
399.000000	6.374129
400.000000	6.377281
401.000000	6.381111
402.000000	6.386028
403.000000	6.391111
404.000000	6.394699
405.000000	6.397014
406.000000	6.400422
407.000000	6.403514
408.000000	6.407029
409.000000	6.411793
410.000000	6.415260
411.000000	6.419320
412.000000	6.423596
413.000000	6.427802
414.000000	6.432142
415.000000	6.436423
416.000000	6.440786
417.000000	6.445239
418.000000	6.449741
419.000000	6.454583
420.000000	6.460020
421.000000	6.465774
422.000000	6.471707
423.000000	6.477861
424.000000	6.483975
425.000000	6.490305
426.000000	6.496742
427.000000	6.503434
428.000000	6.510298
429.000000	6.517542
430.000000	6.525358
431.000000	6.533026
432.000000	6.540494
433.000000	6.547968
434.000000	6.555506
435.000000	6.563343
436.000000	6.571683
437.000000	6.580377
438.000000	6.589149
439.000000	6.598006
440.000000	6.607519
441.000000	6.617588
442.000000	6.627797
443.000000	6.638021
444.000000	6.648336
445.000000	6.658705
446.000000	6.669188
447.000000	6.679790
448.000000	6.690567
449.000000	6.701438
450.000000	6.712331
451.000000	6.723496
452.000000	6.735184
453.000000	6.747075
454.000000	6.758940
455.000000	6.770659
456.000000	6.782395
457.000000	6.794545
458.000000	6.806876
459.000000	6.819251
460.000000	6.831709
461.000000	6.844723
462.000000	6.858059
463.000000	6.871576
464.000000	6.885109
465.000000	6.898736
466.000000	6.912933
467.000000	6.927698
468.000000	6.943066
469.000000	6.959167
470.000000	6.975833
471.000000	6.992994
472.000000	7.010731
473.000000	7.028908
474.000000	7.047913
475.000000	7.067795
476.000000	7.088043
477.000000	7.109119
478.000000	7.131352
479.000000	7.154555
480.000000	7.178840
481.000000	7.204138
482.000000	7.230587
483.000000	7.258584
484.000000	7.288185
485.000000	7.319440
486.000000	7.352354
487.000000	7.386943
488.000000	7.423410
489.000000	7.461956
490.000000	7.502902
491.000000	7.546390
492.000000	7.592652
493.000000	7.641619
494.000000	7.693622
495.000000	7.749306
496.000000	7.808118
497.000000	7.869990
498.000000	7.935283
499.000000	8.003870
500.000000	8.076055
501.000000	8.151927
502.000000	8.231767
503.000000	8.315710
504.000000	8.403682
505.000000	8.496114
506.000000	8.593435
507.000000	8.695884
508.000000	8.804867
509.000000	8.921426
510.000000	9.047069
511.000000	9.184641
512.000000	9.337316
513.000000	9.509831
514.000000	9.708039
515.000000	9.939521
516.000000	10.212052
517.000000	10.535409
518.000000	10.918043
519.000000	11.369656
520.000000	11.897202
521.000000	12.505487
522.000000	13.194055
523.000000	13.958984
524.000000	14.792286
525.000000	15.681875
526.000000	16.615337
527.000000	17.582380
528.000000	18.574587
529.000000	19.585816
530.000000	20.611874
531.000000	21.650931
532.000000	22.701305
533.000000	23.761228
534.000000	24.830462
535.000000	25.908042
536.000000	26.991261
537.000000	28.078116
538.000000	29.167463
539.000000	30.258007
540.000000	31.347948
541.000000	32.436152
542.000000	33.521690
543.000000	34.604526
544.000000	35.684549
545.000000	36.760431
546.000000	37.831396
547.000000	38.894005
548.000000	39.943915
549.000000	40.975041
550.000000	41.979266
551.000000	42.948584
552.000000	43.872543
553.000000	44.741902
554.000000	45.546999
555.000000	46.278252
556.000000	46.931402
557.000000	47.505587
558.000000	48.004483
559.000000	48.435063
560.000000	48.811110
561.000000	49.143904
562.000000	49.443583
563.000000	49.720466
564.000000	49.979729
565.000000	50.226236
566.000000	50.461701
567.000000	50.688587
568.000000	50.909502
569.000000	51.122553
570.000000	51.328766
571.000000	51.529468
572.000000	51.726303
573.000000	51.918298
574.000000	52.107432
575.000000	52.292764
576.000000	52.472645
577.000000	52.648097
578.000000	52.816888
579.000000	52.977683
580.000000	53.133300
581.000000	53.282791
582.000000	53.430691
583.000000	53.576551
584.000000	53.722028
585.000000	53.865645
586.000000	54.006599
587.000000	54.141423
588.000000	54.267926
589.000000	54.385531
590.000000	54.493143
591.000000	54.591500
592.000000	54.682109
593.000000	54.767433
594.000000	54.852895
595.000000	54.942641
596.000000	55.042860
597.000000	55.156496
598.000000	55.281528
599.000000	55.415860
600.000000	55.552169
601.000000	55.686793
602.000000	55.814836
603.000000	55.929597
604.000000	56.031002
605.000000	56.116510
606.000000	56.186969
607.000000	56.244991
608.000000	56.297515
609.000000	56.350567
610.000000	56.414342
611.000000	56.494544
612.000000	56.592171
613.000000	56.706499
614.000000	56.833918
615.000000	56.963978
616.000000	57.090205
617.000000	57.203746
618.000000	57.300631
619.000000	57.375357
620.000000	57.430954
621.000000	57.467610
622.000000	57.493237
623.000000	57.516141
624.000000	57.544819
625.000000	57.590463
626.000000	57.660560
627.000000	57.755940
628.000000	57.874291
629.000000	58.008831
630.000000	58.144857
631.000000	58.271937
632.000000	58.379477
633.000000	58.464018
634.000000	58.523025
635.000000	58.559962
636.000000	58.579908
637.000000	58.590228
638.000000	58.602143
639.000000	58.626414
640.000000	58.674274
641.000000	58.754187
642.000000	58.868127
643.000000	59.010400
644.000000	59.169430
645.000000	59.331500
646.000000	59.485902
647.000000	59.625423
648.000000	59.745452
649.000000	59.846989
650.000000	59.935519
651.000000	60.015358
652.000000	60.092816
653.000000	60.176780
654.000000	60.277029
655.000000	60.398677
656.000000	60.547901
657.000000	60.724148
658.000000	60.923991
659.000000	61.137410
660.000000	61.353007
661.000000	61.559881
662.000000	61.749709
663.000000	61.918111
664.000000	62.062734
665.000000	62.191367
666.000000	62.306816
667.000000	62.417287
668.000000	62.526480
669.000000	62.642904
670.000000	62.775515
671.000000	62.926747
672.000000	63.099406
673.000000	63.291388
674.000000	63.495798
675.000000	63.702491
676.000000	63.899652
677.000000	64.079105
678.000000	64.236460
679.000000	64.373282
680.000000	64.491470
681.000000	64.594346
682.000000	64.687287
683.000000	64.777370
684.000000	64.868923
685.000000	64.967249
686.000000	65.078421
687.000000	65.205902
688.000000	65.346480
689.000000	65.500642
690.000000	65.664588
691.000000	65.830378
692.000000	65.991492
693.000000	66.141559
694.000000	66.278124
695.000000	66.401780
696.000000	66.511065
697.000000	66.611200
698.000000	66.706841
699.000000	66.803236
700.000000	66.904338
701.000000	67.013644
702.000000	67.131828
703.000000	67.264426
704.000000	67.411952
705.000000	67.568227
706.000000	67.729394
707.000000	67.889383
708.000000	68.045613
709.000000	68.194744
710.000000	68.334729
711.000000	68.468642
712.000000	68.597029
713.000000	68.722861
714.000000	68.851248
715.000000	68.985385
716.000000	69.127594
717.000000	69.279584
718.000000	69.442196
719.000000	69.614248
720.000000	69.791339
721.000000	69.970637
722.000000	70.149643
723.000000	70.327178
724.000000	70.498698
725.000000	70.661955
726.000000	70.818080
727.000000	70.972553
728.000000	71.129939
729.000000	71.290143
730.000000	71.454616
731.000000	71.627148
732.000000	71.809089
733.000000	71.998171
734.000000	72.191531
735.000000	72.386458
736.000000	72.583211
737.000000	72.779347
738.000000	72.969992
739.000000	73.153763
740.000000	73.333809
741.000000	73.509953
742.000000	73.685319
743.000000	73.860654
744.000000	74.036116
745.000000	74.213919
746.000000	74.394128
747.000000	74.579094
748.000000	74.766794
749.000000	74.953923
750.000000	75.140086
751.000000	75.326475
752.000000	75.513458
753.000000	75.700495
754.000000	75.885307
755.000000	76.067804
756.000000	76.248392
757.000000	76.424735
758.000000	76.597109
759.000000	76.769181
760.000000	76.942333
761.000000	77.115834
762.000000	77.285835
763.000000	77.451174
764.000000	77.614183
765.000000	77.774424
766.000000	77.934955
767.000000	78.094358
768.000000	78.251199
769.000000	78.408790
770.000000	78.567411
771.000000	78.725141
772.000000	78.882589
773.000000	79.042129
774.000000	79.200261
775.000000	79.357113
776.000000	79.511337
777.000000	79.662023
778.000000	79.806087
779.000000	79.946445
780.000000	80.083675
781.000000	80.215286
782.000000	80.340968
783.000000	80.467156
784.000000	80.593084
785.000000	80.719646
786.000000	80.852511
787.000000	80.984092
788.000000	81.111015
789.000000	81.237419
790.000000	81.366814
791.000000	81.501042
792.000000	81.633563
793.000000	81.764110
794.000000	81.885918
795.000000	82.003776
796.000000	82.115293
797.000000	82.226154
798.000000	82.334764
799.000000	82.444387
800.000000	82.557330
801.000000	82.666863
802.000000	82.777760
803.000000	82.888135
804.000000	83.001326
805.000000	83.112713
806.000000	83.221509
807.000000	83.332962
808.000000	83.443683
809.000000	83.554330
810.000000	83.660380
811.000000	83.768364
812.000000	83.867610
813.000000	83.968728
814.000000	84.070548
815.000000	84.167788
816.000000	84.268065
817.000000	84.371169
818.000000	84.469519
819.000000	84.569972
820.000000	84.674669
821.000000	84.775247
822.000000	84.875319
823.000000	84.978120
824.000000	85.074748
825.000000	85.171784
826.000000	85.263065
827.000000	85.360112
828.000000	85.454672
829.000000	85.550173
830.000000	85.641561
831.000000	85.730150
832.000000	85.820909
833.000000	85.907757
834.000000	85.989193
835.000000	86.070345
836.000000	86.155594
837.000000	86.242270
838.000000	86.332475
839.000000	86.415036
840.000000	86.500778
841.000000	86.591776
842.000000	86.674105
843.000000	86.756491
844.000000	86.844108
845.000000	86.935097
846.000000	87.011201
847.000000	87.101348
848.000000	87.180874
849.000000	87.259042
850.000000	87.336424
851.000000	87.405751
852.000000	87.476158
853.000000	87.551606
854.000000	87.621083
855.000000	87.701457
856.000000	87.789713
857.000000	87.846413
858.000000	87.885415
859.000000	87.999013
860.000000	88.112565
861.000000	88.231864
862.000000	88.309919
863.000000	88.391664
864.000000	88.499617
865.000000	88.598184
866.000000	88.686289
867.000000	88.796288
868.000000	88.871425
869.000000	88.979598
870.000000	89.098888
871.000000	89.181768
872.000000	89.259916
873.000000	89.350097
874.000000	89.456351
875.000000	89.586470
876.000000	89.673916
877.000000	89.765775
878.000000	89.862073
879.000000	89.962986
880.000000	90.072850
881.000000	90.181673
882.000000	90.277749
883.000000	90.391584
884.000000	90.497114
885.000000	90.595942
886.000000	90.732548
887.000000	90.819991
888.000000	90.948022
889.000000	91.047687
890.000000	91.160400
891.000000	91.257923
892.000000	91.366492
893.000000	91.462449
894.000000	91.514076
895.000000	91.571244
896.000000	91.618520
897.000000	91.704923
898.000000	91.790682
899.000000	91.862670
900.000000	91.909625
901.000000	91.978340
902.000000	92.022356
903.000000	92.103004
904.000000	92.165973
905.000000	92.194811
906.000000	92.269965
907.000000	92.352157
908.000000	92.400607
909.000000	92.461056
910.000000	92.509749
911.000000	92.549656
912.000000	92.570356
913.000000	92.623733
914.000000	92.685964
915.000000	92.721160
916.000000	92.776147
917.000000	92.834104
918.000000	92.862916
919.000000	92.917536
920.000000	92.978073
921.000000	92.997391
922.000000	93.044732
923.000000	93.062939
924.000000	93.128420
925.000000	93.164609
926.000000	93.210880
927.000000	93.261583
928.000000	93.324410
929.000000	93.356096
930.000000	93.368201
931.000000	93.394589
932.000000	93.421089
933.000000	93.462164
934.000000	93.512439
935.000000	93.562533
936.000000	93.620593
937.000000	93.664382
938.000000	93.709895
939.000000	93.735240
940.000000	93.810428
941.000000	93.852721
942.000000	93.883359
943.000000	93.942334
944.000000	93.990031
945.000000	93.990996
946.000000	94.036493
947.000000	94.113828
948.000000	94.150482
949.000000	94.154173
950.000000	94.190462
951.000000	94.227740
952.000000	94.267891
953.000000	94.304621
954.000000	94.307266
955.000000	94.345747
956.000000	94.394516
957.000000	94.455687
958.000000	94.482441
959.000000	94.491811
960.000000	94.495300
961.000000	94.478947
962.000000	94.497576
963.000000	94.528108
964.000000	94.566245
965.000000	94.612975
966.000000	94.663412
967.000000	94.691160
968.000000	94.713489
969.000000	94.751995
970.000000	94.807507
971.000000	94.814547
972.000000	94.830685
973.000000	94.848950
974.000000	94.878409
975.000000	94.885097
976.000000	94.885852
977.000000	94.899653
978.000000	94.922049
979.000000	94.918394
980.000000	94.942373
981.000000	94.983811
982.000000	94.998487
983.000000	95.002754
984.000000	95.040015
985.000000	95.079014
986.000000	95.112609
987.000000	95.122313
988.000000	95.138995
989.000000	95.175327
990.000000	95.181586
991.000000	95.177129
992.000000	95.174739
993.000000	95.189389
994.000000	95.207362
995.000000	95.238439
996.000000	95.271648
997.000000	95.283598
998.000000	95.323525
999.000000	95.368927
1000.000000	95.416132
1001.000000	95.453956
1002.000000	95.471040
1003.000000	95.475040
1004.000000	95.455941
1005.000000	95.456881
1006.000000	95.513586
1007.000000	95.562886
1008.000000	95.607840
1009.000000	95.639360
1010.000000	95.645860
1011.000000	95.674517
1012.000000	95.686503
1013.000000	95.684039
1014.000000	95.699246
1015.000000	95.740498
1016.000000	95.783411
1017.000000	95.827373
1018.000000	95.887309
1019.000000	95.927899
1020.000000	95.923377
1021.000000	95.928068
1022.000000	95.933087
1023.000000	95.950005
1024.000000	95.984961
1025.000000	96.003812
1026.000000	96.032542
1027.000000	96.078601
1028.000000	96.085218
1029.000000	96.080777
1030.000000	96.114126
1031.000000	96.182973
1032.000000	96.226639
1033.000000	96.228138
1034.000000	96.247986
1035.000000	96.288737
1036.000000	96.328090
1037.000000	96.368403
1038.000000	96.414607
1039.000000	96.445270
1040.000000	96.482338
1041.000000	96.488957
1042.000000	96.505647
1043.000000	96.532713
1044.000000	96.539015
1045.000000	96.558388
1046.000000	96.590553
1047.000000	96.651258
1048.000000	96.712905
1049.000000	96.740132
1050.000000	96.746995
1051.000000	96.726061
1052.000000	96.695818
1053.000000	96.685368
1054.000000	96.680566
1055.000000	96.704129
1056.000000	96.686040
1057.000000	96.708004
1058.000000	96.740662
1059.000000	96.739623
1060.000000	96.763135
1061.000000	96.780133
1062.000000	96.777607
1063.000000	96.822683
1064.000000	96.870984
1065.000000	96.880515
1066.000000	96.860923
1067.000000	96.862558
1068.000000	96.884232
1069.000000	96.897229
1070.000000	96.918697
1071.000000	96.901681
1072.000000	96.940526
1073.000000	96.925583
1074.000000	96.917871
1075.000000	96.895765
1076.000000	96.916910
1077.000000	96.918577
1078.000000	96.915971
1079.000000	96.937461
1080.000000	96.963735
1081.000000	96.989856
1082.000000	96.957323
1083.000000	96.975937
1084.000000	96.999430
1085.000000	97.011483
1086.000000	97.052702
1087.000000	97.104068
1088.000000	97.125065
1089.000000	97.134872
1090.000000	97.163682
1091.000000	97.216351
1092.000000	97.223534
1093.000000	97.216651
1094.000000	97.221122
1095.000000	97.227271
1096.000000	97.211558
1097.000000	97.220088
1098.000000	97.255048
1099.000000	97.302308
1100.000000	97.314547
1101.000000	97.330085
1102.000000	97.347164
1103.000000	97.365036
1104.000000	97.360847
1105.000000	97.322979
1106.000000	97.323093
1107.000000	97.314394
1108.000000	97.381019
1109.000000	97.392858
1110.000000	97.451557
1111.000000	97.442873
1112.000000	97.438442
1113.000000	97.463890
1114.000000	97.433335
1115.000000	97.442463
1116.000000	97.416420
1117.000000	97.476104
1118.000000	97.461059
1119.000000	97.439548
1120.000000	97.455115
1121.000000	97.419249
1122.000000	97.455746
1123.000000	97.496419
1124.000000	97.517675
1125.000000	97.560664
1126.000000	97.549956
1127.000000	97.623156
1128.000000	97.670028
1129.000000	97.712108
1130.000000	97.678316
1131.000000	97.709512
1132.000000	97.711231
1133.000000	97.684888
1134.000000	97.719527
1135.000000	97.685451
1136.000000	97.672702
1137.000000	97.647024
1138.000000	97.663142
1139.000000	97.661658
1140.000000	97.649917
1141.000000	97.646761
1142.000000	97.646024
1143.000000	97.618814
1144.000000	97.615190
1145.000000	97.562170
1146.000000	97.578179
1147.000000	97.595057
1148.000000	97.565542
1149.000000	97.621559
1150.000000	97.572294
1151.000000	97.581312
1152.000000	97.548438
1153.000000	97.514535
1154.000000	97.500506
1155.000000	97.506962
1156.000000	97.529106
1157.000000	97.465126
1158.000000	97.405980
1159.000000	97.365323
1160.000000	97.279396
1161.000000	97.266023
1162.000000	97.201792
1163.000000	97.162544
1164.000000	97.122758
1165.000000	97.140397
1166.000000	97.093355
1167.000000	97.080563
1168.000000	97.067802
1169.000000	96.941505
1170.000000	96.926810
1171.000000	96.920835
1172.000000	96.913321
1173.000000	96.873621
1174.000000	96.829398
1175.000000	96.782245
1176.000000	96.736679
1177.000000	96.697979
1178.000000	96.637001
1179.000000	96.641252
1180.000000	96.614863
1181.000000	96.554667
1182.000000	96.509268
1183.000000	96.502482
1184.000000	96.442931
1185.000000	96.432471
1186.000000	96.412243
1187.000000	96.347913
1188.000000	96.338576
1189.000000	96.336652
1190.000000	96.294361
1191.000000	96.268331
1192.000000	96.279396
1193.000000	96.299331
1194.000000	96.283345
1195.000000	96.273789
1196.000000	96.271994
1197.000000	96.237487
1198.000000	96.194437
1199.000000	96.170713
1200.000000	96.151513
1201.000000	96.166588
1202.000000	96.131345
1203.000000	96.099482
