PE UV       SUBTECH     SPECTRUM    ASCII       PEDS        4.00        
   -1
3-PTENOMELA GRATIOSA 03610.ASC
23/11/20
15:42:47.00
23/11/20
15:42:47.00
Vinicio Soto Monge

250,000000
1
Lambda 1050
1050L1511233
PerkinElmer UV WinLab 6.3.2.0749 / 2.02.05 Lambda 900 UV/VIS/NIR, Aug  7 2015 09:38:08

0
0
3350/servo 860,8/2
0
0
UV/VIS
1
1
1
DoubleDePol,CommonBeamDepol,RBeamAtt,SBeamAtt,60mm sphere, WB InGaAs Detector
0
0
0
0
Program
Program
3350/servo 860,8/2
3350/0,4 860,8/0,4
3350/0,4 860,8/0,4
0
20.00
 
 
 
0
 
860,8
319,2
860,8
Front
100
on
S:100 R:100
0
0
0
0
 
0
 
 
 
0
 
 
0
0
0
0
0
 
 
 
 
0
0


0
0
#HDR
-1
-1
#GR
nm
%R
1.0
0.0
2200,000000
-1,000000
1951
8
103,552663
5,255036
#DATA
284.000000	6.654826
285.000000	6.632115
286.000000	6.608724
287.000000	6.589816
288.000000	6.573098
289.000000	6.556243
290.000000	6.540720
291.000000	6.527549
292.000000	6.514045
293.000000	6.503006
294.000000	6.492050
295.000000	6.482213
296.000000	6.472571
297.000000	6.463948
298.000000	6.457467
299.000000	6.450287
300.000000	6.444317
301.000000	6.438441
302.000000	6.434819
303.000000	6.429726
304.000000	6.427265
305.000000	6.424936
306.000000	6.421895
307.000000	6.419119
308.000000	6.417579
309.000000	6.415155
310.000000	6.413004
311.000000	6.410824
312.000000	6.405709
313.000000	6.400893
314.000000	6.397874
315.000000	6.395308
316.000000	6.392167
317.000000	6.390256
318.000000	6.387751
319.000000	6.381599
320.000000	6.380312
321.000000	6.379151
322.000000	6.376671
323.000000	6.368262
324.000000	6.363322
325.000000	6.354535
326.000000	6.344670
327.000000	6.336980
328.000000	6.327596
329.000000	6.317436
330.000000	6.307964
331.000000	6.298287
332.000000	6.286296
333.000000	6.273258
334.000000	6.261398
335.000000	6.248455
336.000000	6.235648
337.000000	6.223866
338.000000	6.213610
339.000000	6.197417
340.000000	6.181184
341.000000	6.167720
342.000000	6.153906
343.000000	6.139617
344.000000	6.126373
345.000000	6.112516
346.000000	6.098555
347.000000	6.086018
348.000000	6.074626
349.000000	6.062633
350.000000	6.051549
351.000000	6.039014
352.000000	6.023588
353.000000	6.011368
354.000000	6.002044
355.000000	5.988467
356.000000	5.975811
357.000000	5.962001
358.000000	5.954671
359.000000	5.944518
360.000000	5.936255
361.000000	5.926582
362.000000	5.915908
363.000000	5.906350
364.000000	5.895963
365.000000	5.884655
366.000000	5.874963
367.000000	5.866621
368.000000	5.857940
369.000000	5.848037
370.000000	5.838679
371.000000	5.829183
372.000000	5.820574
373.000000	5.811000
374.000000	5.804609
375.000000	5.798345
376.000000	5.788358
377.000000	5.778865
378.000000	5.768197
379.000000	5.758391
380.000000	5.748704
381.000000	5.738541
382.000000	5.728078
383.000000	5.717632
384.000000	5.706164
385.000000	5.692956
386.000000	5.681255
387.000000	5.670967
388.000000	5.659614
389.000000	5.648345
390.000000	5.636691
391.000000	5.625429
392.000000	5.613863
393.000000	5.601015
394.000000	5.589073
395.000000	5.577958
396.000000	5.567585
397.000000	5.557008
398.000000	5.545560
399.000000	5.535245
400.000000	5.525692
401.000000	5.515675
402.000000	5.505634
403.000000	5.495773
404.000000	5.486874
405.000000	5.478281
406.000000	5.469042
407.000000	5.457741
408.000000	5.447376
409.000000	5.438215
410.000000	5.429911
411.000000	5.422862
412.000000	5.416004
413.000000	5.409266
414.000000	5.402334
415.000000	5.395825
416.000000	5.390123
417.000000	5.384558
418.000000	5.378946
419.000000	5.373726
420.000000	5.368981
421.000000	5.364239
422.000000	5.359668
423.000000	5.355160
424.000000	5.350758
425.000000	5.346310
426.000000	5.341769
427.000000	5.337646
428.000000	5.333712
429.000000	5.330365
430.000000	5.326787
431.000000	5.323628
432.000000	5.320717
433.000000	5.317992
434.000000	5.315743
435.000000	5.312996
436.000000	5.310391
437.000000	5.308032
438.000000	5.305904
439.000000	5.303985
440.000000	5.301941
441.000000	5.300035
442.000000	5.298375
443.000000	5.296813
444.000000	5.295378
445.000000	5.293988
446.000000	5.292768
447.000000	5.291688
448.000000	5.290855
449.000000	5.290448
450.000000	5.289811
451.000000	5.289007
452.000000	5.288610
453.000000	5.288400
454.000000	5.288307
455.000000	5.288270
456.000000	5.288218
457.000000	5.288219
458.000000	5.288729
459.000000	5.289360
460.000000	5.290028
461.000000	5.291074
462.000000	5.292335
463.000000	5.293674
464.000000	5.295020
465.000000	5.296731
466.000000	5.298687
467.000000	5.300842
468.000000	5.302990
469.000000	5.305464
470.000000	5.308613
471.000000	5.312408
472.000000	5.316721
473.000000	5.321374
474.000000	5.326670
475.000000	5.332395
476.000000	5.338735
477.000000	5.346098
478.000000	5.354160
479.000000	5.363216
480.000000	5.373199
481.000000	5.384262
482.000000	5.396719
483.000000	5.410598
484.000000	5.426001
485.000000	5.443378
486.000000	5.462764
487.000000	5.484110
488.000000	5.507690
489.000000	5.534131
490.000000	5.563411
491.000000	5.596043
492.000000	5.632289
493.000000	5.672139
494.000000	5.716390
495.000000	5.765128
496.000000	5.818798
497.000000	5.877415
498.000000	5.941683
499.000000	6.011979
500.000000	6.088278
501.000000	6.171445
502.000000	6.261569
503.000000	6.359671
504.000000	6.465966
505.000000	6.580618
506.000000	6.704119
507.000000	6.837257
508.000000	6.980096
509.000000	7.132793
510.000000	7.295951
511.000000	7.468972
512.000000	7.650901
513.000000	7.841770
514.000000	8.040131
515.000000	8.244723
516.000000	8.454386
517.000000	8.667058
518.000000	8.882092
519.000000	9.098212
520.000000	9.314295
521.000000	9.530336
522.000000	9.745805
523.000000	9.960367
524.000000	10.173632
525.000000	10.386087
526.000000	10.597613
527.000000	10.808461
528.000000	11.018777
529.000000	11.228208
530.000000	11.437066
531.000000	11.645297
532.000000	11.852569
533.000000	12.058306
534.000000	12.262185
535.000000	12.463617
536.000000	12.662425
537.000000	12.858155
538.000000	13.049591
539.000000	13.236136
540.000000	13.417459
541.000000	13.593039
542.000000	13.761605
543.000000	13.922974
544.000000	14.075967
545.000000	14.220163
546.000000	14.355422
547.000000	14.481365
548.000000	14.597754
549.000000	14.705123
550.000000	14.803428
551.000000	14.893074
552.000000	14.975099
553.000000	15.048900
554.000000	15.115481
555.000000	15.175105
556.000000	15.227073
557.000000	15.271513
558.000000	15.307518
559.000000	15.335330
560.000000	15.353325
561.000000	15.361816
562.000000	15.360442
563.000000	15.349284
564.000000	15.328282
565.000000	15.297682
566.000000	15.257922
567.000000	15.209847
568.000000	15.153943
569.000000	15.090997
570.000000	15.022321
571.000000	14.947849
572.000000	14.868699
573.000000	14.786210
574.000000	14.700436
575.000000	14.612219
576.000000	14.521805
577.000000	14.430028
578.000000	14.337165
579.000000	14.244296
580.000000	14.151678
581.000000	14.059633
582.000000	13.969214
583.000000	13.881752
584.000000	13.797858
585.000000	13.718538
586.000000	13.644875
587.000000	13.577685
588.000000	13.518035
589.000000	13.466047
590.000000	13.422594
591.000000	13.388421
592.000000	13.363537
593.000000	13.349069
594.000000	13.344766
595.000000	13.351417
596.000000	13.368796
597.000000	13.396416
598.000000	13.433977
599.000000	13.480875
600.000000	13.536730
601.000000	13.600303
602.000000	13.671236
603.000000	13.748504
604.000000	13.831799
605.000000	13.919513
606.000000	14.011467
607.000000	14.106674
608.000000	14.203830
609.000000	14.302948
610.000000	14.402984
611.000000	14.503699
612.000000	14.605081
613.000000	14.706897
614.000000	14.808450
615.000000	14.909998
616.000000	15.010645
617.000000	15.110593
618.000000	15.209160
619.000000	15.306617
620.000000	15.403208
621.000000	15.498080
622.000000	15.591485
623.000000	15.684148
624.000000	15.775044
625.000000	15.864395
626.000000	15.953074
627.000000	16.041326
628.000000	16.128478
629.000000	16.215268
630.000000	16.302620
631.000000	16.390348
632.000000	16.478751
633.000000	16.568646
634.000000	16.660978
635.000000	16.756190
636.000000	16.855236
637.000000	16.958638
638.000000	17.067108
639.000000	17.180789
640.000000	17.301801
641.000000	17.430456
642.000000	17.567135
643.000000	17.713555
644.000000	17.870651
645.000000	18.039740
646.000000	18.220689
647.000000	18.414003
648.000000	18.621298
649.000000	18.843598
650.000000	19.080985
651.000000	19.335313
652.000000	19.606414
653.000000	19.895271
654.000000	20.202133
655.000000	20.526700
656.000000	20.869193
657.000000	21.229416
658.000000	21.607765
659.000000	22.005856
660.000000	22.422994
661.000000	22.857702
662.000000	23.310364
663.000000	23.781315
664.000000	24.268980
665.000000	24.773398
666.000000	25.292542
667.000000	25.827117
668.000000	26.376612
669.000000	26.940052
670.000000	27.516048
671.000000	28.103171
672.000000	28.701497
673.000000	29.309343
674.000000	29.925477
675.000000	30.548378
676.000000	31.177346
677.000000	31.811276
678.000000	32.448848
679.000000	33.089472
680.000000	33.731697
681.000000	34.373940
682.000000	35.016627
683.000000	35.658212
684.000000	36.297260
685.000000	36.932698
686.000000	37.563826
687.000000	38.188958
688.000000	38.808882
689.000000	39.423552
690.000000	40.030573
691.000000	40.632006
692.000000	41.226385
693.000000	41.812973
694.000000	42.391326
695.000000	42.960268
696.000000	43.521456
697.000000	44.074022
698.000000	44.616409
699.000000	45.150889
700.000000	45.676440
701.000000	46.195057
702.000000	46.705235
703.000000	47.207636
704.000000	47.702598
705.000000	48.189078
706.000000	48.669044
707.000000	49.141661
708.000000	49.608554
709.000000	50.071094
710.000000	50.527028
711.000000	50.976810
712.000000	51.421599
713.000000	51.861473
714.000000	52.296230
715.000000	52.725714
716.000000	53.152414
717.000000	53.573624
718.000000	53.989597
719.000000	54.401047
720.000000	54.809293
721.000000	55.213336
722.000000	55.614390
723.000000	56.010936
724.000000	56.402758
725.000000	56.792462
726.000000	57.178984
727.000000	57.562326
728.000000	57.942578
729.000000	58.319262
730.000000	58.693662
731.000000	59.064333
732.000000	59.432704
733.000000	59.799742
734.000000	60.163446
735.000000	60.525175
736.000000	60.885294
737.000000	61.242896
738.000000	61.597787
739.000000	61.948058
740.000000	62.296999
741.000000	62.644044
742.000000	62.987376
743.000000	63.328801
744.000000	63.665824
745.000000	64.001658
746.000000	64.335498
747.000000	64.666115
748.000000	64.995062
749.000000	65.321188
750.000000	65.644714
751.000000	65.966246
752.000000	66.286268
753.000000	66.604389
754.000000	66.919113
755.000000	67.230798
756.000000	67.542880
757.000000	67.853856
758.000000	68.162151
759.000000	68.467076
760.000000	68.768276
761.000000	69.068518
762.000000	69.369133
763.000000	69.667105
764.000000	69.963770
765.000000	70.259412
766.000000	70.550863
767.000000	70.838898
768.000000	71.125435
769.000000	71.412139
770.000000	71.696412
771.000000	71.977351
772.000000	72.257461
773.000000	72.533963
774.000000	72.808066
775.000000	73.083007
776.000000	73.355511
777.000000	73.623541
778.000000	73.889117
779.000000	74.154628
780.000000	74.419160
781.000000	74.678416
782.000000	74.937837
783.000000	75.196076
784.000000	75.452011
785.000000	75.709044
786.000000	75.962615
787.000000	76.211294
788.000000	76.457524
789.000000	76.704246
790.000000	76.951678
791.000000	77.195657
792.000000	77.434425
793.000000	77.669917
794.000000	77.905693
795.000000	78.140874
796.000000	78.372536
797.000000	78.601683
798.000000	78.830396
799.000000	79.055673
800.000000	79.277432
801.000000	79.502666
802.000000	79.728229
803.000000	79.952435
804.000000	80.171966
805.000000	80.388960
806.000000	80.605980
807.000000	80.820780
808.000000	81.033516
809.000000	81.246603
810.000000	81.454853
811.000000	81.659491
812.000000	81.868891
813.000000	82.074967
814.000000	82.278027
815.000000	82.476305
816.000000	82.674574
817.000000	82.871746
818.000000	83.068388
819.000000	83.257235
820.000000	83.445027
821.000000	83.635029
822.000000	83.825281
823.000000	84.015408
824.000000	84.198475
825.000000	84.381085
826.000000	84.561233
827.000000	84.739942
828.000000	84.916409
829.000000	85.093997
830.000000	85.269262
831.000000	85.442555
832.000000	85.612896
833.000000	85.779775
834.000000	85.947403
835.000000	86.121642
836.000000	86.282828
837.000000	86.438431
838.000000	86.595847
839.000000	86.752416
840.000000	86.904888
841.000000	87.054731
842.000000	87.206168
843.000000	87.354011
844.000000	87.508395
845.000000	87.660877
846.000000	87.803115
847.000000	87.943023
848.000000	88.082308
849.000000	88.224781
850.000000	88.363388
851.000000	88.503977
852.000000	88.634473
853.000000	88.759421
854.000000	88.884102
855.000000	89.014488
856.000000	89.141427
857.000000	89.264385
858.000000	89.328227
859.000000	89.502596
860.000000	89.660476
861.000000	89.825924
862.000000	89.966229
863.000000	90.093776
864.000000	90.235667
865.000000	90.351679
866.000000	90.482099
867.000000	90.623238
868.000000	90.762679
869.000000	90.860965
870.000000	90.981514
871.000000	91.131238
872.000000	91.260846
873.000000	91.384659
874.000000	91.512748
875.000000	91.639257
876.000000	91.783298
877.000000	91.906167
878.000000	92.065069
879.000000	92.191613
880.000000	92.304324
881.000000	92.453366
882.000000	92.565631
883.000000	92.685918
884.000000	92.815215
885.000000	92.956586
886.000000	93.055613
887.000000	93.198360
888.000000	93.305001
889.000000	93.453526
890.000000	93.569107
891.000000	93.678139
892.000000	93.782596
893.000000	93.948033
894.000000	94.011025
895.000000	94.106194
896.000000	94.175267
897.000000	94.239454
898.000000	94.349088
899.000000	94.423108
900.000000	94.536706
901.000000	94.638370
902.000000	94.721115
903.000000	94.804101
904.000000	94.917324
905.000000	94.986426
906.000000	95.048440
907.000000	95.131146
908.000000	95.232032
909.000000	95.319471
910.000000	95.386994
911.000000	95.451965
912.000000	95.528011
913.000000	95.588327
914.000000	95.634123
915.000000	95.679608
916.000000	95.715417
917.000000	95.777969
918.000000	95.827946
919.000000	95.882420
920.000000	95.920202
921.000000	96.013186
922.000000	96.055918
923.000000	96.135223
924.000000	96.156318
925.000000	96.214434
926.000000	96.278477
927.000000	96.341624
928.000000	96.393191
929.000000	96.424485
930.000000	96.477023
931.000000	96.530139
932.000000	96.592101
933.000000	96.657689
934.000000	96.726253
935.000000	96.774230
936.000000	96.808888
937.000000	96.844707
938.000000	96.875923
939.000000	96.934351
940.000000	96.992923
941.000000	97.029815
942.000000	97.069294
943.000000	97.109057
944.000000	97.129244
945.000000	97.186327
946.000000	97.222551
947.000000	97.291081
948.000000	97.309216
949.000000	97.383234
950.000000	97.449399
951.000000	97.486293
952.000000	97.502075
953.000000	97.551558
954.000000	97.587454
955.000000	97.616906
956.000000	97.640787
957.000000	97.671738
958.000000	97.697497
959.000000	97.747664
960.000000	97.781055
961.000000	97.790683
962.000000	97.831711
963.000000	97.876962
964.000000	97.936342
965.000000	97.975500
966.000000	98.012798
967.000000	98.057628
968.000000	98.063228
969.000000	98.080641
970.000000	98.106615
971.000000	98.137143
972.000000	98.195866
973.000000	98.240495
974.000000	98.261777
975.000000	98.287656
976.000000	98.338142
977.000000	98.388373
978.000000	98.412413
979.000000	98.450807
980.000000	98.494344
981.000000	98.524914
982.000000	98.523787
983.000000	98.551950
984.000000	98.577415
985.000000	98.617895
986.000000	98.665964
987.000000	98.741125
988.000000	98.767542
989.000000	98.784615
990.000000	98.811820
991.000000	98.826038
992.000000	98.863034
993.000000	98.901769
994.000000	98.918886
995.000000	98.944116
996.000000	99.018749
997.000000	99.062763
998.000000	99.096759
999.000000	99.133692
1000.000000	99.147022
1001.000000	99.161831
1002.000000	99.165374
1003.000000	99.175996
1004.000000	99.198640
1005.000000	99.218792
1006.000000	99.239102
1007.000000	99.238539
1008.000000	99.265349
1009.000000	99.293708
1010.000000	99.345850
1011.000000	99.374870
1012.000000	99.388577
1013.000000	99.387853
1014.000000	99.410596
1015.000000	99.424293
1016.000000	99.431016
1017.000000	99.437089
1018.000000	99.432916
1019.000000	99.380990
1020.000000	99.359004
1021.000000	99.365696
1022.000000	99.369003
1023.000000	99.383431
1024.000000	99.394172
1025.000000	99.390683
1026.000000	99.392901
1027.000000	99.402826
1028.000000	99.394270
1029.000000	99.405903
1030.000000	99.408931
1031.000000	99.383993
1032.000000	99.383096
1033.000000	99.366500
1034.000000	99.338486
1035.000000	99.328470
1036.000000	99.343530
1037.000000	99.378569
1038.000000	99.408124
1039.000000	99.420645
1040.000000	99.425463
1041.000000	99.435944
1042.000000	99.446245
1043.000000	99.471485
1044.000000	99.502782
1045.000000	99.515787
1046.000000	99.503536
1047.000000	99.512408
1048.000000	99.527936
1049.000000	99.506303
1050.000000	99.474082
1051.000000	99.457886
1052.000000	99.481812
1053.000000	99.509703
1054.000000	99.568427
1055.000000	99.616449
1056.000000	99.631085
1057.000000	99.636910
1058.000000	99.654961
1059.000000	99.680006
1060.000000	99.735295
1061.000000	99.741730
1062.000000	99.709856
1063.000000	99.722427
1064.000000	99.725008
1065.000000	99.755747
1066.000000	99.753149
1067.000000	99.760811
1068.000000	99.787986
1069.000000	99.802565
1070.000000	99.827140
1071.000000	99.854276
1072.000000	99.844700
1073.000000	99.843791
1074.000000	99.857992
1075.000000	99.875568
1076.000000	99.881555
1077.000000	99.886942
1078.000000	99.870984
1079.000000	99.867058
1080.000000	99.861355
1081.000000	99.871964
1082.000000	99.851421
1083.000000	99.867666
1084.000000	99.926503
1085.000000	99.968913
1086.000000	100.000000
1087.000000	100.000000
1088.000000	100.000000
1089.000000	100.000000
1090.000000	100.000000
1091.000000	99.996786
1092.000000	100.000000
1093.000000	100.000000
1094.000000	100.000000
1095.000000	99.985682
1096.000000	100.000000
1097.000000	100.000000
1098.000000	100.000000
1099.000000	100.000000
1100.000000	100.000000
1101.000000	100.000000
1102.000000	100.000000
1103.000000	100.000000
1104.000000	100.000000
1105.000000	100.000000
1106.000000	100.000000
1107.000000	100.000000
1108.000000	100.000000
1109.000000	100.000000
1110.000000	100.000000
1111.000000	100.000000
1112.000000	100.000000
1113.000000	100.000000
1114.000000	100.000000
1115.000000	100.000000
1116.000000	100.000000
1117.000000	100.000000
1118.000000	100.000000
1119.000000	100.000000
1120.000000	100.000000
1121.000000	100.000000
1122.000000	100.000000
1123.000000	100.000000
1124.000000	100.000000
1125.000000	100.000000
1126.000000	100.000000
1127.000000	100.000000
1128.000000	100.000000
1129.000000	100.000000
1130.000000	100.000000
1131.000000	100.000000
1132.000000	100.000000
1133.000000	100.000000
1134.000000	100.000000
1135.000000	100.000000
1136.000000	100.000000
1137.000000	100.000000
1138.000000	100.000000
1139.000000	100.000000
1140.000000	100.000000
1141.000000	100.000000
1142.000000	100.000000
1143.000000	100.000000
1144.000000	100.000000
1145.000000	100.000000
1146.000000	100.000000
1147.000000	100.000000
1148.000000	100.000000
1149.000000	100.000000
1150.000000	100.000000
1151.000000	100.000000
1152.000000	100.000000
1153.000000	100.000000
1154.000000	100.000000
1155.000000	100.000000
1156.000000	100.000000
1157.000000	100.000000
1158.000000	100.000000
1159.000000	100.000000
1160.000000	100.000000
1161.000000	100.000000
1162.000000	100.000000
1163.000000	100.000000
1164.000000	99.953160
1165.000000	99.935301
1166.000000	99.891473
1167.000000	99.833500
1168.000000	99.758297
1169.000000	99.608103
1170.000000	99.547140
1171.000000	99.503016
1172.000000	99.450245
1173.000000	99.380311
1174.000000	99.354140
1175.000000	99.310214
1176.000000	99.246885
1177.000000	99.196526
1178.000000	99.165339
1179.000000	99.148334
1180.000000	99.142021
1181.000000	99.077337
1182.000000	99.027432
1183.000000	98.971037
1184.000000	98.965628
1185.000000	98.950151
1186.000000	98.901588
1187.000000	98.813835
1188.000000	98.768059
1189.000000	98.701120
1190.000000	98.671567
1191.000000	98.620403
1192.000000	98.620637
1193.000000	98.588192
1194.000000	98.604216
1195.000000	98.590410
1196.000000	98.548254
1197.000000	98.517681
1198.000000	98.511773
1199.000000	98.509630
1200.000000	98.517469
