PE UV       SUBTECH     SPECTRUM    ASCII       PEDS        4.00        
   -1
4-C. CHRYSARGYREA INBIOCRI002426713.ASC
23/11/21
16:08:42.00
23/11/21
16:08:42.00
Vinicio Soto Monge

250,000000
1
Lambda 1050
1050L1511233
PerkinElmer UV WinLab 6.3.2.0749 / 2.02.05 Lambda 900 UV/VIS/NIR, Aug  7 2015 09:38:08

0
0
3350/servo 860,8/2
0
0
UV/VIS
1
1
1
DoubleDePol,CommonBeamDepol,RBeamAtt,SBeamAtt,60mm sphere, WB InGaAs Detector
0
0
0
0
Program
Program
3350/servo 860,8/2
3350/0,4 860,8/0,4
3350/0,4 860,8/0,4
0
20.00
 
 
 
0
 
860,8
319,2
860,8
Front
100
on
S:100 R:100
0
0
0
0
 
0
 
 
 
0
 
 
0
0
0
0
0
 
 
 
 
0
0


0
0
#HDR
-1
-1
#GR
nm
%R
1.0
0.0
2200,000000
-1,000000
1951
8
105,363736
4,062613
#DATA
284.000000	5.587921
285.000000	5.576180
286.000000	5.565017
287.000000	5.554706
288.000000	5.545442
289.000000	5.537126
290.000000	5.528434
291.000000	5.521041
292.000000	5.514441
293.000000	5.509197
294.000000	5.505700
295.000000	5.502663
296.000000	5.497971
297.000000	5.492953
298.000000	5.489646
299.000000	5.486046
300.000000	5.484406
301.000000	5.481794
302.000000	5.479730
303.000000	5.478653
304.000000	5.477755
305.000000	5.476878
306.000000	5.474560
307.000000	5.473999
308.000000	5.474600
309.000000	5.473380
310.000000	5.472004
311.000000	5.471509
312.000000	5.471356
313.000000	5.469536
314.000000	5.466716
315.000000	5.464843
316.000000	5.462328
317.000000	5.455484
318.000000	5.450450
319.000000	5.444778
320.000000	5.439353
321.000000	5.434119
322.000000	5.431174
323.000000	5.425116
324.000000	5.419525
325.000000	5.416207
326.000000	5.412609
327.000000	5.410214
328.000000	5.406843
329.000000	5.401363
330.000000	5.395272
331.000000	5.389839
332.000000	5.384913
333.000000	5.380448
334.000000	5.377775
335.000000	5.373098
336.000000	5.370490
337.000000	5.366165
338.000000	5.362312
339.000000	5.359931
340.000000	5.356150
341.000000	5.354633
342.000000	5.351318
343.000000	5.348923
344.000000	5.347916
345.000000	5.347423
346.000000	5.348577
347.000000	5.348950
348.000000	5.348898
349.000000	5.349952
350.000000	5.351137
351.000000	5.354107
352.000000	5.361132
353.000000	5.366357
354.000000	5.371114
355.000000	5.377445
356.000000	5.384516
357.000000	5.387965
358.000000	5.395428
359.000000	5.402421
360.000000	5.408284
361.000000	5.413318
362.000000	5.416342
363.000000	5.421417
364.000000	5.428749
365.000000	5.435710
366.000000	5.442995
367.000000	5.449702
368.000000	5.456727
369.000000	5.462526
370.000000	5.467922
371.000000	5.472692
372.000000	5.477933
373.000000	5.483092
374.000000	5.486777
375.000000	5.492368
376.000000	5.497652
377.000000	5.503383
378.000000	5.508763
379.000000	5.514293
380.000000	5.519296
381.000000	5.522556
382.000000	5.526578
383.000000	5.531811
384.000000	5.536924
385.000000	5.541440
386.000000	5.545247
387.000000	5.548509
388.000000	5.552833
389.000000	5.557356
390.000000	5.560720
391.000000	5.563960
392.000000	5.567817
393.000000	5.570599
394.000000	5.573335
395.000000	5.575453
396.000000	5.578721
397.000000	5.582662
398.000000	5.585129
399.000000	5.587234
400.000000	5.590210
401.000000	5.593211
402.000000	5.596076
403.000000	5.598574
404.000000	5.601250
405.000000	5.604906
406.000000	5.608453
407.000000	5.612332
408.000000	5.616444
409.000000	5.620891
410.000000	5.624533
411.000000	5.628292
412.000000	5.631579
413.000000	5.634786
414.000000	5.638190
415.000000	5.641747
416.000000	5.645366
417.000000	5.649360
418.000000	5.653718
419.000000	5.658345
420.000000	5.662888
421.000000	5.667533
422.000000	5.672603
423.000000	5.677557
424.000000	5.682492
425.000000	5.687677
426.000000	5.693207
427.000000	5.698693
428.000000	5.704231
429.000000	5.709849
430.000000	5.715694
431.000000	5.721936
432.000000	5.728090
433.000000	5.734516
434.000000	5.741172
435.000000	5.747811
436.000000	5.754564
437.000000	5.761841
438.000000	5.769370
439.000000	5.776962
440.000000	5.784690
441.000000	5.792778
442.000000	5.800966
443.000000	5.809098
444.000000	5.817414
445.000000	5.826066
446.000000	5.834485
447.000000	5.843056
448.000000	5.851905
449.000000	5.860622
450.000000	5.869170
451.000000	5.877898
452.000000	5.886847
453.000000	5.895607
454.000000	5.904329
455.000000	5.913322
456.000000	5.922344
457.000000	5.931550
458.000000	5.941018
459.000000	5.950883
460.000000	5.960770
461.000000	5.970804
462.000000	5.980791
463.000000	5.990922
464.000000	6.001335
465.000000	6.012108
466.000000	6.022844
467.000000	6.033876
468.000000	6.045241
469.000000	6.056994
470.000000	6.069266
471.000000	6.081786
472.000000	6.094463
473.000000	6.107569
474.000000	6.120996
475.000000	6.134778
476.000000	6.149283
477.000000	6.164543
478.000000	6.180664
479.000000	6.197407
480.000000	6.214458
481.000000	6.232374
482.000000	6.251150
483.000000	6.270721
484.000000	6.291739
485.000000	6.314054
486.000000	6.337279
487.000000	6.361929
488.000000	6.387996
489.000000	6.415394
490.000000	6.444507
491.000000	6.475566
492.000000	6.508603
493.000000	6.543548
494.000000	6.580887
495.000000	6.620982
496.000000	6.663475
497.000000	6.708906
498.000000	6.757597
499.000000	6.809645
500.000000	6.865688
501.000000	6.926405
502.000000	6.992494
503.000000	7.064614
504.000000	7.143262
505.000000	7.229346
506.000000	7.323321
507.000000	7.426145
508.000000	7.538886
509.000000	7.663172
510.000000	7.800613
511.000000	7.953426
512.000000	8.125296
513.000000	8.320477
514.000000	8.544576
515.000000	8.804115
516.000000	9.106115
517.000000	9.459104
518.000000	9.871443
519.000000	10.350871
520.000000	10.903358
521.000000	11.531539
522.000000	12.232981
523.000000	13.001291
524.000000	13.827233
525.000000	14.699346
526.000000	15.606974
527.000000	16.541147
528.000000	17.495289
529.000000	18.463633
530.000000	19.441673
531.000000	20.426850
532.000000	21.416755
533.000000	22.408723
534.000000	23.402278
535.000000	24.396496
536.000000	25.389987
537.000000	26.380613
538.000000	27.368135
539.000000	28.350982
540.000000	29.328038
541.000000	30.299045
542.000000	31.262478
543.000000	32.217208
544.000000	33.162111
545.000000	34.096318
546.000000	35.017936
547.000000	35.923461
548.000000	36.807823
549.000000	37.665271
550.000000	38.489104
551.000000	39.272325
552.000000	40.005894
553.000000	40.681827
554.000000	41.291619
555.000000	41.828717
556.000000	42.290870
557.000000	42.680768
558.000000	43.003549
559.000000	43.268378
560.000000	43.488530
561.000000	43.672044
562.000000	43.827914
563.000000	43.963495
564.000000	44.084665
565.000000	44.195250
566.000000	44.298244
567.000000	44.395208
568.000000	44.488706
569.000000	44.578355
570.000000	44.664015
571.000000	44.746657
572.000000	44.827782
573.000000	44.907079
574.000000	44.985432
575.000000	45.062293
576.000000	45.136164
577.000000	45.208093
578.000000	45.278272
579.000000	45.345266
580.000000	45.408153
581.000000	45.464973
582.000000	45.516185
583.000000	45.561437
584.000000	45.600268
585.000000	45.631657
586.000000	45.653978
587.000000	45.664926
588.000000	45.662655
589.000000	45.647532
590.000000	45.621004
591.000000	45.586958
592.000000	45.552444
593.000000	45.526057
594.000000	45.513587
595.000000	45.514637
596.000000	45.529745
597.000000	45.553078
598.000000	45.578619
599.000000	45.600153
600.000000	45.611734
601.000000	45.610585
602.000000	45.592430
603.000000	45.553222
604.000000	45.491756
605.000000	45.406382
606.000000	45.299986
607.000000	45.177749
608.000000	45.047889
609.000000	44.922496
610.000000	44.815865
611.000000	44.736647
612.000000	44.687577
613.000000	44.664319
614.000000	44.660242
615.000000	44.665694
616.000000	44.673604
617.000000	44.675574
618.000000	44.667066
619.000000	44.643947
620.000000	44.605061
621.000000	44.550200
622.000000	44.481945
623.000000	44.405453
624.000000	44.327005
625.000000	44.255486
626.000000	44.197239
627.000000	44.157316
628.000000	44.135499
629.000000	44.131603
630.000000	44.142545
631.000000	44.164667
632.000000	44.192962
633.000000	44.226098
634.000000	44.260315
635.000000	44.295182
636.000000	44.329509
637.000000	44.363806
638.000000	44.399537
639.000000	44.437673
640.000000	44.481428
641.000000	44.531347
642.000000	44.586439
643.000000	44.647069
644.000000	44.710945
645.000000	44.774136
646.000000	44.835530
647.000000	44.895960
648.000000	44.959930
649.000000	45.030926
650.000000	45.114368
651.000000	45.211615
652.000000	45.323220
653.000000	45.450425
654.000000	45.593934
655.000000	45.752976
656.000000	45.925513
657.000000	46.110417
658.000000	46.303246
659.000000	46.496859
660.000000	46.682459
661.000000	46.851889
662.000000	46.996235
663.000000	47.114922
664.000000	47.208574
665.000000	47.284380
666.000000	47.352112
667.000000	47.425978
668.000000	47.514416
669.000000	47.625579
670.000000	47.764662
671.000000	47.930271
672.000000	48.123242
673.000000	48.343912
674.000000	48.588093
675.000000	48.850811
676.000000	49.126274
677.000000	49.407714
678.000000	49.683991
679.000000	49.943283
680.000000	50.176182
681.000000	50.375750
682.000000	50.539360
683.000000	50.670990
684.000000	50.779757
685.000000	50.874621
686.000000	50.966319
687.000000	51.067788
688.000000	51.185307
689.000000	51.325621
690.000000	51.492117
691.000000	51.687603
692.000000	51.909861
693.000000	52.155761
694.000000	52.423423
695.000000	52.707882
696.000000	53.004046
697.000000	53.304793
698.000000	53.603684
699.000000	53.893292
700.000000	54.165394
701.000000	54.416773
702.000000	54.642454
703.000000	54.841554
704.000000	55.017826
705.000000	55.175988
706.000000	55.323811
707.000000	55.466277
708.000000	55.609154
709.000000	55.759710
710.000000	55.922639
711.000000	56.102101
712.000000	56.298697
713.000000	56.512005
714.000000	56.744594
715.000000	56.993421
716.000000	57.256761
717.000000	57.530950
718.000000	57.810924
719.000000	58.090838
720.000000	58.365715
721.000000	58.631788
722.000000	58.884012
723.000000	59.119183
724.000000	59.334044
725.000000	59.528399
726.000000	59.707284
727.000000	59.874599
728.000000	60.033885
729.000000	60.187234
730.000000	60.341460
731.000000	60.500557
732.000000	60.668523
733.000000	60.845138
734.000000	61.030486
735.000000	61.226764
736.000000	61.432128
737.000000	61.646046
738.000000	61.866335
739.000000	62.090578
740.000000	62.317119
741.000000	62.541415
742.000000	62.761036
743.000000	62.973543
744.000000	63.176735
745.000000	63.368012
746.000000	63.546177
747.000000	63.712512
748.000000	63.870346
749.000000	64.020451
750.000000	64.165710
751.000000	64.308134
752.000000	64.451651
753.000000	64.600667
754.000000	64.753446
755.000000	64.909172
756.000000	65.070179
757.000000	65.234635
758.000000	65.403290
759.000000	65.576631
760.000000	65.755636
761.000000	65.935676
762.000000	66.115752
763.000000	66.294428
764.000000	66.470795
765.000000	66.643244
766.000000	66.811856
767.000000	66.973344
768.000000	67.126224
769.000000	67.274087
770.000000	67.417448
771.000000	67.557628
772.000000	67.697241
773.000000	67.836289
774.000000	67.975544
775.000000	68.114994
776.000000	68.254908
777.000000	68.399463
778.000000	68.546764
779.000000	68.695707
780.000000	68.846949
781.000000	68.999948
782.000000	69.157508
783.000000	69.316586
784.000000	69.474242
785.000000	69.630636
786.000000	69.786709
787.000000	69.940222
788.000000	70.087160
789.000000	70.227786
790.000000	70.366895
791.000000	70.503414
792.000000	70.634164
793.000000	70.762738
794.000000	70.887477
795.000000	71.011877
796.000000	71.135800
797.000000	71.261325
798.000000	71.387338
799.000000	71.518701
800.000000	71.654700
801.000000	71.791358
802.000000	71.930027
803.000000	72.072353
804.000000	72.218876
805.000000	72.366318
806.000000	72.511286
807.000000	72.651853
808.000000	72.794630
809.000000	72.937844
810.000000	73.078132
811.000000	73.217663
812.000000	73.350945
813.000000	73.483429
814.000000	73.614303
815.000000	73.745107
816.000000	73.873535
817.000000	74.001485
818.000000	74.130017
819.000000	74.258044
820.000000	74.391603
821.000000	74.525405
822.000000	74.662701
823.000000	74.797855
824.000000	74.933123
825.000000	75.070173
826.000000	75.204524
827.000000	75.346922
828.000000	75.489103
829.000000	75.632244
830.000000	75.769578
831.000000	75.899548
832.000000	76.034664
833.000000	76.170250
834.000000	76.300435
835.000000	76.425664
836.000000	76.547646
837.000000	76.668966
838.000000	76.795039
839.000000	76.917267
840.000000	77.033571
841.000000	77.153686
842.000000	77.279323
843.000000	77.398950
844.000000	77.519369
845.000000	77.643397
846.000000	77.768618
847.000000	77.896904
848.000000	78.017853
849.000000	78.140253
850.000000	78.256322
851.000000	78.379003
852.000000	78.489349
853.000000	78.602582
854.000000	78.716917
855.000000	78.825633
856.000000	78.938828
857.000000	79.031654
858.000000	79.117541
859.000000	79.258954
860.000000	79.393215
861.000000	79.520822
862.000000	79.621030
863.000000	79.744876
864.000000	79.861758
865.000000	79.984743
866.000000	80.095014
867.000000	80.243056
868.000000	80.364503
869.000000	80.518048
870.000000	80.654673
871.000000	80.775003
872.000000	80.872304
873.000000	80.988970
874.000000	81.108671
875.000000	81.246897
876.000000	81.366003
877.000000	81.492256
878.000000	81.644240
879.000000	81.775629
880.000000	81.878554
881.000000	82.004439
882.000000	82.129842
883.000000	82.262279
884.000000	82.376543
885.000000	82.496919
886.000000	82.619789
887.000000	82.729420
888.000000	82.849104
889.000000	82.968167
890.000000	83.093944
891.000000	83.220839
892.000000	83.329528
893.000000	83.460272
894.000000	83.564391
895.000000	83.654726
896.000000	83.776219
897.000000	83.898381
898.000000	84.004663
899.000000	84.098003
900.000000	84.208963
901.000000	84.322347
902.000000	84.385252
903.000000	84.476086
904.000000	84.544598
905.000000	84.640665
906.000000	84.744290
907.000000	84.860818
908.000000	84.978066
909.000000	85.075573
910.000000	85.160926
911.000000	85.257898
912.000000	85.325766
913.000000	85.373747
914.000000	85.448418
915.000000	85.564338
916.000000	85.650961
917.000000	85.747155
918.000000	85.811737
919.000000	85.893685
920.000000	85.975451
921.000000	86.053786
922.000000	86.137390
923.000000	86.225974
924.000000	86.320697
925.000000	86.418177
926.000000	86.501300
927.000000	86.606210
928.000000	86.698767
929.000000	86.749077
930.000000	86.825891
931.000000	86.898008
932.000000	86.991097
933.000000	87.075052
934.000000	87.183071
935.000000	87.247723
936.000000	87.344261
937.000000	87.436464
938.000000	87.504368
939.000000	87.585623
940.000000	87.662953
941.000000	87.742803
942.000000	87.828984
943.000000	87.890299
944.000000	87.972973
945.000000	88.033132
946.000000	88.111787
947.000000	88.227789
948.000000	88.327472
949.000000	88.397825
950.000000	88.466243
951.000000	88.547671
952.000000	88.609379
953.000000	88.716786
954.000000	88.812458
955.000000	88.919724
956.000000	89.036652
957.000000	89.135830
958.000000	89.221359
959.000000	89.295555
960.000000	89.346484
961.000000	89.381726
962.000000	89.461514
963.000000	89.551728
964.000000	89.658751
965.000000	89.765635
966.000000	89.827863
967.000000	89.890250
968.000000	89.969066
969.000000	90.033002
970.000000	90.119960
971.000000	90.185885
972.000000	90.267361
973.000000	90.368333
974.000000	90.464034
975.000000	90.546475
976.000000	90.635424
977.000000	90.713366
978.000000	90.776749
979.000000	90.840617
980.000000	90.935553
981.000000	91.014341
982.000000	91.078488
983.000000	91.136682
984.000000	91.222859
985.000000	91.316753
986.000000	91.394770
987.000000	91.491679
988.000000	91.555320
989.000000	91.629889
990.000000	91.695471
991.000000	91.739868
992.000000	91.835182
993.000000	91.922101
994.000000	91.991508
995.000000	92.069019
996.000000	92.172237
997.000000	92.252657
998.000000	92.339805
999.000000	92.433567
1000.000000	92.512768
1001.000000	92.595415
1002.000000	92.653751
1003.000000	92.710132
1004.000000	92.777676
1005.000000	92.834658
1006.000000	92.906085
1007.000000	92.969112
1008.000000	93.053841
1009.000000	93.099028
1010.000000	93.146513
1011.000000	93.193730
1012.000000	93.247069
1013.000000	93.322017
1014.000000	93.390924
1015.000000	93.454039
1016.000000	93.501220
1017.000000	93.548147
1018.000000	93.628830
1019.000000	93.690460
1020.000000	93.729209
1021.000000	93.799703
1022.000000	93.853897
1023.000000	93.900088
1024.000000	93.941945
1025.000000	93.978705
1026.000000	94.022563
1027.000000	94.071425
1028.000000	94.112963
1029.000000	94.166336
1030.000000	94.227283
1031.000000	94.282397
1032.000000	94.317072
1033.000000	94.357870
1034.000000	94.401396
1035.000000	94.438885
1036.000000	94.499943
1037.000000	94.574949
1038.000000	94.648791
1039.000000	94.714773
1040.000000	94.779952
1041.000000	94.830527
1042.000000	94.892508
1043.000000	94.946904
1044.000000	95.005585
1045.000000	95.039627
1046.000000	95.079090
1047.000000	95.141170
1048.000000	95.179939
1049.000000	95.205114
1050.000000	95.231561
1051.000000	95.299824
1052.000000	95.353215
1053.000000	95.390980
1054.000000	95.428676
1055.000000	95.471664
1056.000000	95.486435
1057.000000	95.509613
1058.000000	95.548601
1059.000000	95.596069
1060.000000	95.652370
1061.000000	95.714352
1062.000000	95.716950
1063.000000	95.748594
1064.000000	95.799708
1065.000000	95.864058
1066.000000	95.913052
1067.000000	95.977742
1068.000000	96.008527
1069.000000	96.023666
1070.000000	96.058933
1071.000000	96.076094
1072.000000	96.100634
1073.000000	96.110745
1074.000000	96.124825
1075.000000	96.132991
1076.000000	96.161275
1077.000000	96.170634
1078.000000	96.164168
1079.000000	96.183370
1080.000000	96.240335
1081.000000	96.291700
1082.000000	96.301821
1083.000000	96.343187
1084.000000	96.389154
1085.000000	96.435025
1086.000000	96.468138
1087.000000	96.512857
1088.000000	96.527952
1089.000000	96.552080
1090.000000	96.594937
1091.000000	96.627588
1092.000000	96.652404
1093.000000	96.673417
1094.000000	96.691425
1095.000000	96.724799
1096.000000	96.712942
1097.000000	96.764427
1098.000000	96.794515
1099.000000	96.817712
1100.000000	96.827345
1101.000000	96.864177
1102.000000	96.896648
1103.000000	96.916543
1104.000000	96.951872
1105.000000	96.985445
1106.000000	96.998350
1107.000000	97.016112
1108.000000	97.030915
1109.000000	97.048487
1110.000000	97.116744
1111.000000	97.148179
1112.000000	97.170172
1113.000000	97.226436
1114.000000	97.234118
1115.000000	97.239786
1116.000000	97.213025
1117.000000	97.239893
1118.000000	97.275575
1119.000000	97.283398
1120.000000	97.316583
1121.000000	97.314660
1122.000000	97.361288
1123.000000	97.417676
1124.000000	97.478904
1125.000000	97.486887
1126.000000	97.474555
1127.000000	97.497874
1128.000000	97.546948
1129.000000	97.591793
1130.000000	97.571973
1131.000000	97.616484
1132.000000	97.619093
1133.000000	97.625564
1134.000000	97.711468
1135.000000	97.682241
1136.000000	97.652934
1137.000000	97.657044
1138.000000	97.675685
1139.000000	97.680784
1140.000000	97.653270
1141.000000	97.664773
1142.000000	97.646257
1143.000000	97.644351
1144.000000	97.656050
1145.000000	97.636697
1146.000000	97.628119
1147.000000	97.653508
1148.000000	97.633808
1149.000000	97.673167
1150.000000	97.657598
1151.000000	97.678893
1152.000000	97.707926
1153.000000	97.678787
1154.000000	97.661349
1155.000000	97.637445
1156.000000	97.622762
1157.000000	97.568018
1158.000000	97.527628
1159.000000	97.498413
1160.000000	97.475858
1161.000000	97.499793
1162.000000	97.477318
1163.000000	97.432968
1164.000000	97.369093
1165.000000	97.371845
1166.000000	97.327203
1167.000000	97.302541
1168.000000	97.312693
1169.000000	97.185112
1170.000000	97.174698
1171.000000	97.152349
1172.000000	97.095487
1173.000000	97.058109
1174.000000	96.998360
1175.000000	96.936620
1176.000000	96.906714
1177.000000	96.910309
1178.000000	96.897102
1179.000000	96.880080
1180.000000	96.832066
1181.000000	96.796414
1182.000000	96.752499
1183.000000	96.718068
1184.000000	96.647739
1185.000000	96.602013
1186.000000	96.572263
1187.000000	96.506091
1188.000000	96.487391
1189.000000	96.485814
1190.000000	96.439509
1191.000000	96.412853
1192.000000	96.389433
1193.000000	96.382702
1194.000000	96.333776
1195.000000	96.303025
1196.000000	96.270010
1197.000000	96.226665
1198.000000	96.202402
1199.000000	96.223242
1200.000000	96.224379
1201.000000	96.255013
1202.000000	96.275666
1203.000000	96.225970
