PE UV       SUBTECH     SPECTRUM    ASCII       PEDS        4.00        
   -1
4-STRIGIDA BELTI INBIO0004211063.ASC
23/11/21
17:11:42.00
23/11/21
17:11:42.00
Vinicio Soto Monge

250,000000
1
Lambda 1050
1050L1511233
PerkinElmer UV WinLab 6.3.2.0749 / 2.02.05 Lambda 900 UV/VIS/NIR, Aug  7 2015 09:38:08

0
0
3350/servo 860,8/2
0
0
UV/VIS
1
1
1
DoubleDePol,CommonBeamDepol,RBeamAtt,SBeamAtt,60mm sphere, WB InGaAs Detector
0
0
0
0
Program
Program
3350/servo 860,8/2
3350/0,4 860,8/0,4
3350/0,4 860,8/0,4
0
20.00
 
 
 
0
 
860,8
319,2
860,8
Front
100
on
S:100 R:100
0
0
0
0
 
0
 
 
 
0
 
 
0
0
0
0
0
 
 
 
 
0
0


0
0
#HDR
-1
-1
#GR
nm
%R
1.0
0.0
2200,000000
-1,000000
1951
8
105,970740
5,163108
#DATA
284.000000	9.052659
285.000000	9.012076
286.000000	8.971936
287.000000	8.933496
288.000000	8.896995
289.000000	8.861378
290.000000	8.827433
291.000000	8.795243
292.000000	8.764170
293.000000	8.733219
294.000000	8.705098
295.000000	8.675817
296.000000	8.648254
297.000000	8.621287
298.000000	8.596467
299.000000	8.573042
300.000000	8.550365
301.000000	8.528264
302.000000	8.506573
303.000000	8.485542
304.000000	8.465812
305.000000	8.445561
306.000000	8.425879
307.000000	8.406159
308.000000	8.386870
309.000000	8.367173
310.000000	8.347700
311.000000	8.328035
312.000000	8.309825
313.000000	8.289554
314.000000	8.270558
315.000000	8.251017
316.000000	8.232197
317.000000	8.219025
318.000000	8.207028
319.000000	8.197283
320.000000	8.185134
321.000000	8.172003
322.000000	8.163422
323.000000	8.149338
324.000000	8.136224
325.000000	8.126968
326.000000	8.114470
327.000000	8.101745
328.000000	8.089781
329.000000	8.077392
330.000000	8.067125
331.000000	8.055676
332.000000	8.043541
333.000000	8.032452
334.000000	8.019785
335.000000	8.006903
336.000000	7.994719
337.000000	7.983783
338.000000	7.974059
339.000000	7.960808
340.000000	7.949231
341.000000	7.940568
342.000000	7.932591
343.000000	7.922692
344.000000	7.912563
345.000000	7.904695
346.000000	7.898453
347.000000	7.891196
348.000000	7.885552
349.000000	7.879436
350.000000	7.874735
351.000000	7.869813
352.000000	7.860127
353.000000	7.849473
354.000000	7.836076
355.000000	7.827225
356.000000	7.819442
357.000000	7.806536
358.000000	7.801371
359.000000	7.795014
360.000000	7.786472
361.000000	7.779581
362.000000	7.771910
363.000000	7.764217
364.000000	7.757302
365.000000	7.749725
366.000000	7.743847
367.000000	7.740012
368.000000	7.734473
369.000000	7.730655
370.000000	7.726833
371.000000	7.722078
372.000000	7.717270
373.000000	7.711558
374.000000	7.707146
375.000000	7.701060
376.000000	7.691730
377.000000	7.678845
378.000000	7.667576
379.000000	7.657432
380.000000	7.645900
381.000000	7.633678
382.000000	7.621499
383.000000	7.609182
384.000000	7.596442
385.000000	7.583851
386.000000	7.570816
387.000000	7.557064
388.000000	7.544198
389.000000	7.532098
390.000000	7.518578
391.000000	7.505645
392.000000	7.492743
393.000000	7.478791
394.000000	7.465631
395.000000	7.451890
396.000000	7.438195
397.000000	7.425595
398.000000	7.413485
399.000000	7.401062
400.000000	7.388778
401.000000	7.375711
402.000000	7.361498
403.000000	7.348002
404.000000	7.335008
405.000000	7.322136
406.000000	7.310258
407.000000	7.297416
408.000000	7.285418
409.000000	7.275507
410.000000	7.265544
411.000000	7.257462
412.000000	7.252175
413.000000	7.247199
414.000000	7.242305
415.000000	7.237799
416.000000	7.233643
417.000000	7.229813
418.000000	7.226217
419.000000	7.222732
420.000000	7.219335
421.000000	7.216165
422.000000	7.213084
423.000000	7.210211
424.000000	7.207762
425.000000	7.205458
426.000000	7.203140
427.000000	7.201369
428.000000	7.199915
429.000000	7.198337
430.000000	7.196982
431.000000	7.195955
432.000000	7.194824
433.000000	7.193764
434.000000	7.193144
435.000000	7.192582
436.000000	7.192243
437.000000	7.192050
438.000000	7.191784
439.000000	7.191569
440.000000	7.191750
441.000000	7.192066
442.000000	7.192637
443.000000	7.193027
444.000000	7.193741
445.000000	7.194951
446.000000	7.196474
447.000000	7.198385
448.000000	7.200306
449.000000	7.202297
450.000000	7.203867
451.000000	7.205771
452.000000	7.208188
453.000000	7.210863
454.000000	7.213625
455.000000	7.216421
456.000000	7.219172
457.000000	7.222569
458.000000	7.226420
459.000000	7.230052
460.000000	7.233405
461.000000	7.237071
462.000000	7.240863
463.000000	7.244969
464.000000	7.249544
465.000000	7.254333
466.000000	7.259567
467.000000	7.265233
468.000000	7.271060
469.000000	7.277299
470.000000	7.283962
471.000000	7.291079
472.000000	7.298907
473.000000	7.307357
474.000000	7.316653
475.000000	7.326617
476.000000	7.337442
477.000000	7.348984
478.000000	7.361353
479.000000	7.374415
480.000000	7.387979
481.000000	7.402399
482.000000	7.417670
483.000000	7.434343
484.000000	7.452432
485.000000	7.471852
486.000000	7.492432
487.000000	7.514038
488.000000	7.537089
489.000000	7.561948
490.000000	7.588413
491.000000	7.616621
492.000000	7.646587
493.000000	7.678362
494.000000	7.712255
495.000000	7.748531
496.000000	7.786807
497.000000	7.827278
498.000000	7.870113
499.000000	7.915790
500.000000	7.964036
501.000000	8.014800
502.000000	8.068814
503.000000	8.126282
504.000000	8.186904
505.000000	8.250911
506.000000	8.318492
507.000000	8.389534
508.000000	8.464480
509.000000	8.543530
510.000000	8.626648
511.000000	8.713866
512.000000	8.805849
513.000000	8.902637
514.000000	9.004441
515.000000	9.111638
516.000000	9.223768
517.000000	9.340942
518.000000	9.463085
519.000000	9.590230
520.000000	9.723141
521.000000	9.861615
522.000000	10.005444
523.000000	10.154452
524.000000	10.308468
525.000000	10.467352
526.000000	10.630901
527.000000	10.798949
528.000000	10.971096
529.000000	11.146938
530.000000	11.326426
531.000000	11.509255
532.000000	11.694719
533.000000	11.882223
534.000000	12.071106
535.000000	12.261578
536.000000	12.452624
537.000000	12.643753
538.000000	12.834291
539.000000	13.024299
540.000000	13.212659
541.000000	13.398717
542.000000	13.581784
543.000000	13.761257
544.000000	13.936610
545.000000	14.107286
546.000000	14.273049
547.000000	14.433278
548.000000	14.586670
549.000000	14.732925
550.000000	14.871578
551.000000	15.002787
552.000000	15.125507
553.000000	15.239730
554.000000	15.345655
555.000000	15.442968
556.000000	15.531678
557.000000	15.611731
558.000000	15.683268
559.000000	15.747338
560.000000	15.804901
561.000000	15.856200
562.000000	15.900992
563.000000	15.940701
564.000000	15.976170
565.000000	16.007515
566.000000	16.036275
567.000000	16.063322
568.000000	16.089724
569.000000	16.116590
570.000000	16.144327
571.000000	16.174438
572.000000	16.207927
573.000000	16.245550
574.000000	16.287941
575.000000	16.336382
576.000000	16.391330
577.000000	16.454130
578.000000	16.525119
579.000000	16.604415
580.000000	16.692784
581.000000	16.789689
582.000000	16.896202
583.000000	17.013097
584.000000	17.140249
585.000000	17.277289
586.000000	17.425084
587.000000	17.582990
588.000000	17.751251
589.000000	17.929414
590.000000	18.117068
591.000000	18.314164
592.000000	18.520943
593.000000	18.737002
594.000000	18.961336
595.000000	19.193514
596.000000	19.433514
597.000000	19.681446
598.000000	19.936372
599.000000	20.197565
600.000000	20.464602
601.000000	20.738351
602.000000	21.017604
603.000000	21.302275
604.000000	21.591332
605.000000	21.884489
606.000000	22.181061
607.000000	22.480934
608.000000	22.783373
609.000000	23.087363
610.000000	23.393244
611.000000	23.700604
612.000000	24.009092
613.000000	24.318238
614.000000	24.627944
615.000000	24.938553
616.000000	25.249411
617.000000	25.560272
618.000000	25.871230
619.000000	26.181897
620.000000	26.493350
621.000000	26.805277
622.000000	27.118294
623.000000	27.432092
624.000000	27.746546
625.000000	28.062292
626.000000	28.379673
627.000000	28.698207
628.000000	29.017681
629.000000	29.338629
630.000000	29.661110
631.000000	29.985256
632.000000	30.310034
633.000000	30.636742
634.000000	30.964667
635.000000	31.294773
636.000000	31.625511
637.000000	31.957366
638.000000	32.289489
639.000000	32.622256
640.000000	32.955942
641.000000	33.291005
642.000000	33.626810
643.000000	33.963385
644.000000	34.301360
645.000000	34.639346
646.000000	34.976911
647.000000	35.315293
648.000000	35.654818
649.000000	35.994671
650.000000	36.334420
651.000000	36.676315
652.000000	37.018172
653.000000	37.361273
654.000000	37.706090
655.000000	38.051618
656.000000	38.397003
657.000000	38.743414
658.000000	39.091694
659.000000	39.441041
660.000000	39.791181
661.000000	40.141740
662.000000	40.493301
663.000000	40.846693
664.000000	41.200999
665.000000	41.556343
666.000000	41.911466
667.000000	42.267371
668.000000	42.623209
669.000000	42.980528
670.000000	43.338617
671.000000	43.695961
672.000000	44.053405
673.000000	44.410433
674.000000	44.766416
675.000000	45.121192
676.000000	45.474564
677.000000	45.827044
678.000000	46.177991
679.000000	46.526764
680.000000	46.874850
681.000000	47.221934
682.000000	47.566915
683.000000	47.910597
684.000000	48.253342
685.000000	48.595202
686.000000	48.934598
687.000000	49.272668
688.000000	49.607666
689.000000	49.941200
690.000000	50.273373
691.000000	50.606175
692.000000	50.937645
693.000000	51.265813
694.000000	51.592855
695.000000	51.919304
696.000000	52.244905
697.000000	52.567660
698.000000	52.888249
699.000000	53.208206
700.000000	53.526438
701.000000	53.843102
702.000000	54.157726
703.000000	54.469711
704.000000	54.778418
705.000000	55.085373
706.000000	55.391623
707.000000	55.694388
708.000000	55.994500
709.000000	56.294132
710.000000	56.592856
711.000000	56.890526
712.000000	57.184718
713.000000	57.477285
714.000000	57.769593
715.000000	58.059835
716.000000	58.349134
717.000000	58.635394
718.000000	58.918352
719.000000	59.198936
720.000000	59.478446
721.000000	59.757646
722.000000	60.035364
723.000000	60.313458
724.000000	60.589332
725.000000	60.862790
726.000000	61.134308
727.000000	61.405516
728.000000	61.675763
729.000000	61.942018
730.000000	62.205422
731.000000	62.467797
732.000000	62.730184
733.000000	62.991114
734.000000	63.248369
735.000000	63.503366
736.000000	63.758596
737.000000	64.012305
738.000000	64.264304
739.000000	64.515042
740.000000	64.763791
741.000000	65.009653
742.000000	65.255945
743.000000	65.502204
744.000000	65.746066
745.000000	65.988097
746.000000	66.227189
747.000000	66.465717
748.000000	66.704168
749.000000	66.940345
750.000000	67.175214
751.000000	67.408131
752.000000	67.642191
753.000000	67.877995
754.000000	68.112458
755.000000	68.343463
756.000000	68.573125
757.000000	68.800501
758.000000	69.023663
759.000000	69.246449
760.000000	69.469213
761.000000	69.690538
762.000000	69.909741
763.000000	70.128088
764.000000	70.347924
765.000000	70.566403
766.000000	70.782493
767.000000	70.998234
768.000000	71.211644
769.000000	71.425423
770.000000	71.637951
771.000000	71.847659
772.000000	72.059331
773.000000	72.272355
774.000000	72.483076
775.000000	72.690920
776.000000	72.897207
777.000000	73.103984
778.000000	73.308212
779.000000	73.511880
780.000000	73.714352
781.000000	73.916051
782.000000	74.117312
783.000000	74.316191
784.000000	74.513434
785.000000	74.710780
786.000000	74.908706
787.000000	75.103441
788.000000	75.293417
789.000000	75.481012
790.000000	75.673022
791.000000	75.866523
792.000000	76.057192
793.000000	76.248052
794.000000	76.436367
795.000000	76.624141
796.000000	76.808650
797.000000	76.992504
798.000000	77.175802
799.000000	77.360888
800.000000	77.545625
801.000000	77.728765
802.000000	77.911529
803.000000	78.095104
804.000000	78.275469
805.000000	78.455117
806.000000	78.632795
807.000000	78.808256
808.000000	78.979771
809.000000	79.155905
810.000000	79.331381
811.000000	79.507490
812.000000	79.680140
813.000000	79.854208
814.000000	80.024448
815.000000	80.189852
816.000000	80.356596
817.000000	80.522670
818.000000	80.689948
819.000000	80.854854
820.000000	81.019740
821.000000	81.182711
822.000000	81.345230
823.000000	81.506505
824.000000	81.669643
825.000000	81.830805
826.000000	81.987340
827.000000	82.148679
828.000000	82.309203
829.000000	82.471587
830.000000	82.623472
831.000000	82.774248
832.000000	82.928400
833.000000	83.079761
834.000000	83.222234
835.000000	83.366829
836.000000	83.511333
837.000000	83.651749
838.000000	83.792571
839.000000	83.932817
840.000000	84.072570
841.000000	84.213571
842.000000	84.351002
843.000000	84.489047
844.000000	84.627878
845.000000	84.769066
846.000000	84.904290
847.000000	85.036402
848.000000	85.159411
849.000000	85.299341
850.000000	85.440107
851.000000	85.574124
852.000000	85.703117
853.000000	85.830178
854.000000	85.958274
855.000000	86.084723
856.000000	86.214894
857.000000	86.327469
858.000000	86.438220
859.000000	86.582368
860.000000	86.735204
861.000000	86.906466
862.000000	87.029916
863.000000	87.156675
864.000000	87.290477
865.000000	87.402391
866.000000	87.520191
867.000000	87.657950
868.000000	87.786242
869.000000	87.927636
870.000000	88.090458
871.000000	88.227435
872.000000	88.343350
873.000000	88.451738
874.000000	88.563045
875.000000	88.709506
876.000000	88.832024
877.000000	88.965463
878.000000	89.093344
879.000000	89.199645
880.000000	89.311436
881.000000	89.458832
882.000000	89.615490
883.000000	89.743215
884.000000	89.872868
885.000000	89.993329
886.000000	90.122345
887.000000	90.225437
888.000000	90.349514
889.000000	90.491537
890.000000	90.631820
891.000000	90.748710
892.000000	90.850463
893.000000	90.943144
894.000000	91.041574
895.000000	91.130274
896.000000	91.193719
897.000000	91.299657
898.000000	91.419331
899.000000	91.522356
900.000000	91.628357
901.000000	91.735510
902.000000	91.820767
903.000000	91.906056
904.000000	91.994826
905.000000	92.068337
906.000000	92.171134
907.000000	92.271333
908.000000	92.384123
909.000000	92.504075
910.000000	92.567648
911.000000	92.650115
912.000000	92.705976
913.000000	92.784121
914.000000	92.882087
915.000000	92.952609
916.000000	93.002702
917.000000	93.046799
918.000000	93.110290
919.000000	93.170646
920.000000	93.234232
921.000000	93.289896
922.000000	93.368466
923.000000	93.430138
924.000000	93.478115
925.000000	93.525954
926.000000	93.601075
927.000000	93.682131
928.000000	93.786447
929.000000	93.843494
930.000000	93.883870
931.000000	93.951620
932.000000	94.001174
933.000000	94.045136
934.000000	94.124403
935.000000	94.201976
936.000000	94.269496
937.000000	94.314946
938.000000	94.366355
939.000000	94.403192
940.000000	94.460399
941.000000	94.512781
942.000000	94.576060
943.000000	94.632957
944.000000	94.663065
945.000000	94.715042
946.000000	94.797296
947.000000	94.890823
948.000000	94.945970
949.000000	94.984249
950.000000	95.041648
951.000000	95.067032
952.000000	95.085064
953.000000	95.143435
954.000000	95.205061
955.000000	95.258306
956.000000	95.308746
957.000000	95.351737
958.000000	95.410960
959.000000	95.460078
960.000000	95.493110
961.000000	95.489859
962.000000	95.542314
963.000000	95.583101
964.000000	95.626948
965.000000	95.700301
966.000000	95.729636
967.000000	95.766969
968.000000	95.797690
969.000000	95.800341
970.000000	95.822843
971.000000	95.855719
972.000000	95.915442
973.000000	95.957775
974.000000	95.996358
975.000000	96.005244
976.000000	96.013513
977.000000	96.033995
978.000000	96.052372
979.000000	96.084082
980.000000	96.137305
981.000000	96.154011
982.000000	96.176373
983.000000	96.214527
984.000000	96.265988
985.000000	96.322080
986.000000	96.380885
987.000000	96.451073
988.000000	96.497032
989.000000	96.521294
990.000000	96.545780
991.000000	96.581757
992.000000	96.651093
993.000000	96.696030
994.000000	96.715486
995.000000	96.741841
996.000000	96.795569
997.000000	96.821635
998.000000	96.869101
999.000000	96.928178
1000.000000	96.959503
1001.000000	96.998800
1002.000000	97.007565
1003.000000	97.018860
1004.000000	97.046092
1005.000000	97.088522
1006.000000	97.119595
1007.000000	97.140306
1008.000000	97.184749
1009.000000	97.217060
1010.000000	97.262775
1011.000000	97.295385
1012.000000	97.336004
1013.000000	97.371374
1014.000000	97.421149
1015.000000	97.459268
1016.000000	97.479904
1017.000000	97.499494
1018.000000	97.538945
1019.000000	97.562079
1020.000000	97.568458
1021.000000	97.618633
1022.000000	97.657076
1023.000000	97.685760
1024.000000	97.722815
1025.000000	97.743688
1026.000000	97.753638
1027.000000	97.765603
1028.000000	97.751798
1029.000000	97.750762
1030.000000	97.777399
1031.000000	97.802188
1032.000000	97.822233
1033.000000	97.811757
1034.000000	97.796867
1035.000000	97.805438
1036.000000	97.841770
1037.000000	97.894276
1038.000000	97.937337
1039.000000	97.975766
1040.000000	97.996335
1041.000000	98.004937
1042.000000	98.037130
1043.000000	98.088471
1044.000000	98.127220
1045.000000	98.129827
1046.000000	98.144902
1047.000000	98.160659
1048.000000	98.183961
1049.000000	98.175976
1050.000000	98.164388
1051.000000	98.184683
1052.000000	98.197607
1053.000000	98.189386
1054.000000	98.181318
1055.000000	98.202468
1056.000000	98.185274
1057.000000	98.178675
1058.000000	98.171597
1059.000000	98.153715
1060.000000	98.178614
1061.000000	98.213418
1062.000000	98.212557
1063.000000	98.233716
1064.000000	98.269719
1065.000000	98.309824
1066.000000	98.343388
1067.000000	98.383623
1068.000000	98.424873
1069.000000	98.451405
1070.000000	98.464010
1071.000000	98.453383
1072.000000	98.465556
1073.000000	98.465339
1074.000000	98.454560
1075.000000	98.432694
1076.000000	98.447676
1077.000000	98.435039
1078.000000	98.403354
1079.000000	98.422688
1080.000000	98.445302
1081.000000	98.461264
1082.000000	98.465185
1083.000000	98.473208
1084.000000	98.501612
1085.000000	98.525585
1086.000000	98.552442
1087.000000	98.551839
1088.000000	98.582174
1089.000000	98.614998
1090.000000	98.636058
1091.000000	98.665612
1092.000000	98.658718
1093.000000	98.675859
1094.000000	98.698002
1095.000000	98.730727
1096.000000	98.745139
1097.000000	98.761811
1098.000000	98.795603
1099.000000	98.815444
1100.000000	98.818614
1101.000000	98.820366
1102.000000	98.819838
1103.000000	98.842924
1104.000000	98.847628
1105.000000	98.827927
1106.000000	98.840331
1107.000000	98.861485
1108.000000	98.880150
1109.000000	98.909795
1110.000000	98.972846
1111.000000	98.985108
1112.000000	99.003581
1113.000000	99.050132
1114.000000	99.057970
1115.000000	99.060551
1116.000000	99.044338
1117.000000	99.066580
1118.000000	99.081459
1119.000000	99.071935
1120.000000	99.085312
1121.000000	99.058993
1122.000000	99.103894
1123.000000	99.117792
1124.000000	99.126171
1125.000000	99.133253
1126.000000	99.114305
1127.000000	99.169660
1128.000000	99.210120
1129.000000	99.233260
1130.000000	99.203016
1131.000000	99.210185
1132.000000	99.228666
1133.000000	99.234994
1134.000000	99.292585
1135.000000	99.286771
1136.000000	99.280263
1137.000000	99.311939
1138.000000	99.311942
1139.000000	99.326251
1140.000000	99.356814
1141.000000	99.368008
1142.000000	99.356818
1143.000000	99.351560
1144.000000	99.352791
1145.000000	99.291812
1146.000000	99.302440
1147.000000	99.299298
1148.000000	99.254190
1149.000000	99.247011
1150.000000	99.227375
1151.000000	99.255871
1152.000000	99.281273
1153.000000	99.284483
1154.000000	99.295823
1155.000000	99.303829
1156.000000	99.320946
1157.000000	99.293183
1158.000000	99.249461
1159.000000	99.222923
1160.000000	99.192808
1161.000000	99.205329
1162.000000	99.161426
1163.000000	99.107009
1164.000000	99.057695
1165.000000	99.038437
1166.000000	98.992826
1167.000000	98.964186
1168.000000	98.956008
1169.000000	98.872228
1170.000000	98.823844
1171.000000	98.803305
1172.000000	98.756878
1173.000000	98.729266
1174.000000	98.698302
1175.000000	98.662675
1176.000000	98.609165
1177.000000	98.581025
1178.000000	98.548034
1179.000000	98.527886
1180.000000	98.560606
1181.000000	98.533764
1182.000000	98.510134
1183.000000	98.512640
1184.000000	98.493099
1185.000000	98.471595
1186.000000	98.444204
1187.000000	98.387958
1188.000000	98.368800
1189.000000	98.351057
1190.000000	98.304666
1191.000000	98.274407
1192.000000	98.264214
1193.000000	98.280686
1194.000000	98.279050
1195.000000	98.287465
1196.000000	98.275132
1197.000000	98.249935
1198.000000	98.238121
1199.000000	98.277268
1200.000000	98.296152
1201.000000	98.302896
1202.000000	98.287240
1203.000000	98.245861
