PE UV       SUBTECH     SPECTRUM    ASCII       PEDS        4.00        
   -1
4-MACRASPIS HIRTIVENTIS DIURNA .ASC
23/11/21
11:25:52.00
23/11/21
11:25:52.00
Vinicio Soto Monge

250,000000
1
Lambda 1050
1050L1511233
PerkinElmer UV WinLab 6.3.2.0749 / 2.02.05 Lambda 900 UV/VIS/NIR, Aug  7 2015 09:38:08

0
0
3350/servo 860,8/2
0
0
UV/VIS
1
1
1
DoubleDePol,CommonBeamDepol,RBeamAtt,SBeamAtt,60mm sphere, WB InGaAs Detector
0
0
0
0
Program
Program
3350/servo 860,8/2
3350/0,4 860,8/0,4
3350/0,4 860,8/0,4
0
20.00
 
 
 
0
 
860,8
319,2
860,8
Front
100
on
S:100 R:100
0
0
0
0
 
0
 
 
 
0
 
 
0
0
0
0
0
 
 
 
 
0
0


0
0
#HDR
-1
-1
#GR
nm
%R
1.0
0.0
2200,000000
-1,000000
1951
8
98,988493
5,182513
#DATA
284.000000	5.406014
285.000000	5.394245
286.000000	5.384739
287.000000	5.377327
288.000000	5.370946
289.000000	5.364826
290.000000	5.359114
291.000000	5.352832
292.000000	5.346489
293.000000	5.343711
294.000000	5.340195
295.000000	5.337873
296.000000	5.336201
297.000000	5.335079
298.000000	5.334266
299.000000	5.333144
300.000000	5.334250
301.000000	5.334933
302.000000	5.336700
303.000000	5.336914
304.000000	5.338370
305.000000	5.339691
306.000000	5.342542
307.000000	5.344347
308.000000	5.347168
309.000000	5.349139
310.000000	5.350707
311.000000	5.353282
312.000000	5.356141
313.000000	5.357443
314.000000	5.358743
315.000000	5.363141
316.000000	5.363883
317.000000	5.361720
318.000000	5.359103
319.000000	5.355910
320.000000	5.349954
321.000000	5.343991
322.000000	5.342441
323.000000	5.337342
324.000000	5.331412
325.000000	5.327510
326.000000	5.321304
327.000000	5.314375
328.000000	5.306774
329.000000	5.298286
330.000000	5.289646
331.000000	5.280487
332.000000	5.270684
333.000000	5.262275
334.000000	5.253367
335.000000	5.242561
336.000000	5.231602
337.000000	5.219603
338.000000	5.209348
339.000000	5.197911
340.000000	5.188279
341.000000	5.178435
342.000000	5.166905
343.000000	5.156579
344.000000	5.148720
345.000000	5.140228
346.000000	5.130181
347.000000	5.119932
348.000000	5.110307
349.000000	5.099743
350.000000	5.087377
351.000000	5.077239
352.000000	5.070651
353.000000	5.066085
354.000000	5.059952
355.000000	5.058601
356.000000	5.057355
357.000000	5.049727
358.000000	5.045943
359.000000	5.042903
360.000000	5.037790
361.000000	5.034654
362.000000	5.032281
363.000000	5.030271
364.000000	5.028112
365.000000	5.024382
366.000000	5.022472
367.000000	5.021004
368.000000	5.018314
369.000000	5.015698
370.000000	5.013441
371.000000	5.011037
372.000000	5.010175
373.000000	5.007147
374.000000	5.003687
375.000000	5.000994
376.000000	4.997213
377.000000	4.997203
378.000000	4.995983
379.000000	4.993129
380.000000	4.990031
381.000000	4.988195
382.000000	4.986992
383.000000	4.985108
384.000000	4.983816
385.000000	4.982386
386.000000	4.980199
387.000000	4.977972
388.000000	4.974829
389.000000	4.973401
390.000000	4.970307
391.000000	4.967153
392.000000	4.964329
393.000000	4.961293
394.000000	4.958247
395.000000	4.955259
396.000000	4.952770
397.000000	4.950446
398.000000	4.947524
399.000000	4.945176
400.000000	4.943871
401.000000	4.941534
402.000000	4.938831
403.000000	4.935550
404.000000	4.932965
405.000000	4.930989
406.000000	4.929485
407.000000	4.927270
408.000000	4.926902
409.000000	4.927032
410.000000	4.925531
411.000000	4.924571
412.000000	4.921188
413.000000	4.918003
414.000000	4.915169
415.000000	4.912491
416.000000	4.909846
417.000000	4.907217
418.000000	4.904953
419.000000	4.903063
420.000000	4.901331
421.000000	4.899824
422.000000	4.898596
423.000000	4.897553
424.000000	4.896507
425.000000	4.895729
426.000000	4.895310
427.000000	4.895302
428.000000	4.895411
429.000000	4.895666
430.000000	4.896153
431.000000	4.896731
432.000000	4.897394
433.000000	4.898333
434.000000	4.899576
435.000000	4.901531
436.000000	4.903931
437.000000	4.906559
438.000000	4.909791
439.000000	4.913383
440.000000	4.917592
441.000000	4.922486
442.000000	4.928320
443.000000	4.934696
444.000000	4.941938
445.000000	4.950215
446.000000	4.959582
447.000000	4.970109
448.000000	4.981835
449.000000	4.995015
450.000000	5.009959
451.000000	5.027006
452.000000	5.046100
453.000000	5.067460
454.000000	5.091708
455.000000	5.119081
456.000000	5.149392
457.000000	5.183193
458.000000	5.221063
459.000000	5.263226
460.000000	5.309852
461.000000	5.361460
462.000000	5.419201
463.000000	5.483300
464.000000	5.554238
465.000000	5.632789
466.000000	5.719334
467.000000	5.814612
468.000000	5.918918
469.000000	6.032607
470.000000	6.155174
471.000000	6.286833
472.000000	6.427151
473.000000	6.574805
474.000000	6.728827
475.000000	6.887591
476.000000	7.049633
477.000000	7.213269
478.000000	7.377136
479.000000	7.539394
480.000000	7.698142
481.000000	7.852065
482.000000	7.999576
483.000000	8.139558
484.000000	8.270997
485.000000	8.392106
486.000000	8.502484
487.000000	8.602185
488.000000	8.690914
489.000000	8.767616
490.000000	8.832817
491.000000	8.886988
492.000000	8.929546
493.000000	8.960978
494.000000	8.981462
495.000000	8.991076
496.000000	8.989937
497.000000	8.977714
498.000000	8.954339
499.000000	8.919648
500.000000	8.873183
501.000000	8.814627
502.000000	8.743643
503.000000	8.660306
504.000000	8.564692
505.000000	8.456997
506.000000	8.337682
507.000000	8.207273
508.000000	8.067480
509.000000	7.919455
510.000000	7.764667
511.000000	7.604717
512.000000	7.441286
513.000000	7.276226
514.000000	7.111148
515.000000	6.948203
516.000000	6.788413
517.000000	6.633419
518.000000	6.484334
519.000000	6.341552
520.000000	6.206726
521.000000	6.080171
522.000000	5.961869
523.000000	5.851755
524.000000	5.750315
525.000000	5.657232
526.000000	5.571962
527.000000	5.494334
528.000000	5.423659
529.000000	5.359451
530.000000	5.301218
531.000000	5.248772
532.000000	5.200995
533.000000	5.157896
534.000000	5.118981
535.000000	5.084049
536.000000	5.053076
537.000000	5.025371
538.000000	5.000733
539.000000	4.978501
540.000000	4.958758
541.000000	4.941001
542.000000	4.925302
543.000000	4.911328
544.000000	4.898738
545.000000	4.887539
546.000000	4.877356
547.000000	4.868312
548.000000	4.860293
549.000000	4.853139
550.000000	4.846440
551.000000	4.840367
552.000000	4.834947
553.000000	4.829999
554.000000	4.825930
555.000000	4.821954
556.000000	4.818547
557.000000	4.815463
558.000000	4.812782
559.000000	4.810515
560.000000	4.808189
561.000000	4.806211
562.000000	4.804511
563.000000	4.803208
564.000000	4.802081
565.000000	4.801174
566.000000	4.800301
567.000000	4.800110
568.000000	4.799921
569.000000	4.800010
570.000000	4.800175
571.000000	4.800532
572.000000	4.801364
573.000000	4.802321
574.000000	4.803667
575.000000	4.805159
576.000000	4.806803
577.000000	4.808709
578.000000	4.810387
579.000000	4.812456
580.000000	4.814937
581.000000	4.817695
582.000000	4.820799
583.000000	4.823980
584.000000	4.827431
585.000000	4.831306
586.000000	4.835473
587.000000	4.839846
588.000000	4.844350
589.000000	4.849036
590.000000	4.854504
591.000000	4.860085
592.000000	4.866273
593.000000	4.872546
594.000000	4.879307
595.000000	4.886280
596.000000	4.893355
597.000000	4.900778
598.000000	4.908186
599.000000	4.916007
600.000000	4.924333
601.000000	4.933181
602.000000	4.942413
603.000000	4.952001
604.000000	4.962303
605.000000	4.973179
606.000000	4.984417
607.000000	4.995948
608.000000	5.007917
609.000000	5.020469
610.000000	5.033758
611.000000	5.047532
612.000000	5.061699
613.000000	5.076835
614.000000	5.092203
615.000000	5.107844
616.000000	5.124155
617.000000	5.140857
618.000000	5.158437
619.000000	5.176515
620.000000	5.195213
621.000000	5.214570
622.000000	5.234606
623.000000	5.255679
624.000000	5.277346
625.000000	5.299370
626.000000	5.322411
627.000000	5.345939
628.000000	5.370494
629.000000	5.395623
630.000000	5.421534
631.000000	5.448462
632.000000	5.476198
633.000000	5.504697
634.000000	5.533944
635.000000	5.564141
636.000000	5.595053
637.000000	5.626587
638.000000	5.659191
639.000000	5.692499
640.000000	5.726997
641.000000	5.762413
642.000000	5.798737
643.000000	5.836394
644.000000	5.874876
645.000000	5.914172
646.000000	5.954639
647.000000	5.996116
648.000000	6.038498
649.000000	6.082103
650.000000	6.126921
651.000000	6.172752
652.000000	6.219581
653.000000	6.267479
654.000000	6.316473
655.000000	6.366479
656.000000	6.417615
657.000000	6.469796
658.000000	6.522853
659.000000	6.577386
660.000000	6.633145
661.000000	6.689505
662.000000	6.747519
663.000000	6.806695
664.000000	6.867050
665.000000	6.928590
666.000000	6.991158
667.000000	7.054956
668.000000	7.120155
669.000000	7.186696
670.000000	7.254191
671.000000	7.322825
672.000000	7.392750
673.000000	7.464027
674.000000	7.536649
675.000000	7.610049
676.000000	7.684513
677.000000	7.760469
678.000000	7.837477
679.000000	7.915501
680.000000	7.994752
681.000000	8.075314
682.000000	8.157186
683.000000	8.240513
684.000000	8.324988
685.000000	8.410624
686.000000	8.497296
687.000000	8.584992
688.000000	8.673366
689.000000	8.763054
690.000000	8.854046
691.000000	8.946255
692.000000	9.039685
693.000000	9.134251
694.000000	9.230160
695.000000	9.327494
696.000000	9.426293
697.000000	9.525473
698.000000	9.626131
699.000000	9.727959
700.000000	9.830861
701.000000	9.935056
702.000000	10.040743
703.000000	10.147738
704.000000	10.255665
705.000000	10.364818
706.000000	10.474904
707.000000	10.585820
708.000000	10.698062
709.000000	10.811109
710.000000	10.924985
711.000000	11.041000
712.000000	11.158355
713.000000	11.276213
714.000000	11.395492
715.000000	11.516024
716.000000	11.637395
717.000000	11.759933
718.000000	11.883392
719.000000	12.008238
720.000000	12.134387
721.000000	12.261880
722.000000	12.390657
723.000000	12.520517
724.000000	12.651477
725.000000	12.783189
726.000000	12.916172
727.000000	13.050218
728.000000	13.185493
729.000000	13.321676
730.000000	13.458765
731.000000	13.596917
732.000000	13.736656
733.000000	13.877286
734.000000	14.019317
735.000000	14.162517
736.000000	14.306512
737.000000	14.451163
738.000000	14.596988
739.000000	14.744010
740.000000	14.892463
741.000000	15.041722
742.000000	15.191939
743.000000	15.343241
744.000000	15.496009
745.000000	15.650284
746.000000	15.804356
747.000000	15.958730
748.000000	16.114758
749.000000	16.272106
750.000000	16.429947
751.000000	16.589779
752.000000	16.751346
753.000000	16.914142
754.000000	17.077351
755.000000	17.240502
756.000000	17.404723
757.000000	17.570396
758.000000	17.736766
759.000000	17.903508
760.000000	18.072091
761.000000	18.241692
762.000000	18.412174
763.000000	18.583980
764.000000	18.757031
765.000000	18.930771
766.000000	19.105425
767.000000	19.279788
768.000000	19.455712
769.000000	19.632312
770.000000	19.809196
771.000000	19.988172
772.000000	20.168256
773.000000	20.349985
774.000000	20.530923
775.000000	20.712406
776.000000	20.895591
777.000000	21.080111
778.000000	21.265609
779.000000	21.452863
780.000000	21.639129
781.000000	21.826047
782.000000	22.014816
783.000000	22.205084
784.000000	22.394234
785.000000	22.583685
786.000000	22.775191
787.000000	22.967872
788.000000	23.159054
789.000000	23.351827
790.000000	23.547344
791.000000	23.743417
792.000000	23.939126
793.000000	24.136006
794.000000	24.334637
795.000000	24.532118
796.000000	24.730065
797.000000	24.929200
798.000000	25.129702
799.000000	25.331681
800.000000	25.533482
801.000000	25.735462
802.000000	25.939395
803.000000	26.143799
804.000000	26.349001
805.000000	26.555278
806.000000	26.760503
807.000000	26.966828
808.000000	27.172900
809.000000	27.381294
810.000000	27.589929
811.000000	27.799678
812.000000	28.008954
813.000000	28.218714
814.000000	28.427348
815.000000	28.639595
816.000000	28.851765
817.000000	29.064261
818.000000	29.278625
819.000000	29.493154
820.000000	29.706657
821.000000	29.918626
822.000000	30.132208
823.000000	30.345856
824.000000	30.559544
825.000000	30.773439
826.000000	30.989894
827.000000	31.206232
828.000000	31.423973
829.000000	31.637655
830.000000	31.854224
831.000000	32.072473
832.000000	32.293990
833.000000	32.511846
834.000000	32.730833
835.000000	32.949349
836.000000	33.166205
837.000000	33.383138
838.000000	33.599828
839.000000	33.819915
840.000000	34.042002
841.000000	34.261174
842.000000	34.483424
843.000000	34.702048
844.000000	34.925872
845.000000	35.145358
846.000000	35.363831
847.000000	35.584721
848.000000	35.810596
849.000000	36.038385
850.000000	36.258474
851.000000	36.480445
852.000000	36.699984
853.000000	36.919680
854.000000	37.147532
855.000000	37.372767
856.000000	37.598955
857.000000	37.816900
858.000000	38.018866
859.000000	38.245992
860.000000	38.479691
861.000000	38.711052
862.000000	38.948878
863.000000	39.177218
864.000000	39.412435
865.000000	39.650115
866.000000	39.847834
867.000000	40.081444
868.000000	40.300203
869.000000	40.510639
870.000000	40.739357
871.000000	40.951383
872.000000	41.206539
873.000000	41.459941
874.000000	41.687523
875.000000	41.918952
876.000000	42.164762
877.000000	42.433138
878.000000	42.684252
879.000000	42.932223
880.000000	43.163980
881.000000	43.376388
882.000000	43.613747
883.000000	43.838359
884.000000	44.083470
885.000000	44.331276
886.000000	44.554002
887.000000	44.781388
888.000000	45.024473
889.000000	45.245053
890.000000	45.504093
891.000000	45.746226
892.000000	45.995438
893.000000	46.250866
894.000000	46.483456
895.000000	46.704094
896.000000	46.951481
897.000000	47.160977
898.000000	47.381038
899.000000	47.607879
900.000000	47.823081
901.000000	48.080978
902.000000	48.273364
903.000000	48.519519
904.000000	48.758860
905.000000	48.971269
906.000000	49.208494
907.000000	49.406343
908.000000	49.606370
909.000000	49.824825
910.000000	50.054319
911.000000	50.274661
912.000000	50.434007
913.000000	50.656763
914.000000	50.865590
915.000000	51.083683
916.000000	51.314463
917.000000	51.541507
918.000000	51.767608
919.000000	51.967288
920.000000	52.171703
921.000000	52.403680
922.000000	52.596997
923.000000	52.799386
924.000000	53.038467
925.000000	53.220385
926.000000	53.416959
927.000000	53.587326
928.000000	53.795438
929.000000	53.994598
930.000000	54.186965
931.000000	54.347673
932.000000	54.551729
933.000000	54.758069
934.000000	54.980062
935.000000	55.196453
936.000000	55.389253
937.000000	55.588520
938.000000	55.758793
939.000000	55.964763
940.000000	56.206856
941.000000	56.411365
942.000000	56.627609
943.000000	56.843293
944.000000	57.051851
945.000000	57.243809
946.000000	57.393728
947.000000	57.626506
948.000000	57.785404
949.000000	57.939134
950.000000	58.114015
951.000000	58.300246
952.000000	58.484903
953.000000	58.669527
954.000000	58.871859
955.000000	59.068214
956.000000	59.250918
957.000000	59.460510
958.000000	59.658079
959.000000	59.839844
960.000000	60.034626
961.000000	60.206303
962.000000	60.427084
963.000000	60.617857
964.000000	60.812639
965.000000	61.035008
966.000000	61.247764
967.000000	61.435597
968.000000	61.627835
969.000000	61.787186
970.000000	61.951973
971.000000	62.135317
972.000000	62.331659
973.000000	62.514942
974.000000	62.699756
975.000000	62.862908
976.000000	63.041115
977.000000	63.198427
978.000000	63.363457
979.000000	63.526763
980.000000	63.702518
981.000000	63.916490
982.000000	64.092879
983.000000	64.279664
984.000000	64.503500
985.000000	64.743734
986.000000	64.944103
987.000000	65.119211
988.000000	65.303282
989.000000	65.496309
990.000000	65.672036
991.000000	65.821392
992.000000	65.983655
993.000000	66.147214
994.000000	66.314759
995.000000	66.500850
996.000000	66.690573
997.000000	66.847130
998.000000	67.029219
999.000000	67.212784
1000.000000	67.360678
1001.000000	67.519384
1002.000000	67.691852
1003.000000	67.852196
1004.000000	68.021839
1005.000000	68.208829
1006.000000	68.392807
1007.000000	68.566304
1008.000000	68.743357
1009.000000	68.887983
1010.000000	69.031517
1011.000000	69.185138
1012.000000	69.357253
1013.000000	69.519655
1014.000000	69.686567
1015.000000	69.828330
1016.000000	69.981686
1017.000000	70.128645
1018.000000	70.284218
1019.000000	70.420738
1020.000000	70.522676
1021.000000	70.673868
1022.000000	70.814036
1023.000000	70.940702
1024.000000	71.049656
1025.000000	71.187464
1026.000000	71.376550
1027.000000	71.565847
1028.000000	71.741445
1029.000000	71.896004
1030.000000	72.015568
1031.000000	72.146744
1032.000000	72.287863
1033.000000	72.410971
1034.000000	72.536793
1035.000000	72.679645
1036.000000	72.840517
1037.000000	72.977941
1038.000000	73.119757
1039.000000	73.256133
1040.000000	73.374825
1041.000000	73.495697
1042.000000	73.640450
1043.000000	73.793591
1044.000000	73.937993
1045.000000	74.089141
1046.000000	74.239065
1047.000000	74.364484
1048.000000	74.469435
1049.000000	74.581959
1050.000000	74.721874
1051.000000	74.850962
1052.000000	74.952008
1053.000000	75.063414
1054.000000	75.196078
1055.000000	75.344580
1056.000000	75.464166
1057.000000	75.597044
1058.000000	75.724801
1059.000000	75.846852
1060.000000	75.979806
1061.000000	76.090232
1062.000000	76.165632
1063.000000	76.260285
1064.000000	76.346339
1065.000000	76.469849
1066.000000	76.617177
1067.000000	76.761762
1068.000000	76.896829
1069.000000	77.043317
1070.000000	77.175203
1071.000000	77.285036
1072.000000	77.408255
1073.000000	77.514360
1074.000000	77.626547
1075.000000	77.758975
1076.000000	77.875812
1077.000000	77.993224
1078.000000	78.084818
1079.000000	78.178285
1080.000000	78.257574
1081.000000	78.375514
1082.000000	78.474431
1083.000000	78.654260
1084.000000	78.815700
1085.000000	78.951045
1086.000000	79.072100
1087.000000	79.194498
1088.000000	79.333956
1089.000000	79.438946
1090.000000	79.535421
1091.000000	79.644188
1092.000000	79.731630
1093.000000	79.820947
1094.000000	79.944557
1095.000000	80.068014
1096.000000	80.189158
1097.000000	80.341972
1098.000000	80.452185
1099.000000	80.590966
1100.000000	80.700269
1101.000000	80.809279
1102.000000	80.928339
1103.000000	81.009778
1104.000000	81.089528
1105.000000	81.177248
1106.000000	81.291730
1107.000000	81.417866
1108.000000	81.532432
1109.000000	81.606657
1110.000000	81.697787
1111.000000	81.828354
1112.000000	81.938498
1113.000000	82.052882
1114.000000	82.178599
1115.000000	82.308597
1116.000000	82.349649
1117.000000	82.428215
1118.000000	82.499812
1119.000000	82.567768
1120.000000	82.622052
1121.000000	82.723095
1122.000000	82.817101
1123.000000	82.921610
1124.000000	83.021908
1125.000000	83.109309
1126.000000	83.184585
1127.000000	83.322898
1128.000000	83.473420
1129.000000	83.569245
1130.000000	83.637780
1131.000000	83.719297
1132.000000	83.776419
1133.000000	83.898909
1134.000000	84.004796
1135.000000	84.102311
1136.000000	84.138532
1137.000000	84.212669
1138.000000	84.323038
1139.000000	84.391727
1140.000000	84.463874
1141.000000	84.505084
1142.000000	84.551482
1143.000000	84.628505
1144.000000	84.713697
1145.000000	84.789449
1146.000000	84.855075
1147.000000	84.907200
1148.000000	84.971018
1149.000000	85.046239
1150.000000	85.100025
1151.000000	85.207549
1152.000000	85.304951
1153.000000	85.355597
1154.000000	85.410137
1155.000000	85.507125
1156.000000	85.541993
1157.000000	85.594629
1158.000000	85.638044
1159.000000	85.667768
1160.000000	85.719168
1161.000000	85.793399
1162.000000	85.818726
1163.000000	85.823462
1164.000000	85.835037
1165.000000	85.883123
1166.000000	85.911905
1167.000000	85.957270
1168.000000	85.957224
1169.000000	85.946157
1170.000000	85.918766
1171.000000	85.949078
1172.000000	85.947937
1173.000000	85.969603
1174.000000	86.025786
1175.000000	86.040911
1176.000000	86.079454
1177.000000	86.115720
1178.000000	86.131105
1179.000000	86.190283
1180.000000	86.220596
1181.000000	86.246719
1182.000000	86.293273
1183.000000	86.343627
1184.000000	86.344358
1185.000000	86.358678
1186.000000	86.377616
1187.000000	86.422328
1188.000000	86.455883
1189.000000	86.496446
1190.000000	86.510205
1191.000000	86.559884
1192.000000	86.619142
1193.000000	86.651947
1194.000000	86.697358
1195.000000	86.730052
1196.000000	86.773461
1197.000000	86.810550
1198.000000	86.881771
1199.000000	86.956650
1200.000000	87.018670
1201.000000	87.071292
1202.000000	87.130385
1203.000000	87.174747
1204.000000	87.245216
1205.000000	87.363205
1206.000000	87.447442
1207.000000	87.513193
1208.000000	87.549411
1209.000000	87.579289
1210.000000	87.634435
1211.000000	87.700079
