PE UV       SUBTECH     SPECTRUM    ASCII       PEDS        4.00        
   -1
3-STRIGIDA GLABRA INBIOCRI0003420620.ASC
23/11/20
14:42:04.00
23/11/20
14:42:04.00
Vinicio Soto Monge

250,000000
1
Lambda 1050
1050L1511233
PerkinElmer UV WinLab 6.3.2.0749 / 2.02.05 Lambda 900 UV/VIS/NIR, Aug  7 2015 09:38:08

0
0
3350/servo 860,8/2
0
0
UV/VIS
1
1
1
DoubleDePol,CommonBeamDepol,RBeamAtt,SBeamAtt,60mm sphere, WB InGaAs Detector
0
0
0
0
Program
Program
3350/servo 860,8/2
3350/0,4 860,8/0,4
3350/0,4 860,8/0,4
0
20.00
 
 
 
0
 
860,8
319,2
860,8
Front
100
on
S:100 R:100
0
0
0
0
 
0
 
 
 
0
 
 
0
0
0
0
0
 
 
 
 
0
0


0
0
#HDR
-1
-1
#GR
nm
%R
1.0
0.0
2200,000000
-1,000000
1951
8
100,956399
5,374600
#DATA
284.000000	6.396562
285.000000	6.377513
286.000000	6.357837
287.000000	6.340794
288.000000	6.324703
289.000000	6.309029
290.000000	6.295074
291.000000	6.281452
292.000000	6.269500
293.000000	6.258289
294.000000	6.247694
295.000000	6.235752
296.000000	6.225739
297.000000	6.216759
298.000000	6.210261
299.000000	6.203937
300.000000	6.196360
301.000000	6.192857
302.000000	6.188395
303.000000	6.183107
304.000000	6.179018
305.000000	6.175496
306.000000	6.170769
307.000000	6.165934
308.000000	6.164948
309.000000	6.162406
310.000000	6.159333
311.000000	6.156593
312.000000	6.153271
313.000000	6.150431
314.000000	6.147587
315.000000	6.144855
316.000000	6.141012
317.000000	6.131325
318.000000	6.123280
319.000000	6.117048
320.000000	6.111408
321.000000	6.106930
322.000000	6.102846
323.000000	6.092642
324.000000	6.087472
325.000000	6.076332
326.000000	6.065995
327.000000	6.058699
328.000000	6.051054
329.000000	6.040718
330.000000	6.033908
331.000000	6.024652
332.000000	6.012302
333.000000	6.002519
334.000000	5.991516
335.000000	5.981411
336.000000	5.968487
337.000000	5.958507
338.000000	5.949678
339.000000	5.937588
340.000000	5.926162
341.000000	5.915944
342.000000	5.906445
343.000000	5.894208
344.000000	5.885159
345.000000	5.875418
346.000000	5.865471
347.000000	5.855093
348.000000	5.845743
349.000000	5.837508
350.000000	5.829251
351.000000	5.821816
352.000000	5.817664
353.000000	5.812368
354.000000	5.806388
355.000000	5.799733
356.000000	5.794172
357.000000	5.786155
358.000000	5.785041
359.000000	5.778875
360.000000	5.777521
361.000000	5.776294
362.000000	5.770572
363.000000	5.765717
364.000000	5.762993
365.000000	5.758747
366.000000	5.756862
367.000000	5.755998
368.000000	5.751641
369.000000	5.749095
370.000000	5.745599
371.000000	5.742536
372.000000	5.738834
373.000000	5.733643
374.000000	5.731383
375.000000	5.728293
376.000000	5.723409
377.000000	5.720761
378.000000	5.717856
379.000000	5.712997
380.000000	5.709945
381.000000	5.706173
382.000000	5.702731
383.000000	5.698114
384.000000	5.693272
385.000000	5.688484
386.000000	5.683062
387.000000	5.679342
388.000000	5.676522
389.000000	5.672031
390.000000	5.667505
391.000000	5.662140
392.000000	5.657522
393.000000	5.651617
394.000000	5.645975
395.000000	5.641764
396.000000	5.636221
397.000000	5.632220
398.000000	5.627726
399.000000	5.623153
400.000000	5.617682
401.000000	5.612099
402.000000	5.607695
403.000000	5.603244
404.000000	5.598932
405.000000	5.595439
406.000000	5.591479
407.000000	5.586482
408.000000	5.582762
409.000000	5.578951
410.000000	5.575475
411.000000	5.572942
412.000000	5.569460
413.000000	5.566262
414.000000	5.563106
415.000000	5.559857
416.000000	5.556918
417.000000	5.554470
418.000000	5.551952
419.000000	5.549324
420.000000	5.546897
421.000000	5.545159
422.000000	5.543431
423.000000	5.541491
424.000000	5.539914
425.000000	5.538580
426.000000	5.537368
427.000000	5.536247
428.000000	5.535020
429.000000	5.533776
430.000000	5.532881
431.000000	5.532363
432.000000	5.531714
433.000000	5.531456
434.000000	5.531021
435.000000	5.530728
436.000000	5.530714
437.000000	5.530506
438.000000	5.530553
439.000000	5.530500
440.000000	5.530677
441.000000	5.531081
442.000000	5.531718
443.000000	5.532271
444.000000	5.532926
445.000000	5.533409
446.000000	5.534007
447.000000	5.534871
448.000000	5.535669
449.000000	5.536602
450.000000	5.537574
451.000000	5.538634
452.000000	5.539883
453.000000	5.541267
454.000000	5.542698
455.000000	5.543819
456.000000	5.544509
457.000000	5.545433
458.000000	5.546872
459.000000	5.548352
460.000000	5.549891
461.000000	5.551407
462.000000	5.553058
463.000000	5.554908
464.000000	5.556744
465.000000	5.558520
466.000000	5.560401
467.000000	5.562548
468.000000	5.564912
469.000000	5.567681
470.000000	5.570443
471.000000	5.573228
472.000000	5.576339
473.000000	5.579689
474.000000	5.583337
475.000000	5.587020
476.000000	5.590660
477.000000	5.594761
478.000000	5.599278
479.000000	5.604171
480.000000	5.609333
481.000000	5.614465
482.000000	5.619378
483.000000	5.624704
484.000000	5.630621
485.000000	5.637282
486.000000	5.644720
487.000000	5.652961
488.000000	5.662174
489.000000	5.672532
490.000000	5.684431
491.000000	5.697816
492.000000	5.712540
493.000000	5.728391
494.000000	5.745908
495.000000	5.765352
496.000000	5.786763
497.000000	5.809696
498.000000	5.834651
499.000000	5.861609
500.000000	5.890195
501.000000	5.920268
502.000000	5.952120
503.000000	5.985777
504.000000	6.021088
505.000000	6.058123
506.000000	6.097198
507.000000	6.138457
508.000000	6.181659
509.000000	6.227561
510.000000	6.276197
511.000000	6.327598
512.000000	6.382367
513.000000	6.440818
514.000000	6.503447
515.000000	6.570608
516.000000	6.642647
517.000000	6.719905
518.000000	6.802486
519.000000	6.890684
520.000000	6.984667
521.000000	7.084833
522.000000	7.191685
523.000000	7.305312
524.000000	7.425811
525.000000	7.553011
526.000000	7.687316
527.000000	7.829048
528.000000	7.978676
529.000000	8.135890
530.000000	8.300893
531.000000	8.473860
532.000000	8.655187
533.000000	8.844573
534.000000	9.042470
535.000000	9.248827
536.000000	9.464202
537.000000	9.688140
538.000000	9.920499
539.000000	10.161423
540.000000	10.410685
541.000000	10.668003
542.000000	10.933250
543.000000	11.206057
544.000000	11.485981
545.000000	11.772346
546.000000	12.064997
547.000000	12.362251
548.000000	12.664164
549.000000	12.969250
550.000000	13.277069
551.000000	13.586483
552.000000	13.896633
553.000000	14.206665
554.000000	14.515115
555.000000	14.820813
556.000000	15.122617
557.000000	15.419325
558.000000	15.709439
559.000000	15.992067
560.000000	16.265938
561.000000	16.530089
562.000000	16.783574
563.000000	17.025253
564.000000	17.253950
565.000000	17.468853
566.000000	17.669578
567.000000	17.855808
568.000000	18.026697
569.000000	18.181477
570.000000	18.320181
571.000000	18.442872
572.000000	18.549233
573.000000	18.639550
574.000000	18.714433
575.000000	18.774187
576.000000	18.819188
577.000000	18.850021
578.000000	18.867781
579.000000	18.872875
580.000000	18.866686
581.000000	18.849523
582.000000	18.823284
583.000000	18.788766
584.000000	18.747650
585.000000	18.700522
586.000000	18.649593
587.000000	18.596138
588.000000	18.541236
589.000000	18.486209
590.000000	18.432348
591.000000	18.381557
592.000000	18.333724
593.000000	18.290979
594.000000	18.254063
595.000000	18.224116
596.000000	18.201643
597.000000	18.186948
598.000000	18.180164
599.000000	18.182742
600.000000	18.194473
601.000000	18.215679
602.000000	18.246591
603.000000	18.287237
604.000000	18.338673
605.000000	18.400447
606.000000	18.472428
607.000000	18.555010
608.000000	18.647801
609.000000	18.750811
610.000000	18.863487
611.000000	18.986222
612.000000	19.118791
613.000000	19.260367
614.000000	19.410754
615.000000	19.570006
616.000000	19.737218
617.000000	19.911830
618.000000	20.093716
619.000000	20.281797
620.000000	20.476570
621.000000	20.676016
622.000000	20.879883
623.000000	21.087391
624.000000	21.297959
625.000000	21.510562
626.000000	21.724750
627.000000	21.941193
628.000000	22.158596
629.000000	22.376737
630.000000	22.595903
631.000000	22.816151
632.000000	23.037172
633.000000	23.260073
634.000000	23.484116
635.000000	23.709822
636.000000	23.938222
637.000000	24.169537
638.000000	24.403648
639.000000	24.640203
640.000000	24.881464
641.000000	25.126402
642.000000	25.375500
643.000000	25.629713
644.000000	25.888597
645.000000	26.152335
646.000000	26.420831
647.000000	26.693461
648.000000	26.970406
649.000000	27.251820
650.000000	27.537232
651.000000	27.827845
652.000000	28.123077
653.000000	28.421914
654.000000	28.724873
655.000000	29.030666
656.000000	29.339612
657.000000	29.651369
658.000000	29.965871
659.000000	30.284377
660.000000	30.607870
661.000000	30.934778
662.000000	31.264416
663.000000	31.597905
664.000000	31.934974
665.000000	32.274780
666.000000	32.617863
667.000000	32.964636
668.000000	33.315855
669.000000	33.671002
670.000000	34.029585
671.000000	34.391082
672.000000	34.755520
673.000000	35.123450
674.000000	35.493698
675.000000	35.865043
676.000000	36.239178
677.000000	36.614662
678.000000	36.991220
679.000000	37.368355
680.000000	37.747157
681.000000	38.125984
682.000000	38.505448
683.000000	38.886253
684.000000	39.266875
685.000000	39.646642
686.000000	40.025959
687.000000	40.405000
688.000000	40.781570
689.000000	41.158029
690.000000	41.533072
691.000000	41.908378
692.000000	42.283547
693.000000	42.658580
694.000000	43.032269
695.000000	43.404185
696.000000	43.775345
697.000000	44.145133
698.000000	44.513307
699.000000	44.882159
700.000000	45.250808
701.000000	45.619352
702.000000	45.988224
703.000000	46.354847
704.000000	46.721290
705.000000	47.087378
706.000000	47.452704
707.000000	47.817623
708.000000	48.182542
709.000000	48.548106
710.000000	48.912946
711.000000	49.278453
712.000000	49.644687
713.000000	50.009554
714.000000	50.374948
715.000000	50.739299
716.000000	51.103741
717.000000	51.467048
718.000000	51.829502
719.000000	52.190937
720.000000	52.553647
721.000000	52.916539
722.000000	53.277755
723.000000	53.640339
724.000000	54.002096
725.000000	54.363241
726.000000	54.724498
727.000000	55.085492
728.000000	55.446014
729.000000	55.804445
730.000000	56.162424
731.000000	56.520365
732.000000	56.877830
733.000000	57.234296
734.000000	57.588217
735.000000	57.941747
736.000000	58.295845
737.000000	58.647519
738.000000	58.998272
739.000000	59.345838
740.000000	59.691573
741.000000	60.035160
742.000000	60.375443
743.000000	60.713425
744.000000	61.045422
745.000000	61.374563
746.000000	61.699810
747.000000	62.019113
748.000000	62.335688
749.000000	62.646644
750.000000	62.951752
751.000000	63.252322
752.000000	63.548091
753.000000	63.838744
754.000000	64.124968
755.000000	64.404946
756.000000	64.678911
757.000000	64.947845
758.000000	65.210521
759.000000	65.465789
760.000000	65.715736
761.000000	65.959906
762.000000	66.198639
763.000000	66.431351
764.000000	66.662609
765.000000	66.888367
766.000000	67.104813
767.000000	67.316032
768.000000	67.521853
769.000000	67.722896
770.000000	67.916448
771.000000	68.104268
772.000000	68.289588
773.000000	68.468706
774.000000	68.643398
775.000000	68.814679
776.000000	68.982492
777.000000	69.145220
778.000000	69.304379
779.000000	69.462735
780.000000	69.622126
781.000000	69.775524
782.000000	69.930182
783.000000	70.083884
784.000000	70.237328
785.000000	70.391849
786.000000	70.544062
787.000000	70.694141
788.000000	70.843171
789.000000	70.995741
790.000000	71.149559
791.000000	71.304418
792.000000	71.460451
793.000000	71.613640
794.000000	71.769393
795.000000	71.928389
796.000000	72.089835
797.000000	72.251400
798.000000	72.416016
799.000000	72.578603
800.000000	72.740252
801.000000	72.909343
802.000000	73.082685
803.000000	73.260307
804.000000	73.436888
805.000000	73.612341
806.000000	73.789203
807.000000	73.968262
808.000000	74.148506
809.000000	74.331850
810.000000	74.518181
811.000000	74.706516
812.000000	74.898822
813.000000	75.091584
814.000000	75.286779
815.000000	75.478112
816.000000	75.670515
817.000000	75.868250
818.000000	76.065633
819.000000	76.259456
820.000000	76.450487
821.000000	76.650343
822.000000	76.846827
823.000000	77.045156
824.000000	77.239776
825.000000	77.434233
826.000000	77.628890
827.000000	77.823626
828.000000	78.025297
829.000000	78.223000
830.000000	78.416735
831.000000	78.604525
832.000000	78.796009
833.000000	78.984061
834.000000	79.175476
835.000000	79.370947
836.000000	79.556503
837.000000	79.743677
838.000000	79.931809
839.000000	80.112973
840.000000	80.298328
841.000000	80.480547
842.000000	80.662048
843.000000	80.834808
844.000000	81.010609
845.000000	81.194531
846.000000	81.365765
847.000000	81.537572
848.000000	81.707612
849.000000	81.874260
850.000000	82.045377
851.000000	82.219408
852.000000	82.392392
853.000000	82.559611
854.000000	82.724892
855.000000	82.889711
856.000000	83.043917
857.000000	83.199255
858.000000	83.352077
859.000000	83.555869
860.000000	83.739501
861.000000	83.934871
862.000000	84.101297
863.000000	84.273886
864.000000	84.460185
865.000000	84.623993
866.000000	84.790127
867.000000	84.976307
868.000000	85.144351
869.000000	85.297055
870.000000	85.454954
871.000000	85.630262
872.000000	85.784934
873.000000	85.953165
874.000000	86.121707
875.000000	86.301684
876.000000	86.464185
877.000000	86.624667
878.000000	86.798812
879.000000	86.950551
880.000000	87.097376
881.000000	87.271788
882.000000	87.425749
883.000000	87.573730
884.000000	87.741112
885.000000	87.906551
886.000000	88.058993
887.000000	88.211554
888.000000	88.339002
889.000000	88.491234
890.000000	88.613709
891.000000	88.751336
892.000000	88.900946
893.000000	89.055006
894.000000	89.168189
895.000000	89.285222
896.000000	89.387563
897.000000	89.501414
898.000000	89.621396
899.000000	89.699548
900.000000	89.838725
901.000000	89.953703
902.000000	90.044944
903.000000	90.154325
904.000000	90.278297
905.000000	90.368928
906.000000	90.478995
907.000000	90.580018
908.000000	90.677861
909.000000	90.794634
910.000000	90.884848
911.000000	90.994686
912.000000	91.086231
913.000000	91.187157
914.000000	91.309605
915.000000	91.417719
916.000000	91.478406
917.000000	91.552361
918.000000	91.646119
919.000000	91.750076
920.000000	91.804634
921.000000	91.907941
922.000000	91.976580
923.000000	92.070873
924.000000	92.122302
925.000000	92.210619
926.000000	92.301688
927.000000	92.370780
928.000000	92.443422
929.000000	92.487086
930.000000	92.560880
931.000000	92.628973
932.000000	92.710914
933.000000	92.787356
934.000000	92.899818
935.000000	92.946652
936.000000	93.018879
937.000000	93.101579
938.000000	93.166999
939.000000	93.223905
940.000000	93.320773
941.000000	93.374825
942.000000	93.455389
943.000000	93.504235
944.000000	93.560094
945.000000	93.621834
946.000000	93.699465
947.000000	93.778420
948.000000	93.837469
949.000000	93.895966
950.000000	93.949451
951.000000	94.010836
952.000000	94.068981
953.000000	94.121770
954.000000	94.162714
955.000000	94.211759
956.000000	94.235492
957.000000	94.283973
958.000000	94.323277
959.000000	94.390367
960.000000	94.467408
961.000000	94.504985
962.000000	94.597905
963.000000	94.672932
964.000000	94.752547
965.000000	94.842252
966.000000	94.908989
967.000000	94.968341
968.000000	95.009888
969.000000	95.052683
970.000000	95.106202
971.000000	95.160369
972.000000	95.207807
973.000000	95.254376
974.000000	95.307701
975.000000	95.336890
976.000000	95.388555
977.000000	95.437902
978.000000	95.510458
979.000000	95.543876
980.000000	95.592925
981.000000	95.613304
982.000000	95.654486
983.000000	95.698871
984.000000	95.743515
985.000000	95.816075
986.000000	95.889507
987.000000	95.963703
988.000000	96.022683
989.000000	96.038135
990.000000	96.088233
991.000000	96.137255
992.000000	96.220265
993.000000	96.297694
994.000000	96.348250
995.000000	96.397854
996.000000	96.484148
997.000000	96.502461
998.000000	96.502795
999.000000	96.537171
1000.000000	96.538032
1001.000000	96.548700
1002.000000	96.560485
1003.000000	96.582708
1004.000000	96.583401
1005.000000	96.606364
1006.000000	96.635848
1007.000000	96.669803
1008.000000	96.734700
1009.000000	96.786838
1010.000000	96.850055
1011.000000	96.883260
1012.000000	96.904586
1013.000000	96.909500
1014.000000	96.952547
1015.000000	96.992369
1016.000000	97.046751
1017.000000	97.070838
1018.000000	97.105309
1019.000000	97.120942
1020.000000	97.103485
1021.000000	97.116798
1022.000000	97.145519
1023.000000	97.165027
1024.000000	97.207243
1025.000000	97.234904
1026.000000	97.240903
1027.000000	97.234239
1028.000000	97.243516
1029.000000	97.239496
1030.000000	97.251327
1031.000000	97.252241
1032.000000	97.267198
1033.000000	97.309921
1034.000000	97.323617
1035.000000	97.340892
1036.000000	97.379827
1037.000000	97.439826
1038.000000	97.482750
1039.000000	97.533937
1040.000000	97.579903
1041.000000	97.590979
1042.000000	97.603065
1043.000000	97.634545
1044.000000	97.660302
1045.000000	97.675036
1046.000000	97.694039
1047.000000	97.729347
1048.000000	97.768613
1049.000000	97.757311
1050.000000	97.742143
1051.000000	97.730651
1052.000000	97.738705
1053.000000	97.745053
1054.000000	97.757409
1055.000000	97.814697
1056.000000	97.844784
1057.000000	97.845703
1058.000000	97.877577
1059.000000	97.909475
1060.000000	97.980465
1061.000000	98.026432
1062.000000	98.054623
1063.000000	98.082947
1064.000000	98.135185
1065.000000	98.157388
1066.000000	98.200844
1067.000000	98.251678
1068.000000	98.267358
1069.000000	98.295323
1070.000000	98.320206
1071.000000	98.326379
1072.000000	98.300347
1073.000000	98.296720
1074.000000	98.317283
1075.000000	98.360294
1076.000000	98.400463
1077.000000	98.422769
1078.000000	98.407795
1079.000000	98.396873
1080.000000	98.403156
1081.000000	98.423497
1082.000000	98.433722
1083.000000	98.463922
1084.000000	98.518139
1085.000000	98.551189
1086.000000	98.588249
1087.000000	98.606015
1088.000000	98.633656
1089.000000	98.667977
1090.000000	98.646232
1091.000000	98.657173
1092.000000	98.688962
1093.000000	98.703800
1094.000000	98.714874
1095.000000	98.708369
1096.000000	98.724461
1097.000000	98.748252
1098.000000	98.761006
1099.000000	98.793021
1100.000000	98.776780
1101.000000	98.766339
1102.000000	98.762330
1103.000000	98.760305
1104.000000	98.777862
1105.000000	98.767998
1106.000000	98.804227
1107.000000	98.849955
1108.000000	98.855533
1109.000000	98.857995
1110.000000	98.839943
1111.000000	98.854222
1112.000000	98.821555
1113.000000	98.812204
1114.000000	98.847988
1115.000000	98.872366
1116.000000	98.863543
1117.000000	98.840416
1118.000000	98.854194
1119.000000	98.841814
1120.000000	98.856063
1121.000000	98.855872
1122.000000	98.901589
1123.000000	98.927149
1124.000000	98.966113
1125.000000	99.020552
1126.000000	99.022158
1127.000000	99.026065
1128.000000	99.038650
1129.000000	99.050365
1130.000000	99.040522
1131.000000	99.054927
1132.000000	99.033327
1133.000000	99.032887
1134.000000	99.085167
1135.000000	99.108410
1136.000000	99.134350
1137.000000	99.130832
1138.000000	99.160796
1139.000000	99.168802
1140.000000	99.180005
1141.000000	99.129268
1142.000000	99.107345
1143.000000	99.115756
1144.000000	99.128691
1145.000000	99.106784
1146.000000	99.098903
1147.000000	99.138245
1148.000000	99.154187
1149.000000	99.127692
1150.000000	99.084577
1151.000000	99.068985
1152.000000	99.099566
1153.000000	99.041367
1154.000000	99.027427
1155.000000	99.022445
1156.000000	99.010673
1157.000000	98.975013
1158.000000	98.907025
1159.000000	98.840543
1160.000000	98.781702
1161.000000	98.757283
1162.000000	98.693816
1163.000000	98.630842
1164.000000	98.560417
1165.000000	98.524251
1166.000000	98.479640
1167.000000	98.481154
1168.000000	98.411029
1169.000000	98.266549
1170.000000	98.210807
1171.000000	98.142212
1172.000000	98.094299
1173.000000	98.047436
1174.000000	98.005830
1175.000000	97.960465
1176.000000	97.927241
1177.000000	97.891262
1178.000000	97.840098
1179.000000	97.765822
1180.000000	97.731212
1181.000000	97.688194
1182.000000	97.628055
1183.000000	97.585472
1184.000000	97.567617
1185.000000	97.541314
1186.000000	97.482631
1187.000000	97.420928
1188.000000	97.409880
1189.000000	97.355622
1190.000000	97.300819
1191.000000	97.270890
1192.000000	97.234499
1193.000000	97.216075
1194.000000	97.185896
1195.000000	97.144255
1196.000000	97.097841
1197.000000	97.088169
1198.000000	97.110758
1199.000000	97.155457
1200.000000	97.169376
1201.000000	97.171125
1202.000000	97.138601
1203.000000	97.150135
1204.000000	97.176725
