PE UV       SUBTECH     SPECTRUM    ASCII       PEDS        4.00        
   -1
3-MACRASPIS SIGNO PREGUNTA.ASC
23/11/20
16:02:26.00
23/11/20
16:02:26.00
Vinicio Soto Monge

250,000000
1
Lambda 1050
1050L1511233
PerkinElmer UV WinLab 6.3.2.0749 / 2.02.05 Lambda 900 UV/VIS/NIR, Aug  7 2015 09:38:08

0
0
3350/servo 860,8/2
0
0
UV/VIS
1
1
1
DoubleDePol,CommonBeamDepol,RBeamAtt,SBeamAtt,60mm sphere, WB InGaAs Detector
0
0
0
0
Program
Program
3350/servo 860,8/2
3350/0,4 860,8/0,4
3350/0,4 860,8/0,4
0
20.00
 
 
 
0
 
860,8
319,2
860,8
Front
100
on
S:100 R:100
0
0
0
0
 
0
 
 
 
0
 
 
0
0
0
0
0
 
 
 
 
0
0


0
0
#HDR
-1
-1
#GR
nm
%R
1.0
0.0
2200,000000
-1,000000
1951
8
97,885557
5,338364
#DATA
284.000000	7.552254
285.000000	7.521937
286.000000	7.491181
287.000000	7.464081
288.000000	7.439147
289.000000	7.416022
290.000000	7.394267
291.000000	7.373241
292.000000	7.354183
293.000000	7.334648
294.000000	7.319065
295.000000	7.301925
296.000000	7.285202
297.000000	7.272232
298.000000	7.260142
299.000000	7.248430
300.000000	7.235173
301.000000	7.225661
302.000000	7.217788
303.000000	7.207173
304.000000	7.199624
305.000000	7.190628
306.000000	7.180542
307.000000	7.170717
308.000000	7.162264
309.000000	7.152652
310.000000	7.142622
311.000000	7.133009
312.000000	7.123572
313.000000	7.114908
314.000000	7.106550
315.000000	7.096473
316.000000	7.088077
317.000000	7.079432
318.000000	7.067324
319.000000	7.055383
320.000000	7.044512
321.000000	7.036229
322.000000	7.026308
323.000000	7.011139
324.000000	6.998803
325.000000	6.984202
326.000000	6.967542
327.000000	6.958071
328.000000	6.945533
329.000000	6.929889
330.000000	6.915429
331.000000	6.899332
332.000000	6.880684
333.000000	6.860703
334.000000	6.845283
335.000000	6.830233
336.000000	6.816177
337.000000	6.800447
338.000000	6.787397
339.000000	6.769604
340.000000	6.751206
341.000000	6.734897
342.000000	6.720492
343.000000	6.705243
344.000000	6.690980
345.000000	6.680216
346.000000	6.668188
347.000000	6.654290
348.000000	6.640590
349.000000	6.628376
350.000000	6.616941
351.000000	6.605511
352.000000	6.592269
353.000000	6.583734
354.000000	6.573378
355.000000	6.562914
356.000000	6.550661
357.000000	6.537440
358.000000	6.528186
359.000000	6.519102
360.000000	6.510790
361.000000	6.504002
362.000000	6.489647
363.000000	6.477623
364.000000	6.467110
365.000000	6.457475
366.000000	6.449850
367.000000	6.444007
368.000000	6.436200
369.000000	6.424600
370.000000	6.414068
371.000000	6.401763
372.000000	6.393275
373.000000	6.384000
374.000000	6.373993
375.000000	6.366742
376.000000	6.357483
377.000000	6.345140
378.000000	6.332205
379.000000	6.320264
380.000000	6.306380
381.000000	6.293520
382.000000	6.281920
383.000000	6.269882
384.000000	6.256049
385.000000	6.242152
386.000000	6.228393
387.000000	6.215339
388.000000	6.201911
389.000000	6.189296
390.000000	6.175739
391.000000	6.161953
392.000000	6.149410
393.000000	6.137631
394.000000	6.123626
395.000000	6.110299
396.000000	6.097524
397.000000	6.085986
398.000000	6.073942
399.000000	6.061888
400.000000	6.050354
401.000000	6.037493
402.000000	6.024956
403.000000	6.013746
404.000000	6.003614
405.000000	5.993757
406.000000	5.982926
407.000000	5.970084
408.000000	5.958312
409.000000	5.948585
410.000000	5.938618
411.000000	5.929636
412.000000	5.922016
413.000000	5.914599
414.000000	5.907267
415.000000	5.900225
416.000000	5.893293
417.000000	5.886623
418.000000	5.880271
419.000000	5.873998
420.000000	5.868007
421.000000	5.862054
422.000000	5.856486
423.000000	5.851053
424.000000	5.845842
425.000000	5.840496
426.000000	5.835348
427.000000	5.830645
428.000000	5.825718
429.000000	5.820952
430.000000	5.815997
431.000000	5.811244
432.000000	5.806638
433.000000	5.802418
434.000000	5.798030
435.000000	5.793627
436.000000	5.789724
437.000000	5.785770
438.000000	5.781759
439.000000	5.777650
440.000000	5.773744
441.000000	5.770135
442.000000	5.766692
443.000000	5.763157
444.000000	5.759834
445.000000	5.756577
446.000000	5.753020
447.000000	5.749553
448.000000	5.746178
449.000000	5.743163
450.000000	5.739918
451.000000	5.736403
452.000000	5.733062
453.000000	5.729771
454.000000	5.726558
455.000000	5.723078
456.000000	5.719308
457.000000	5.715596
458.000000	5.711990
459.000000	5.708567
460.000000	5.705122
461.000000	5.701759
462.000000	5.698370
463.000000	5.695034
464.000000	5.691775
465.000000	5.688613
466.000000	5.685461
467.000000	5.682304
468.000000	5.679002
469.000000	5.676112
470.000000	5.673141
471.000000	5.669836
472.000000	5.667012
473.000000	5.664506
474.000000	5.662165
475.000000	5.659808
476.000000	5.657602
477.000000	5.655589
478.000000	5.653920
479.000000	5.652518
480.000000	5.651257
481.000000	5.650355
482.000000	5.649818
483.000000	5.649826
484.000000	5.650159
485.000000	5.650874
486.000000	5.652244
487.000000	5.654048
488.000000	5.656440
489.000000	5.659466
490.000000	5.663174
491.000000	5.667608
492.000000	5.672396
493.000000	5.677691
494.000000	5.683540
495.000000	5.690053
496.000000	5.697455
497.000000	5.705376
498.000000	5.714031
499.000000	5.723593
500.000000	5.733857
501.000000	5.744471
502.000000	5.755746
503.000000	5.767750
504.000000	5.780307
505.000000	5.793716
506.000000	5.808282
507.000000	5.823457
508.000000	5.839453
509.000000	5.856176
510.000000	5.873779
511.000000	5.892257
512.000000	5.911714
513.000000	5.932329
514.000000	5.954256
515.000000	5.977442
516.000000	6.001804
517.000000	6.027408
518.000000	6.054611
519.000000	6.082950
520.000000	6.112863
521.000000	6.144638
522.000000	6.178088
523.000000	6.213266
524.000000	6.250246
525.000000	6.289276
526.000000	6.330375
527.000000	6.373784
528.000000	6.419752
529.000000	6.468138
530.000000	6.519112
531.000000	6.572973
532.000000	6.630024
533.000000	6.690445
534.000000	6.754625
535.000000	6.822589
536.000000	6.894638
537.000000	6.971229
538.000000	7.052697
539.000000	7.139059
540.000000	7.230432
541.000000	7.327170
542.000000	7.429695
543.000000	7.538241
544.000000	7.653454
545.000000	7.774945
546.000000	7.903071
547.000000	8.038260
548.000000	8.180463
549.000000	8.329958
550.000000	8.486957
551.000000	8.651788
552.000000	8.824847
553.000000	9.006050
554.000000	9.195278
555.000000	9.392498
556.000000	9.597286
557.000000	9.809847
558.000000	10.030242
559.000000	10.258296
560.000000	10.495772
561.000000	10.740390
562.000000	10.991563
563.000000	11.249050
564.000000	11.512696
565.000000	11.782032
566.000000	12.056285
567.000000	12.335071
568.000000	12.617317
569.000000	12.901871
570.000000	13.189122
571.000000	13.478652
572.000000	13.769125
573.000000	14.059713
574.000000	14.350907
575.000000	14.641533
576.000000	14.930503
577.000000	15.217333
578.000000	15.501194
579.000000	15.780581
580.000000	16.054649
581.000000	16.322204
582.000000	16.582098
583.000000	16.833759
584.000000	17.075999
585.000000	17.307227
586.000000	17.526624
587.000000	17.733425
588.000000	17.925838
589.000000	18.103769
590.000000	18.266279
591.000000	18.412636
592.000000	18.542751
593.000000	18.656272
594.000000	18.753081
595.000000	18.831068
596.000000	18.892175
597.000000	18.936604
598.000000	18.964366
599.000000	18.975411
600.000000	18.969319
601.000000	18.947368
602.000000	18.909197
603.000000	18.855334
604.000000	18.786884
605.000000	18.703709
606.000000	18.606106
607.000000	18.494793
608.000000	18.370716
609.000000	18.233562
610.000000	18.083728
611.000000	17.922046
612.000000	17.748458
613.000000	17.563715
614.000000	17.368915
615.000000	17.165238
616.000000	16.952869
617.000000	16.732808
618.000000	16.505994
619.000000	16.273204
620.000000	16.036040
621.000000	15.794819
622.000000	15.549853
623.000000	15.303249
624.000000	15.055730
625.000000	14.807859
626.000000	14.560834
627.000000	14.314510
628.000000	14.069783
629.000000	13.826783
630.000000	13.585768
631.000000	13.347128
632.000000	13.111574
633.000000	12.879250
634.000000	12.650756
635.000000	12.426527
636.000000	12.206365
637.000000	11.991519
638.000000	11.781910
639.000000	11.577346
640.000000	11.378175
641.000000	11.184433
642.000000	10.996833
643.000000	10.814659
644.000000	10.638399
645.000000	10.468497
646.000000	10.305197
647.000000	10.148348
648.000000	9.997950
649.000000	9.854380
650.000000	9.717408
651.000000	9.587823
652.000000	9.465740
653.000000	9.350532
654.000000	9.242415
655.000000	9.141475
656.000000	9.047861
657.000000	8.961833
658.000000	8.882785
659.000000	8.810893
660.000000	8.746190
661.000000	8.688052
662.000000	8.636915
663.000000	8.592251
664.000000	8.553843
665.000000	8.521834
666.000000	8.495956
667.000000	8.476283
668.000000	8.462269
669.000000	8.453776
670.000000	8.451006
671.000000	8.453296
672.000000	8.460155
673.000000	8.472437
674.000000	8.489311
675.000000	8.510553
676.000000	8.535810
677.000000	8.564661
678.000000	8.597343
679.000000	8.633149
680.000000	8.672319
681.000000	8.714368
682.000000	8.759765
683.000000	8.808349
684.000000	8.859364
685.000000	8.912657
686.000000	8.968552
687.000000	9.026569
688.000000	9.086557
689.000000	9.148833
690.000000	9.213033
691.000000	9.279357
692.000000	9.347141
693.000000	9.416309
694.000000	9.486908
695.000000	9.558757
696.000000	9.632226
697.000000	9.706605
698.000000	9.782658
699.000000	9.860727
700.000000	9.939844
701.000000	10.020352
702.000000	10.101716
703.000000	10.184653
704.000000	10.268964
705.000000	10.354316
706.000000	10.440899
707.000000	10.529012
708.000000	10.618339
709.000000	10.708320
710.000000	10.799158
711.000000	10.891587
712.000000	10.985466
713.000000	11.080359
714.000000	11.176332
715.000000	11.273383
716.000000	11.371301
717.000000	11.469916
718.000000	11.570035
719.000000	11.671519
720.000000	11.774380
721.000000	11.878265
722.000000	11.983446
723.000000	12.090227
724.000000	12.197111
725.000000	12.304894
726.000000	12.413827
727.000000	12.524103
728.000000	12.635545
729.000000	12.748442
730.000000	12.862634
731.000000	12.977975
732.000000	13.094846
733.000000	13.212252
734.000000	13.329856
735.000000	13.449741
736.000000	13.570844
737.000000	13.693205
738.000000	13.816849
739.000000	13.941521
740.000000	14.067696
741.000000	14.194879
742.000000	14.322635
743.000000	14.451258
744.000000	14.581456
745.000000	14.712874
746.000000	14.845555
747.000000	14.978294
748.000000	15.112062
749.000000	15.247649
750.000000	15.384714
751.000000	15.523349
752.000000	15.663026
753.000000	15.803011
754.000000	15.944240
755.000000	16.086511
756.000000	16.230231
757.000000	16.375474
758.000000	16.521263
759.000000	16.668916
760.000000	16.817134
761.000000	16.967036
762.000000	17.118057
763.000000	17.270280
764.000000	17.423485
765.000000	17.577566
766.000000	17.732635
767.000000	17.888453
768.000000	18.045480
769.000000	18.204749
770.000000	18.363916
771.000000	18.524299
772.000000	18.686138
773.000000	18.848362
774.000000	19.011428
775.000000	19.175857
776.000000	19.341650
777.000000	19.508317
778.000000	19.675913
779.000000	19.844422
780.000000	20.014183
781.000000	20.184213
782.000000	20.357562
783.000000	20.532047
784.000000	20.705561
785.000000	20.880741
786.000000	21.056662
787.000000	21.233433
788.000000	21.411473
789.000000	21.590674
790.000000	21.771000
791.000000	21.953297
792.000000	22.133914
793.000000	22.315310
794.000000	22.498022
795.000000	22.682107
796.000000	22.866663
797.000000	23.052330
798.000000	23.239258
799.000000	23.425870
800.000000	23.614109
801.000000	23.804343
802.000000	23.996782
803.000000	24.189314
804.000000	24.382330
805.000000	24.576490
806.000000	24.770848
807.000000	24.966343
808.000000	25.162135
809.000000	25.359378
810.000000	25.556458
811.000000	25.753672
812.000000	25.952124
813.000000	26.152358
814.000000	26.353225
815.000000	26.554360
816.000000	26.755531
817.000000	26.955842
818.000000	27.158040
819.000000	27.360557
820.000000	27.563132
821.000000	27.769051
822.000000	27.973532
823.000000	28.179767
824.000000	28.385006
825.000000	28.590184
826.000000	28.797336
827.000000	29.006921
828.000000	29.217258
829.000000	29.429066
830.000000	29.640191
831.000000	29.850075
832.000000	30.061432
833.000000	30.273627
834.000000	30.483869
835.000000	30.696279
836.000000	30.905625
837.000000	31.116094
838.000000	31.329215
839.000000	31.544652
840.000000	31.757707
841.000000	31.969839
842.000000	32.184131
843.000000	32.395877
844.000000	32.613460
845.000000	32.829814
846.000000	33.043865
847.000000	33.262581
848.000000	33.476164
849.000000	33.690960
850.000000	33.909442
851.000000	34.125848
852.000000	34.340719
853.000000	34.557716
854.000000	34.771475
855.000000	34.987298
856.000000	35.204585
857.000000	35.421471
858.000000	35.636850
859.000000	35.872072
860.000000	36.096663
861.000000	36.352442
862.000000	36.576124
863.000000	36.788335
864.000000	37.007241
865.000000	37.219009
866.000000	37.416680
867.000000	37.641906
868.000000	37.865287
869.000000	38.083674
870.000000	38.307008
871.000000	38.523424
872.000000	38.754835
873.000000	38.979517
874.000000	39.173978
875.000000	39.406388
876.000000	39.612375
877.000000	39.826404
878.000000	40.060695
879.000000	40.241296
880.000000	40.469583
881.000000	40.710630
882.000000	40.920783
883.000000	41.152928
884.000000	41.379475
885.000000	41.621019
886.000000	41.843120
887.000000	42.070860
888.000000	42.289235
889.000000	42.563851
890.000000	42.792282
891.000000	43.016183
892.000000	43.240847
893.000000	43.438865
894.000000	43.638779
895.000000	43.850362
896.000000	43.999797
897.000000	44.213068
898.000000	44.440925
899.000000	44.654952
900.000000	44.885614
901.000000	45.120484
902.000000	45.317691
903.000000	45.530593
904.000000	45.753935
905.000000	45.976374
906.000000	46.176302
907.000000	46.382099
908.000000	46.594594
909.000000	46.829622
910.000000	47.027277
911.000000	47.241577
912.000000	47.453156
913.000000	47.689321
914.000000	47.937446
915.000000	48.151584
916.000000	48.326024
917.000000	48.550588
918.000000	48.747558
919.000000	48.978731
920.000000	49.147771
921.000000	49.356669
922.000000	49.541030
923.000000	49.748324
924.000000	49.886794
925.000000	50.077706
926.000000	50.271977
927.000000	50.473675
928.000000	50.694222
929.000000	50.875209
930.000000	51.046213
931.000000	51.248473
932.000000	51.437292
933.000000	51.625615
934.000000	51.829994
935.000000	52.009590
936.000000	52.181659
937.000000	52.401561
938.000000	52.589422
939.000000	52.776589
940.000000	52.960398
941.000000	53.193567
942.000000	53.373766
943.000000	53.557198
944.000000	53.740281
945.000000	53.926039
946.000000	54.136833
947.000000	54.338207
948.000000	54.464002
949.000000	54.624375
950.000000	54.786726
951.000000	54.976790
952.000000	55.133478
953.000000	55.314308
954.000000	55.473884
955.000000	55.647077
956.000000	55.810344
957.000000	55.999866
958.000000	56.186748
959.000000	56.378507
960.000000	56.575480
961.000000	56.753929
962.000000	56.950319
963.000000	57.138530
964.000000	57.332031
965.000000	57.563888
966.000000	57.768835
967.000000	57.946794
968.000000	58.108149
969.000000	58.278072
970.000000	58.476160
971.000000	58.665702
972.000000	58.836552
973.000000	59.013021
974.000000	59.192957
975.000000	59.352956
976.000000	59.518221
977.000000	59.719223
978.000000	59.891338
979.000000	60.063206
980.000000	60.245249
981.000000	60.407536
982.000000	60.580456
983.000000	60.791019
984.000000	60.998712
985.000000	61.203656
986.000000	61.407158
987.000000	61.615883
988.000000	61.798383
989.000000	61.965922
990.000000	62.169373
991.000000	62.367637
992.000000	62.567396
993.000000	62.743147
994.000000	62.896383
995.000000	63.035180
996.000000	63.211254
997.000000	63.378941
998.000000	63.541939
999.000000	63.715352
1000.000000	63.854841
1001.000000	63.998191
1002.000000	64.155423
1003.000000	64.351856
1004.000000	64.532451
1005.000000	64.669418
1006.000000	64.813652
1007.000000	64.968710
1008.000000	65.142094
1009.000000	65.292093
1010.000000	65.461255
1011.000000	65.618347
1012.000000	65.750419
1013.000000	65.906258
1014.000000	66.077939
1015.000000	66.235772
1016.000000	66.396738
1017.000000	66.555260
1018.000000	66.702861
1019.000000	66.851348
1020.000000	66.983581
1021.000000	67.118713
1022.000000	67.262020
1023.000000	67.412783
1024.000000	67.567160
1025.000000	67.679337
1026.000000	67.786575
1027.000000	67.910271
1028.000000	68.037059
1029.000000	68.186785
1030.000000	68.344675
1031.000000	68.475775
1032.000000	68.587752
1033.000000	68.710486
1034.000000	68.833404
1035.000000	68.960326
1036.000000	69.123681
1037.000000	69.279623
1038.000000	69.389114
1039.000000	69.508280
1040.000000	69.655317
1041.000000	69.799510
1042.000000	69.919880
1043.000000	70.064684
1044.000000	70.231190
1045.000000	70.387302
1046.000000	70.503429
1047.000000	70.628070
1048.000000	70.759392
1049.000000	70.881142
1050.000000	71.012954
1051.000000	71.134205
1052.000000	71.257804
1053.000000	71.380950
1054.000000	71.516978
1055.000000	71.649377
1056.000000	71.782063
1057.000000	71.895018
1058.000000	72.016138
1059.000000	72.142829
1060.000000	72.288253
1061.000000	72.423368
1062.000000	72.546593
1063.000000	72.673425
1064.000000	72.803319
1065.000000	72.940489
1066.000000	73.087974
1067.000000	73.233084
1068.000000	73.361752
1069.000000	73.519595
1070.000000	73.663413
1071.000000	73.764642
1072.000000	73.844708
1073.000000	73.965675
1074.000000	74.083253
1075.000000	74.219640
1076.000000	74.359787
1077.000000	74.475421
1078.000000	74.583712
1079.000000	74.694803
1080.000000	74.803810
1081.000000	74.913166
1082.000000	75.034787
1083.000000	75.144632
1084.000000	75.299732
1085.000000	75.394754
1086.000000	75.514587
1087.000000	75.599888
1088.000000	75.707638
1089.000000	75.785452
1090.000000	75.892627
1091.000000	76.007267
1092.000000	76.140635
1093.000000	76.267124
1094.000000	76.361066
1095.000000	76.473103
1096.000000	76.584885
1097.000000	76.683522
1098.000000	76.784364
1099.000000	76.900985
1100.000000	76.987193
1101.000000	77.077927
1102.000000	77.183897
1103.000000	77.290868
1104.000000	77.384664
1105.000000	77.464920
1106.000000	77.586641
1107.000000	77.719252
1108.000000	77.810403
1109.000000	77.918894
1110.000000	78.010062
1111.000000	78.122707
1112.000000	78.239679
1113.000000	78.343213
1114.000000	78.427686
1115.000000	78.539035
1116.000000	78.649498
1117.000000	78.761939
1118.000000	78.867049
1119.000000	78.923193
1120.000000	79.034374
1121.000000	79.142013
1122.000000	79.287408
1123.000000	79.436291
1124.000000	79.568973
1125.000000	79.668090
1126.000000	79.729923
1127.000000	79.826339
1128.000000	79.920731
1129.000000	80.048082
1130.000000	80.162722
1131.000000	80.305400
1132.000000	80.409623
1133.000000	80.527242
1134.000000	80.661929
1135.000000	80.776593
1136.000000	80.889628
1137.000000	80.992765
1138.000000	81.106985
1139.000000	81.188421
1140.000000	81.300582
1141.000000	81.388601
1142.000000	81.507373
1143.000000	81.627054
1144.000000	81.739142
1145.000000	81.834706
1146.000000	81.927441
1147.000000	82.006844
1148.000000	82.093051
1149.000000	82.187699
1150.000000	82.252477
1151.000000	82.359698
1152.000000	82.453696
1153.000000	82.554395
1154.000000	82.650287
1155.000000	82.749339
1156.000000	82.850288
1157.000000	82.911465
1158.000000	82.939010
1159.000000	82.989398
1160.000000	83.065046
1161.000000	83.174297
1162.000000	83.228989
1163.000000	83.278512
1164.000000	83.329917
1165.000000	83.386300
1166.000000	83.432846
1167.000000	83.502984
1168.000000	83.545294
1169.000000	83.551496
1170.000000	83.583531
1171.000000	83.621313
1172.000000	83.655164
1173.000000	83.722028
1174.000000	83.805303
1175.000000	83.860575
1176.000000	83.912582
1177.000000	83.977267
1178.000000	84.042892
1179.000000	84.103905
1180.000000	84.164575
1181.000000	84.221477
1182.000000	84.282320
1183.000000	84.352158
1184.000000	84.424742
1185.000000	84.521936
1186.000000	84.556406
1187.000000	84.593900
1188.000000	84.634955
1189.000000	84.686371
1190.000000	84.723066
1191.000000	84.768349
1192.000000	84.818536
1193.000000	84.873114
1194.000000	84.956821
1195.000000	85.019287
1196.000000	85.066160
1197.000000	85.121157
1198.000000	85.211899
1199.000000	85.274571
1200.000000	85.349988
1201.000000	85.408265
1202.000000	85.478500
1203.000000	85.560400
1204.000000	85.638808
1205.000000	85.745875
1206.000000	85.858358
1207.000000	85.931981
1208.000000	85.965898
