PE UV       SUBTECH     SPECTRUM    ASCII       PEDS        4.00        
   -1
CICIMAUCR0020-2.Sample.ASC
24/04/17
09:09:44.00
24/04/17
09:09:44.00
Vinicio Soto Monge
C. resplendens
250,000000
1
Lambda 1050
1050L1511233
PerkinElmer UV WinLab 6.3.2.0749 / 2.02.05 Lambda 900 UV/VIS/NIR, Aug  7 2015 09:38:08

0
0
3350/servo 860,8/2
0
0
UV/VIS
1
1
1
DoubleDePol,CommonBeamDepol,RBeamAtt,SBeamAtt,60mm sphere, WB InGaAs Detector
0
0
0
0
Program
Program
3350/servo 860,8/2
3350/0,2 860,8/0,2
3350/0,2 860,8/0,2
0
15.00
 
 
 
0
 
860,8
319,2
860,8
Front
100
on
S:100 R:100
0
0
0
0
 
0
 
 
 
0
 
 
0
0
0
0
0
 
 
 
 
0
0


0
0
#HDR
-1
-1
#GR
nm
%R
1.0
0.0
2500,000000
-1,000000
2251
8
83,706800
5,981400
#DATA
2482.000000	20.626436
2481.000000	20.670084
2480.000000	20.697018
2479.000000	20.649162
2478.000000	20.735015
2477.000000	20.782631
2476.000000	20.778903
2475.000000	20.801870
2474.000000	20.804395
2473.000000	20.934496
2472.000000	20.992333
2471.000000	20.970569
2470.000000	21.064598
2469.000000	21.087444
2468.000000	21.094298
2467.000000	21.179550
2466.000000	21.223198
2465.000000	21.293539
2464.000000	21.349452
2463.000000	21.439874
2462.000000	21.497470
2461.000000	21.568533
2460.000000	21.640678
2459.000000	21.693945
2458.000000	21.793265
2457.000000	21.872985
2456.000000	21.974470
2455.000000	22.090022
2454.000000	22.171907
2453.000000	22.263532
2452.000000	22.362491
2451.000000	22.495959
2450.000000	22.640370
2449.000000	22.740171
2448.000000	22.838769
2447.000000	22.990875
2446.000000	23.113282
2445.000000	23.267071
2444.000000	23.397774
2443.000000	23.520542
2442.000000	23.642707
2441.000000	23.769082
2440.000000	23.888843
2439.000000	24.002351
2438.000000	24.131371
2437.000000	24.254138
2436.000000	24.348047
2435.000000	24.476947
2434.000000	24.584202
2433.000000	24.686889
2432.000000	24.803644
2431.000000	24.911501
2430.000000	25.012865
2429.000000	25.130823
2428.000000	25.198519
2427.000000	25.293029
2426.000000	25.402570
2425.000000	25.566820
2424.000000	25.815361
2423.000000	26.078931
2422.000000	26.251478
2421.000000	26.386510
2420.000000	26.450719
2419.000000	26.582024
2418.000000	26.734370
2417.000000	26.825273
2416.000000	26.959343
2415.000000	27.033172
2414.000000	27.121910
2413.000000	27.269207
2412.000000	27.408808
2411.000000	27.442596
2410.000000	27.530613
2409.000000	27.660595
2408.000000	27.733822
2407.000000	27.836388
2406.000000	27.872702
2405.000000	27.937392
2404.000000	28.039838
2403.000000	28.103205
2402.000000	28.182084
2401.000000	28.207816
2400.000000	28.274671
2399.000000	28.364371
2398.000000	28.400804
2397.000000	28.458400
2396.000000	28.526578
2395.000000	28.537039
2394.000000	28.593432
2393.000000	28.674716
2392.000000	28.699486
2391.000000	28.690227
2390.000000	28.724736
2389.000000	28.792914
2388.000000	28.799287
2387.000000	28.863255
2386.000000	28.922174
2385.000000	28.907625
2384.000000	28.937685
2383.000000	29.000812
2382.000000	28.999610
2381.000000	28.977605
2380.000000	28.997325
2379.000000	29.029069
2378.000000	28.997205
2377.000000	28.971112
2376.000000	29.006464
2375.000000	29.045783
2374.000000	29.023899
2373.000000	29.002255
2372.000000	29.032676
2371.000000	29.069230
2370.000000	29.050713
2369.000000	29.086785
2368.000000	29.124541
2367.000000	29.106505
2366.000000	29.090392
2365.000000	29.117687
2364.000000	29.139932
2363.000000	29.125623
2362.000000	29.122978
2361.000000	29.171195
2360.000000	29.201256
2359.000000	29.190795
2358.000000	29.191396
2357.000000	29.216406
2356.000000	29.230114
2355.000000	29.222659
2354.000000	29.221096
2353.000000	29.271116
2352.000000	29.287830
2351.000000	29.257288
2350.000000	29.237809
2349.000000	29.265585
2348.000000	29.293241
2347.000000	29.287950
2346.000000	29.333041
2345.000000	29.357690
2344.000000	29.327149
2343.000000	29.356488
2342.000000	29.379214
2341.000000	29.385106
2340.000000	29.443784
2339.000000	29.469756
2338.000000	29.458574
2337.000000	29.529035
2336.000000	29.564747
2335.000000	29.600219
2334.000000	29.632323
2333.000000	29.642544
2332.000000	29.692925
2331.000000	29.743788
2330.000000	29.805832
2329.000000	29.860302
2328.000000	29.893609
2327.000000	29.974893
2326.000000	30.020344
2325.000000	30.063030
2324.000000	30.110526
2323.000000	30.129284
2322.000000	30.135055
2321.000000	30.188683
2320.000000	30.233654
2319.000000	30.240868
2318.000000	30.225838
2317.000000	30.202872
2316.000000	30.224635
2315.000000	30.205276
2314.000000	30.161148
2313.000000	30.163192
2312.000000	30.129043
2311.000000	30.093932
2310.000000	30.042108
2309.000000	30.029483
2308.000000	29.978740
2307.000000	29.914291
2306.000000	29.912487
2305.000000	29.881344
2304.000000	29.866314
2303.000000	29.835652
2302.000000	29.830242
2301.000000	29.830121
2300.000000	29.828919
2299.000000	29.852005
2298.000000	29.856214
2297.000000	29.857777
2296.000000	29.884110
2295.000000	29.927397
2294.000000	29.953369
2293.000000	29.975614
2292.000000	30.046677
2291.000000	30.103552
2290.000000	30.141668
2289.000000	30.143352
2288.000000	30.233293
2287.000000	30.286079
2286.000000	30.330208
2285.000000	30.388165
2284.000000	30.461392
2283.000000	30.525601
2282.000000	30.590532
2281.000000	30.643799
2280.000000	30.733019
2279.000000	30.770294
2278.000000	30.810094
2277.000000	30.869493
2276.000000	30.948011
2275.000000	30.978553
2274.000000	31.018714
2273.000000	31.046610
2272.000000	31.132944
2271.000000	31.197273
2270.000000	31.241763
2269.000000	31.295751
2268.000000	31.424891
2267.000000	31.492467
2266.000000	31.576997
2265.000000	31.696398
2264.000000	31.841891
2263.000000	31.947102
2262.000000	32.101493
2261.000000	32.274762
2260.000000	32.441898
2259.000000	32.661941
2258.000000	32.874409
2257.000000	33.075213
2256.000000	33.267961
2255.000000	33.489928
2254.000000	33.753618
2253.000000	33.967649
2252.000000	34.187331
2251.000000	34.392104
2250.000000	34.628740
2249.000000	34.857681
2248.000000	35.017242
2247.000000	35.217204
2246.000000	35.375082
2245.000000	35.598492
2244.000000	35.723303
2243.000000	35.855209
2242.000000	35.968476
2241.000000	36.052285
2240.000000	36.189481
2239.000000	36.278460
2238.000000	36.319222
2237.000000	36.353852
2236.000000	36.388843
2235.000000	36.414334
2234.000000	36.467601
2233.000000	36.462551
2232.000000	36.453773
2231.000000	36.422871
2230.000000	36.388362
2229.000000	36.344834
2228.000000	36.321748
2227.000000	36.253811
2226.000000	36.180704
2225.000000	36.079580
2224.000000	36.017054
2223.000000	35.933847
2222.000000	35.828755
2221.000000	35.712481
2220.000000	35.597770
2219.000000	35.489072
2218.000000	35.388429
2217.000000	35.297165
2216.000000	35.186182
2215.000000	35.104177
2214.000000	34.986941
2213.000000	34.893032
2212.000000	34.777720
2211.000000	34.686697
2210.000000	34.610223
2209.000000	34.512947
2208.000000	34.436112
2207.000000	34.344728
2206.000000	34.279798
2205.000000	34.204286
2204.000000	34.153904
2203.000000	34.100036
2202.000000	34.068893
2201.000000	34.002519
2200.000000	33.955144
2199.000000	33.874101
2198.000000	33.853540
2197.000000	33.830333
2196.000000	33.757466
2195.000000	33.724520
2194.000000	33.700231
2193.000000	33.686163
2192.000000	33.657305
2191.000000	33.616543
2190.000000	33.595260
2189.000000	33.581913
2188.000000	33.532253
2187.000000	33.489567
2186.000000	33.452051
2185.000000	33.432332
2184.000000	33.402993
2183.000000	33.357060
2182.000000	33.346960
2181.000000	33.328563
2180.000000	33.305476
2179.000000	33.266278
2178.000000	33.235856
2177.000000	33.205916
2176.000000	33.205676
2175.000000	33.186317
2174.000000	33.182228
2173.000000	33.192810
2172.000000	33.204714
2171.000000	33.226838
2170.000000	33.251488
2169.000000	33.280707
2168.000000	33.281669
2167.000000	33.337220
2166.000000	33.371610
2165.000000	33.400588
2164.000000	33.467202
2163.000000	33.527323
2162.000000	33.612094
2161.000000	33.705762
2160.000000	33.775743
2159.000000	33.851736
2158.000000	33.959834
2157.000000	34.096188
2156.000000	34.216310
2155.000000	34.329337
2154.000000	34.465451
2153.000000	34.601325
2152.000000	34.751267
2151.000000	34.908182
2150.000000	35.044657
2149.000000	35.179088
2148.000000	35.335763
2147.000000	35.497849
2146.000000	35.663422
2145.000000	35.808194
2144.000000	35.948516
2143.000000	36.092085
2142.000000	36.235895
2141.000000	36.383792
2140.000000	36.507882
2139.000000	36.642673
2138.000000	36.783958
2137.000000	36.931615
2136.000000	37.057989
2135.000000	37.201799
2134.000000	37.353184
2133.000000	37.466211
2132.000000	37.595832
2131.000000	37.719922
2130.000000	37.789662
2129.000000	37.883932
2128.000000	37.997561
2127.000000	38.117201
2126.000000	38.196080
2125.000000	38.277244
2124.000000	38.370431
2123.000000	38.460372
2122.000000	38.524942
2121.000000	38.590955
2120.000000	38.644222
2119.000000	38.706147
2118.000000	38.773843
2117.000000	38.821339
2116.000000	38.866189
2115.000000	38.886991
2114.000000	38.935809
2113.000000	38.975729
2112.000000	38.998094
2111.000000	39.017213
2110.000000	39.035490
2109.000000	39.065430
2108.000000	39.084428
2107.000000	39.083226
2106.000000	39.091402
2105.000000	39.139018
2104.000000	39.152365
2103.000000	39.151884
2102.000000	39.163307
2101.000000	39.169800
2100.000000	39.168838
2099.000000	39.176654
2098.000000	39.195772
2097.000000	39.216093
2096.000000	39.222947
2095.000000	39.250362
2094.000000	39.276214
2093.000000	39.276334
2092.000000	39.293890
2091.000000	39.324311
2090.000000	39.324191
2089.000000	39.338019
2088.000000	39.355935
2087.000000	39.338740
2086.000000	39.340904
2085.000000	39.328039
2084.000000	39.288118
2083.000000	39.264911
2082.000000	39.219460
2081.000000	39.163307
2080.000000	39.103306
2079.000000	39.009998
2078.000000	38.933524
2077.000000	38.845868
2076.000000	38.741378
2075.000000	38.630635
2074.000000	38.506906
2073.000000	38.364419
2072.000000	38.215199
2071.000000	38.082692
2070.000000	37.935155
2069.000000	37.775955
2068.000000	37.615792
2067.000000	37.460319
2066.000000	37.299315
2065.000000	37.148532
2064.000000	36.996546
2063.000000	36.855021
2062.000000	36.716743
2061.000000	36.584957
2060.000000	36.470487
2059.000000	36.365395
2058.000000	36.279302
2057.000000	36.212688
2056.000000	36.177096
2055.000000	36.170363
2054.000000	36.174692
2053.000000	36.211486
2052.000000	36.282308
2051.000000	36.374053
2050.000000	36.484195
2049.000000	36.635579
2048.000000	36.778066
2047.000000	36.967447
2046.000000	37.142399
2045.000000	37.332502
2044.000000	37.557475
2043.000000	37.757918
2042.000000	37.975436
2041.000000	38.188385
2040.000000	38.405181
2039.000000	38.618731
2038.000000	38.800176
2037.000000	38.994247
2036.000000	39.175331
2035.000000	39.358099
2034.000000	39.524033
2033.000000	39.691530
2032.000000	39.824758
2031.000000	39.984800
2030.000000	40.123079
2029.000000	40.248251
2028.000000	40.375828
2027.000000	40.496070
2026.000000	40.604648
2025.000000	40.718277
2024.000000	40.793548
2023.000000	40.887097
2022.000000	40.961286
2021.000000	41.044854
2020.000000	41.115797
2019.000000	41.181088
2018.000000	41.235798
2017.000000	41.278605
2016.000000	41.309387
2015.000000	41.357243
2014.000000	41.368906
2013.000000	41.378646
2012.000000	41.383576
2011.000000	41.384778
2010.000000	41.367704
2009.000000	41.359648
2008.000000	41.320329
2007.000000	41.271871
2006.000000	41.242291
2005.000000	41.200207
2004.000000	41.144655
2003.000000	41.072630
2002.000000	41.002769
2001.000000	40.915233
2000.000000	40.844771
1999.000000	40.751464
1998.000000	40.643246
1997.000000	40.548014
1996.000000	40.429095
1995.000000	40.314865
1994.000000	40.178510
1993.000000	40.086044
1992.000000	39.943678
1991.000000	39.810089
1990.000000	39.665678
1989.000000	39.549645
1988.000000	39.425194
1987.000000	39.255893
1986.000000	39.118457
1985.000000	38.977533
1984.000000	38.846950
1983.000000	38.698932
1982.000000	38.540814
1981.000000	38.399409
1980.000000	38.283737
1979.000000	38.121771
1978.000000	37.978442
1977.000000	37.860966
1976.000000	37.703809
1975.000000	37.566132
1974.000000	37.473185
1973.000000	37.330819
1972.000000	37.205045
1971.000000	37.064963
1970.000000	36.947487
1969.000000	36.815341
1968.000000	36.701231
1967.000000	36.589166
1966.000000	36.461469
1965.000000	36.325235
1964.000000	36.221345
1963.000000	36.084991
1962.000000	35.935891
1961.000000	35.827673
1960.000000	35.703944
1959.000000	35.551958
1958.000000	35.421496
1957.000000	35.300051
1956.000000	35.159608
1955.000000	35.041170
1954.000000	34.902531
1953.000000	34.746697
1952.000000	34.623329
1951.000000	34.505853
1950.000000	34.401242
1949.000000	34.299277
1948.000000	34.209576
1947.000000	34.092581
1946.000000	33.995064
1945.000000	33.917989
1944.000000	33.809651
1943.000000	33.753017
1942.000000	33.723077
1941.000000	33.658868
1940.000000	33.633256
1939.000000	33.600310
1938.000000	33.578787
1937.000000	33.558466
1936.000000	33.552574
1935.000000	33.567364
1934.000000	33.609208
1933.000000	33.665000
1932.000000	33.743157
1931.000000	33.822277
1930.000000	33.918470
1929.000000	34.041598
1928.000000	34.176750
1927.000000	34.312263
1926.000000	34.450541
1925.000000	34.637638
1924.000000	34.789383
1923.000000	35.030709
1922.000000	35.285502
1921.000000	35.552319
1920.000000	35.821661
1919.000000	36.053127
1918.000000	36.374895
1917.000000	36.640509
1916.000000	36.969972
1915.000000	37.357753
1914.000000	37.804211
1913.000000	38.251391
1912.000000	38.669593
1911.000000	39.101743
1910.000000	39.524274
1909.000000	39.939229
1908.000000	40.466971
1907.000000	41.070466
1906.000000	41.728310
1905.000000	42.421625
1904.000000	43.046042
1903.000000	43.640879
1902.000000	44.313393
1901.000000	45.000215
1900.000000	45.746077
1899.000000	46.491818
1898.000000	47.228060
1897.000000	47.968149
1896.000000	48.611324
1895.000000	49.321714
1894.000000	50.077074
1893.000000	50.865982
1892.000000	51.712125
1891.000000	52.523759
1890.000000	53.277676
1889.000000	53.957164
1888.000000	54.608274
1887.000000	55.264435
1886.000000	55.916748
1885.000000	56.579883
1884.000000	57.196604
1883.000000	57.763064
1882.000000	58.281307
1881.000000	58.779470
1880.000000	59.209335
1879.000000	59.670103
1878.000000	60.107543
1877.000000	60.529112
1876.000000	60.948035
1875.000000	61.335455
1874.000000	61.698946
1873.000000	62.031536
1872.000000	62.345127
1871.000000	62.597154
1870.000000	62.798319
1869.000000	63.019083
1868.000000	63.149907
1867.000000	63.243816
1866.000000	63.316682
1865.000000	63.416363
1864.000000	63.521214
1863.000000	63.642057
1862.000000	63.802941
1861.000000	63.960458
1860.000000	64.098977
1859.000000	64.203828
1858.000000	64.276695
1857.000000	64.322507
1856.000000	64.375654
1855.000000	64.459583
1854.000000	64.473771
1853.000000	64.452368
1852.000000	64.497339
1851.000000	64.536778
1850.000000	64.637300
1849.000000	64.753454
1848.000000	64.743594
1847.000000	64.690688
1846.000000	64.600867
1845.000000	64.532930
1844.000000	64.522710
1843.000000	64.585356
1842.000000	64.629725
1841.000000	64.608322
1840.000000	64.580306
1839.000000	64.538341
1838.000000	64.508641
1837.000000	64.454292
1836.000000	64.378179
1835.000000	64.281625
1834.000000	64.177735
1833.000000	64.103185
1832.000000	64.076131
1831.000000	64.059778
1830.000000	64.045710
1829.000000	64.014687
1828.000000	63.937372
1827.000000	63.902020
1826.000000	63.863783
1825.000000	63.802941
1824.000000	63.789835
1823.000000	63.880016
1822.000000	63.950959
1821.000000	63.941099
1820.000000	63.900457
1819.000000	63.835767
1818.000000	63.786588
1817.000000	63.783582
1816.000000	63.790075
1815.000000	63.762059
1814.000000	63.740415
1813.000000	63.722259
1812.000000	63.695565
1811.000000	63.625584
1810.000000	63.576766
1809.000000	63.552357
1808.000000	63.521575
1807.000000	63.511474
1806.000000	63.461213
1805.000000	63.407946
1804.000000	63.387385
1803.000000	63.373316
1802.000000	63.373677
1801.000000	63.353837
1800.000000	63.273395
1799.000000	63.224577
1798.000000	63.187783
1797.000000	63.171911
1796.000000	63.148103
1795.000000	63.111189
1794.000000	63.090627
1793.000000	63.071509
1792.000000	63.043973
1791.000000	63.027140
1790.000000	63.014514
1789.000000	63.002851
1788.000000	63.004654
1787.000000	63.005255
1786.000000	62.996478
1785.000000	62.985055
1784.000000	62.974954
1783.000000	62.949463
1782.000000	62.930465
1781.000000	62.901847
1780.000000	62.873590
1779.000000	62.839562
1778.000000	62.782928
1777.000000	62.728218
1776.000000	62.673147
1775.000000	62.614349
1774.000000	62.533185
1773.000000	62.481842
1772.000000	62.415468
1771.000000	62.348614
1770.000000	62.279715
1769.000000	62.207209
1768.000000	62.133982
1767.000000	62.067969
1766.000000	62.006044
1765.000000	61.940753
1764.000000	61.899149
1763.000000	61.855982
1762.000000	61.817986
1761.000000	61.780470
1760.000000	61.748005
1759.000000	61.710369
1758.000000	61.682834
1757.000000	61.648204
1756.000000	61.626200
1755.000000	61.578223
1754.000000	61.532411
1753.000000	61.482030
1752.000000	61.418301
1751.000000	61.373812
1750.000000	61.314051
1749.000000	61.245033
1748.000000	61.166875
1747.000000	61.084509
1746.000000	60.975931
1745.000000	60.901621
1744.000000	60.782942
1743.000000	60.689875
1742.000000	60.579252
1741.000000	60.492919
1740.000000	60.404300
1739.000000	60.312315
1738.000000	60.251352
1737.000000	60.187143
1736.000000	60.115840
1735.000000	60.074717
1734.000000	60.022051
1733.000000	60.003654
1732.000000	59.967100
1731.000000	59.934274
1730.000000	59.894234
1729.000000	59.862009
1728.000000	59.837600
1727.000000	59.810906
1726.000000	59.800084
1725.000000	59.822209
1724.000000	59.855035
1723.000000	59.933553
1722.000000	60.032993
1721.000000	60.209508
1720.000000	60.405142
1719.000000	60.648031
1718.000000	60.881421
1717.000000	61.171925
1716.000000	61.417460
1715.000000	61.650489
1714.000000	61.886764
1713.000000	62.085524
1712.000000	62.292822
1711.000000	62.442643
1710.000000	62.569378
1709.000000	62.700322
1708.000000	62.796996
1707.000000	62.867458
1706.000000	62.937319
1705.000000	62.977961
1704.000000	62.993111
1703.000000	63.005616
1702.000000	62.992991
1701.000000	63.001287
1700.000000	63.007901
1699.000000	62.983732
1698.000000	62.975556
1697.000000	62.949223
1696.000000	62.927579
1695.000000	62.904493
1694.000000	62.829822
1693.000000	62.752146
1692.000000	62.707536
1691.000000	62.637676
1690.000000	62.588016
1689.000000	62.610741
1688.000000	62.679039
1687.000000	62.817798
1686.000000	63.024374
1685.000000	63.223976
1684.000000	63.496925
1683.000000	63.729353
1682.000000	64.032243
1681.000000	64.329361
1680.000000	64.625998
1679.000000	64.878506
1678.000000	65.133780
1677.000000	65.396629
1676.000000	65.643245
1675.000000	65.866294
1674.000000	66.089223
1673.000000	66.353515
1672.000000	66.562135
1671.000000	66.804302
1670.000000	67.042862
1669.000000	67.285030
1668.000000	67.514572
1667.000000	67.701067
1666.000000	67.894897
1665.000000	68.093898
1664.000000	68.293019
1663.000000	68.466047
1662.000000	68.618273
1661.000000	68.768576
1660.000000	68.928377
1659.000000	69.031786
1658.000000	69.144332
1657.000000	69.234514
1656.000000	69.335878
1655.000000	69.382051
1654.000000	69.447342
1653.000000	69.482092
1652.000000	69.520930
1651.000000	69.563015
1650.000000	69.550389
1649.000000	69.548826
1648.000000	69.559167
1647.000000	69.560369
1646.000000	69.546421
1645.000000	69.538966
1644.000000	69.535119
1643.000000	69.516000
1642.000000	69.494477
1641.000000	69.484857
1640.000000	69.495078
1639.000000	69.470549
1638.000000	69.443013
1637.000000	69.425217
1636.000000	69.409466
1635.000000	69.364615
1634.000000	69.315316
1633.000000	69.267340
1632.000000	69.225736
1631.000000	69.170064
1630.000000	69.120765
1629.000000	69.070022
1628.000000	69.019641
1627.000000	68.968538
1626.000000	68.905291
1625.000000	68.851422
1624.000000	68.805971
1623.000000	68.763165
1622.000000	68.720840
1621.000000	68.659636
1620.000000	68.619355
1619.000000	68.581960
1618.000000	68.536749
1617.000000	68.506568
1616.000000	68.454985
1615.000000	68.407609
1614.000000	68.357108
1613.000000	68.294822
1612.000000	68.226404
1611.000000	68.168207
1610.000000	68.105561
1609.000000	68.044719
1608.000000	67.943956
1607.000000	67.852452
1606.000000	67.766960
