PE UV       SUBTECH     SPECTRUM    ASCII       PEDS        4.00        
   -1
CICIMAUCR0254-2.ASC
24/06/27
10:32:15.00
24/06/27
10:32:15.00
Vinicio Soto Monge
C. resplendens. Sex F. Ventral
250,000000
1
Lambda 1050
1050L1511233
PerkinElmer UV WinLab 6.3.2.0749 / 2.02.05 Lambda 900 UV/VIS/NIR, Aug  7 2015 09:38:08

0
0
3350/servo 860,8/2
0
0
UV/VIS
1
1
1
DoubleDePol,CommonBeamDepol,RBeamAtt,SBeamAtt,60mm sphere, WB InGaAs Detector
0
0
0
0
Program
Program
3350/servo 860,8/2
3350/0,2 860,8/0,2
3350/0,2 860,8/0,2
0
15.00
 
 
 
0
 
860,8
319,2
860,8
Front
100
on
S:100 R:100
0
0
0
0
 
0
 
 
 
0
 
 
0
0
0
0
0
 
 
 
 
0
0


0
0
#HDR
-1
-1
#GR
nm
%R
1.0
0.0
2500,000000
-1,000000
2251
8
50,329900
3,942400
#DATA
2482.000000	5.025674
2481.000000	5.095276
2480.000000	5.037197
2479.000000	4.982691
2478.000000	5.005968
2477.000000	4.962870
2476.000000	4.993638
2475.000000	5.004124
2474.000000	4.950770
2473.000000	4.989490
2472.000000	4.959413
2471.000000	4.978773
2470.000000	4.983152
2469.000000	4.991679
2468.000000	4.931180
2467.000000	4.964714
2466.000000	4.911590
2465.000000	4.987761
2464.000000	4.982230
2463.000000	4.962179
2462.000000	4.973472
2461.000000	4.979694
2460.000000	4.973011
2459.000000	4.969899
2458.000000	5.001474
2457.000000	4.988798
2456.000000	5.012537
2455.000000	5.003894
2454.000000	5.021295
2453.000000	5.017492
2452.000000	5.073381
2451.000000	5.073497
2450.000000	5.071077
2449.000000	5.102651
2448.000000	5.102190
2447.000000	5.151396
2446.000000	5.189770
2445.000000	5.201063
2444.000000	5.211665
2443.000000	5.208207
2442.000000	5.246927
2441.000000	5.272163
2440.000000	5.260064
2439.000000	5.283457
2438.000000	5.298092
2437.000000	5.304891
2436.000000	5.343725
2435.000000	5.367118
2434.000000	5.385325
2433.000000	5.390857
2432.000000	5.388552
2431.000000	5.423123
2430.000000	5.423238
2429.000000	5.439717
2428.000000	5.458731
2427.000000	5.474633
2426.000000	5.492725
2425.000000	5.506323
2424.000000	5.509319
2423.000000	5.537437
2422.000000	5.537091
2421.000000	5.557142
2420.000000	5.559677
2419.000000	5.555298
2418.000000	5.580420
2417.000000	5.589178
2416.000000	5.594248
2415.000000	5.634581
2414.000000	5.638038
2413.000000	5.640919
2412.000000	5.645874
2411.000000	5.639190
2410.000000	5.638729
2409.000000	5.652442
2408.000000	5.667538
2407.000000	5.686207
2406.000000	5.680790
2405.000000	5.683556
2404.000000	5.701994
2403.000000	5.729881
2402.000000	5.741405
2401.000000	5.751776
2400.000000	5.765604
2399.000000	5.786923
2398.000000	5.799599
2397.000000	5.811007
2396.000000	5.811007
2395.000000	5.804208
2394.000000	5.817921
2393.000000	5.826218
2392.000000	5.850187
2391.000000	5.855834
2390.000000	5.842467
2389.000000	5.847076
2388.000000	5.868279
2387.000000	5.887063
2386.000000	5.891211
2385.000000	5.883491
2384.000000	5.881416
2383.000000	5.887985
2382.000000	5.891557
2381.000000	5.892364
2380.000000	5.887639
2379.000000	5.903542
2378.000000	5.921979
2377.000000	5.921403
2376.000000	5.903426
2375.000000	5.903772
2374.000000	5.905731
2373.000000	5.896397
2372.000000	5.900891
2371.000000	5.909419
2370.000000	5.903196
2369.000000	5.904579
2368.000000	5.907460
2367.000000	5.905040
2366.000000	5.897319
2365.000000	5.875770
2364.000000	5.863670
2363.000000	5.869317
2362.000000	5.870584
2361.000000	5.867473
2360.000000	5.855949
2359.000000	5.843504
2358.000000	5.852377
2357.000000	5.831404
2356.000000	5.812736
2355.000000	5.832211
2354.000000	5.836013
2353.000000	5.825066
2352.000000	5.831750
2351.000000	5.825757
2350.000000	5.809624
2349.000000	5.816769
2348.000000	5.838894
2347.000000	5.849726
2346.000000	5.858139
2345.000000	5.868971
2344.000000	5.861020
2343.000000	5.886948
2342.000000	5.905962
2341.000000	5.885104
2340.000000	5.906999
2339.000000	5.945718
2338.000000	5.935808
2337.000000	5.923132
2336.000000	5.933157
2335.000000	5.934425
2334.000000	5.948368
2333.000000	5.956781
2332.000000	5.940302
2331.000000	5.943529
2330.000000	5.946640
2329.000000	5.953093
2328.000000	5.947677
2327.000000	5.919444
2326.000000	5.928548
2325.000000	5.912300
2324.000000	5.921634
2323.000000	5.921634
2322.000000	5.892940
2321.000000	5.859982
2320.000000	5.854105
2319.000000	5.849266
2318.000000	5.825988
2317.000000	5.827025
2316.000000	5.791647
2315.000000	5.774132
2314.000000	5.760995
2313.000000	5.743940
2312.000000	5.719625
2311.000000	5.711213
2310.000000	5.691046
2309.000000	5.675374
2308.000000	5.663505
2307.000000	5.651751
2306.000000	5.653019
2305.000000	5.641380
2304.000000	5.632852
2303.000000	5.649792
2302.000000	5.664888
2301.000000	5.678601
2300.000000	5.689318
2299.000000	5.705336
2298.000000	5.715246
2297.000000	5.736910
2296.000000	5.729996
2295.000000	5.747973
2294.000000	5.770329
2293.000000	5.799368
2292.000000	5.823222
2291.000000	5.834515
2290.000000	5.824375
2289.000000	5.856986
2288.000000	5.862518
2287.000000	5.886026
2286.000000	5.894669
2285.000000	5.892709
2284.000000	5.872428
2283.000000	5.878651
2282.000000	5.868164
2281.000000	5.862633
2280.000000	5.839125
2279.000000	5.850418
2278.000000	5.846500
2277.000000	5.833363
2276.000000	5.813658
2275.000000	5.815271
2274.000000	5.818613
2273.000000	5.833248
2272.000000	5.814464
2271.000000	5.809855
2270.000000	5.810316
2269.000000	5.803402
2268.000000	5.839701
2267.000000	5.851455
2266.000000	5.849611
2265.000000	5.883952
2264.000000	5.903887
2263.000000	5.953208
2262.000000	5.979828
2261.000000	6.026959
2260.000000	6.077087
2259.000000	6.128713
2258.000000	6.203962
2257.000000	6.247291
2256.000000	6.327265
2255.000000	6.382693
2254.000000	6.438237
2253.000000	6.490900
2252.000000	6.583319
2251.000000	6.628952
2250.000000	6.709502
2249.000000	6.756519
2248.000000	6.820129
2247.000000	6.859770
2246.000000	6.914507
2245.000000	6.972125
2244.000000	7.027093
2243.000000	7.061318
2242.000000	7.094160
2241.000000	7.132764
2240.000000	7.172060
2239.000000	7.197297
2238.000000	7.238205
2237.000000	7.252034
2236.000000	7.282456
2235.000000	7.281880
2234.000000	7.335695
2233.000000	7.334197
2232.000000	7.348141
2231.000000	7.354939
2230.000000	7.379139
2229.000000	7.393313
2228.000000	7.406104
2227.000000	7.384094
2226.000000	7.383864
2225.000000	7.385477
2224.000000	7.388934
2223.000000	7.385131
2222.000000	7.360701
2221.000000	7.366233
2220.000000	7.363352
2219.000000	7.323134
2218.000000	7.320830
2217.000000	7.333966
2216.000000	7.335465
2215.000000	7.301124
2214.000000	7.269780
2213.000000	7.236362
2212.000000	7.263327
2211.000000	7.246733
2210.000000	7.227027
2209.000000	7.221957
2208.000000	7.208590
2207.000000	7.193609
2206.000000	7.179665
2205.000000	7.173904
2204.000000	7.162034
2203.000000	7.148897
2202.000000	7.154890
2201.000000	7.152470
2200.000000	7.145440
2199.000000	7.168948
2198.000000	7.131382
2197.000000	7.126426
2196.000000	7.123661
2195.000000	7.129192
2194.000000	7.127348
2193.000000	7.124698
2192.000000	7.124698
2191.000000	7.129077
2190.000000	7.116977
2189.000000	7.097848
2188.000000	7.091740
2187.000000	7.085748
2186.000000	7.104301
2185.000000	7.112137
2184.000000	7.089320
2183.000000	7.091625
2182.000000	7.068002
2181.000000	7.050832
2180.000000	7.053021
2179.000000	7.071459
2178.000000	7.054058
2177.000000	7.048642
2176.000000	7.042535
2175.000000	7.053021
2174.000000	7.050716
2173.000000	7.042074
2172.000000	7.041037
2171.000000	7.048527
2170.000000	7.057515
2169.000000	7.052791
2168.000000	7.061088
2167.000000	7.069039
2166.000000	7.076529
2165.000000	7.058437
2164.000000	7.070306
2163.000000	7.074916
2162.000000	7.086900
2161.000000	7.122508
2160.000000	7.132764
2159.000000	7.133225
2158.000000	7.158001
2157.000000	7.150280
2156.000000	7.174826
2155.000000	7.190959
2154.000000	7.204211
2153.000000	7.210318
2152.000000	7.258372
2151.000000	7.244428
2150.000000	7.277155
2149.000000	7.312302
2148.000000	7.309076
2147.000000	7.336963
2146.000000	7.352289
2145.000000	7.388243
2144.000000	7.396770
2143.000000	7.404376
2142.000000	7.427308
2141.000000	7.442634
2140.000000	7.448626
2139.000000	7.470175
2138.000000	7.474900
2137.000000	7.492762
2136.000000	7.512467
2135.000000	7.519036
2134.000000	7.534247
2133.000000	7.562364
2132.000000	7.568818
2131.000000	7.559138
2130.000000	7.547614
2129.000000	7.565821
2128.000000	7.587486
2127.000000	7.600623
2126.000000	7.603504
2125.000000	7.607883
2124.000000	7.611916
2123.000000	7.599125
2122.000000	7.611109
2121.000000	7.603388
2120.000000	7.605117
2119.000000	7.599125
2118.000000	7.600507
2117.000000	7.599009
2116.000000	7.599586
2115.000000	7.596935
2114.000000	7.574464
2113.000000	7.568357
2112.000000	7.555796
2111.000000	7.560175
2110.000000	7.560751
2109.000000	7.543466
2108.000000	7.538049
2107.000000	7.519496
2106.000000	7.518229
2105.000000	7.518575
2104.000000	7.502096
2103.000000	7.499100
2102.000000	7.488844
2101.000000	7.482275
2100.000000	7.474785
2099.000000	7.454388
2098.000000	7.460957
2097.000000	7.462109
2096.000000	7.442634
2095.000000	7.440790
2094.000000	7.427769
2093.000000	7.419933
2092.000000	7.421661
2091.000000	7.427999
2090.000000	7.432609
2089.000000	7.411290
2088.000000	7.391124
2087.000000	7.378678
2086.000000	7.381674
2085.000000	7.383864
2084.000000	7.380637
2083.000000	7.383748
2082.000000	7.370842
2081.000000	7.353441
2080.000000	7.360240
2079.000000	7.345375
2078.000000	7.321751
2077.000000	7.309421
2076.000000	7.293403
2075.000000	7.274389
2074.000000	7.259639
2073.000000	7.244428
2072.000000	7.225414
2071.000000	7.208244
2070.000000	7.188423
2069.000000	7.175747
2068.000000	7.149474
2067.000000	7.121932
2066.000000	7.106030
2065.000000	7.091740
2064.000000	7.072381
2063.000000	7.048296
2062.000000	7.029743
2061.000000	7.007618
2060.000000	6.985262
2059.000000	6.981229
2058.000000	6.967631
2057.000000	6.962446
2056.000000	6.957145
2055.000000	6.948963
2054.000000	6.939398
2053.000000	6.949078
2052.000000	6.962446
2051.000000	6.970397
2050.000000	6.955877
2049.000000	6.971434
2048.000000	6.999321
2047.000000	7.021446
2046.000000	7.054750
2045.000000	7.070422
2044.000000	7.088168
2043.000000	7.134032
2042.000000	7.156388
2041.000000	7.180818
2040.000000	7.202828
2039.000000	7.226451
2038.000000	7.258256
2037.000000	7.277155
2036.000000	7.279229
2035.000000	7.286144
2034.000000	7.319101
2033.000000	7.337193
2032.000000	7.346873
2031.000000	7.368653
2030.000000	7.379485
2029.000000	7.404376
2028.000000	7.417628
2027.000000	7.427769
2026.000000	7.410714
2025.000000	7.420970
2024.000000	7.456232
2023.000000	7.438140
2022.000000	7.439177
2021.000000	7.447243
2020.000000	7.446322
2019.000000	7.451392
2018.000000	7.469945
2017.000000	7.453927
2016.000000	7.476283
2015.000000	7.442058
2014.000000	7.436872
2013.000000	7.423505
2012.000000	7.428921
2011.000000	7.426040
2010.000000	7.405874
2009.000000	7.393889
2008.000000	7.384901
2007.000000	7.371994
2006.000000	7.363006
2005.000000	7.352289
2004.000000	7.327859
2003.000000	7.302507
2002.000000	7.287526
2001.000000	7.261944
2000.000000	7.268743
1999.000000	7.245580
1998.000000	7.220920
1997.000000	7.215504
1996.000000	7.195798
1995.000000	7.158232
1994.000000	7.119973
1993.000000	7.130229
1992.000000	7.080562
1991.000000	7.056824
1990.000000	6.994827
1989.000000	6.996786
1988.000000	6.980883
1987.000000	6.943316
1986.000000	6.923265
1985.000000	6.918771
1984.000000	6.887312
1983.000000	6.868067
1982.000000	6.828426
1981.000000	6.832805
1980.000000	6.783945
1979.000000	6.758708
1978.000000	6.746263
1977.000000	6.701436
1976.000000	6.671014
1975.000000	6.650041
1974.000000	6.616968
1973.000000	6.606366
1972.000000	6.591270
1971.000000	6.570989
1970.000000	6.555662
1969.000000	6.521207
1968.000000	6.492398
1967.000000	6.480644
1966.000000	6.466470
1965.000000	6.445266
1964.000000	6.420145
1963.000000	6.403551
1962.000000	6.392027
1961.000000	6.375203
1960.000000	6.369902
1959.000000	6.326804
1958.000000	6.307790
1957.000000	6.298225
1956.000000	6.261350
1955.000000	6.255473
1954.000000	6.258584
1953.000000	6.230697
1952.000000	6.193706
1951.000000	6.169967
1950.000000	6.186100
1949.000000	6.151875
1948.000000	6.155217
1947.000000	6.138047
1946.000000	6.149455
1945.000000	6.123527
1944.000000	6.113617
1943.000000	6.090685
1942.000000	6.090455
1941.000000	6.082503
1940.000000	6.074552
1939.000000	6.082158
1938.000000	6.090570
1937.000000	6.044936
1936.000000	6.058649
1935.000000	6.068560
1934.000000	6.075935
1933.000000	6.079507
1932.000000	6.099558
1931.000000	6.086882
1930.000000	6.110851
1929.000000	6.140582
1928.000000	6.150608
1927.000000	6.150723
1926.000000	6.166741
1925.000000	6.182874
1924.000000	6.229314
1923.000000	6.263309
1922.000000	6.288084
1921.000000	6.287393
1920.000000	6.345472
1919.000000	6.352962
1918.000000	6.401937
1917.000000	6.448262
1916.000000	6.488941
1915.000000	6.524433
1914.000000	6.575137
1913.000000	6.620195
1912.000000	6.666635
1911.000000	6.716417
1910.000000	6.807799
1909.000000	6.865186
1908.000000	6.924533
1907.000000	6.983188
1906.000000	7.064890
1905.000000	7.154429
1904.000000	7.232444
1903.000000	7.296745
1902.000000	7.423966
1901.000000	7.517883
1900.000000	7.615258
1899.000000	7.721851
1898.000000	7.848150
1897.000000	7.974679
1896.000000	8.091067
1895.000000	8.228659
1894.000000	8.361987
1893.000000	8.488286
1892.000000	8.670013
1891.000000	8.838834
1890.000000	9.025286
1889.000000	9.199062
1888.000000	9.411326
1887.000000	9.637419
1886.000000	9.813385
1885.000000	10.025189
1884.000000	10.282395
1883.000000	10.547899
1882.000000	10.833915
1881.000000	11.096538
1880.000000	11.376331
1879.000000	11.612680
1878.000000	11.864701
1877.000000	12.122369
1876.000000	12.371048
1875.000000	12.613390
1874.000000	12.843631
1873.000000	13.089660
1872.000000	13.358276
1871.000000	13.575841
1870.000000	13.786493
1869.000000	14.002560
1868.000000	14.215516
1867.000000	14.383415
1866.000000	14.543017
1865.000000	14.665398
1864.000000	14.802183
1863.000000	14.933898
1862.000000	15.061349
1861.000000	15.172206
1860.000000	15.271424
1859.000000	15.376174
1858.000000	15.464560
1857.000000	15.526096
1856.000000	15.612868
1855.000000	15.691805
1854.000000	15.728911
1853.000000	15.775351
1852.000000	15.823520
1851.000000	15.844262
1850.000000	15.870190
1849.000000	15.886093
1848.000000	15.888743
1847.000000	15.906605
1846.000000	15.902457
1845.000000	15.895658
1844.000000	15.904300
1843.000000	15.900267
1842.000000	15.926310
1841.000000	15.941291
1840.000000	15.926080
1839.000000	15.900613
1838.000000	15.871112
1837.000000	15.842534
1836.000000	15.844378
1835.000000	15.839192
1834.000000	15.812688
1833.000000	15.782726
1832.000000	15.750460
1831.000000	15.726837
1830.000000	15.701831
1829.000000	15.670717
1828.000000	15.642484
1827.000000	15.608144
1826.000000	15.566083
1825.000000	15.537965
1824.000000	15.520564
1823.000000	15.501205
1822.000000	15.492677
1821.000000	15.484035
1820.000000	15.442089
1819.000000	15.421231
1818.000000	15.412012
1817.000000	15.399567
1816.000000	15.385853
1815.000000	15.384471
1814.000000	15.371564
1813.000000	15.351398
1812.000000	15.342179
1811.000000	15.322704
1810.000000	15.288709
1809.000000	15.261859
1808.000000	15.242269
1807.000000	15.216802
1806.000000	15.187417
1805.000000	15.161374
1804.000000	15.127840
1803.000000	15.098916
1802.000000	15.076675
1801.000000	15.050401
1800.000000	15.027239
1799.000000	15.001426
1798.000000	14.977572
1797.000000	14.943578
1796.000000	14.907163
1795.000000	14.887227
1794.000000	14.850121
1793.000000	14.809789
1792.000000	14.790659
1791.000000	14.759891
1790.000000	14.736268
1789.000000	14.715295
1788.000000	14.680148
1787.000000	14.650532
1786.000000	14.616422
1785.000000	14.594873
1784.000000	14.567908
1783.000000	14.531378
1782.000000	14.499227
1781.000000	14.467883
1780.000000	14.435963
1779.000000	14.399663
1778.000000	14.363479
1777.000000	14.320957
1776.000000	14.273711
1775.000000	14.216208
1774.000000	14.168730
1773.000000	14.124134
1772.000000	14.078270
1771.000000	14.017310
1770.000000	13.955659
1769.000000	13.920166
1768.000000	13.872920
1767.000000	13.824520
1766.000000	13.783727
1765.000000	13.755033
1764.000000	13.701103
1763.000000	13.670335
1762.000000	13.665149
1761.000000	13.663997
1760.000000	13.671257
1759.000000	13.693497
1758.000000	13.731755
1757.000000	13.778080
1756.000000	13.803202
1755.000000	13.839847
1754.000000	13.874302
1753.000000	13.876953
1752.000000	13.915326
1751.000000	13.913713
1750.000000	13.917055
1749.000000	13.927426
1748.000000	13.916825
1747.000000	13.892971
1746.000000	13.870039
1745.000000	13.841114
1744.000000	13.788913
1743.000000	13.724380
1742.000000	13.667684
1741.000000	13.566392
1740.000000	13.497942
1739.000000	13.407827
1738.000000	13.306535
1737.000000	13.191299
1736.000000	13.112592
1735.000000	13.046908
1734.000000	13.004501
1733.000000	12.961518
1732.000000	12.943772
1731.000000	12.946076
1730.000000	12.935590
1729.000000	12.953797
1728.000000	12.980878
1727.000000	13.027894
1726.000000	13.059929
1725.000000	13.087932
1724.000000	13.126305
1723.000000	13.158917
1722.000000	13.177816
1721.000000	13.210889
1720.000000	13.268391
1719.000000	13.320939
1718.000000	13.374524
1717.000000	13.419812
1716.000000	13.486072
1715.000000	13.546802
1714.000000	13.616750
1713.000000	13.678747
1712.000000	13.743855
1711.000000	13.809079
1710.000000	13.846185
1709.000000	13.882599
1708.000000	13.902651
1707.000000	13.909910
1706.000000	13.931229
1705.000000	13.919245
1704.000000	13.879719
1703.000000	13.864277
1702.000000	13.827171
1701.000000	13.799630
1700.000000	13.754111
1699.000000	13.692806
1698.000000	13.623434
1697.000000	13.572154
1696.000000	13.508428
1695.000000	13.488953
1694.000000	13.488031
1693.000000	13.479504
1692.000000	13.509580
1691.000000	13.535969
1690.000000	13.619170
1689.000000	13.678516
1688.000000	13.730834
1687.000000	13.809194
1686.000000	13.850794
1685.000000	13.908182
1684.000000	13.981818
1683.000000	14.062944
1682.000000	14.179908
1681.000000	14.365438
1680.000000	14.548088
1679.000000	14.806331
1678.000000	15.030811
1677.000000	15.316251
1676.000000	15.572997
1675.000000	15.797477
1674.000000	16.011239
1673.000000	16.202185
1672.000000	16.348535
1671.000000	16.546050
1670.000000	16.670505
1669.000000	16.818583
1668.000000	16.938889
1667.000000	17.034420
1666.000000	17.119003
1665.000000	17.220181
1664.000000	17.291166
1663.000000	17.360653
1662.000000	17.411472
1661.000000	17.468399
1660.000000	17.520140
1659.000000	17.582483
1658.000000	17.594121
1657.000000	17.663609
1656.000000	17.658538
1655.000000	17.668218
1654.000000	17.695990
1653.000000	17.689191
1652.000000	17.686310
1651.000000	17.667757
1650.000000	17.655427
1649.000000	17.653583
1648.000000	17.638603
1647.000000	17.600229
1646.000000	17.586862
1645.000000	17.570613
1644.000000	17.537195
1643.000000	17.511497
1642.000000	17.491561
1641.000000	17.440857
1640.000000	17.410320
1639.000000	17.346710
1638.000000	17.336338
1637.000000	17.289668
1636.000000	17.246454
1635.000000	17.220641
1634.000000	17.176967
1633.000000	17.119695
1632.000000	17.079362
1631.000000	17.043754
1630.000000	16.986828
1629.000000	16.940503
1628.000000	16.870093
1627.000000	16.822501
1626.000000	16.765344
1625.000000	16.717406
1624.000000	16.682489
1623.000000	16.622106
1622.000000	16.554462
1621.000000	16.528419
1620.000000	16.490506
1619.000000	16.432427
1618.000000	16.366512
1617.000000	16.326986
1616.000000	16.289189
1615.000000	16.242403
1614.000000	16.184093
1613.000000	16.144106
1612.000000	16.103543
1611.000000	16.033365
1610.000000	16.010087
1609.000000	15.956617
1608.000000	15.921355
1607.000000	15.861202
1606.000000	15.800127
1605.000000	15.767976
1604.000000	15.699987
1603.000000	15.629923
1602.000000	15.588323
1601.000000	15.545340
1600.000000	15.478734
1599.000000	15.423305
1598.000000	15.377902
1597.000000	15.340105
1596.000000	15.277992
1595.000000	15.225906
1594.000000	15.196290
1593.000000	15.130375
1592.000000	15.094998
1591.000000	15.033116
1590.000000	14.990824
1589.000000	14.960402
1588.000000	14.923642
1587.000000	14.886536
1586.000000	14.861990
1585.000000	14.802529
1584.000000	14.768995
1583.000000	14.715641
1582.000000	14.683259
1581.000000	14.660212
1580.000000	14.631403
