PE UV       SUBTECH     SPECTRUM    ASCII       PEDS        4.00        
   -1
CICIMAUCR0008-5.Sample.ASC
24/04/25
10:02:58.00
24/04/25
10:02:58.00
Vinicio Soto Monge
C. kalinini
250,000000
1
Lambda 1050
1050L1511233
PerkinElmer UV WinLab 6.3.2.0749 / 2.02.05 Lambda 900 UV/VIS/NIR, Aug  7 2015 09:38:08

0
0
3350/servo 860,8/2
0
0
UV/VIS
1
1
1
DoubleDePol,CommonBeamDepol,RBeamAtt,SBeamAtt,60mm sphere, WB InGaAs Detector
0
0
0
0
Program
Program
3350/servo 860,8/2
3350/0,2 860,8/0,2
3350/0,2 860,8/0,2
0
15.00
 
 
 
0
 
860,8
319,2
860,8
Front
100
on
S:100 R:100
0
0
0
0
 
0
 
 
 
0
 
 
0
0
0
0
0
 
 
 
 
0
0


0
0
#HDR
-1
-1
#GR
nm
%R
1.0
0.0
2500,000000
-1,000000
2251
8
95,184700
4,916500
#DATA
2482.000000	6.350126
2481.000000	6.293216
2480.000000	6.354288
2479.000000	6.291304
2478.000000	6.370821
2477.000000	6.371046
2476.000000	6.365422
2475.000000	6.334830
2474.000000	6.373408
2473.000000	6.362836
2472.000000	6.376332
2471.000000	6.284443
2470.000000	6.373295
2469.000000	6.371271
2468.000000	6.366097
2467.000000	6.383305
2466.000000	6.392978
2465.000000	6.420421
2464.000000	6.407712
2463.000000	6.409849
2462.000000	6.421996
2461.000000	6.431106
2460.000000	6.457311
2459.000000	6.527044
2458.000000	6.538066
2457.000000	6.579793
2456.000000	6.599025
2455.000000	6.640752
2454.000000	6.695526
2453.000000	6.710709
2452.000000	6.735115
2451.000000	6.807322
2450.000000	6.845562
2449.000000	6.898874
2448.000000	6.931265
2447.000000	6.991550
2446.000000	7.040362
2445.000000	7.080740
2444.000000	7.133489
2443.000000	7.175665
2442.000000	7.193998
2441.000000	7.245173
2440.000000	7.293085
2439.000000	7.324577
2438.000000	7.368104
2437.000000	7.418828
2436.000000	7.469440
2435.000000	7.483949
2434.000000	7.514654
2433.000000	7.561779
2432.000000	7.583149
2431.000000	7.609804
2430.000000	7.663341
2429.000000	7.676162
2428.000000	7.687072
2427.000000	7.712491
2426.000000	7.765802
2425.000000	7.787734
2424.000000	7.817764
2423.000000	7.822825
2422.000000	7.823050
2421.000000	7.844982
2420.000000	7.871637
2419.000000	7.875349
2418.000000	7.902117
2417.000000	7.912015
2416.000000	7.936308
2415.000000	7.936196
2414.000000	7.961502
2413.000000	7.973311
2412.000000	7.993669
2411.000000	8.031347
2410.000000	8.073636
2409.000000	8.124473
2408.000000	8.150791
2407.000000	8.169236
2406.000000	8.184082
2405.000000	8.197017
2404.000000	8.225134
2403.000000	8.255277
2402.000000	8.277321
2401.000000	8.295654
2400.000000	8.330745
2399.000000	8.352002
2398.000000	8.383719
2397.000000	8.391142
2396.000000	8.415886
2395.000000	8.430844
2394.000000	8.453339
2393.000000	8.478757
2392.000000	8.492929
2391.000000	8.516210
2390.000000	8.533081
2389.000000	8.531281
2388.000000	8.541066
2387.000000	8.549839
2386.000000	8.546352
2385.000000	8.559287
2384.000000	8.577844
2383.000000	8.573570
2382.000000	8.571433
2381.000000	8.561423
2380.000000	8.551526
2379.000000	8.539492
2378.000000	8.542641
2377.000000	8.540729
2376.000000	8.524983
2375.000000	8.506088
2374.000000	8.480669
2373.000000	8.465373
2372.000000	8.458287
2371.000000	8.439955
2370.000000	8.406776
2369.000000	8.368535
2368.000000	8.354251
2367.000000	8.327258
2366.000000	8.282720
2365.000000	8.228846
2364.000000	8.186219
2363.000000	8.161701
2362.000000	8.108839
2361.000000	8.073861
2360.000000	8.038882
2359.000000	7.989395
2358.000000	7.971512
2357.000000	7.951379
2356.000000	7.929110
2355.000000	7.906953
2354.000000	7.883447
2353.000000	7.880635
2352.000000	7.894581
2351.000000	7.912577
2350.000000	7.948118
2349.000000	7.964089
2348.000000	7.985796
2347.000000	8.032696
2346.000000	8.076560
2345.000000	8.097142
2344.000000	8.133920
2343.000000	8.162151
2342.000000	8.193867
2341.000000	8.212313
2340.000000	8.244142
2339.000000	8.275971
2338.000000	8.297004
2337.000000	8.282945
2336.000000	8.273497
2335.000000	8.275072
2334.000000	8.277321
2333.000000	8.250441
2332.000000	8.223335
2331.000000	8.216924
2330.000000	8.191281
2329.000000	8.159339
2328.000000	8.120874
2327.000000	8.077010
2326.000000	8.037982
2325.000000	8.002779
2324.000000	7.958465
2323.000000	7.880298
2322.000000	7.841720
2321.000000	7.797744
2320.000000	7.732285
2319.000000	7.668627
2318.000000	7.595296
2317.000000	7.534111
2316.000000	7.473827
2315.000000	7.414779
2314.000000	7.371028
2313.000000	7.321878
2312.000000	7.283300
2311.000000	7.233813
2310.000000	7.194673
2309.000000	7.173866
2308.000000	7.165543
2307.000000	7.151596
2306.000000	7.175553
2305.000000	7.189499
2304.000000	7.234713
2303.000000	7.283075
2302.000000	7.323565
2301.000000	7.391723
2300.000000	7.457968
2299.000000	7.508130
2298.000000	7.588435
2297.000000	7.645570
2296.000000	7.723625
2295.000000	7.767826
2294.000000	7.804042
2293.000000	7.839920
2292.000000	7.886259
2291.000000	7.925174
2290.000000	7.942719
2289.000000	7.946656
2288.000000	7.953966
2287.000000	7.952954
2286.000000	7.939458
2285.000000	7.916063
2284.000000	7.911002
2283.000000	7.895706
2282.000000	7.845769
2281.000000	7.856116
2280.000000	7.835872
2279.000000	7.799431
2278.000000	7.780198
2277.000000	7.746119
2276.000000	7.746344
2275.000000	7.743195
2274.000000	7.735997
2273.000000	7.720364
2272.000000	7.722613
2271.000000	7.748481
2270.000000	7.771425
2269.000000	7.806741
2268.000000	7.862302
2267.000000	7.927873
2266.000000	8.013351
2265.000000	8.085783
2264.000000	8.213325
2263.000000	8.318036
2262.000000	8.452776
2261.000000	8.572333
2260.000000	8.772195
2259.000000	8.933591
2258.000000	9.120293
2257.000000	9.282477
2256.000000	9.455120
2255.000000	9.652507
2254.000000	9.836960
2253.000000	10.008366
2252.000000	10.154691
2251.000000	10.339481
2250.000000	10.500878
2249.000000	10.624596
2248.000000	10.779806
2247.000000	10.918708
2246.000000	11.023644
2245.000000	11.115983
2244.000000	11.250049
2243.000000	11.349248
2242.000000	11.446986
2241.000000	11.527628
2240.000000	11.598934
2239.000000	11.685312
2238.000000	11.752345
2237.000000	11.836474
2236.000000	11.850308
2235.000000	11.922514
2234.000000	11.967953
2233.000000	11.993933
2232.000000	12.057705
2231.000000	12.104605
2230.000000	12.101456
2229.000000	12.101343
2228.000000	12.136884
2227.000000	12.153867
2226.000000	12.160166
2225.000000	12.160053
2224.000000	12.128449
2223.000000	12.131711
2222.000000	12.125187
2221.000000	12.112928
2220.000000	12.085035
2219.000000	12.081099
2218.000000	12.041734
2217.000000	12.021039
2216.000000	11.990222
2215.000000	11.980212
2214.000000	11.957605
2213.000000	11.932412
2212.000000	11.912054
2211.000000	11.892822
2210.000000	11.875051
2209.000000	11.836136
2208.000000	11.837823
2207.000000	11.812742
2206.000000	11.807681
2205.000000	11.799583
2204.000000	11.784737
2203.000000	11.749871
2202.000000	11.745597
2201.000000	11.734800
2200.000000	11.729513
2199.000000	11.736937
2198.000000	11.716017
2197.000000	11.708256
2196.000000	11.704095
2195.000000	11.694760
2194.000000	11.673503
2193.000000	11.671028
2192.000000	11.672940
2191.000000	11.633688
2190.000000	11.625140
2189.000000	11.629189
2188.000000	11.625253
2187.000000	11.612431
2186.000000	11.594548
2185.000000	11.588025
2184.000000	11.570029
2183.000000	11.562269
2182.000000	11.559682
2181.000000	11.542136
2180.000000	11.549110
2179.000000	11.545286
2178.000000	11.534263
2177.000000	11.536400
2176.000000	11.544611
2175.000000	11.530102
2174.000000	11.527740
2173.000000	11.530327
2172.000000	11.535726
2171.000000	11.536850
2170.000000	11.541799
2169.000000	11.552821
2168.000000	11.571829
2167.000000	11.587125
2166.000000	11.589824
2165.000000	11.604670
2164.000000	11.613106
2163.000000	11.647297
2162.000000	11.675865
2161.000000	11.675527
2160.000000	11.710281
2159.000000	11.731425
2158.000000	11.757181
2157.000000	11.782150
2156.000000	11.818928
2155.000000	11.842884
2154.000000	11.883599
2153.000000	11.930725
2152.000000	11.964466
2151.000000	11.989772
2150.000000	12.018565
2149.000000	12.044770
2148.000000	12.093358
2147.000000	12.128674
2146.000000	12.152743
2145.000000	12.189746
2144.000000	12.198069
2143.000000	12.231810
2142.000000	12.280960
2141.000000	12.308853
2140.000000	12.329098
2139.000000	12.376336
2138.000000	12.387245
2137.000000	12.412664
2136.000000	12.453041
2135.000000	12.470811
2134.000000	12.481046
2133.000000	12.505228
2132.000000	12.527609
2131.000000	12.538407
2130.000000	12.564837
2129.000000	12.588794
2128.000000	12.583170
2127.000000	12.582383
2126.000000	12.581033
2125.000000	12.596667
2124.000000	12.609826
2123.000000	12.607464
2122.000000	12.609488
2121.000000	12.616012
2120.000000	12.600378
2119.000000	12.582383
2118.000000	12.592843
2117.000000	12.591156
2116.000000	12.581483
2115.000000	12.562813
2114.000000	12.540993
2113.000000	12.540206
2112.000000	12.535932
2111.000000	12.516925
2110.000000	12.499042
2109.000000	12.489482
2108.000000	12.472836
2107.000000	12.469012
2106.000000	12.470249
2105.000000	12.447755
2104.000000	12.427285
2103.000000	12.429534
2102.000000	12.409852
2101.000000	12.390394
2100.000000	12.382971
2099.000000	12.377235
2098.000000	12.368013
2097.000000	12.357665
2096.000000	12.339895
2095.000000	12.330672
2094.000000	12.328985
2093.000000	12.324374
2092.000000	12.315939
2091.000000	12.314139
2090.000000	12.312452
2089.000000	12.300080
2088.000000	12.294119
2087.000000	12.288383
2086.000000	12.294569
2085.000000	12.281297
2084.000000	12.265551
2083.000000	12.247893
2082.000000	12.234397
2081.000000	12.244632
2080.000000	12.234397
2079.000000	12.207629
2078.000000	12.190758
2077.000000	12.175349
2076.000000	12.158141
2075.000000	12.151618
2074.000000	12.126537
2073.000000	12.111691
2072.000000	12.103368
2071.000000	12.092908
2070.000000	12.070076
2069.000000	12.043983
2068.000000	12.019464
2067.000000	12.012491
2066.000000	11.998432
2065.000000	11.973014
2064.000000	11.957493
2063.000000	11.935111
2062.000000	11.942309
2061.000000	11.932187
2060.000000	11.923301
2059.000000	11.922064
2058.000000	11.934211
2057.000000	11.940397
2056.000000	11.969977
2055.000000	11.994721
2054.000000	12.032511
2053.000000	12.090546
2052.000000	12.154880
2051.000000	12.207966
2050.000000	12.285346
2049.000000	12.379935
2048.000000	12.446968
2047.000000	12.561801
2046.000000	12.662350
2045.000000	12.752889
2044.000000	12.856363
2043.000000	12.968834
2042.000000	13.061173
2041.000000	13.183317
2040.000000	13.288815
2039.000000	13.385765
2038.000000	13.490026
2037.000000	13.589001
2036.000000	13.664356
2035.000000	13.784138
2034.000000	13.855557
2033.000000	13.931138
2032.000000	14.014817
2031.000000	14.101982
2030.000000	14.160354
2029.000000	14.221314
2028.000000	14.295432
2027.000000	14.357517
2026.000000	14.431073
2025.000000	14.462902
2024.000000	14.508903
2023.000000	14.583921
2022.000000	14.619799
2021.000000	14.675135
2020.000000	14.720349
2019.000000	14.764887
2018.000000	14.787944
2017.000000	14.833157
2016.000000	14.862850
2015.000000	14.903339
2014.000000	14.919648
2013.000000	14.936856
2012.000000	14.977008
2011.000000	14.972622
2010.000000	14.990505
2009.000000	15.010637
2008.000000	15.003889
2007.000000	14.991292
2006.000000	15.005126
2005.000000	14.994216
2004.000000	14.989605
2003.000000	14.956426
2002.000000	14.943717
2001.000000	14.919535
2000.000000	14.893667
1999.000000	14.892317
1998.000000	14.865999
1997.000000	14.825509
1996.000000	14.773885
1995.000000	14.746892
1994.000000	14.713713
1993.000000	14.664338
1992.000000	14.608665
1991.000000	14.559290
1990.000000	14.513739
1989.000000	14.462790
1988.000000	14.405879
1987.000000	14.364265
1986.000000	14.301506
1985.000000	14.245158
1984.000000	14.189260
1983.000000	14.129425
1982.000000	14.061942
1981.000000	14.022465
1980.000000	13.949246
1979.000000	13.884013
1978.000000	13.834975
1977.000000	13.770417
1976.000000	13.712719
1975.000000	13.652997
1974.000000	13.612282
1973.000000	13.567519
1972.000000	13.507009
1971.000000	13.466407
1970.000000	13.435365
1969.000000	13.325930
1968.000000	13.331104
1967.000000	13.273181
1966.000000	13.227743
1965.000000	13.182642
1964.000000	13.127194
1963.000000	13.085579
1962.000000	13.048126
1961.000000	12.997739
1960.000000	12.940379
1959.000000	12.913048
1958.000000	12.856925
1957.000000	12.819810
1956.000000	12.793266
1955.000000	12.741417
1954.000000	12.698678
1953.000000	12.648291
1952.000000	12.614887
1951.000000	12.591268
1950.000000	12.567649
1949.000000	12.545492
1948.000000	12.513663
1947.000000	12.483746
1946.000000	12.479809
1945.000000	12.446855
1944.000000	12.457540
1943.000000	12.424586
1942.000000	12.442131
1941.000000	12.444381
1940.000000	12.441007
1939.000000	12.471824
1938.000000	12.498929
1937.000000	12.486108
1936.000000	12.529746
1935.000000	12.593405
1934.000000	12.623885
1933.000000	12.685069
1932.000000	12.748953
1931.000000	12.827120
1930.000000	12.909449
1929.000000	12.994702
1928.000000	13.063310
1927.000000	13.155536
1926.000000	13.266883
1925.000000	13.401623
1924.000000	13.518369
1923.000000	13.644561
1922.000000	13.769179
1921.000000	13.905607
1920.000000	14.058680
1919.000000	14.200732
1918.000000	14.383835
1917.000000	14.543769
1916.000000	14.724848
1915.000000	14.899628
1914.000000	15.094091
1913.000000	15.277756
1912.000000	15.458385
1911.000000	15.654310
1910.000000	15.871267
1909.000000	16.085525
1908.000000	16.305406
1907.000000	16.545195
1906.000000	16.780035
1905.000000	17.018474
1904.000000	17.255563
1903.000000	17.483092
1902.000000	17.734353
1901.000000	18.005296
1900.000000	18.248797
1899.000000	18.493197
1898.000000	18.763802
1897.000000	19.025298
1896.000000	19.270260
1895.000000	19.534230
1894.000000	19.806748
1893.000000	20.080503
1892.000000	20.349872
1891.000000	20.611930
1890.000000	20.854080
1889.000000	21.161239
1888.000000	21.468511
1887.000000	21.788154
1886.000000	22.133891
1885.000000	22.550597
1884.000000	22.973264
1883.000000	23.379060
1882.000000	23.839630
1881.000000	24.275568
1880.000000	24.681589
1879.000000	25.091097
1878.000000	25.492282
1877.000000	25.814400
1876.000000	26.134493
1875.000000	26.439402
1874.000000	26.704497
1873.000000	26.936863
1872.000000	27.132675
1871.000000	27.286873
1870.000000	27.430836
1869.000000	27.566027
1868.000000	27.659828
1867.000000	27.726073
1866.000000	27.801992
1865.000000	27.859239
1864.000000	27.916825
1863.000000	27.979809
1862.000000	28.028734
1861.000000	28.033457
1860.000000	28.008489
1859.000000	27.979584
1858.000000	27.973285
1857.000000	27.944605
1856.000000	27.885220
1855.000000	27.827522
1854.000000	27.740132
1853.000000	27.661065
1852.000000	27.629123
1851.000000	27.598194
1850.000000	27.558041
1849.000000	27.475150
1848.000000	27.325563
1847.000000	27.185424
1846.000000	27.105232
1845.000000	27.087574
1844.000000	27.082176
1843.000000	27.074752
1842.000000	27.010419
1841.000000	26.914818
1840.000000	26.844974
1839.000000	26.789638
1838.000000	26.739701
1837.000000	26.664907
1836.000000	26.566832
1835.000000	26.468757
1834.000000	26.396551
1833.000000	26.338403
1832.000000	26.272608
1831.000000	26.176670
1830.000000	26.086693
1829.000000	25.995366
1828.000000	25.896729
1827.000000	25.808326
1826.000000	25.736232
1825.000000	25.707327
1824.000000	25.704965
1823.000000	25.721723
1822.000000	25.702266
1821.000000	25.635795
1820.000000	25.575848
1819.000000	25.553354
1818.000000	25.564714
1817.000000	25.571574
1816.000000	25.570337
1815.000000	25.569775
1814.000000	25.566513
1813.000000	25.551779
1812.000000	25.534234
1811.000000	25.509828
1810.000000	25.471362
1809.000000	25.442682
1808.000000	25.431997
1807.000000	25.386559
1806.000000	25.331561
1805.000000	25.302768
1804.000000	25.268127
1803.000000	25.235510
1802.000000	25.204581
1801.000000	25.147333
1800.000000	25.106618
1799.000000	25.056906
1798.000000	25.024514
1797.000000	25.004719
1796.000000	24.974914
1795.000000	24.923740
1794.000000	24.879539
1793.000000	24.843660
1792.000000	24.802833
1791.000000	24.762569
1790.000000	24.701047
1789.000000	24.650660
1788.000000	24.580703
1787.000000	24.497137
1786.000000	24.431791
1785.000000	24.377017
1784.000000	24.285128
1783.000000	24.219782
1782.000000	24.151175
1781.000000	24.058724
1780.000000	23.977069
1779.000000	23.888105
1778.000000	23.780132
1777.000000	23.670360
1776.000000	23.544505
1775.000000	23.408190
1774.000000	23.268838
1773.000000	23.124200
1772.000000	22.999694
1771.000000	22.851007
1770.000000	22.705582
1769.000000	22.598847
1768.000000	22.463769
1767.000000	22.360183
1766.000000	22.298099
1765.000000	22.240851
1764.000000	22.201823
1763.000000	22.195075
1762.000000	22.222855
1761.000000	22.299223
1760.000000	22.343537
1759.000000	22.403034
1758.000000	22.465681
1757.000000	22.511457
1756.000000	22.523491
1755.000000	22.542274
1754.000000	22.533276
1753.000000	22.510220
1752.000000	22.472879
1751.000000	22.417543
1750.000000	22.342975
1749.000000	22.268519
1748.000000	22.145250
1747.000000	22.015346
1746.000000	21.869471
1745.000000	21.687942
1744.000000	21.487968
1743.000000	21.269437
1742.000000	21.012777
1741.000000	20.739247
1740.000000	20.515542
1739.000000	20.284526
1738.000000	20.042038
1737.000000	19.880979
1736.000000	19.771207
1735.000000	19.706086
1734.000000	19.677069
1733.000000	19.712272
1732.000000	19.767833
1731.000000	19.851062
1730.000000	19.944526
1729.000000	20.060821
1728.000000	20.171268
1727.000000	20.271030
1726.000000	20.338287
1725.000000	20.384288
1724.000000	20.405320
1723.000000	20.423990
1722.000000	20.445472
1721.000000	20.443335
1720.000000	20.446260
1719.000000	20.463018
1718.000000	20.501371
1717.000000	20.531850
1716.000000	20.604507
1715.000000	20.651407
1714.000000	20.710792
1713.000000	20.758817
1712.000000	20.809767
1711.000000	20.813703
1710.000000	20.803918
1709.000000	20.785473
1708.000000	20.762754
1707.000000	20.726875
1706.000000	20.696846
1705.000000	20.624639
1704.000000	20.558956
1703.000000	20.441086
1702.000000	20.319167
1701.000000	20.167331
1700.000000	19.985015
1699.000000	19.845213
1698.000000	19.694839
1697.000000	19.642090
1696.000000	19.603288
1695.000000	19.658061
1694.000000	19.746351
1693.000000	19.918095
1692.000000	20.107609
1691.000000	20.249660
1690.000000	20.425790
1689.000000	20.531288
1688.000000	20.541635
1687.000000	20.589998
1686.000000	20.613055
1685.000000	20.712367
1684.000000	20.920214
1683.000000	21.209265
1682.000000	21.667922
1681.000000	22.225780
1680.000000	22.850782
1679.000000	23.456215
1678.000000	24.016434
1677.000000	24.537851
1676.000000	25.017428
1675.000000	25.449655
1674.000000	25.781783
1673.000000	26.094228
1672.000000	26.382042
1671.000000	26.630041
1670.000000	26.860382
1669.000000	27.026165
1668.000000	27.219615
1667.000000	27.369877
1666.000000	27.495170
1665.000000	27.610341
1664.000000	27.723936
1663.000000	27.798842
1662.000000	27.888819
1661.000000	27.949441
1660.000000	27.993080
1659.000000	28.064612
1658.000000	28.097453
1657.000000	28.159763
1656.000000	28.175509
1655.000000	28.191254
1654.000000	28.185743
1653.000000	28.173821
1652.000000	28.157063
1651.000000	28.137268
1650.000000	28.114549
1649.000000	28.088568
1648.000000	28.040093
1647.000000	28.001291
1646.000000	27.957314
1645.000000	27.899729
1644.000000	27.859802
1643.000000	27.802554
1642.000000	27.740020
1641.000000	27.688733
1640.000000	27.613490
1639.000000	27.543645
1638.000000	27.496182
1637.000000	27.438372
1636.000000	27.355368
1635.000000	27.282037
1634.000000	27.221752
1633.000000	27.128739
1632.000000	27.048884
1631.000000	26.974428
1630.000000	26.888163
1629.000000	26.784914
1628.000000	26.700448
1627.000000	26.620481
1626.000000	26.510822
1625.000000	26.418033
1624.000000	26.332667
1623.000000	26.228069
1622.000000	26.136855
1621.000000	26.053851
1620.000000	25.959263
1619.000000	25.851065
1618.000000	25.773123
1617.000000	25.683596
1616.000000	25.611277
1615.000000	25.523774
1614.000000	25.427724
1613.000000	25.361590
1612.000000	25.281398
1611.000000	25.193671
1610.000000	25.121914
1609.000000	25.036436
1608.000000	24.948596
1607.000000	24.855132
1606.000000	24.786188
1605.000000	24.709707
1604.000000	24.616468
1603.000000	24.533240
1602.000000	24.453273
1601.000000	24.377917
1600.000000	24.302111
1599.000000	24.233504
1598.000000	24.155786
1597.000000	24.088416
1596.000000	24.034992
