PE UV       SUBTECH     SPECTRUM    ASCII       PEDS        4.00        
   -1
CICIMAUCR0223-1.ASC
24/06/14
11:37:32.00
24/06/14
11:37:32.00
Vinicio Soto Monge
C. resplendens. Sex M. Ventral 
250,000000
1
Lambda 1050
1050L1511233
PerkinElmer UV WinLab 6.3.2.0749 / 2.02.05 Lambda 900 UV/VIS/NIR, Aug  7 2015 09:38:08

0
0
3350/servo 860,8/2
0
0
UV/VIS
1
1
1
DoubleDePol,CommonBeamDepol,RBeamAtt,SBeamAtt,60mm sphere, WB InGaAs Detector
0
0
0
0
Program
Program
3350/servo 860,8/2
3350/0,2 860,8/0,2
3350/0,2 860,8/0,2
0
15.00
 
 
 
0
 
860,8
319,2
860,8
Front
100
on
S:100 R:100
0
0
0
0
 
0
 
 
 
0
 
 
0
0
0
0
0
 
 
 
 
0
0


0
0
#HDR
-1
-1
#GR
nm
%R
1.0
0.0
2500,000000
-1,000000
2251
8
54,638900
4,157900
#DATA
2482.000000	6.284979
2481.000000	6.443700
2480.000000	6.389013
2479.000000	6.380072
2478.000000	6.375892
2477.000000	6.393425
2476.000000	6.313774
2475.000000	6.293455
2474.000000	6.327591
2473.000000	6.371945
2472.000000	6.324688
2471.000000	6.323179
2470.000000	6.389129
2469.000000	6.371945
2468.000000	6.392961
2467.000000	6.370551
2466.000000	6.364514
2465.000000	6.384368
2464.000000	6.386691
2463.000000	6.394586
2462.000000	6.401669
2461.000000	6.390987
2460.000000	6.437430
2459.000000	6.449738
2458.000000	6.495717
2457.000000	6.493046
2456.000000	6.506167
2455.000000	6.521261
2454.000000	6.576761
2453.000000	6.599751
2452.000000	6.598706
2451.000000	6.643059
2450.000000	6.657108
2449.000000	6.709125
2448.000000	6.745932
2447.000000	6.726309
2446.000000	6.782622
2445.000000	6.819429
2444.000000	6.861925
2443.000000	6.904885
2442.000000	6.924043
2441.000000	6.940414
2440.000000	7.001488
2439.000000	7.033650
2438.000000	7.069644
2437.000000	7.089034
2436.000000	7.131298
2435.000000	7.137219
2434.000000	7.154171
2433.000000	7.204330
2432.000000	7.223836
2431.000000	7.255534
2430.000000	7.290018
2429.000000	7.297217
2428.000000	7.329379
2427.000000	7.346447
2426.000000	7.376520
2425.000000	7.402412
2424.000000	7.423195
2423.000000	7.427375
2422.000000	7.437593
2421.000000	7.459538
2420.000000	7.471381
2419.000000	7.508652
2418.000000	7.524559
2417.000000	7.531990
2416.000000	7.555211
2415.000000	7.582149
2414.000000	7.583774
2413.000000	7.625341
2412.000000	7.630334
2411.000000	7.633121
2410.000000	7.644035
2409.000000	7.661567
2408.000000	7.683280
2407.000000	7.707314
2406.000000	7.726124
2405.000000	7.723105
2404.000000	7.731000
2403.000000	7.769549
2402.000000	7.811928
2401.000000	7.832712
2400.000000	7.831086
2399.000000	7.863016
2398.000000	7.900403
2397.000000	7.913408
2396.000000	7.926063
2395.000000	7.926412
2394.000000	7.943364
2393.000000	7.968211
2392.000000	7.982725
2391.000000	7.983421
2390.000000	8.025453
2389.000000	8.047165
2388.000000	8.039850
2387.000000	8.052971
2386.000000	8.066904
2385.000000	8.079095
2384.000000	8.088268
2383.000000	8.089080
2382.000000	8.089545
2381.000000	8.083507
2380.000000	8.085829
2379.000000	8.083972
2378.000000	8.078747
2377.000000	8.079792
2376.000000	8.069806
2375.000000	8.060866
2374.000000	8.070387
2373.000000	8.079560
2372.000000	8.080488
2371.000000	8.059357
2370.000000	8.042172
2369.000000	8.038341
2368.000000	8.028239
2367.000000	8.009198
2366.000000	7.986672
2365.000000	7.969604
2364.000000	7.931056
2363.000000	7.911434
2362.000000	7.902261
2361.000000	7.869635
2360.000000	7.850593
2359.000000	7.836195
2358.000000	7.811116
2357.000000	7.786268
2356.000000	7.758054
2355.000000	7.744933
2354.000000	7.750158
2353.000000	7.738547
2352.000000	7.733323
2351.000000	7.737619
2350.000000	7.726820
2349.000000	7.734948
2348.000000	7.749113
2347.000000	7.765833
2346.000000	7.790216
2345.000000	7.805891
2344.000000	7.830274
2343.000000	7.856630
2342.000000	7.872886
2341.000000	7.892972
2340.000000	7.910621
2339.000000	7.924786
2338.000000	7.929547
2337.000000	7.940577
2336.000000	7.935933
2335.000000	7.939416
2334.000000	7.939532
2333.000000	7.938835
2332.000000	7.931172
2331.000000	7.917239
2330.000000	7.898081
2329.000000	7.876253
2328.000000	7.859533
2327.000000	7.836776
2326.000000	7.809258
2325.000000	7.768852
2324.000000	7.724963
2323.000000	7.693381
2322.000000	7.656923
2321.000000	7.616053
2320.000000	7.582381
2319.000000	7.524443
2318.000000	7.486475
2317.000000	7.435851
2316.000000	7.388131
2315.000000	7.355272
2314.000000	7.308364
2313.000000	7.271209
2312.000000	7.205259
2311.000000	7.164853
2310.000000	7.130949
2309.000000	7.102735
2308.000000	7.088105
2307.000000	7.075914
2306.000000	7.042242
2305.000000	7.025406
2304.000000	7.044564
2303.000000	7.058729
2302.000000	7.072430
2301.000000	7.101922
2300.000000	7.120848
2299.000000	7.145114
2298.000000	7.180644
2297.000000	7.207465
2296.000000	7.285722
2295.000000	7.309525
2294.000000	7.339481
2293.000000	7.380816
2292.000000	7.431671
2291.000000	7.446650
2290.000000	7.459421
2289.000000	7.487868
2288.000000	7.476141
2287.000000	7.504588
2286.000000	7.493790
2285.000000	7.469059
2284.000000	7.463718
2283.000000	7.448391
2282.000000	7.429814
2281.000000	7.421222
2280.000000	7.398696
2279.000000	7.359219
2278.000000	7.337159
2277.000000	7.332050
2276.000000	7.300004
2275.000000	7.292341
2274.000000	7.270628
2273.000000	7.256115
2272.000000	7.243691
2271.000000	7.227087
2270.000000	7.254373
2269.000000	7.250890
2268.000000	7.273067
2267.000000	7.311963
2266.000000	7.365257
2265.000000	7.402528
2264.000000	7.451874
2263.000000	7.528506
2262.000000	7.617910
2261.000000	7.689433
2260.000000	7.796950
2259.000000	7.876369
2258.000000	7.983537
2257.000000	8.118921
2256.000000	8.238861
2255.000000	8.403620
2254.000000	8.504983
2253.000000	8.634212
2252.000000	8.754385
2251.000000	8.879899
2250.000000	9.007386
2249.000000	9.122102
2248.000000	9.234728
2247.000000	9.328892
2246.000000	9.433623
2245.000000	9.540675
2244.000000	9.617075
2243.000000	9.710542
2242.000000	9.792283
2241.000000	9.856840
2240.000000	9.931846
2239.000000	9.995706
2238.000000	10.059798
2237.000000	10.102294
2236.000000	10.138752
2235.000000	10.184615
2234.000000	10.224905
2233.000000	10.272394
2232.000000	10.302350
2231.000000	10.326617
2230.000000	10.349490
2229.000000	10.351812
2228.000000	10.373989
2227.000000	10.388271
2226.000000	10.394889
2225.000000	10.408938
2224.000000	10.429257
2223.000000	10.409170
2222.000000	10.392102
2221.000000	10.395237
2220.000000	10.374337
2219.000000	10.351000
2218.000000	10.313961
2217.000000	10.324643
2216.000000	10.334744
2215.000000	10.304092
2214.000000	10.299447
2213.000000	10.251030
2212.000000	10.257300
2211.000000	10.235587
2210.000000	10.233846
2209.000000	10.199129
2208.000000	10.188563
2207.000000	10.185660
2206.000000	10.184848
2205.000000	10.165109
2204.000000	10.154891
2203.000000	10.137823
2202.000000	10.143513
2201.000000	10.134572
2200.000000	10.102642
2199.000000	10.114137
2198.000000	10.095908
2197.000000	10.079188
2196.000000	10.076750
2195.000000	10.075009
2194.000000	10.082207
2193.000000	10.071061
2192.000000	10.074544
2191.000000	10.051787
2190.000000	10.065604
2189.000000	10.045749
2188.000000	10.032280
2187.000000	10.029494
2186.000000	10.010684
2185.000000	10.014051
2184.000000	10.004879
2183.000000	10.006272
2182.000000	10.003718
2181.000000	9.983747
2180.000000	9.972252
2179.000000	9.955765
2178.000000	9.943341
2177.000000	9.947173
2176.000000	9.954952
2175.000000	9.942412
2174.000000	9.928015
2173.000000	9.953326
2172.000000	9.937187
2171.000000	9.932194
2170.000000	9.931962
2169.000000	9.950075
2168.000000	9.946824
2167.000000	9.942528
2166.000000	9.983050
2165.000000	9.983399
2164.000000	9.990713
2163.000000	10.000118
2162.000000	10.011265
2161.000000	10.023688
2160.000000	10.057012
2159.000000	10.077679
2158.000000	10.060727
2157.000000	10.095444
2156.000000	10.115647
2155.000000	10.131786
2154.000000	10.166502
2153.000000	10.175211
2152.000000	10.200638
2151.000000	10.228621
2150.000000	10.240696
2149.000000	10.277619
2148.000000	10.298286
2147.000000	10.329636
2146.000000	10.347284
2145.000000	10.386181
2144.000000	10.382349
2143.000000	10.403945
2142.000000	10.421942
2141.000000	10.456659
2140.000000	10.479300
2139.000000	10.493581
2138.000000	10.502986
2137.000000	10.517616
2136.000000	10.538632
2135.000000	10.546179
2134.000000	10.573116
2133.000000	10.591345
2132.000000	10.586933
2131.000000	10.589487
2130.000000	10.597615
2129.000000	10.598079
2128.000000	10.602143
2127.000000	10.601214
2126.000000	10.597151
2125.000000	10.589604
2124.000000	10.596454
2123.000000	10.609690
2122.000000	10.578225
2121.000000	10.569865
2120.000000	10.566498
2119.000000	10.567543
2118.000000	10.568588
2117.000000	10.548617
2116.000000	10.538051
2115.000000	10.520170
2114.000000	10.514017
2113.000000	10.489285
2112.000000	10.469547
2111.000000	10.443074
2110.000000	10.443190
2109.000000	10.419272
2108.000000	10.401507
2107.000000	10.368416
2106.000000	10.352393
2105.000000	10.354831
2104.000000	10.337531
2103.000000	10.322321
2102.000000	10.303047
2101.000000	10.284701
2100.000000	10.273787
2099.000000	10.269143
2098.000000	10.259506
2097.000000	10.244063
2096.000000	10.234078
2095.000000	10.210275
2094.000000	10.199826
2093.000000	10.185196
2092.000000	10.179507
2091.000000	10.176720
2090.000000	10.156401
2089.000000	10.148041
2088.000000	10.143745
2087.000000	10.123658
2086.000000	10.096373
2085.000000	10.083020
2084.000000	10.064907
2083.000000	10.068855
2082.000000	10.066300
2081.000000	10.038434
2080.000000	10.022179
2079.000000	10.002789
2078.000000	9.974226
2077.000000	9.956926
2076.000000	9.945199
2075.000000	9.926970
2074.000000	9.905606
2073.000000	9.885170
2072.000000	9.859394
2071.000000	9.828974
2070.000000	9.804939
2069.000000	9.772312
2068.000000	9.743982
2067.000000	9.732371
2066.000000	9.706130
2065.000000	9.675478
2064.000000	9.659919
2063.000000	9.645173
2062.000000	9.626363
2061.000000	9.612430
2060.000000	9.586074
2059.000000	9.557279
2058.000000	9.555653
2057.000000	9.557046
2056.000000	9.544042
2055.000000	9.565871
2054.000000	9.574927
2053.000000	9.560762
2052.000000	9.584100
2051.000000	9.609411
2050.000000	9.635072
2049.000000	9.666305
2048.000000	9.696145
2047.000000	9.747349
2046.000000	9.802385
2045.000000	9.849989
2044.000000	9.889350
2043.000000	9.917797
2042.000000	9.952630
2041.000000	10.023688
2040.000000	10.078027
2039.000000	10.123194
2038.000000	10.172424
2037.000000	10.216778
2036.000000	10.266124
2035.000000	10.296196
2034.000000	10.313961
2033.000000	10.344033
2032.000000	10.388154
2031.000000	10.429257
2030.000000	10.448763
2029.000000	10.464322
2028.000000	10.498226
2027.000000	10.520286
2026.000000	10.552449
2025.000000	10.564872
2024.000000	10.559880
2023.000000	10.576019
2022.000000	10.593667
2021.000000	10.607484
2020.000000	10.629313
2019.000000	10.607368
2018.000000	10.635583
2017.000000	10.643594
2016.000000	10.644755
2015.000000	10.654741
2014.000000	10.655321
2013.000000	10.641156
2012.000000	10.635815
2011.000000	10.633144
2010.000000	10.609574
2009.000000	10.576135
2008.000000	10.573813
2007.000000	10.560460
2006.000000	10.546875
2005.000000	10.547572
2004.000000	10.514365
2003.000000	10.479648
2002.000000	10.454453
2001.000000	10.447951
2000.000000	10.400462
1999.000000	10.383394
1998.000000	10.346123
1997.000000	10.315006
1996.000000	10.280521
1995.000000	10.263221
1994.000000	10.212714
1993.000000	10.162322
1992.000000	10.112744
1991.000000	10.081395
1990.000000	10.019625
1989.000000	10.002789
1988.000000	9.968653
1987.000000	9.910598
1986.000000	9.853240
1985.000000	9.811441
1984.000000	9.780672
1983.000000	9.738060
1982.000000	9.685115
1981.000000	9.659106
1980.000000	9.627292
1979.000000	9.567380
1978.000000	9.510254
1977.000000	9.466017
1976.000000	9.434319
1975.000000	9.362680
1974.000000	9.331563
1973.000000	9.285467
1972.000000	9.258414
1971.000000	9.207210
1970.000000	9.168197
1969.000000	9.136616
1968.000000	9.098996
1967.000000	9.051043
1966.000000	9.019926
1965.000000	8.965703
1964.000000	8.936676
1963.000000	8.886169
1962.000000	8.841002
1961.000000	8.838564
1960.000000	8.797461
1959.000000	8.737085
1958.000000	8.694473
1957.000000	8.687274
1956.000000	8.640250
1955.000000	8.621672
1954.000000	8.573487
1953.000000	8.546434
1952.000000	8.528205
1951.000000	8.490934
1950.000000	8.454475
1949.000000	8.425564
1948.000000	8.409077
1947.000000	8.389338
1946.000000	8.380746
1945.000000	8.332909
1944.000000	8.323969
1943.000000	8.299238
1942.000000	8.269630
1941.000000	8.291691
1940.000000	8.274390
1939.000000	8.248266
1938.000000	8.232591
1937.000000	8.252794
1936.000000	8.260109
1935.000000	8.242693
1934.000000	8.257439
1933.000000	8.275668
1932.000000	8.287627
1931.000000	8.274507
1930.000000	8.323853
1929.000000	8.349629
1928.000000	8.394912
1927.000000	8.406755
1926.000000	8.453779
1925.000000	8.481993
1924.000000	8.552123
1923.000000	8.583240
1922.000000	8.627594
1921.000000	8.702949
1920.000000	8.765880
1919.000000	8.836010
1918.000000	8.907417
1917.000000	9.005296
1916.000000	9.052669
1915.000000	9.151942
1914.000000	9.226484
1913.000000	9.343754
1912.000000	9.450574
1911.000000	9.555305
1910.000000	9.653301
1909.000000	9.779163
1908.000000	9.878088
1907.000000	9.961802
1906.000000	10.126793
1905.000000	10.267866
1904.000000	10.411492
1903.000000	10.566730
1902.000000	10.731605
1901.000000	10.899963
1900.000000	11.069134
1899.000000	11.285445
1898.000000	11.462395
1897.000000	11.677661
1896.000000	11.881896
1895.000000	12.060820
1894.000000	12.279454
1893.000000	12.511555
1892.000000	12.766415
1891.000000	13.050417
1890.000000	13.321996
1889.000000	13.609134
1888.000000	13.920770
1887.000000	14.231478
1886.000000	14.552171
1885.000000	14.923603
1884.000000	15.340551
1883.000000	15.791402
1882.000000	16.230758
1881.000000	16.690782
1880.000000	17.148368
1879.000000	17.570888
1878.000000	18.051812
1877.000000	18.494535
1876.000000	18.925648
1875.000000	19.319025
1874.000000	19.725755
1873.000000	20.121454
1872.000000	20.525165
1871.000000	20.890908
1870.000000	21.217639
1869.000000	21.562715
1868.000000	21.880621
1867.000000	22.129095
1866.000000	22.352024
1865.000000	22.542094
1864.000000	22.730075
1863.000000	22.915965
1862.000000	23.046472
1861.000000	23.209837
1860.000000	23.351838
1859.000000	23.468992
1858.000000	23.579876
1857.000000	23.675898
1856.000000	23.771108
1855.000000	23.818829
1854.000000	23.845185
1853.000000	23.900221
1852.000000	23.930990
1851.000000	23.935170
1850.000000	23.963036
1849.000000	23.963965
1848.000000	23.949567
1847.000000	23.947826
1846.000000	23.902659
1845.000000	23.860860
1844.000000	23.857841
1843.000000	23.830440
1842.000000	23.857145
1841.000000	23.877580
1840.000000	23.834387
1839.000000	23.808495
1838.000000	23.766812
1837.000000	23.715724
1836.000000	23.688322
1835.000000	23.646058
1834.000000	23.610065
1833.000000	23.546901
1832.000000	23.494304
1831.000000	23.474217
1830.000000	23.420343
1829.000000	23.347426
1828.000000	23.281128
1827.000000	23.205309
1826.000000	23.138198
1825.000000	23.094541
1824.000000	23.046472
1823.000000	23.013613
1822.000000	23.015819
1821.000000	22.991784
1820.000000	22.950450
1819.000000	22.920610
1818.000000	22.870102
1817.000000	22.836895
1816.000000	22.828419
1815.000000	22.827258
1814.000000	22.824123
1813.000000	22.803572
1812.000000	22.788710
1811.000000	22.761308
1810.000000	22.727985
1809.000000	22.684560
1808.000000	22.663196
1807.000000	22.644502
1806.000000	22.593066
1805.000000	22.537450
1804.000000	22.484969
1803.000000	22.453503
1802.000000	22.409962
1801.000000	22.346683
1800.000000	22.297917
1799.000000	22.245436
1798.000000	22.189936
1797.000000	22.141286
1796.000000	22.097861
1795.000000	22.041781
1794.000000	21.994873
1793.000000	21.962594
1792.000000	21.906746
1791.000000	21.838938
1790.000000	21.790521
1789.000000	21.733395
1788.000000	21.680450
1787.000000	21.639231
1786.000000	21.574674
1785.000000	21.507563
1784.000000	21.431744
1783.000000	21.366375
1782.000000	21.306579
1781.000000	21.228553
1780.000000	21.159933
1779.000000	21.086552
1778.000000	21.012475
1777.000000	20.934798
1776.000000	20.853754
1775.000000	20.764814
1774.000000	20.672972
1773.000000	20.577066
1772.000000	20.463860
1771.000000	20.363309
1770.000000	20.277156
1769.000000	20.162557
1768.000000	20.050279
1767.000000	19.958437
1766.000000	19.858816
1765.000000	19.790311
1764.000000	19.748396
1763.000000	19.708571
1762.000000	19.709151
1761.000000	19.725290
1760.000000	19.758730
1759.000000	19.818410
1758.000000	19.878090
1757.000000	19.942879
1756.000000	19.992457
1755.000000	20.058871
1754.000000	20.106941
1753.000000	20.139451
1752.000000	20.163370
1751.000000	20.156287
1750.000000	20.143283
1749.000000	20.134342
1748.000000	20.090453
1747.000000	20.052137
1746.000000	19.980498
1745.000000	19.900731
1744.000000	19.800645
1743.000000	19.676757
1742.000000	19.525235
1741.000000	19.351884
1740.000000	19.178185
1739.000000	18.993688
1738.000000	18.789684
1737.000000	18.608090
1736.000000	18.466088
1735.000000	18.338601
1734.000000	18.255583
1733.000000	18.197877
1732.000000	18.199386
1731.000000	18.221911
1730.000000	18.283101
1729.000000	18.375988
1728.000000	18.441938
1727.000000	18.548758
1726.000000	18.645941
1725.000000	18.735577
1724.000000	18.813254
1723.000000	18.870728
1722.000000	18.903239
1721.000000	18.944109
1720.000000	19.002396
1719.000000	19.025734
1718.000000	19.064979
1717.000000	19.111771
1716.000000	19.173424
1715.000000	19.272233
1714.000000	19.342595
1713.000000	19.413073
1712.000000	19.476701
1711.000000	19.540793
1710.000000	19.588282
1709.000000	19.609994
1708.000000	19.612316
1707.000000	19.595248
1706.000000	19.570865
1705.000000	19.539632
1704.000000	19.500619
1703.000000	19.427819
1702.000000	19.338299
1701.000000	19.246805
1700.000000	19.129419
1699.000000	19.001583
1698.000000	18.864807
1697.000000	18.727566
1696.000000	18.620862
1695.000000	18.576276
1694.000000	18.556886
1693.000000	18.603678
1692.000000	18.692849
1691.000000	18.820918
1690.000000	18.967679
1689.000000	19.107474
1688.000000	19.218591
1687.000000	19.283728
1686.000000	19.340157
1685.000000	19.367675
1684.000000	19.441288
1683.000000	19.543696
1682.000000	19.776959
1681.000000	20.088247
1680.000000	20.465717
1679.000000	20.957439
1678.000000	21.403297
1677.000000	21.904192
1676.000000	22.363751
1675.000000	22.784181
1674.000000	23.144352
1673.000000	23.469689
1672.000000	23.764606
1671.000000	24.016214
1670.000000	24.257372
1669.000000	24.456964
1668.000000	24.605699
1667.000000	24.745494
1666.000000	24.872285
1665.000000	24.986885
1664.000000	25.095563
1663.000000	25.191585
1662.000000	25.258696
1661.000000	25.320466
1660.000000	25.412889
1659.000000	25.445980
1658.000000	25.525631
1657.000000	25.549781
1656.000000	25.547227
1655.000000	25.554542
1654.000000	25.559186
1653.000000	25.571842
1652.000000	25.552336
1651.000000	25.534339
1650.000000	25.483483
1649.000000	25.460726
1648.000000	25.453991
1647.000000	25.383513
1646.000000	25.363542
1645.000000	25.305720
1644.000000	25.240815
1643.000000	25.197391
1642.000000	25.126796
1641.000000	25.090803
1640.000000	25.021834
1639.000000	24.952633
1638.000000	24.893766
1637.000000	24.833041
1636.000000	24.781720
1635.000000	24.680357
1634.000000	24.629037
1633.000000	24.551244
1632.000000	24.466252
1631.000000	24.395310
1630.000000	24.313337
1629.000000	24.231132
1628.000000	24.168084
1627.000000	24.058361
1626.000000	23.982078
1625.000000	23.900221
1624.000000	23.813023
1623.000000	23.722226
1622.000000	23.660572
1621.000000	23.575232
1620.000000	23.502548
1619.000000	23.435669
1618.000000	23.355670
1617.000000	23.266730
1616.000000	23.189750
1615.000000	23.123684
1614.000000	23.036835
1613.000000	22.973671
1612.000000	22.904470
1611.000000	22.840959
1610.000000	22.745749
1609.000000	22.695590
1608.000000	22.619887
1607.000000	22.551267
1606.000000	22.464533
1605.000000	22.406247
1604.000000	22.324390
1603.000000	22.236728
1602.000000	22.169501
1601.000000	22.100183
1600.000000	22.032028
1599.000000	21.936934
1598.000000	21.868546
1597.000000	21.816065
1596.000000	21.745819
1595.000000	21.681146
1594.000000	21.620189
1593.000000	21.545415
1592.000000	21.498739
1591.000000	21.436505
1590.000000	21.377289
1589.000000	21.311223
