PE UV       SUBTECH     SPECTRUM    ASCII       PEDS        4.00        
   -1
CICIMAUCR0236-1.ASC
24/06/17
17:11:16.00
24/06/17
17:11:16.00
Vinicio Soto Monge
C. resplendens. Sex M. Dorsal.
250,000000
1
Lambda 1050
1050L1511233
PerkinElmer UV WinLab 6.3.2.0749 / 2.02.05 Lambda 900 UV/VIS/NIR, Aug  7 2015 09:38:08

0
0
3350/servo 860,8/2
0
0
UV/VIS
1
1
1
DoubleDePol,CommonBeamDepol,RBeamAtt,SBeamAtt,60mm sphere, WB InGaAs Detector
0
0
0
0
Program
Program
3350/servo 860,8/2
3350/0,2 860,8/0,2
3350/0,2 860,8/0,2
0
15.00
 
 
 
0
 
860,8
319,2
860,8
Front
100
on
S:100 R:100
0
0
0
0
 
0
 
 
 
0
 
 
0
0
0
0
0
 
 
 
 
0
0


0
0
#HDR
-1
-1
#GR
nm
%R
1.0
0.0
2500,000000
-1,000000
2251
8
90,811700
5,409700
#DATA
2482.000000	9.473385
2481.000000	9.423950
2480.000000	9.446152
2479.000000	9.446808
2478.000000	9.483338
2477.000000	9.462558
2476.000000	9.488260
2475.000000	9.508056
2474.000000	9.518446
2473.000000	9.547320
2472.000000	9.580241
2471.000000	9.536164
2470.000000	9.550929
2469.000000	9.584178
2468.000000	9.570288
2467.000000	9.608677
2466.000000	9.630551
2465.000000	9.670144
2464.000000	9.682503
2463.000000	9.757094
2462.000000	9.785530
2461.000000	9.815170
2460.000000	9.841200
2459.000000	9.852574
2458.000000	9.926181
2457.000000	10.008756
2456.000000	10.062020
2455.000000	10.113971
2454.000000	10.174672
2453.000000	10.251778
2452.000000	10.330088
2451.000000	10.386633
2450.000000	10.425460
2449.000000	10.528487
2448.000000	10.582297
2447.000000	10.658529
2446.000000	10.756744
2445.000000	10.814164
2444.000000	10.909645
2443.000000	10.987408
2442.000000	11.047343
2441.000000	11.106950
2440.000000	11.188869
2439.000000	11.286428
2438.000000	11.364191
2437.000000	11.439985
2436.000000	11.523982
2435.000000	11.576698
2434.000000	11.642868
2433.000000	11.712646
2432.000000	11.789425
2431.000000	11.858219
2430.000000	11.922529
2429.000000	11.970762
2428.000000	12.059134
2427.000000	12.112179
2426.000000	12.147724
2425.000000	12.212691
2424.000000	12.271423
2423.000000	12.299750
2422.000000	12.366685
2421.000000	12.431104
2420.000000	12.473322
2419.000000	12.526257
2418.000000	12.567818
2417.000000	12.616488
2416.000000	12.661986
2415.000000	12.689548
2414.000000	12.725968
2413.000000	12.775076
2412.000000	12.819371
2411.000000	12.865745
2410.000000	12.905337
2409.000000	12.936070
2408.000000	12.973147
2407.000000	13.008146
2406.000000	13.028379
2405.000000	13.065128
2404.000000	13.114673
2403.000000	13.150984
2402.000000	13.184780
2401.000000	13.244824
2400.000000	13.290323
2399.000000	13.345664
2398.000000	13.387335
2397.000000	13.439395
2396.000000	13.486644
2395.000000	13.522955
2394.000000	13.559375
2393.000000	13.606842
2392.000000	13.629701
2391.000000	13.662950
2390.000000	13.710635
2389.000000	13.744868
2388.000000	13.773305
2387.000000	13.801085
2386.000000	13.823506
2385.000000	13.845271
2384.000000	13.851177
2383.000000	13.871957
2382.000000	13.911550
2381.000000	13.925331
2380.000000	13.952783
2379.000000	13.959564
2378.000000	13.961970
2377.000000	13.963610
2376.000000	13.960548
2375.000000	13.971813
2374.000000	13.972907
2373.000000	13.962298
2372.000000	13.951142
2371.000000	13.953329
2370.000000	13.948408
2369.000000	13.935721
2368.000000	13.926752
2367.000000	13.921393
2366.000000	13.912972
2365.000000	13.893394
2364.000000	13.861786
2363.000000	13.829850
2362.000000	13.810163
2361.000000	13.782930
2360.000000	13.739181
2359.000000	13.701229
2358.000000	13.662184
2357.000000	13.628060
2356.000000	13.597327
2355.000000	13.576218
2354.000000	13.565500
2353.000000	13.547673
2352.000000	13.528533
2351.000000	13.519674
2350.000000	13.521752
2349.000000	13.539360
2348.000000	13.566266
2347.000000	13.580484
2346.000000	13.611764
2345.000000	13.661309
2344.000000	13.692370
2343.000000	13.742462
2342.000000	13.795945
2341.000000	13.848990
2340.000000	13.889785
2339.000000	13.944252
2338.000000	13.980563
2337.000000	14.015233
2336.000000	14.048592
2335.000000	14.045748
2334.000000	14.080309
2333.000000	14.097590
2332.000000	14.102293
2331.000000	14.100871
2330.000000	14.088731
2329.000000	14.079325
2328.000000	14.062044
2327.000000	14.035030
2326.000000	13.980453
2325.000000	13.937471
2324.000000	13.908597
2323.000000	13.867583
2322.000000	13.811803
2321.000000	13.730213
2320.000000	13.677605
2319.000000	13.574468
2318.000000	13.478659
2317.000000	13.393678
2316.000000	13.309353
2315.000000	13.190358
2314.000000	13.087768
2313.000000	12.994474
2312.000000	12.887619
2311.000000	12.793232
2310.000000	12.705735
2309.000000	12.623597
2308.000000	12.537522
2307.000000	12.490493
2306.000000	12.463150
2305.000000	12.426730
2304.000000	12.414917
2303.000000	12.408246
2302.000000	12.434714
2301.000000	12.481634
2300.000000	12.554803
2299.000000	12.608067
2298.000000	12.687689
2297.000000	12.779998
2296.000000	12.864323
2295.000000	12.982225
2294.000000	13.067643
2293.000000	13.141688
2292.000000	13.252808
2291.000000	13.334290
2290.000000	13.404943
2289.000000	13.428677
2288.000000	13.505783
2287.000000	13.522189
2286.000000	13.549204
2285.000000	13.576547
2284.000000	13.577093
2283.000000	13.558828
2282.000000	13.525580
2281.000000	13.483691
2280.000000	13.448473
2279.000000	13.402209
2278.000000	13.350149
2277.000000	13.308041
2276.000000	13.248652
2275.000000	13.181608
2274.000000	13.148140
2273.000000	13.092799
2272.000000	13.066440
2271.000000	13.041285
2270.000000	13.033192
2269.000000	13.040301
2268.000000	13.072784
2267.000000	13.086565
2266.000000	13.159406
2265.000000	13.269542
2264.000000	13.380116
2263.000000	13.504143
2262.000000	13.652231
2261.000000	13.843740
2260.000000	14.049029
2259.000000	14.251584
2258.000000	14.489029
2257.000000	14.742988
2256.000000	14.983057
2255.000000	15.218423
2254.000000	15.482117
2253.000000	15.731264
2252.000000	16.000863
2251.000000	16.241261
2250.000000	16.459784
2249.000000	16.684104
2248.000000	16.889503
2247.000000	17.109119
2246.000000	17.274598
2245.000000	17.435264
2244.000000	17.621522
2243.000000	17.755174
2242.000000	17.900418
2241.000000	18.009571
2240.000000	18.106036
2239.000000	18.220766
2238.000000	18.293060
2237.000000	18.400791
2236.000000	18.465757
2235.000000	18.541004
2234.000000	18.601924
2233.000000	18.640750
2232.000000	18.703967
2231.000000	18.740825
2230.000000	18.748700
2229.000000	18.787526
2228.000000	18.811588
2227.000000	18.806010
2226.000000	18.811150
2225.000000	18.833900
2224.000000	18.817603
2223.000000	18.754496
2222.000000	18.773527
2221.000000	18.729669
2220.000000	18.688217
2219.000000	18.675530
2218.000000	18.656828
2217.000000	18.595143
2216.000000	18.559597
2215.000000	18.505787
2214.000000	18.485444
2213.000000	18.470679
2212.000000	18.436992
2211.000000	18.384604
2210.000000	18.358027
2209.000000	18.312091
2208.000000	18.284967
2207.000000	18.247671
2206.000000	18.252155
2205.000000	18.198236
2204.000000	18.173736
2203.000000	18.158862
2202.000000	18.121129
2201.000000	18.109973
2200.000000	18.112707
2199.000000	18.091161
2198.000000	18.070928
2197.000000	18.044679
2196.000000	18.027398
2195.000000	18.026086
2194.000000	18.028492
2193.000000	18.011758
2192.000000	17.987150
2191.000000	17.985618
2190.000000	17.976103
2189.000000	17.935308
2188.000000	17.926230
2187.000000	17.907746
2186.000000	17.900747
2185.000000	17.871216
2184.000000	17.857545
2183.000000	17.846061
2182.000000	17.826156
2181.000000	17.821890
2180.000000	17.788641
2179.000000	17.782298
2178.000000	17.778032
2177.000000	17.732753
2176.000000	17.725097
2175.000000	17.700816
2174.000000	17.717878
2173.000000	17.698738
2172.000000	17.686270
2171.000000	17.693270
2170.000000	17.718644
2169.000000	17.700488
2168.000000	17.696442
2167.000000	17.714597
2166.000000	17.715035
2165.000000	17.728159
2164.000000	17.744346
2163.000000	17.771470
2162.000000	17.769829
2161.000000	17.806469
2160.000000	17.824187
2159.000000	17.843655
2158.000000	17.886747
2157.000000	17.921199
2156.000000	17.951057
2155.000000	17.986712
2154.000000	18.025101
2153.000000	18.069397
2152.000000	18.113254
2151.000000	18.140597
2150.000000	18.217594
2149.000000	18.262546
2148.000000	18.288357
2147.000000	18.345230
2146.000000	18.398166
2145.000000	18.440164
2144.000000	18.467944
2143.000000	18.493537
2142.000000	18.531489
2141.000000	18.583987
2140.000000	18.635282
2139.000000	18.645344
2138.000000	18.668421
2137.000000	18.708889
2136.000000	18.745637
2135.000000	18.774074
2134.000000	18.789167
2133.000000	18.814869
2132.000000	18.837181
2131.000000	18.864852
2130.000000	18.867477
2129.000000	18.876226
2128.000000	18.896132
2127.000000	18.906522
2126.000000	18.907725
2125.000000	18.913959
2124.000000	18.901600
2123.000000	18.900178
2122.000000	18.893944
2121.000000	18.878742
2120.000000	18.871851
2119.000000	18.857633
2118.000000	18.851946
2117.000000	18.834446
2116.000000	18.808635
2115.000000	18.790479
2114.000000	18.771011
2113.000000	18.752746
2112.000000	18.736778
2111.000000	18.700139
2110.000000	18.666781
2109.000000	18.639876
2108.000000	18.611439
2107.000000	18.596346
2106.000000	18.572066
2105.000000	18.544176
2104.000000	18.513880
2103.000000	18.484131
2102.000000	18.452961
2101.000000	18.418618
2100.000000	18.391713
2099.000000	18.361745
2098.000000	18.313294
2097.000000	18.282232
2096.000000	18.263968
2095.000000	18.245812
2094.000000	18.226672
2093.000000	18.212563
2092.000000	18.191892
2091.000000	18.165643
2090.000000	18.132285
2089.000000	18.107130
2088.000000	18.089958
2087.000000	18.064147
2086.000000	18.036585
2085.000000	18.013727
2084.000000	17.977197
2083.000000	17.933120
2082.000000	17.918355
2081.000000	17.892981
2080.000000	17.842342
2079.000000	17.793672
2078.000000	17.751565
2077.000000	17.715144
2076.000000	17.665052
2075.000000	17.613976
2074.000000	17.565853
2073.000000	17.527135
2072.000000	17.469387
2071.000000	17.397968
2070.000000	17.344158
2069.000000	17.297347
2068.000000	17.244849
2067.000000	17.174523
2066.000000	17.104963
2065.000000	17.049184
2064.000000	17.009264
2063.000000	16.945391
2062.000000	16.865113
2061.000000	16.810537
2060.000000	16.776304
2059.000000	16.746664
2058.000000	16.709587
2057.000000	16.670651
2056.000000	16.643090
2055.000000	16.629200
2054.000000	16.633465
2053.000000	16.637184
2052.000000	16.646590
2051.000000	16.669229
2050.000000	16.687604
2049.000000	16.726102
2048.000000	16.772804
2047.000000	16.822677
2046.000000	16.882722
2045.000000	16.934563
2044.000000	16.990233
2043.000000	17.051372
2042.000000	17.120932
2041.000000	17.195304
2040.000000	17.251083
2039.000000	17.301831
2038.000000	17.359251
2037.000000	17.427061
2036.000000	17.484152
2035.000000	17.546713
2034.000000	17.588821
2033.000000	17.611023
2032.000000	17.653677
2031.000000	17.687692
2030.000000	17.697098
2029.000000	17.707488
2028.000000	17.719300
2027.000000	17.729143
2026.000000	17.768189
2025.000000	17.773220
2024.000000	17.755611
2023.000000	17.762830
2022.000000	17.779017
2021.000000	17.771798
2020.000000	17.765783
2019.000000	17.751893
2018.000000	17.735268
2017.000000	17.716456
2016.000000	17.693051
2015.000000	17.686270
2014.000000	17.664177
2013.000000	17.641975
2012.000000	17.601070
2011.000000	17.579415
2010.000000	17.546056
2009.000000	17.495418
2008.000000	17.445435
2007.000000	17.396546
2006.000000	17.358813
2005.000000	17.297347
2004.000000	17.234459
2003.000000	17.177148
2002.000000	17.110760
2001.000000	17.053996
2000.000000	16.978640
1999.000000	16.921329
1998.000000	16.841817
1997.000000	16.777944
1996.000000	16.669667
1995.000000	16.607435
1994.000000	16.524969
1993.000000	16.440972
1992.000000	16.355335
1991.000000	16.270572
1990.000000	16.178482
1989.000000	16.082673
1988.000000	16.013441
1987.000000	15.901117
1986.000000	15.783653
1985.000000	15.677782
1984.000000	15.587551
1983.000000	15.495351
1982.000000	15.419119
1981.000000	15.319154
1980.000000	15.206502
1979.000000	15.128739
1978.000000	15.010400
1977.000000	14.911857
1976.000000	14.828297
1975.000000	14.720129
1974.000000	14.610212
1973.000000	14.517465
1972.000000	14.416625
1971.000000	14.323878
1970.000000	14.228944
1969.000000	14.137948
1968.000000	14.027046
1967.000000	13.925768
1966.000000	13.849318
1965.000000	13.755477
1964.000000	13.676840
1963.000000	13.580265
1962.000000	13.483800
1961.000000	13.397287
1960.000000	13.293276
1959.000000	13.215732
1958.000000	13.136219
1957.000000	13.038769
1956.000000	12.991631
1955.000000	12.896259
1954.000000	12.804934
1953.000000	12.730015
1952.000000	12.663408
1951.000000	12.549116
1950.000000	12.511820
1949.000000	12.420058
1948.000000	12.366575
1947.000000	12.299094
1946.000000	12.232924
1945.000000	12.164895
1944.000000	12.135037
1943.000000	12.059134
1942.000000	12.015823
1941.000000	11.990121
1940.000000	11.966606
1939.000000	11.968137
1938.000000	11.923404
1937.000000	11.929310
1936.000000	11.884468
1935.000000	11.890265
1934.000000	11.918701
1933.000000	11.940904
1932.000000	11.970543
1931.000000	12.025229
1930.000000	12.032666
1929.000000	12.089758
1928.000000	12.114147
1927.000000	12.235002
1926.000000	12.270438
1925.000000	12.360560
1924.000000	12.443791
1923.000000	12.555022
1922.000000	12.647878
1921.000000	12.777701
1920.000000	12.923164
1919.000000	13.060097
1918.000000	13.191233
1917.000000	13.343914
1916.000000	13.524814
1915.000000	13.688870
1914.000000	13.867473
1913.000000	14.083153
1912.000000	14.297848
1911.000000	14.508934
1910.000000	14.719583
1909.000000	14.940184
1908.000000	15.158816
1907.000000	15.419557
1906.000000	15.673844
1905.000000	15.948912
1904.000000	16.258432
1903.000000	16.556030
1902.000000	16.854394
1901.000000	17.179226
1900.000000	17.500011
1899.000000	17.879747
1898.000000	18.285404
1897.000000	18.665140
1896.000000	19.023658
1895.000000	19.402301
1894.000000	19.789693
1893.000000	20.199068
1892.000000	20.628021
1891.000000	21.104660
1890.000000	21.604922
1889.000000	22.097420
1888.000000	22.547153
1887.000000	23.057150
1886.000000	23.561897
1885.000000	24.091034
1884.000000	24.622686
1883.000000	25.226523
1882.000000	25.773269
1881.000000	26.287531
1880.000000	26.824215
1879.000000	27.323055
1878.000000	27.821568
1877.000000	28.299191
1876.000000	28.754503
1875.000000	29.207955
1874.000000	29.662282
1873.000000	30.084454
1872.000000	30.508813
1871.000000	30.916767
1870.000000	31.281628
1869.000000	31.605585
1868.000000	31.955244
1867.000000	32.231953
1866.000000	32.467757
1865.000000	32.662765
1864.000000	32.874070
1863.000000	33.042720
1862.000000	33.188839
1861.000000	33.374114
1860.000000	33.572513
1859.000000	33.732085
1858.000000	33.871424
1857.000000	34.000153
1856.000000	34.098587
1855.000000	34.159507
1854.000000	34.253456
1853.000000	34.357468
1852.000000	34.382077
1851.000000	34.425716
1850.000000	34.481167
1849.000000	34.517915
1848.000000	34.567132
1847.000000	34.613068
1846.000000	34.650254
1845.000000	34.643254
1844.000000	34.601803
1843.000000	34.579929
1842.000000	34.596444
1841.000000	34.644129
1840.000000	34.676394
1839.000000	34.680003
1838.000000	34.657473
1837.000000	34.643036
1836.000000	34.614927
1835.000000	34.610771
1834.000000	34.582554
1833.000000	34.535633
1832.000000	34.478870
1831.000000	34.439278
1830.000000	34.413685
1829.000000	34.383717
1828.000000	34.341062
1827.000000	34.277190
1826.000000	34.220973
1825.000000	34.188818
1824.000000	34.143101
1823.000000	34.096072
1822.000000	34.078900
1821.000000	34.072666
1820.000000	34.085463
1819.000000	34.070697
1818.000000	34.014809
1817.000000	33.960670
1816.000000	33.932124
1815.000000	33.929390
1814.000000	33.918344
1813.000000	33.896032
1812.000000	33.877111
1811.000000	33.837409
1810.000000	33.810395
1809.000000	33.778677
1808.000000	33.741491
1807.000000	33.722460
1806.000000	33.692602
1805.000000	33.638463
1804.000000	33.579512
1803.000000	33.537405
1802.000000	33.502843
1801.000000	33.467079
1800.000000	33.432737
1799.000000	33.400910
1798.000000	33.349396
1797.000000	33.288804
1796.000000	33.247025
1795.000000	33.210823
1794.000000	33.172652
1793.000000	33.115561
1792.000000	33.061750
1791.000000	33.030798
1790.000000	33.004221
1789.000000	32.968457
1788.000000	32.923833
1787.000000	32.886210
1786.000000	32.837430
1785.000000	32.796198
1784.000000	32.756824
1783.000000	32.712857
1782.000000	32.669983
1781.000000	32.615189
1780.000000	32.568925
1779.000000	32.529223
1778.000000	32.481756
1777.000000	32.422039
1776.000000	32.354886
1775.000000	32.313215
1774.000000	32.259733
1773.000000	32.193782
1772.000000	32.125425
1771.000000	32.056959
1770.000000	31.979306
1769.000000	31.910730
1768.000000	31.850139
1767.000000	31.767782
1766.000000	31.704894
1765.000000	31.659614
1764.000000	31.622319
1763.000000	31.593664
1762.000000	31.573102
1761.000000	31.584914
1760.000000	31.603179
1759.000000	31.626256
1758.000000	31.688270
1757.000000	31.750392
1756.000000	31.804422
1755.000000	31.861513
1754.000000	31.931948
1753.000000	31.980509
1752.000000	32.002930
1751.000000	32.027429
1750.000000	32.047335
1749.000000	32.043725
1748.000000	32.050178
1747.000000	32.037491
1746.000000	32.016820
1745.000000	31.979743
1744.000000	31.927136
1743.000000	31.848170
1742.000000	31.766032
1741.000000	31.661364
1740.000000	31.553743
1739.000000	31.420858
1738.000000	31.288628
1737.000000	31.164383
1736.000000	31.038715
1735.000000	30.929673
1734.000000	30.848738
1733.000000	30.779725
1732.000000	30.754898
1731.000000	30.738601
1730.000000	30.756538
1729.000000	30.810458
1728.000000	30.884065
1727.000000	30.958984
1726.000000	31.040575
1725.000000	31.114400
1724.000000	31.175101
1723.000000	31.249801
1722.000000	31.312471
1721.000000	31.372406
1720.000000	31.435295
1719.000000	31.508792
1718.000000	31.560087
1717.000000	31.632709
1716.000000	31.718675
1715.000000	31.784079
1714.000000	31.859107
1713.000000	31.967166
1712.000000	32.043507
1711.000000	32.108473
1710.000000	32.178689
1709.000000	32.231187
1708.000000	32.257874
1707.000000	32.260061
1706.000000	32.258092
1705.000000	32.243218
1704.000000	32.234468
1703.000000	32.186673
1702.000000	32.115910
1701.000000	32.049084
1700.000000	31.956119
1699.000000	31.859982
1698.000000	31.775438
1697.000000	31.651958
1696.000000	31.553415
1695.000000	31.480684
1694.000000	31.450825
1693.000000	31.422279
1692.000000	31.448091
1691.000000	31.520057
1690.000000	31.654911
1689.000000	31.712659
1688.000000	31.804312
1687.000000	31.899027
1686.000000	31.978868
1685.000000	32.030163
1684.000000	32.076208
1683.000000	32.182517
1682.000000	32.297575
1681.000000	32.487443
1680.000000	32.730356
1679.000000	33.048407
1678.000000	33.377176
1677.000000	33.728476
1676.000000	34.085900
1675.000000	34.419700
1674.000000	34.715111
1673.000000	34.957259
1672.000000	35.195140
1671.000000	35.393977
1670.000000	35.572580
1669.000000	35.759823
1668.000000	35.876412
1667.000000	35.997705
1666.000000	36.093623
1665.000000	36.172589
1664.000000	36.266648
1663.000000	36.319583
1662.000000	36.377331
1661.000000	36.429064
1660.000000	36.479702
1659.000000	36.506280
1658.000000	36.542044
1657.000000	36.562387
1656.000000	36.564793
1655.000000	36.592136
1654.000000	36.596620
1653.000000	36.576714
1652.000000	36.565559
1651.000000	36.560856
1650.000000	36.530232
1649.000000	36.504092
1648.000000	36.488780
1647.000000	36.440548
1646.000000	36.407846
1645.000000	36.394393
1644.000000	36.347145
1643.000000	36.273976
1642.000000	36.245320
1641.000000	36.190197
1640.000000	36.164277
1639.000000	36.120200
1638.000000	36.072405
1637.000000	36.017938
1636.000000	35.984471
1635.000000	35.914254
1634.000000	35.852132
1633.000000	35.817680
1632.000000	35.762885
1631.000000	35.680419
1630.000000	35.623765
1629.000000	35.555408
1628.000000	35.498098
1627.000000	35.423726
1626.000000	35.369259
1625.000000	35.291824
1624.000000	35.231123
1623.000000	35.197218
1622.000000	35.136080
1621.000000	35.063567
1620.000000	35.001663
1619.000000	34.944571
1618.000000	34.887808
1617.000000	34.817264
1616.000000	34.769469
1615.000000	34.723861
1614.000000	34.669722
1613.000000	34.617552
1612.000000	34.568335
1611.000000	34.510478
1610.000000	34.435012
1609.000000	34.379124
1608.000000	34.339750
1607.000000	34.289767
1606.000000	34.249300
