PE UV       SUBTECH     SPECTRUM    ASCII       PEDS        4.00        
   -1
INBUCR0143-4.Sample.ASC
24/04/29
16:11:28.00
24/04/29
16:11:28.00
Vinicio Soto Monge
C. kalinini
250,000000
1
Lambda 1050
1050L1511233
PerkinElmer UV WinLab 6.3.2.0749 / 2.02.05 Lambda 900 UV/VIS/NIR, Aug  7 2015 09:38:08

0
0
3350/servo 860,8/2
0
0
UV/VIS
1
1
1
DoubleDePol,CommonBeamDepol,RBeamAtt,SBeamAtt,60mm sphere, WB InGaAs Detector
0
0
0
0
Program
Program
3350/servo 860,8/2
3350/0,2 860,8/0,2
3350/0,2 860,8/0,2
0
15.00
 
 
 
0
 
860,8
319,2
860,8
Front
100
on
S:100 R:100
0
0
0
0
 
0
 
 
 
0
 
 
0
0
0
0
0
 
 
 
 
0
0


0
0
#HDR
-1
-1
#GR
nm
%R
1.0
0.0
2500,000000
-1,000000
2251
8
91,524600
5,274700
#DATA
250.000000	0.620807
251.000000	0.592828
252.000000	0.618101
253.000000	0.587199
254.000000	0.610032
255.000000	0.604927
256.000000	0.593979
257.000000	0.578589
258.000000	0.553009
259.000000	0.543374
260.000000	0.545875
261.000000	0.579553
262.000000	0.587998
263.000000	0.547451
264.000000	0.519030
265.000000	0.582860
266.000000	0.577369
267.000000	0.528465
268.000000	0.601403
269.000000	0.555338
270.000000	0.567440
271.000000	0.554959
272.000000	0.554210
273.000000	0.614047
274.000000	0.603716
275.000000	0.606739
276.000000	0.532339
277.000000	0.565599
278.000000	0.550596
279.000000	0.550140
280.000000	0.555376
281.000000	0.581754
282.000000	0.567488
283.000000	0.567799
284.000000	0.559021
285.000000	0.581586
286.000000	0.574050
287.000000	0.588549
288.000000	0.609132
289.000000	0.576688
290.000000	0.548049
291.000000	0.551120
292.000000	0.576208
293.000000	0.586690
294.000000	0.591182
295.000000	0.557656
296.000000	0.526119
297.000000	0.595319
298.000000	0.576362
299.000000	0.560008
300.000000	0.566273
301.000000	0.601901
302.000000	0.535907
303.000000	0.528416
304.000000	0.479171
305.000000	0.561514
306.000000	0.580368
307.000000	0.612918
308.000000	0.533902
309.000000	0.550557
310.000000	0.530771
311.000000	0.539458
312.000000	0.530500
313.000000	0.557671
314.000000	0.541763
315.000000	0.555313
316.000000	0.302435
317.000000	6.800641
318.000000	5.996682
319.000000	4.581238
320.000000	3.023430
321.000000	1.518946
322.000000	0.641482
323.000000	0.376728
324.000000	0.137036
325.000000	0.535515
326.000000	0.331778
327.000000	0.189702
328.000000	0.059700
329.000000	0.548680
330.000000	0.706307
331.000000	0.363565
332.000000	0.269134
333.000000	0.211943
334.000000	0.182298
335.000000	0.170509
336.000000	0.181407
337.000000	0.216937
338.000000	0.119143
339.000000	0.377702
340.000000	0.344289
341.000000	0.373716
342.000000	0.621798
343.000000	0.167092
344.000000	0.251570
345.000000	0.336934
346.000000	0.261447
347.000000	0.409328
348.000000	0.349916
349.000000	0.427739
350.000000	0.377505
351.000000	0.405766
352.000000	0.481637
353.000000	0.378721
354.000000	0.486041
355.000000	0.428462
356.000000	0.384487
357.000000	0.436482
358.000000	0.511410
359.000000	0.469269
360.000000	0.442900
361.000000	0.517197
362.000000	0.589955
363.000000	0.536650
364.000000	0.555624
365.000000	0.446872
366.000000	0.529052
367.000000	0.503575
368.000000	0.586206
369.000000	0.589359
370.000000	0.617839
371.000000	0.724696
372.000000	0.836514
373.000000	0.815138
374.000000	0.883578
375.000000	0.850312
376.000000	0.683401
377.000000	0.593732
378.000000	0.614637
379.000000	0.618910
380.000000	0.618957
381.000000	0.632632
382.000000	0.654455
383.000000	0.667898
384.000000	0.686731
385.000000	0.705308
386.000000	0.714791
387.000000	0.723524
388.000000	0.756169
389.000000	0.786209
390.000000	0.812614
391.000000	0.839575
392.000000	0.871666
393.000000	0.903547
394.000000	0.925851
395.000000	0.959869
396.000000	0.998471
397.000000	1.038671
398.000000	1.079611
399.000000	1.123678
400.000000	1.166051
401.000000	1.213628
402.000000	1.276089
403.000000	1.335554
404.000000	1.388472
405.000000	1.431733
406.000000	1.482026
407.000000	1.543710
408.000000	1.603726
409.000000	1.672858
410.000000	1.726119
411.000000	1.791905
412.000000	1.851997
413.000000	1.904241
414.000000	1.976960
415.000000	2.037918
416.000000	2.092367
417.000000	2.145510
418.000000	2.202612
419.000000	2.272248
420.000000	2.328832
421.000000	2.376461
422.000000	2.435097
423.000000	2.488506
424.000000	2.537833
425.000000	2.590092
426.000000	2.626057
427.000000	2.672231
428.000000	2.719065
429.000000	2.757953
430.000000	2.795470
431.000000	2.831715
432.000000	2.867853
433.000000	2.894468
434.000000	2.931641
435.000000	2.980182
436.000000	2.999508
437.000000	3.024909
438.000000	3.056446
439.000000	3.091848
440.000000	3.118952
441.000000	3.128932
442.000000	3.149391
443.000000	3.169581
444.000000	3.175658
445.000000	3.187940
446.000000	3.206932
447.000000	3.224547
448.000000	3.240675
449.000000	3.247807
450.000000	3.245821
451.000000	3.245938
452.000000	3.237933
453.000000	3.231654
454.000000	3.230441
455.000000	3.226732
456.000000	3.209592
457.000000	3.186142
458.000000	3.163805
459.000000	3.137964
460.000000	3.126268
461.000000	3.112761
462.000000	3.086823
463.000000	3.055290
464.000000	3.030337
465.000000	3.007660
466.000000	2.984390
467.000000	2.963343
468.000000	2.938224
469.000000	2.921455
470.000000	2.918576
471.000000	2.918872
472.000000	2.937768
473.000000	2.952062
474.000000	2.954550
475.000000	2.990179
476.000000	3.030104
477.000000	3.073933
478.000000	3.134919
479.000000	3.204169
480.000000	3.288168
481.000000	3.371127
482.000000	3.449482
483.000000	3.545883
484.000000	3.654515
485.000000	3.773792
486.000000	3.901773
487.000000	4.034940
488.000000	4.168955
489.000000	4.312441
490.000000	4.454362
491.000000	4.599725
492.000000	4.757408
493.000000	4.905240
494.000000	5.073063
495.000000	5.243127
496.000000	5.402333
497.000000	5.557933
498.000000	5.725876
499.000000	5.894439
500.000000	6.061193
501.000000	6.229725
502.000000	6.402957
503.000000	6.583685
504.000000	6.767075
505.000000	6.953892
506.000000	7.142869
507.000000	7.330453
508.000000	7.522982
509.000000	7.711064
510.000000	7.903779
511.000000	8.106055
512.000000	8.298060
513.000000	8.470542
514.000000	8.653415
515.000000	8.823912
516.000000	9.009748
517.000000	9.173233
518.000000	9.353225
519.000000	9.515360
520.000000	9.677058
521.000000	9.827809
522.000000	9.962075
523.000000	10.103315
524.000000	10.239629
525.000000	10.376105
526.000000	10.515935
527.000000	10.624390
528.000000	10.732407
529.000000	10.823442
530.000000	10.912289
531.000000	10.979851
532.000000	11.035401
533.000000	11.085842
534.000000	11.148703
535.000000	11.216674
536.000000	11.275295
537.000000	11.323973
538.000000	11.362643
539.000000	11.422194
540.000000	11.459936
541.000000	11.485659
542.000000	11.526962
543.000000	11.563373
544.000000	11.606647
545.000000	11.646674
546.000000	11.653651
547.000000	11.674823
548.000000	11.696786
549.000000	11.689577
550.000000	11.678747
551.000000	11.672172
552.000000	11.676985
553.000000	11.658667
554.000000	11.640136
555.000000	11.635652
556.000000	11.631922
557.000000	11.630482
558.000000	11.609845
559.000000	11.585509
560.000000	11.668162
561.000000	11.661145
562.000000	11.605518
563.000000	11.576207
564.000000	11.553980
565.000000	11.528461
566.000000	11.492050
567.000000	11.478970
568.000000	11.434036
569.000000	11.382266
570.000000	11.296220
571.000000	11.220705
572.000000	11.157690
573.000000	11.088999
574.000000	10.988184
575.000000	10.899517
576.000000	10.837316
577.000000	10.780900
578.000000	10.677398
579.000000	10.606198
580.000000	10.492648
581.000000	10.407974
582.000000	10.272182
583.000000	10.117566
584.000000	9.981617
585.000000	9.857377
586.000000	9.747408
587.000000	9.610888
588.000000	9.504934
589.000000	9.373106
590.000000	9.249969
591.000000	9.107500
592.000000	8.948824
593.000000	8.734743
594.000000	8.590742
595.000000	8.420229
596.000000	8.228713
597.000000	8.034757
598.000000	7.820879
599.000000	7.658538
600.000000	7.475909
601.000000	7.314699
602.000000	7.155206
603.000000	6.978493
604.000000	6.817539
605.000000	6.634788
606.000000	6.498905
607.000000	6.359328
608.000000	6.249200
609.000000	6.142891
610.000000	6.090155
611.000000	6.054324
612.000000	6.056405
613.000000	6.052923
614.000000	6.124098
615.000000	6.210217
616.000000	6.335470
617.000000	6.502540
618.000000	6.725936
619.000000	6.915053
620.000000	7.146987
621.000000	7.422357
622.000000	7.678837
623.000000	7.922402
624.000000	8.179678
625.000000	8.436048
626.000000	8.668679
627.000000	8.873689
628.000000	9.091824
629.000000	9.279637
630.000000	9.439993
631.000000	9.580151
632.000000	9.677611
633.000000	9.749812
634.000000	9.806951
635.000000	9.809968
636.000000	9.811124
637.000000	9.800961
638.000000	9.765823
639.000000	9.731290
640.000000	9.673808
641.000000	9.594674
642.000000	9.521636
643.000000	9.458548
644.000000	9.361885
645.000000	9.264314
646.000000	9.186518
647.000000	9.132746
648.000000	9.042473
649.000000	8.997795
650.000000	8.949657
651.000000	8.911024
652.000000	8.882478
653.000000	8.884787
654.000000	8.890101
655.000000	8.898034
656.000000	8.902945
657.000000	8.962307
658.000000	8.983518
659.000000	9.019788
660.000000	9.104414
661.000000	9.177838
662.000000	9.274610
663.000000	9.366711
664.000000	9.483391
665.000000	9.554692
666.000000	9.642803
667.000000	9.704019
668.000000	9.780232
669.000000	9.880570
670.000000	9.909911
671.000000	9.975825
672.000000	10.025848
673.000000	10.036003
674.000000	10.067887
675.000000	10.069923
676.000000	10.121711
677.000000	10.141707
678.000000	10.156625
679.000000	10.191860
680.000000	10.208466
681.000000	10.260572
682.000000	10.331314
683.000000	10.355754
684.000000	10.374500
685.000000	10.509734
686.000000	10.634708
687.000000	10.756624
688.000000	10.873109
689.000000	11.006426
690.000000	11.167501
691.000000	11.335402
692.000000	11.504714
693.000000	11.698483
694.000000	11.895739
695.000000	12.078511
696.000000	12.306768
697.000000	12.516406
698.000000	12.738814
699.000000	12.946924
700.000000	13.157686
701.000000	13.371903
702.000000	13.538147
703.000000	13.721256
704.000000	13.899336
705.000000	14.038790
706.000000	14.180993
707.000000	14.320179
708.000000	14.424773
709.000000	14.538601
710.000000	14.602978
711.000000	14.658097
712.000000	14.682189
713.000000	14.685420
714.000000	14.660341
715.000000	14.593180
716.000000	14.544284
717.000000	14.473821
718.000000	14.393732
719.000000	14.342943
720.000000	14.237385
721.000000	14.113534
722.000000	13.974851
723.000000	13.874552
724.000000	13.757171
725.000000	13.639858
726.000000	13.531181
727.000000	13.437058
728.000000	13.348648
729.000000	13.298092
730.000000	13.264703
731.000000	13.171473
732.000000	13.059820
733.000000	13.005631
734.000000	12.994408
735.000000	12.941039
736.000000	12.886417
737.000000	12.864651
738.000000	12.864537
739.000000	12.881137
740.000000	12.904179
741.000000	12.921591
742.000000	12.913353
743.000000	12.886851
744.000000	12.898588
745.000000	12.946769
746.000000	12.981027
747.000000	13.001658
748.000000	13.025491
749.000000	13.003767
750.000000	13.043829
751.000000	13.070167
752.000000	13.047882
753.000000	13.063497
754.000000	13.091632
755.000000	13.118851
756.000000	13.165525
757.000000	13.203374
758.000000	13.237930
759.000000	13.262793
760.000000	13.208113
761.000000	13.233794
762.000000	13.288786
763.000000	13.301620
764.000000	13.332985
765.000000	13.357399
766.000000	13.355123
767.000000	13.333089
768.000000	13.322002
769.000000	13.386304
770.000000	13.355496
771.000000	13.334873
772.000000	13.300075
773.000000	13.344071
774.000000	13.426369
775.000000	13.461788
776.000000	13.432193
777.000000	13.393091
778.000000	13.418631
779.000000	13.448596
780.000000	13.428147
781.000000	13.379771
782.000000	13.395523
783.000000	13.378929
784.000000	13.336065
785.000000	13.285500
786.000000	13.277885
787.000000	13.320991
788.000000	13.274785
789.000000	13.152060
790.000000	13.084395
791.000000	13.038418
792.000000	12.949823
793.000000	12.901442
794.000000	12.841688
795.000000	12.758805
796.000000	12.659100
797.000000	12.632479
798.000000	12.471340
799.000000	12.449904
800.000000	12.306950
801.000000	12.235865
802.000000	12.180197
803.000000	12.093663
804.000000	11.947582
805.000000	11.835398
806.000000	11.725765
807.000000	11.609378
808.000000	11.424830
809.000000	11.397491
810.000000	11.286526
811.000000	11.178158
812.000000	10.960961
813.000000	10.932703
814.000000	10.812202
815.000000	10.818564
816.000000	10.543817
817.000000	10.392564
818.000000	10.345572
819.000000	10.235297
820.000000	10.119269
821.000000	10.008273
822.000000	10.072881
823.000000	9.940404
824.000000	9.783564
825.000000	9.586496
826.000000	9.618295
827.000000	9.434243
828.000000	9.330309
829.000000	9.240518
830.000000	9.252956
831.000000	9.260977
832.000000	9.017041
833.000000	9.048262
834.000000	8.974926
835.000000	8.928495
836.000000	8.960655
837.000000	8.986567
838.000000	8.818601
839.000000	8.789699
840.000000	8.687270
841.000000	8.728268
842.000000	8.561504
843.000000	8.628795
844.000000	8.636876
845.000000	8.521785
846.000000	8.693119
847.000000	8.702787
848.000000	8.796113
849.000000	8.849730
850.000000	8.727769
851.000000	8.498403
852.000000	8.691319
853.000000	8.927774
854.000000	8.910137
855.000000	8.948747
856.000000	9.014103
857.000000	8.923226
858.000000	8.959666
859.000000	8.194718
860.000000	8.200913
861.000000	8.221738
862.000000	8.232894
863.000000	8.239447
864.000000	8.247585
865.000000	8.271071
866.000000	8.283395
867.000000	8.298033
868.000000	8.314744
869.000000	8.298790
870.000000	8.320555
871.000000	8.327951
872.000000	8.410698
873.000000	8.518035
874.000000	8.643056
875.000000	8.732605
876.000000	8.823342
877.000000	8.925583
878.000000	9.064844
879.000000	9.203086
880.000000	9.303620
881.000000	9.423737
882.000000	9.520995
883.000000	9.656524
884.000000	9.779289
885.000000	9.870291
886.000000	9.990507
887.000000	10.117630
888.000000	10.230995
889.000000	10.325336
890.000000	10.413182
891.000000	10.552588
892.000000	10.652718
893.000000	10.734503
894.000000	10.837122
895.000000	10.912449
896.000000	10.987523
897.000000	11.063293
898.000000	11.111261
899.000000	11.188037
900.000000	11.261383
901.000000	11.322400
902.000000	11.395682
903.000000	11.464025
904.000000	11.522212
905.000000	11.574062
906.000000	11.616743
907.000000	11.681557
908.000000	11.741131
909.000000	11.799872
910.000000	11.822397
911.000000	11.870155
912.000000	11.932747
913.000000	11.991913
914.000000	12.053577
915.000000	12.098711
916.000000	12.150364
917.000000	12.159444
918.000000	12.209947
919.000000	12.256493
920.000000	12.315216
921.000000	12.345620
922.000000	12.389539
923.000000	12.444064
924.000000	12.482272
925.000000	12.507305
926.000000	12.522828
927.000000	12.549223
928.000000	12.579748
929.000000	12.603071
930.000000	12.621164
931.000000	12.619281
932.000000	12.653986
933.000000	12.679032
934.000000	12.691311
935.000000	12.728151
936.000000	12.767115
937.000000	12.805376
938.000000	12.842880
939.000000	12.844678
940.000000	12.870089
941.000000	12.904840
942.000000	12.929894
943.000000	12.959369
944.000000	12.951647
945.000000	12.983669
946.000000	13.002711
947.000000	13.011837
948.000000	13.030340
949.000000	13.056345
950.000000	13.073023
951.000000	13.075832
952.000000	13.105498
953.000000	13.114753
954.000000	13.111092
955.000000	13.120854
956.000000	13.132459
957.000000	13.139980
958.000000	13.157113
959.000000	13.176155
960.000000	13.177670
961.000000	13.179842
962.000000	13.179280
963.000000	13.187223
964.000000	13.202255
965.000000	13.201866
966.000000	13.215455
967.000000	13.220279
968.000000	13.218527
969.000000	13.226381
970.000000	13.234380
971.000000	13.249823
972.000000	13.249344
973.000000	13.241998
974.000000	13.239708
975.000000	13.240063
976.000000	13.248383
977.000000	13.241747
978.000000	13.243468
979.000000	13.262290
980.000000	13.268685
981.000000	13.262378
982.000000	13.255408
983.000000	13.260192
984.000000	13.268355
985.000000	13.262265
986.000000	13.272620
987.000000	13.284928
988.000000	13.278169
989.000000	13.273134
990.000000	13.270010
991.000000	13.268313
992.000000	13.268262
993.000000	13.262138
994.000000	13.259383
995.000000	13.255598
996.000000	13.255877
997.000000	13.246037
998.000000	13.247116
999.000000	13.239586
1000.000000	13.222676
1001.000000	13.215632
1002.000000	13.212928
1003.000000	13.206933
1004.000000	13.200302
1005.000000	13.197513
1006.000000	13.189607
1007.000000	13.178836
1008.000000	13.187337
1009.000000	13.190309
1010.000000	13.175444
1011.000000	13.161050
1012.000000	13.141818
1013.000000	13.134938
1014.000000	13.138151
1015.000000	13.144577
1016.000000	13.137405
1017.000000	13.123387
1018.000000	13.121249
1019.000000	13.110963
1020.000000	13.097682
1021.000000	13.094119
1022.000000	13.090789
1023.000000	13.089995
1024.000000	13.090582
1025.000000	13.082593
1026.000000	13.074218
1027.000000	13.079326
1028.000000	13.082280
1029.000000	13.073887
1030.000000	13.064440
1031.000000	13.064182
1032.000000	13.061459
1033.000000	13.051856
1034.000000	13.053969
1035.000000	13.054279
1036.000000	13.042928
1037.000000	13.038561
1038.000000	13.037038
1039.000000	13.029489
1040.000000	13.023979
1041.000000	13.020961
1042.000000	13.023700
1043.000000	13.021264
1044.000000	13.018912
1045.000000	13.016757
1046.000000	13.015518
1047.000000	13.005731
1048.000000	12.995046
1049.000000	12.997122
1050.000000	12.993431
1051.000000	12.981355
1052.000000	12.972798
1053.000000	12.965220
1054.000000	12.959676
1055.000000	12.961032
1056.000000	12.954811
1057.000000	12.942857
1058.000000	12.937604
1059.000000	12.936520
1060.000000	12.926978
1061.000000	12.927751
1062.000000	12.931931
1063.000000	12.924727
1064.000000	12.907009
1065.000000	12.900830
1066.000000	12.902234
1067.000000	12.897268
1068.000000	12.897027
1069.000000	12.898952
1070.000000	12.893750
1071.000000	12.889225
1072.000000	12.881489
1073.000000	12.868288
1074.000000	12.874292
1075.000000	12.875792
1076.000000	12.869897
1077.000000	12.859751
1078.000000	12.861741
1079.000000	12.871699
1080.000000	12.864739
1081.000000	12.864180
1082.000000	12.862006
1083.000000	12.856246
1084.000000	12.858407
1085.000000	12.863570
1086.000000	12.854710
1087.000000	12.854993
1088.000000	12.855134
1089.000000	12.856312
1090.000000	12.856592
1091.000000	12.853091
1092.000000	12.857296
1093.000000	12.868838
1094.000000	12.866301
1095.000000	12.862325
1096.000000	12.869801
1097.000000	12.873597
1098.000000	12.860416
1099.000000	12.861814
1100.000000	12.860133
1101.000000	12.845683
1102.000000	12.834505
1103.000000	12.839525
1104.000000	12.839878
1105.000000	12.840048
1106.000000	12.831580
1107.000000	12.841001
1108.000000	12.836657
1109.000000	12.822538
1110.000000	12.811683
1111.000000	12.800902
1112.000000	12.807424
1113.000000	12.790477
1114.000000	12.793516
1115.000000	12.784044
1116.000000	12.782179
1117.000000	12.773287
1118.000000	12.767454
1119.000000	12.759353
1120.000000	12.750582
1121.000000	12.735809
1122.000000	12.735452
1123.000000	12.745155
1124.000000	12.740840
1125.000000	12.723985
1126.000000	12.716120
1127.000000	12.706190
1128.000000	12.699596
1129.000000	12.681977
1130.000000	12.677920
1131.000000	12.674660
1132.000000	12.645362
1133.000000	12.601098
1134.000000	12.572080
1135.000000	12.580399
1136.000000	12.588707
1137.000000	12.578322
1138.000000	12.555137
1139.000000	12.524917
1140.000000	12.506886
1141.000000	12.478505
1142.000000	12.457998
1143.000000	12.442202
1144.000000	12.431727
1145.000000	12.417453
1146.000000	12.396908
1147.000000	12.404024
1148.000000	12.382324
1149.000000	12.375077
1150.000000	12.357767
1151.000000	12.342763
1152.000000	12.327965
1153.000000	12.313656
1154.000000	12.294992
1155.000000	12.285274
1156.000000	12.267779
1157.000000	12.253795
1158.000000	12.242556
1159.000000	12.207815
1160.000000	12.175945
1161.000000	12.153589
1162.000000	12.116097
1163.000000	12.095371
1164.000000	12.061539
1165.000000	12.029256
1166.000000	12.007859
1167.000000	11.983899
1168.000000	11.965574
1169.000000	11.937417
1170.000000	11.907136
1171.000000	11.880753
1172.000000	11.860752
1173.000000	11.846692
1174.000000	11.836213
1175.000000	11.814861
1176.000000	11.803343
1177.000000	11.785944
1178.000000	11.773131
1179.000000	11.758016
