PE UV       SUBTECH     SPECTRUM    ASCII       PEDS        4.00        
   -1
CICIMAUCR0223-3.ASC
24/06/14
13:45:17.00
24/06/14
13:45:17.00
Vinicio Soto Monge
C. resplendens. Sex M. Ventral 
250,000000
1
Lambda 1050
1050L1511233
PerkinElmer UV WinLab 6.3.2.0749 / 2.02.05 Lambda 900 UV/VIS/NIR, Aug  7 2015 09:38:08

0
0
3350/servo 860,8/2
0
0
UV/VIS
1
1
1
DoubleDePol,CommonBeamDepol,RBeamAtt,SBeamAtt,60mm sphere, WB InGaAs Detector
0
0
0
0
Program
Program
3350/servo 860,8/2
3350/0,2 860,8/0,2
3350/0,2 860,8/0,2
0
15.00
 
 
 
0
 
860,8
319,2
860,8
Front
100
on
S:100 R:100
0
0
0
0
 
0
 
 
 
0
 
 
0
0
0
0
0
 
 
 
 
0
0


0
0
#HDR
-1
-1
#GR
nm
%R
1.0
0.0
2500,000000
-1,000000
2251
8
57,566900
4,209700
#DATA
2482.000000	6.043067
2481.000000	5.990997
2480.000000	6.058474
2479.000000	6.072756
2478.000000	6.036207
2477.000000	6.043516
2476.000000	6.013714
2475.000000	5.998757
2474.000000	5.990997
2473.000000	6.053750
2472.000000	6.004718
2471.000000	6.013490
2470.000000	6.011690
2469.000000	6.012477
2468.000000	6.032270
2467.000000	6.029909
2466.000000	6.039468
2465.000000	6.031708
2464.000000	6.071519
2463.000000	6.062522
2462.000000	6.048240
2461.000000	6.085914
2460.000000	6.101546
2459.000000	6.099184
2458.000000	6.142707
2457.000000	6.164749
2456.000000	6.187803
2455.000000	6.185891
2454.000000	6.210520
2453.000000	6.238748
2452.000000	6.252243
2451.000000	6.272036
2450.000000	6.325118
2449.000000	6.342886
2448.000000	6.359193
2447.000000	6.399567
2446.000000	6.430493
2445.000000	6.465356
2444.000000	6.492346
2443.000000	6.513152
2442.000000	6.559373
2441.000000	6.567920
2440.000000	6.618865
2439.000000	6.652153
2438.000000	6.678806
2437.000000	6.710182
2436.000000	6.726827
2435.000000	6.778558
2434.000000	6.795765
2433.000000	6.780808
2432.000000	6.841986
2431.000000	6.888320
2430.000000	6.897992
2429.000000	6.931392
2428.000000	6.948711
2427.000000	6.976152
2426.000000	6.983574
2425.000000	6.997407
2424.000000	7.042391
2423.000000	7.041041
2422.000000	7.066907
2421.000000	7.106268
2420.000000	7.111667
2419.000000	7.118977
2418.000000	7.153277
2417.000000	7.162949
2416.000000	7.164186
2415.000000	7.191851
2414.000000	7.201523
2413.000000	7.203209
2412.000000	7.245495
2411.000000	7.269336
2410.000000	7.264500
2409.000000	7.275072
2408.000000	7.283281
2407.000000	7.306336
2406.000000	7.321068
2405.000000	7.324105
2404.000000	7.342211
2403.000000	7.364028
2402.000000	7.381234
2401.000000	7.401028
2400.000000	7.431054
2399.000000	7.445674
2398.000000	7.464793
2397.000000	7.472215
2396.000000	7.503029
2395.000000	7.518549
2394.000000	7.511014
2393.000000	7.531257
2392.000000	7.560384
2391.000000	7.581077
2390.000000	7.595134
2389.000000	7.602894
2388.000000	7.606268
2387.000000	7.620213
2386.000000	7.630335
2385.000000	7.637082
2384.000000	7.647204
2383.000000	7.652939
2382.000000	7.653501
2381.000000	7.655076
2380.000000	7.655976
2379.000000	7.644617
2378.000000	7.643043
2377.000000	7.657438
2376.000000	7.652602
2375.000000	7.649228
2374.000000	7.627860
2373.000000	7.621563
2372.000000	7.631459
2371.000000	7.630559
2370.000000	7.626398
2369.000000	7.614703
2368.000000	7.606156
2367.000000	7.581189
2366.000000	7.550263
2365.000000	7.525859
2364.000000	7.517312
2363.000000	7.502130
2362.000000	7.470641
2361.000000	7.458045
2360.000000	7.450623
2359.000000	7.421945
2358.000000	7.399790
2357.000000	7.376399
2356.000000	7.353007
2355.000000	7.323880
2354.000000	7.328828
2353.000000	7.324779
2352.000000	7.316682
2351.000000	7.316795
2350.000000	7.305099
2349.000000	7.320056
2348.000000	7.336925
2347.000000	7.355706
2346.000000	7.362341
2345.000000	7.374262
2344.000000	7.394617
2343.000000	7.406201
2342.000000	7.431842
2341.000000	7.448711
2340.000000	7.460969
2339.000000	7.482224
2338.000000	7.484361
2337.000000	7.498081
2336.000000	7.497631
2335.000000	7.499768
2334.000000	7.498531
2333.000000	7.492121
2332.000000	7.483236
2331.000000	7.464118
2330.000000	7.447136
2329.000000	7.433641
2328.000000	7.430267
2327.000000	7.403277
2326.000000	7.363691
2325.000000	7.340974
2324.000000	7.311059
2323.000000	7.269561
2322.000000	7.241109
2321.000000	7.222553
2320.000000	7.191738
2319.000000	7.136858
2318.000000	7.088387
2317.000000	7.050263
2316.000000	7.021248
2315.000000	6.958383
2314.000000	6.917222
2313.000000	6.877861
2312.000000	6.830965
2311.000000	6.785868
2310.000000	6.759440
2309.000000	6.732450
2308.000000	6.714344
2307.000000	6.681955
2306.000000	6.667897
2305.000000	6.661937
2304.000000	6.663961
2303.000000	6.675657
2302.000000	6.686228
2301.000000	6.703547
2300.000000	6.736386
2299.000000	6.753817
2298.000000	6.787443
2297.000000	6.832427
2296.000000	6.859080
2295.000000	6.885059
2294.000000	6.926444
2293.000000	6.962431
2292.000000	6.979413
2291.000000	7.012476
2290.000000	7.035418
2289.000000	7.043740
2288.000000	7.028446
2287.000000	7.049813
2286.000000	7.043516
2285.000000	7.048689
2284.000000	7.047002
2283.000000	7.030583
2282.000000	7.024285
2281.000000	6.986048
2280.000000	6.966030
2279.000000	6.958270
2278.000000	6.942751
2277.000000	6.930943
2276.000000	6.894393
2275.000000	6.876849
2274.000000	6.868190
2273.000000	6.846934
2272.000000	6.858743
2271.000000	6.862004
2270.000000	6.851320
2269.000000	6.845135
2268.000000	6.871001
2267.000000	6.892931
2266.000000	6.909013
2265.000000	6.954334
2264.000000	7.019224
2263.000000	7.078491
2262.000000	7.142031
2261.000000	7.209845
2260.000000	7.300600
2259.000000	7.385733
2258.000000	7.502017
2257.000000	7.623474
2256.000000	7.711194
2255.000000	7.842098
2254.000000	7.971090
2253.000000	8.101094
2252.000000	8.225026
2251.000000	8.334337
2250.000000	8.438026
2249.000000	8.543627
2248.000000	8.664409
2247.000000	8.779456
2246.000000	8.861328
2245.000000	8.960855
2244.000000	9.017310
2243.000000	9.131233
2242.000000	9.195898
2241.000000	9.266973
2240.000000	9.305996
2239.000000	9.405524
2238.000000	9.436901
2237.000000	9.501678
2236.000000	9.548012
2235.000000	9.610315
2234.000000	9.618749
2233.000000	9.662496
2232.000000	9.725024
2231.000000	9.717714
2230.000000	9.736608
2229.000000	9.748079
2228.000000	9.761124
2227.000000	9.785078
2226.000000	9.789352
2225.000000	9.775857
2224.000000	9.780580
2223.000000	9.802622
2222.000000	9.775744
2221.000000	9.779343
2220.000000	9.740094
2219.000000	9.721201
2218.000000	9.697247
2217.000000	9.704219
2216.000000	9.685438
2215.000000	9.666882
2214.000000	9.680153
2213.000000	9.611889
2212.000000	9.586136
2211.000000	9.596819
2210.000000	9.601093
2209.000000	9.566905
2208.000000	9.546999
2207.000000	9.559595
2206.000000	9.533729
2205.000000	9.543176
2204.000000	9.519447
2203.000000	9.503927
2202.000000	9.473788
2201.000000	9.489757
2200.000000	9.445448
2199.000000	9.450508
2198.000000	9.452195
2197.000000	9.456694
2196.000000	9.418907
2195.000000	9.415196
2194.000000	9.421606
2193.000000	9.393491
2192.000000	9.405187
2191.000000	9.387643
2190.000000	9.392479
2189.000000	9.400351
2188.000000	9.363351
2187.000000	9.373248
2186.000000	9.384157
2185.000000	9.358178
2184.000000	9.349294
2183.000000	9.340972
2182.000000	9.326352
2181.000000	9.319942
2180.000000	9.335124
2179.000000	9.305659
2178.000000	9.295313
2177.000000	9.280805
2176.000000	9.301498
2175.000000	9.287778
2174.000000	9.283729
2173.000000	9.293401
2172.000000	9.278106
2171.000000	9.289690
2170.000000	9.302173
2169.000000	9.304534
2168.000000	9.284629
2167.000000	9.313531
2166.000000	9.299586
2165.000000	9.341759
2164.000000	9.355592
2163.000000	9.344458
2162.000000	9.354130
2161.000000	9.366050
2160.000000	9.390904
2159.000000	9.410810
2158.000000	9.421718
2157.000000	9.446010
2156.000000	9.459730
2155.000000	9.492456
2154.000000	9.514948
2153.000000	9.524845
2152.000000	9.546999
2151.000000	9.580738
2150.000000	9.592658
2149.000000	9.620773
2148.000000	9.658110
2147.000000	9.685326
2146.000000	9.711642
2145.000000	9.732447
2144.000000	9.773045
2143.000000	9.791039
2142.000000	9.815443
2141.000000	9.831412
2140.000000	9.830737
2139.000000	9.855928
2138.000000	9.871560
2137.000000	9.893715
2136.000000	9.913733
2135.000000	9.926329
2134.000000	9.936450
2133.000000	9.936675
2132.000000	9.950058
2131.000000	9.963553
2130.000000	9.968389
2129.000000	9.978173
2128.000000	9.980535
2127.000000	9.986495
2126.000000	9.984246
2125.000000	9.969514
2124.000000	9.979635
2123.000000	9.979298
2122.000000	9.976149
2121.000000	9.968614
2120.000000	9.964115
2119.000000	9.956356
2118.000000	9.943535
2117.000000	9.944435
2116.000000	9.924867
2115.000000	9.890791
2114.000000	9.880107
2113.000000	9.868074
2112.000000	9.865263
2111.000000	9.845357
2110.000000	9.828376
2109.000000	9.818142
2108.000000	9.797786
2107.000000	9.770121
2106.000000	9.761349
2105.000000	9.757638
2104.000000	9.742118
2103.000000	9.715240
2102.000000	9.683414
2101.000000	9.669132
2100.000000	9.662834
2099.000000	9.645627
2098.000000	9.622460
2097.000000	9.593895
2096.000000	9.574440
2095.000000	9.579613
2094.000000	9.580175
2093.000000	9.552173
2092.000000	9.529793
2091.000000	9.527206
2090.000000	9.512811
2089.000000	9.496505
2088.000000	9.498529
2087.000000	9.493356
2086.000000	9.477274
2085.000000	9.469964
2084.000000	9.452308
2083.000000	9.431390
2082.000000	9.413734
2081.000000	9.407886
2080.000000	9.393041
2079.000000	9.361552
2078.000000	9.348844
2077.000000	9.330063
2076.000000	9.308471
2075.000000	9.292951
2074.000000	9.260113
2073.000000	9.232897
2072.000000	9.206469
2071.000000	9.168120
2070.000000	9.155074
2069.000000	9.119874
2068.000000	9.076240
2067.000000	9.054760
2066.000000	9.038678
2065.000000	9.018322
2064.000000	8.997180
2063.000000	8.967490
2062.000000	8.931053
2061.000000	8.920482
2060.000000	8.909348
2059.000000	8.877184
2058.000000	8.871224
2057.000000	8.872236
2056.000000	8.868750
2055.000000	8.854467
2054.000000	8.859416
2053.000000	8.885731
2052.000000	8.895628
2051.000000	8.897427
2050.000000	8.916883
2049.000000	8.959618
2048.000000	8.990095
2047.000000	9.011350
2046.000000	9.061620
2045.000000	9.112564
2044.000000	9.161935
2043.000000	9.199946
2042.000000	9.247292
2041.000000	9.297337
2040.000000	9.347045
2039.000000	9.391354
2038.000000	9.419582
2037.000000	9.466253
2036.000000	9.533729
2035.000000	9.582762
2034.000000	9.597382
2033.000000	9.634606
2032.000000	9.672055
2031.000000	9.688587
2030.000000	9.719064
2029.000000	9.746167
2028.000000	9.774395
2027.000000	9.807683
2026.000000	9.816005
2025.000000	9.835910
2024.000000	9.862676
2023.000000	9.879545
2022.000000	9.878196
2021.000000	9.894952
2020.000000	9.899563
2019.000000	9.898101
2018.000000	9.910697
2017.000000	9.931165
2016.000000	9.926216
2015.000000	9.916657
2014.000000	9.911484
2013.000000	9.927004
2012.000000	9.919694
2011.000000	9.902824
2010.000000	9.896752
2009.000000	9.894502
2008.000000	9.877971
2007.000000	9.858740
2006.000000	9.846032
2005.000000	9.822190
2004.000000	9.809370
2003.000000	9.779455
2002.000000	9.750103
2001.000000	9.727274
2000.000000	9.692973
1999.000000	9.659910
1998.000000	9.632020
1997.000000	9.615038
1996.000000	9.557796
1995.000000	9.532829
1994.000000	9.491444
1993.000000	9.466253
1992.000000	9.405861
1991.000000	9.383707
1990.000000	9.327027
1989.000000	9.284404
1988.000000	9.245380
1987.000000	9.210068
1986.000000	9.171831
1985.000000	9.122123
1984.000000	9.088160
1983.000000	9.034629
1982.000000	8.983909
1981.000000	8.932627
1980.000000	8.882920
1979.000000	8.856829
1978.000000	8.802961
1977.000000	8.754153
1976.000000	8.703320
1975.000000	8.655975
1974.000000	8.620325
1973.000000	8.582763
1972.000000	8.568030
1971.000000	8.515736
1970.000000	8.485260
1969.000000	8.432965
1968.000000	8.394504
1967.000000	8.356605
1966.000000	8.316906
1965.000000	8.278670
1964.000000	8.264612
1963.000000	8.216029
1962.000000	8.187576
1961.000000	8.170482
1960.000000	8.111891
1959.000000	8.067244
1958.000000	8.049250
1957.000000	8.024396
1956.000000	7.966367
1955.000000	7.958944
1954.000000	7.900915
1953.000000	7.883596
1952.000000	7.856043
1951.000000	7.824554
1950.000000	7.786767
1949.000000	7.761464
1948.000000	7.753929
1947.000000	7.753929
1946.000000	7.700622
1945.000000	7.687802
1944.000000	7.683978
1943.000000	7.639556
1942.000000	7.643268
1941.000000	7.629097
1940.000000	7.625611
1939.000000	7.612791
1938.000000	7.614253
1937.000000	7.600870
1936.000000	7.617964
1935.000000	7.603456
1934.000000	7.598058
1933.000000	7.605931
1932.000000	7.611329
1931.000000	7.653614
1930.000000	7.694662
1929.000000	7.720303
1928.000000	7.754828
1927.000000	7.776421
1926.000000	7.801837
1925.000000	7.857730
1924.000000	7.873812
1923.000000	7.953209
1922.000000	7.977163
1921.000000	8.048350
1920.000000	8.107842
1919.000000	8.174868
1918.000000	8.208494
1917.000000	8.310946
1916.000000	8.376398
1915.000000	8.451409
1914.000000	8.543402
1913.000000	8.615601
1912.000000	8.710293
1911.000000	8.826802
1910.000000	8.910248
1909.000000	9.014049
1908.000000	9.115376
1907.000000	9.210068
1906.000000	9.343671
1905.000000	9.489420
1904.000000	9.657436
1903.000000	9.811394
1902.000000	9.943423
1901.000000	10.096706
1900.000000	10.275969
1899.000000	10.457592
1898.000000	10.644052
1897.000000	10.816679
1896.000000	11.023156
1895.000000	11.206467
1894.000000	11.429251
1893.000000	11.634042
1892.000000	11.868072
1891.000000	12.118634
1890.000000	12.418229
1889.000000	12.735143
1888.000000	13.001225
1887.000000	13.292385
1886.000000	13.626730
1885.000000	13.990877
1884.000000	14.363122
1883.000000	14.792383
1882.000000	15.250773
1881.000000	15.689481
1880.000000	16.139211
1879.000000	16.594226
1878.000000	17.046992
1877.000000	17.484913
1876.000000	17.914963
1875.000000	18.343212
1874.000000	18.775398
1873.000000	19.204435
1872.000000	19.609518
1871.000000	20.008190
1870.000000	20.364016
1869.000000	20.690264
1868.000000	21.019773
1867.000000	21.260776
1866.000000	21.495481
1865.000000	21.690825
1864.000000	21.837136
1863.000000	21.984122
1862.000000	22.149776
1861.000000	22.301598
1860.000000	22.444310
1859.000000	22.589497
1858.000000	22.732209
1857.000000	22.817904
1856.000000	22.900225
1855.000000	22.967252
1854.000000	23.012011
1853.000000	23.032254
1852.000000	23.058570
1851.000000	23.073190
1850.000000	23.084661
1849.000000	23.094332
1848.000000	23.111201
1847.000000	23.114800
1846.000000	23.111539
1845.000000	23.062281
1844.000000	22.990081
1843.000000	22.959155
1842.000000	22.939812
1841.000000	22.962529
1840.000000	22.943185
1839.000000	22.943073
1838.000000	22.919006
1837.000000	22.884256
1836.000000	22.857603
1835.000000	22.797886
1834.000000	22.751778
1833.000000	22.674742
1832.000000	22.605466
1831.000000	22.563968
1830.000000	22.492444
1829.000000	22.430928
1828.000000	22.372336
1827.000000	22.305309
1826.000000	22.247842
1825.000000	22.183402
1824.000000	22.113002
1823.000000	22.055647
1822.000000	22.011562
1821.000000	21.998067
1820.000000	21.996155
1819.000000	21.975125
1818.000000	21.937901
1817.000000	21.893029
1816.000000	21.863339
1815.000000	21.847707
1814.000000	21.846583
1813.000000	21.828701
1812.000000	21.812170
1811.000000	21.784842
1810.000000	21.750654
1809.000000	21.705107
1808.000000	21.656862
1807.000000	21.620200
1806.000000	21.582188
1805.000000	21.539116
1804.000000	21.485472
1803.000000	21.435764
1802.000000	21.392355
1801.000000	21.347258
1800.000000	21.297775
1799.000000	21.249980
1798.000000	21.187564
1797.000000	21.125598
1796.000000	21.078702
1795.000000	21.019773
1794.000000	20.975688
1793.000000	20.933291
1792.000000	20.872899
1791.000000	20.826566
1790.000000	20.783156
1789.000000	20.727263
1788.000000	20.660349
1787.000000	20.593210
1786.000000	20.541703
1785.000000	20.492558
1784.000000	20.440151
1783.000000	20.367052
1782.000000	20.294965
1781.000000	20.224340
1780.000000	20.153602
1779.000000	20.091861
1778.000000	20.023485
1777.000000	19.959832
1776.000000	19.875150
1775.000000	19.771686
1774.000000	19.664736
1773.000000	19.580166
1772.000000	19.490422
1771.000000	19.359293
1770.000000	19.237836
1769.000000	19.151016
1768.000000	19.057899
1767.000000	18.953985
1766.000000	18.868740
1765.000000	18.795416
1764.000000	18.722092
1763.000000	18.675983
1762.000000	18.661026
1761.000000	18.653941
1760.000000	18.687229
1759.000000	18.755380
1758.000000	18.805875
1757.000000	18.855807
1756.000000	18.914287
1755.000000	18.969842
1754.000000	19.027647
1753.000000	19.062172
1752.000000	19.082190
1751.000000	19.093212
1750.000000	19.079716
1749.000000	19.064984
1748.000000	19.030009
1747.000000	18.980189
1746.000000	18.914287
1745.000000	18.844449
1744.000000	18.747620
1743.000000	18.625376
1742.000000	18.486037
1741.000000	18.321170
1740.000000	18.142920
1739.000000	17.968719
1738.000000	17.769101
1737.000000	17.586915
1736.000000	17.425309
1735.000000	17.290469
1734.000000	17.190379
1733.000000	17.121554
1732.000000	17.094563
1731.000000	17.104235
1730.000000	17.163839
1729.000000	17.236038
1728.000000	17.302165
1727.000000	17.388985
1726.000000	17.482664
1725.000000	17.563411
1724.000000	17.630325
1723.000000	17.686668
1722.000000	17.734463
1721.000000	17.773262
1720.000000	17.825219
1719.000000	17.862556
1718.000000	17.911364
1717.000000	17.971418
1716.000000	18.029447
1715.000000	18.094337
1714.000000	18.191166
1713.000000	18.277873
1712.000000	18.334778
1711.000000	18.422834
1710.000000	18.470518
1709.000000	18.485362
1708.000000	18.514602
1707.000000	18.522587
1706.000000	18.495709
1705.000000	18.459159
1704.000000	18.428232
1703.000000	18.353334
1702.000000	18.274949
1701.000000	18.204661
1700.000000	18.075219
1699.000000	17.941728
1698.000000	17.805538
1697.000000	17.677896
1696.000000	17.556663
1695.000000	17.491774
1694.000000	17.452525
1693.000000	17.497284
1692.000000	17.558688
1691.000000	17.664850
1690.000000	17.798453
1689.000000	17.915412
1688.000000	18.026636
1687.000000	18.101647
1686.000000	18.181044
1685.000000	18.202524
1684.000000	18.277985
1683.000000	18.391458
1682.000000	18.553963
1681.000000	18.845573
1680.000000	19.185317
1679.000000	19.613341
1678.000000	20.073755
1677.000000	20.590286
1676.000000	21.075103
1675.000000	21.494019
1674.000000	21.877284
1673.000000	22.234684
1672.000000	22.557896
1671.000000	22.812956
1670.000000	23.053847
1669.000000	23.266172
1668.000000	23.429127
1667.000000	23.611088
1666.000000	23.737269
1665.000000	23.868736
1664.000000	23.992555
1663.000000	24.097030
1662.000000	24.177215
1661.000000	24.265721
1660.000000	24.342982
1659.000000	24.392127
1658.000000	24.425190
1657.000000	24.474673
1656.000000	24.492217
1655.000000	24.533377
1654.000000	24.530791
1653.000000	24.515721
1652.000000	24.508411
1651.000000	24.496940
1650.000000	24.480521
1649.000000	24.455667
1648.000000	24.414731
1647.000000	24.368285
1646.000000	24.335784
1645.000000	24.278767
1644.000000	24.245366
1643.000000	24.168555
1642.000000	24.121097
1641.000000	24.058569
1640.000000	24.003688
1639.000000	23.968488
1638.000000	23.874696
1637.000000	23.818691
1636.000000	23.742330
1635.000000	23.692847
1634.000000	23.602092
1633.000000	23.532591
1632.000000	23.446671
1631.000000	23.359852
1630.000000	23.286415
1629.000000	23.217477
1628.000000	23.144152
1627.000000	23.032816
1626.000000	22.963766
1625.000000	22.863451
1624.000000	22.788552
1623.000000	22.691161
1622.000000	22.614913
1621.000000	22.540689
1620.000000	22.443523
1619.000000	22.382795
1618.000000	22.319592
1617.000000	22.235921
1616.000000	22.154275
1615.000000	22.058121
1614.000000	21.995480
1613.000000	21.913497
1612.000000	21.841859
1611.000000	21.789453
1610.000000	21.716691
1609.000000	21.622899
1608.000000	21.559471
1607.000000	21.489183
1606.000000	21.413610
1605.000000	21.338823
1604.000000	21.255265
1603.000000	21.180479
1602.000000	21.097820
1601.000000	21.021572
1600.000000	20.952297
1599.000000	20.861878
1598.000000	20.790128
1597.000000	20.724901
1596.000000	20.653264
1595.000000	20.568694
1594.000000	20.527646
1593.000000	20.464668
1592.000000	20.388644
1591.000000	20.328028
1590.000000	20.280795
1589.000000	20.201960
1588.000000	20.163948
1587.000000	20.101870
1586.000000	20.063746
1585.000000	20.004142
1584.000000	19.955896
1583.000000	19.888083
1582.000000	19.851420
1581.000000	19.822068
1580.000000	19.773148
