PE UV       SUBTECH     SPECTRUM    ASCII       PEDS        4.00        
   -1
CICIMAUCR0004-3.Sample.ASC
24/05/03
16:17:29.00
24/05/03
16:17:29.00
Vinicio Soto Monge
C. kalinini
250,000000
1
Lambda 1050
1050L1511233
PerkinElmer UV WinLab 6.3.2.0749 / 2.02.05 Lambda 900 UV/VIS/NIR, Aug  7 2015 09:38:08

0
0
3350/servo 860,8/2
0
0
UV/VIS
1
1
1
DoubleDePol,CommonBeamDepol,RBeamAtt,SBeamAtt,60mm sphere, WB InGaAs Detector
0
0
0
0
Program
Program
3350/servo 860,8/2
3350/0,2 860,8/0,2
3350/0,2 860,8/0,2
0
15.00
 
 
 
0
 
860,8
319,2
860,8
Front
100
on
S:100 R:100
0
0
0
0
 
0
 
 
 
0
 
 
0
0
0
0
0
 
 
 
 
0
0


0
0
#HDR
-1
-1
#GR
nm
%R
1.0
0.0
2500,000000
-1,000000
2251
8
98,738200
4,896700
#DATA
250.000000	6.194200
251.000000	6.197733
252.000000	6.177767
253.000000	6.188833
254.000000	6.157033
255.000000	6.149500
256.000000	6.158533
257.000000	6.130900
258.000000	6.108567
259.000000	6.081333
260.000000	6.084533
261.000000	6.063833
262.000000	6.059933
263.000000	6.027033
264.000000	5.984100
265.000000	5.956067
266.000000	5.901700
267.000000	5.924700
268.000000	5.900033
269.000000	5.867433
270.000000	5.866500
271.000000	5.834600
272.000000	5.798867
273.000000	5.806900
274.000000	5.820267
275.000000	5.792800
276.000000	5.772567
277.000000	5.795267
278.000000	5.767133
279.000000	5.727300
280.000000	5.757600
281.000000	5.731433
282.000000	5.732200
283.000000	5.744700
284.000000	5.695467
285.000000	5.728367
286.000000	5.666600
287.000000	5.694133
288.000000	5.683000
289.000000	5.635100
290.000000	5.664833
291.000000	5.650800
292.000000	5.647000
293.000000	5.651200
294.000000	5.616433
295.000000	5.651767
296.000000	5.629033
297.000000	5.608433
298.000000	5.597533
299.000000	5.613633
300.000000	5.631367
301.000000	5.610867
302.000000	5.616867
303.000000	5.623533
304.000000	5.593400
305.000000	5.582800
306.000000	5.588100
307.000000	5.599000
308.000000	5.554133
309.000000	5.591467
310.000000	5.537867
311.000000	5.572667
312.000000	5.578233
313.000000	5.570467
314.000000	5.585033
315.000000	5.544033
316.000000	5.621867
317.000000	6.145233
318.000000	6.006700
319.000000	5.609867
320.000000	5.958767
321.000000	5.905300
322.000000	5.753933
323.000000	5.738667
324.000000	5.763400
325.000000	5.616367
326.000000	5.749667
327.000000	5.725567
328.000000	5.655167
329.000000	5.769133
330.000000	5.650200
331.000000	5.675633
332.000000	5.643367
333.000000	5.563900
334.000000	5.769033
335.000000	5.844033
336.000000	5.800100
337.000000	5.687500
338.000000	5.628033
339.000000	5.636167
340.000000	5.807933
341.000000	5.716667
342.000000	5.784533
343.000000	5.547000
344.000000	5.649700
345.000000	5.705300
346.000000	5.611367
347.000000	5.732367
348.000000	5.812200
349.000000	5.946500
350.000000	5.864367
351.000000	5.710700
352.000000	5.802900
353.000000	5.847933
354.000000	5.874367
355.000000	5.884867
356.000000	5.889733
357.000000	6.091433
358.000000	5.987600
359.000000	6.065467
360.000000	6.067433
361.000000	6.145133
362.000000	6.170767
363.000000	6.084500
364.000000	6.197567
365.000000	6.280367
366.000000	6.296633
367.000000	6.316633
368.000000	6.283100
369.000000	6.341967
370.000000	6.406333
371.000000	6.429667
372.000000	6.391233
373.000000	6.494000
374.000000	6.550300
375.000000	6.737767
376.000000	7.038867
377.000000	7.164167
378.000000	7.275333
379.000000	7.403067
380.000000	7.527767
381.000000	7.683800
382.000000	7.836933
383.000000	8.010967
384.000000	8.187433
385.000000	8.378200
386.000000	8.575267
387.000000	8.771900
388.000000	8.976233
389.000000	9.212700
390.000000	9.459700
391.000000	9.710433
392.000000	9.977267
393.000000	10.258567
394.000000	10.542100
395.000000	10.831367
396.000000	11.132767
397.000000	11.439333
398.000000	11.750400
399.000000	12.071700
400.000000	12.411967
401.000000	12.757500
402.000000	13.105233
403.000000	13.459633
404.000000	13.809167
405.000000	14.161567
406.000000	14.513633
407.000000	14.872167
408.000000	15.246633
409.000000	15.614967
410.000000	15.983600
411.000000	16.366400
412.000000	16.732867
413.000000	17.104700
414.000000	17.485500
415.000000	17.852667
416.000000	18.202433
417.000000	18.560500
418.000000	18.915433
419.000000	19.264567
420.000000	19.602767
421.000000	19.955133
422.000000	20.306967
423.000000	20.628400
424.000000	20.943433
425.000000	21.253700
426.000000	21.539000
427.000000	21.830700
428.000000	22.102500
429.000000	22.351267
430.000000	22.616200
431.000000	22.869433
432.000000	23.098467
433.000000	23.315000
434.000000	23.522300
435.000000	23.713033
436.000000	23.908467
437.000000	24.087267
438.000000	24.236933
439.000000	24.364600
440.000000	24.499000
441.000000	24.637567
442.000000	24.739300
443.000000	24.842767
444.000000	24.936967
445.000000	25.017467
446.000000	25.078167
447.000000	25.120767
448.000000	25.172800
449.000000	25.236433
450.000000	25.299033
451.000000	25.351133
452.000000	25.411467
453.000000	25.461167
454.000000	25.517867
455.000000	25.583600
456.000000	25.659833
457.000000	25.737400
458.000000	25.824700
459.000000	25.922400
460.000000	26.027900
461.000000	26.156533
462.000000	26.298933
463.000000	26.439167
464.000000	26.582433
465.000000	26.727967
466.000000	26.871633
467.000000	27.036800
468.000000	27.208333
469.000000	27.382533
470.000000	27.567033
471.000000	27.753133
472.000000	27.932467
473.000000	28.120000
474.000000	28.323133
475.000000	28.523833
476.000000	28.725800
477.000000	28.932433
478.000000	29.141900
479.000000	29.362767
480.000000	29.577233
481.000000	29.806333
482.000000	30.037400
483.000000	30.273767
484.000000	30.519767
485.000000	30.759233
486.000000	31.007833
487.000000	31.268833
488.000000	31.521733
489.000000	31.780967
490.000000	32.066400
491.000000	32.362000
492.000000	32.659733
493.000000	32.965767
494.000000	33.290800
495.000000	33.611167
496.000000	33.953300
497.000000	34.299567
498.000000	34.664433
499.000000	35.060433
500.000000	35.468033
501.000000	35.876667
502.000000	36.292667
503.000000	36.740933
504.000000	37.203833
505.000000	37.699800
506.000000	38.205900
507.000000	38.738700
508.000000	39.289233
509.000000	39.845267
510.000000	40.429967
511.000000	41.063400
512.000000	41.701567
513.000000	42.374933
514.000000	43.080167
515.000000	43.809900
516.000000	44.547867
517.000000	45.297633
518.000000	46.055200
519.000000	46.843367
520.000000	47.659133
521.000000	48.500000
522.000000	49.348667
523.000000	50.186567
524.000000	51.054833
525.000000	51.896900
526.000000	52.753933
527.000000	53.627433
528.000000	54.471333
529.000000	55.333267
530.000000	56.198967
531.000000	57.055900
532.000000	57.916633
533.000000	58.746500
534.000000	59.605600
535.000000	60.451300
536.000000	61.262300
537.000000	62.048167
538.000000	62.818433
539.000000	63.609233
540.000000	64.356500
541.000000	65.086133
542.000000	65.826567
543.000000	66.531600
544.000000	67.200500
545.000000	67.868200
546.000000	68.518567
547.000000	69.144000
548.000000	69.724967
549.000000	70.313833
550.000000	70.876233
551.000000	71.438267
552.000000	71.978167
553.000000	72.509167
554.000000	73.013600
555.000000	73.486333
556.000000	73.925667
557.000000	74.344067
558.000000	74.759900
559.000000	75.162633
560.000000	75.614400
561.000000	75.962467
562.000000	76.280233
563.000000	76.619267
564.000000	76.904733
565.000000	77.153033
566.000000	77.416933
567.000000	77.653400
568.000000	77.872933
569.000000	78.077967
570.000000	78.298533
571.000000	78.453900
572.000000	78.625833
573.000000	78.761600
574.000000	78.875367
575.000000	78.983000
576.000000	79.076733
577.000000	79.143667
578.000000	79.269933
579.000000	79.287500
580.000000	79.311300
581.000000	79.309533
582.000000	79.316367
583.000000	79.276467
584.000000	79.233200
585.000000	79.176167
586.000000	79.024333
587.000000	78.946567
588.000000	78.799533
589.000000	78.589667
590.000000	78.446600
591.000000	78.231333
592.000000	77.935567
593.000000	77.680200
594.000000	77.356733
595.000000	77.013133
596.000000	76.641933
597.000000	76.315167
598.000000	75.916633
599.000000	75.512367
600.000000	75.084267
601.000000	74.678667
602.000000	74.200100
603.000000	73.751133
604.000000	73.224767
605.000000	72.703967
606.000000	72.239533
607.000000	71.715933
608.000000	71.166500
609.000000	70.652300
610.000000	70.102100
611.000000	69.586100
612.000000	69.001867
613.000000	68.484233
614.000000	67.945167
615.000000	67.405767
616.000000	66.928567
617.000000	66.455533
618.000000	65.980167
619.000000	65.592133
620.000000	65.190200
621.000000	64.809467
622.000000	64.522667
623.000000	64.205367
624.000000	63.955667
625.000000	63.760200
626.000000	63.603333
627.000000	63.445067
628.000000	63.343667
629.000000	63.286733
630.000000	63.221733
631.000000	63.225100
632.000000	63.257367
633.000000	63.266567
634.000000	63.371267
635.000000	63.453067
636.000000	63.529500
637.000000	63.689800
638.000000	63.852233
639.000000	64.001300
640.000000	64.191300
641.000000	64.373833
642.000000	64.592433
643.000000	64.787500
644.000000	65.006667
645.000000	65.195600
646.000000	65.427533
647.000000	65.608567
648.000000	65.832700
649.000000	66.006767
650.000000	66.196000
651.000000	66.368433
652.000000	66.529467
653.000000	66.699300
654.000000	66.865500
655.000000	67.017400
656.000000	67.197567
657.000000	67.372400
658.000000	67.525367
659.000000	67.706567
660.000000	67.875900
661.000000	68.058100
662.000000	68.243067
663.000000	68.438400
664.000000	68.598133
665.000000	68.785733
666.000000	69.017700
667.000000	69.218933
668.000000	69.458867
669.000000	69.641467
670.000000	69.874433
671.000000	70.127600
672.000000	70.364967
673.000000	70.601800
674.000000	70.866800
675.000000	71.149333
676.000000	71.431633
677.000000	71.711200
678.000000	71.984633
679.000000	72.267000
680.000000	72.566667
681.000000	72.852433
682.000000	73.155667
683.000000	73.475767
684.000000	73.763633
685.000000	74.066367
686.000000	74.338900
687.000000	74.639233
688.000000	74.949533
689.000000	75.240167
690.000000	75.507100
691.000000	75.775233
692.000000	76.072633
693.000000	76.369733
694.000000	76.665333
695.000000	76.930267
696.000000	77.172467
697.000000	77.427167
698.000000	77.675633
699.000000	77.948300
700.000000	78.238067
701.000000	78.538533
702.000000	78.807200
703.000000	79.088967
704.000000	79.374700
705.000000	79.700267
706.000000	80.030700
707.000000	80.354800
708.000000	80.715333
709.000000	81.058267
710.000000	81.416033
711.000000	81.790867
712.000000	82.177600
713.000000	82.586000
714.000000	82.998633
715.000000	83.431567
716.000000	83.866400
717.000000	84.315600
718.000000	84.781300
719.000000	85.261600
720.000000	85.699800
721.000000	86.196933
722.000000	86.653133
723.000000	87.076567
724.000000	87.556400
725.000000	88.070633
726.000000	88.503533
727.000000	88.956333
728.000000	89.363900
729.000000	89.728667
730.000000	90.163033
731.000000	90.562800
732.000000	90.927233
733.000000	91.263533
734.000000	91.585900
735.000000	91.903067
736.000000	92.201567
737.000000	92.483733
738.000000	92.772500
739.000000	92.991567
740.000000	93.240633
741.000000	93.490100
742.000000	93.659433
743.000000	93.888567
744.000000	94.108433
745.000000	94.299767
746.000000	94.498067
747.000000	94.686367
748.000000	94.871600
749.000000	94.995433
750.000000	95.143167
751.000000	95.251133
752.000000	95.347100
753.000000	95.403167
754.000000	95.472200
755.000000	95.660400
756.000000	95.751133
757.000000	95.841167
758.000000	95.944967
759.000000	96.009133
760.000000	96.114233
761.000000	96.165433
762.000000	96.198267
763.000000	96.272267
764.000000	96.333200
765.000000	96.344567
766.000000	96.400367
767.000000	96.519633
768.000000	96.538800
769.000000	96.485433
770.000000	96.554667
771.000000	96.600100
772.000000	96.624367
773.000000	96.598933
774.000000	96.586767
775.000000	96.650967
776.000000	96.655833
777.000000	96.562967
778.000000	96.595733
779.000000	96.601133
780.000000	96.604433
781.000000	96.591467
782.000000	96.511367
783.000000	96.470667
784.000000	96.514400
785.000000	96.509667
786.000000	96.403300
787.000000	96.325867
788.000000	96.232700
789.000000	96.211300
790.000000	96.073467
791.000000	96.034467
792.000000	95.907967
793.000000	95.785267
794.000000	95.643500
795.000000	95.551000
796.000000	95.388933
797.000000	95.255933
798.000000	95.095300
799.000000	94.841900
800.000000	94.594667
801.000000	94.407200
802.000000	94.162033
803.000000	93.949767
804.000000	93.731967
805.000000	93.400700
806.000000	93.108767
807.000000	92.857333
808.000000	92.517033
809.000000	92.190567
810.000000	91.857067
811.000000	91.552867
812.000000	91.211300
813.000000	90.868767
814.000000	90.554133
815.000000	90.046767
816.000000	89.714700
817.000000	89.306700
818.000000	88.857067
819.000000	88.361800
820.000000	88.111100
821.000000	87.697033
822.000000	87.247000
823.000000	86.891833
824.000000	86.340467
825.000000	86.006800
826.000000	85.541300
827.000000	85.114267
828.000000	84.656067
829.000000	84.085033
830.000000	83.828467
831.000000	83.385600
832.000000	82.999967
833.000000	82.588400
834.000000	82.202667
835.000000	81.872567
836.000000	81.580433
837.000000	81.076233
838.000000	80.913900
839.000000	80.395067
840.000000	79.865167
841.000000	79.571300
842.000000	79.136767
843.000000	78.807967
844.000000	78.644767
845.000000	78.357133
846.000000	77.873667
847.000000	77.539000
848.000000	77.222133
849.000000	76.659967
850.000000	76.452367
851.000000	76.157433
852.000000	76.166133
853.000000	75.734233
854.000000	75.295800
855.000000	74.942967
856.000000	74.516867
857.000000	74.752067
858.000000	74.737300
859.000000	73.349493
860.000000	73.050174
861.000000	72.767321
862.000000	72.503392
863.000000	72.225079
864.000000	71.967913
865.000000	71.697106
866.000000	71.438486
867.000000	71.186967
868.000000	70.925107
869.000000	70.674289
870.000000	70.411899
871.000000	70.184585
872.000000	70.008642
873.000000	70.070196
874.000000	70.270359
875.000000	70.502032
876.000000	70.633631
877.000000	70.781712
878.000000	70.930481
879.000000	71.001158
880.000000	71.049598
881.000000	71.093717
882.000000	71.106129
883.000000	71.136403
884.000000	71.126199
885.000000	71.128784
886.000000	71.114384
887.000000	71.114315
888.000000	71.104386
889.000000	71.053765
890.000000	71.035107
891.000000	71.006604
892.000000	70.941698
893.000000	70.884311
894.000000	70.870390
895.000000	70.797790
896.000000	70.727695
897.000000	70.625043
898.000000	70.625103
899.000000	70.564144
900.000000	70.465187
901.000000	70.368021
902.000000	70.276240
903.000000	70.197315
904.000000	70.098753
905.000000	70.029918
906.000000	69.948309
907.000000	69.907377
908.000000	69.821101
909.000000	69.751724
910.000000	69.689026
911.000000	69.622628
912.000000	69.553723
913.000000	69.494186
914.000000	69.434008
915.000000	69.397796
916.000000	69.320634
917.000000	69.266258
918.000000	69.218839
919.000000	69.157750
920.000000	69.043994
921.000000	68.949358
922.000000	68.871783
923.000000	68.803904
924.000000	68.723862
925.000000	68.642174
926.000000	68.582755
927.000000	68.519611
928.000000	68.378636
929.000000	68.305438
930.000000	68.230260
931.000000	68.115951
932.000000	68.010756
933.000000	67.921567
934.000000	67.831933
935.000000	67.750085
936.000000	67.604271
937.000000	67.530795
938.000000	67.435390
939.000000	67.359234
940.000000	67.275496
941.000000	67.161621
942.000000	67.087612
943.000000	67.015360
944.000000	66.945331
945.000000	66.841449
946.000000	66.779513
947.000000	66.715005
948.000000	66.617196
949.000000	66.561580
950.000000	66.497687
951.000000	66.438896
952.000000	66.389813
953.000000	66.329014
954.000000	66.238931
955.000000	66.179859
956.000000	66.113719
957.000000	66.061894
958.000000	66.001894
959.000000	65.920200
960.000000	65.842414
961.000000	65.785434
962.000000	65.717323
963.000000	65.647750
964.000000	65.602331
965.000000	65.542075
966.000000	65.489499
967.000000	65.447190
968.000000	65.403087
969.000000	65.358373
970.000000	65.323036
971.000000	65.293249
972.000000	65.262485
973.000000	65.221898
974.000000	65.184163
975.000000	65.146857
976.000000	65.123456
977.000000	65.086439
978.000000	65.050411
979.000000	65.005577
980.000000	64.990171
981.000000	64.950513
982.000000	64.911672
983.000000	64.888426
984.000000	64.850671
985.000000	64.806880
986.000000	64.771275
987.000000	64.745492
988.000000	64.723412
989.000000	64.692869
990.000000	64.672698
991.000000	64.647788
992.000000	64.637228
993.000000	64.617251
994.000000	64.609598
995.000000	64.593508
996.000000	64.586102
997.000000	64.593970
998.000000	64.593051
999.000000	64.599089
1000.000000	64.597047
1001.000000	64.591409
1002.000000	64.613034
1003.000000	64.631710
1004.000000	64.637795
1005.000000	64.644504
1006.000000	64.649437
1007.000000	64.663128
1008.000000	64.681811
1009.000000	64.694035
1010.000000	64.716028
1011.000000	64.745647
1012.000000	64.768571
1013.000000	64.801483
1014.000000	64.845390
1015.000000	64.898307
1016.000000	64.964512
1017.000000	65.027051
1018.000000	65.085895
1019.000000	65.166762
1020.000000	65.260977
1021.000000	65.348048
1022.000000	65.431284
1023.000000	65.520377
1024.000000	65.616196
1025.000000	65.707787
1026.000000	65.803992
1027.000000	65.906061
1028.000000	66.004819
1029.000000	66.082227
1030.000000	66.171251
1031.000000	66.272746
1032.000000	66.349672
1033.000000	66.440846
1034.000000	66.536070
1035.000000	66.610914
1036.000000	66.694264
1037.000000	66.777125
1038.000000	66.855349
1039.000000	66.933226
1040.000000	67.000175
1041.000000	67.064283
1042.000000	67.137430
1043.000000	67.222126
1044.000000	67.288145
1045.000000	67.358754
1046.000000	67.444335
1047.000000	67.519313
1048.000000	67.588599
1049.000000	67.663856
1050.000000	67.748249
1051.000000	67.831279
1052.000000	67.910575
1053.000000	68.005421
1054.000000	68.103352
1055.000000	68.186157
1056.000000	68.281441
1057.000000	68.387436
1058.000000	68.479202
1059.000000	68.570589
1060.000000	68.668952
1061.000000	68.760648
1062.000000	68.858905
1063.000000	68.951509
1064.000000	69.040637
1065.000000	69.138506
1066.000000	69.230667
1067.000000	69.319262
1068.000000	69.415511
1069.000000	69.512314
1070.000000	69.601263
1071.000000	69.697431
1072.000000	69.783485
1073.000000	69.882351
1074.000000	69.984946
1075.000000	70.078686
1076.000000	70.174028
1077.000000	70.263481
1078.000000	70.359862
1079.000000	70.459556
1080.000000	70.558214
1081.000000	70.655685
1082.000000	70.744913
1083.000000	70.849807
1084.000000	70.953841
1085.000000	71.062103
1086.000000	71.153038
1087.000000	71.263259
1088.000000	71.367887
1089.000000	71.462960
1090.000000	71.556949
1091.000000	71.648320
1092.000000	71.746845
1093.000000	71.840996
1094.000000	71.930281
1095.000000	72.008903
1096.000000	72.094568
1097.000000	72.180098
1098.000000	72.250251
1099.000000	72.322968
1100.000000	72.385753
1101.000000	72.461910
1102.000000	72.532577
1103.000000	72.590396
1104.000000	72.644245
1105.000000	72.686771
1106.000000	72.742727
1107.000000	72.807380
1108.000000	72.849672
1109.000000	72.898897
1110.000000	72.949686
1111.000000	72.989671
1112.000000	73.028376
1113.000000	73.072263
1114.000000	73.118581
1115.000000	73.153305
1116.000000	73.195280
1117.000000	73.237200
1118.000000	73.263371
1119.000000	73.268394
1120.000000	73.275181
1121.000000	73.266392
1122.000000	73.255013
1123.000000	73.219134
1124.000000	73.169183
1125.000000	73.106909
1126.000000	73.042746
1127.000000	72.953863
1128.000000	72.858108
1129.000000	72.707564
1130.000000	72.529671
1131.000000	72.289402
1132.000000	72.016402
1133.000000	71.740063
1134.000000	71.470137
1135.000000	71.109514
1136.000000	70.714182
1137.000000	70.296149
1138.000000	69.886416
1139.000000	69.491778
1140.000000	69.105241
1141.000000	68.728948
1142.000000	68.358773
1143.000000	68.034316
1144.000000	67.698553
1145.000000	67.410660
1146.000000	67.210780
1147.000000	67.082305
1148.000000	67.031833
1149.000000	67.046570
1150.000000	67.089717
1151.000000	67.132125
1152.000000	67.181111
1153.000000	67.186587
1154.000000	67.138991
1155.000000	67.055917
1156.000000	66.887699
1157.000000	66.650969
1158.000000	66.365361
1159.000000	66.027900
1160.000000	65.667175
1161.000000	65.277235
1162.000000	64.891387
1163.000000	64.485235
1164.000000	64.086070
1165.000000	63.660398
1166.000000	63.245454
