PE UV       SUBTECH     SPECTRUM    ASCII       PEDS        4.00        
   -1
CICIMAUCR0003-3.Sample.ASC
24/05/03
16:05:21.00
24/05/03
16:05:21.00
Vinicio Soto Monge
C. kalinini
250,000000
1
Lambda 1050
1050L1511233
PerkinElmer UV WinLab 6.3.2.0749 / 2.02.05 Lambda 900 UV/VIS/NIR, Aug  7 2015 09:38:08

0
0
3350/servo 860,8/2
0
0
UV/VIS
1
1
1
DoubleDePol,CommonBeamDepol,RBeamAtt,SBeamAtt,60mm sphere, WB InGaAs Detector
0
0
0
0
Program
Program
3350/servo 860,8/2
3350/0,2 860,8/0,2
3350/0,2 860,8/0,2
0
15.00
 
 
 
0
 
860,8
319,2
860,8
Front
100
on
S:100 R:100
0
0
0
0
 
0
 
 
 
0
 
 
0
0
0
0
0
 
 
 
 
0
0


0
0
#HDR
-1
-1
#GR
nm
%R
1.0
0.0
2500,000000
-1,000000
2251
8
101,669700
5,424300
#DATA
250.000000	6.264300
251.000000	6.269200
252.000000	6.246400
253.000000	6.215900
254.000000	6.196933
255.000000	6.181333
256.000000	6.170567
257.000000	6.199500
258.000000	6.162233
259.000000	6.162433
260.000000	6.130233
261.000000	6.106467
262.000000	6.072500
263.000000	6.050767
264.000000	6.015700
265.000000	5.976667
266.000000	5.977433
267.000000	5.931233
268.000000	5.948800
269.000000	5.919433
270.000000	5.898600
271.000000	5.856600
272.000000	5.886600
273.000000	5.854900
274.000000	5.823867
275.000000	5.806000
276.000000	5.846800
277.000000	5.829800
278.000000	5.795600
279.000000	5.793700
280.000000	5.779200
281.000000	5.763233
282.000000	5.759833
283.000000	5.745467
284.000000	5.735700
285.000000	5.717000
286.000000	5.714433
287.000000	5.684867
288.000000	5.683867
289.000000	5.689033
290.000000	5.703967
291.000000	5.696633
292.000000	5.686167
293.000000	5.669900
294.000000	5.659933
295.000000	5.611233
296.000000	5.597633
297.000000	5.613100
298.000000	5.654300
299.000000	5.628467
300.000000	5.625000
301.000000	5.600567
302.000000	5.576967
303.000000	5.594267
304.000000	5.603033
305.000000	5.566600
306.000000	5.592433
307.000000	5.590933
308.000000	5.556000
309.000000	5.567333
310.000000	5.561633
311.000000	5.566267
312.000000	5.538100
313.000000	5.546300
314.000000	5.538267
315.000000	5.550233
316.000000	5.584433
317.000000	5.923933
318.000000	6.064100
319.000000	5.965733
320.000000	5.927900
321.000000	5.891467
322.000000	5.865433
323.000000	5.562200
324.000000	5.767300
325.000000	5.805600
326.000000	5.707700
327.000000	5.703967
328.000000	5.700000
329.000000	5.590600
330.000000	5.731833
331.000000	5.554233
332.000000	5.788133
333.000000	5.663033
334.000000	5.743667
335.000000	5.640067
336.000000	5.622033
337.000000	5.698167
338.000000	5.546467
339.000000	5.715867
340.000000	5.647433
341.000000	5.611367
342.000000	5.738700
343.000000	5.601833
344.000000	5.645200
345.000000	5.759867
346.000000	5.746467
347.000000	5.673200
348.000000	5.627067
349.000000	5.730700
350.000000	5.808433
351.000000	5.794333
352.000000	5.801967
353.000000	5.694967
354.000000	5.808533
355.000000	5.808600
356.000000	5.830767
357.000000	5.874700
358.000000	5.892667
359.000000	5.929467
360.000000	5.932467
361.000000	5.931233
362.000000	5.987500
363.000000	6.016733
364.000000	6.031967
365.000000	6.177067
366.000000	6.193133
367.000000	6.185633
368.000000	6.263400
369.000000	6.279500
370.000000	6.348600
371.000000	6.419433
372.000000	6.396200
373.000000	6.459300
374.000000	6.493667
375.000000	6.640233
376.000000	6.869400
377.000000	7.085200
378.000000	7.212700
379.000000	7.343267
380.000000	7.482867
381.000000	7.654300
382.000000	7.842667
383.000000	8.049067
384.000000	8.244367
385.000000	8.468233
386.000000	8.686267
387.000000	8.919767
388.000000	9.193500
389.000000	9.470300
390.000000	9.753933
391.000000	10.054667
392.000000	10.367500
393.000000	10.694500
394.000000	11.020333
395.000000	11.358333
396.000000	11.715533
397.000000	12.070467
398.000000	12.431500
399.000000	12.808000
400.000000	13.188267
401.000000	13.556733
402.000000	13.957267
403.000000	14.352033
404.000000	14.744733
405.000000	15.131833
406.000000	15.523633
407.000000	15.929100
408.000000	16.318567
409.000000	16.689800
410.000000	17.078567
411.000000	17.453100
412.000000	17.832833
413.000000	18.214400
414.000000	18.575033
415.000000	18.935133
416.000000	19.279600
417.000000	19.590600
418.000000	19.931033
419.000000	20.251467
420.000000	20.547867
421.000000	20.857833
422.000000	21.140533
423.000000	21.415200
424.000000	21.692867
425.000000	21.960933
426.000000	22.217167
427.000000	22.436700
428.000000	22.650033
429.000000	22.855333
430.000000	23.044733
431.000000	23.226400
432.000000	23.395067
433.000000	23.561833
434.000000	23.718167
435.000000	23.854567
436.000000	23.970667
437.000000	24.075833
438.000000	24.182933
439.000000	24.265100
440.000000	24.327467
441.000000	24.407333
442.000000	24.473933
443.000000	24.526867
444.000000	24.550633
445.000000	24.554533
446.000000	24.569800
447.000000	24.581433
448.000000	24.600033
449.000000	24.617700
450.000000	24.612400
451.000000	24.621200
452.000000	24.648300
453.000000	24.669967
454.000000	24.704200
455.000000	24.764400
456.000000	24.830100
457.000000	24.917100
458.000000	25.016867
459.000000	25.141467
460.000000	25.293433
461.000000	25.459333
462.000000	25.648200
463.000000	25.857033
464.000000	26.087267
465.000000	26.338233
466.000000	26.609433
467.000000	26.907233
468.000000	27.215567
469.000000	27.537333
470.000000	27.872233
471.000000	28.221500
472.000000	28.584700
473.000000	28.940200
474.000000	29.308633
475.000000	29.692333
476.000000	30.079833
477.000000	30.469167
478.000000	30.858767
479.000000	31.249400
480.000000	31.642833
481.000000	32.027967
482.000000	32.398500
483.000000	32.776833
484.000000	33.157433
485.000000	33.526800
486.000000	33.884033
487.000000	34.239667
488.000000	34.585067
489.000000	34.931100
490.000000	35.287733
491.000000	35.627533
492.000000	35.977800
493.000000	36.332333
494.000000	36.682900
495.000000	37.053033
496.000000	37.437467
497.000000	37.804067
498.000000	38.218100
499.000000	38.635200
500.000000	39.043900
501.000000	39.493000
502.000000	39.965933
503.000000	40.449667
504.000000	40.943200
505.000000	41.463467
506.000000	42.023433
507.000000	42.583500
508.000000	43.154867
509.000000	43.754767
510.000000	44.375967
511.000000	45.036167
512.000000	45.694367
513.000000	46.371467
514.000000	47.092467
515.000000	47.821400
516.000000	48.551467
517.000000	49.279200
518.000000	50.055333
519.000000	50.827733
520.000000	51.625200
521.000000	52.423067
522.000000	53.249133
523.000000	54.083667
524.000000	54.919167
525.000000	55.759467
526.000000	56.594533
527.000000	57.433667
528.000000	58.289400
529.000000	59.124733
530.000000	59.962967
531.000000	60.818067
532.000000	61.667167
533.000000	62.518700
534.000000	63.338300
535.000000	64.169600
536.000000	64.959433
537.000000	65.769267
538.000000	66.548800
539.000000	67.307767
540.000000	68.066767
541.000000	68.802467
542.000000	69.528300
543.000000	70.250667
544.000000	70.926267
545.000000	71.584767
546.000000	72.215633
547.000000	72.847333
548.000000	73.413433
549.000000	73.990967
550.000000	74.542367
551.000000	75.036433
552.000000	75.507667
553.000000	75.996400
554.000000	76.435567
555.000000	76.854400
556.000000	77.211233
557.000000	77.571767
558.000000	77.892133
559.000000	78.222500
560.000000	78.546700
561.000000	78.825433
562.000000	79.053500
563.000000	79.320100
564.000000	79.542633
565.000000	79.766500
566.000000	79.955567
567.000000	80.104233
568.000000	80.274667
569.000000	80.413700
570.000000	80.533700
571.000000	80.650867
572.000000	80.753667
573.000000	80.845700
574.000000	80.888900
575.000000	80.925233
576.000000	80.929300
577.000000	80.922367
578.000000	80.906100
579.000000	80.830167
580.000000	80.781833
581.000000	80.701867
582.000000	80.570200
583.000000	80.435767
584.000000	80.309667
585.000000	80.153800
586.000000	79.966700
587.000000	79.781167
588.000000	79.602200
589.000000	79.367733
590.000000	79.147033
591.000000	78.903567
592.000000	78.655133
593.000000	78.390367
594.000000	78.085133
595.000000	77.807167
596.000000	77.454333
597.000000	77.100233
598.000000	76.734900
599.000000	76.316867
600.000000	75.890233
601.000000	75.412833
602.000000	74.906500
603.000000	74.412233
604.000000	73.878200
605.000000	73.314433
606.000000	72.802933
607.000000	72.240533
608.000000	71.638333
609.000000	71.082767
610.000000	70.537867
611.000000	69.918667
612.000000	69.358700
613.000000	68.802333
614.000000	68.210567
615.000000	67.627067
616.000000	67.045233
617.000000	66.489267
618.000000	65.952067
619.000000	65.435633
620.000000	64.878400
621.000000	64.390567
622.000000	63.908867
623.000000	63.466200
624.000000	63.052233
625.000000	62.691367
626.000000	62.387067
627.000000	62.118433
628.000000	61.920967
629.000000	61.755500
630.000000	61.599500
631.000000	61.577667
632.000000	61.532367
633.000000	61.557633
634.000000	61.611733
635.000000	61.728400
636.000000	61.824333
637.000000	61.974633
638.000000	62.154867
639.000000	62.351133
640.000000	62.540167
641.000000	62.772600
642.000000	63.034900
643.000000	63.247633
644.000000	63.485767
645.000000	63.770567
646.000000	64.014300
647.000000	64.317033
648.000000	64.630167
649.000000	64.899633
650.000000	65.209833
651.000000	65.497767
652.000000	65.771400
653.000000	66.055300
654.000000	66.325500
655.000000	66.580833
656.000000	66.864233
657.000000	67.109700
658.000000	67.358367
659.000000	67.593133
660.000000	67.815367
661.000000	68.070367
662.000000	68.327033
663.000000	68.551200
664.000000	68.809667
665.000000	69.039800
666.000000	69.291200
667.000000	69.560067
668.000000	69.876333
669.000000	70.163500
670.000000	70.456100
671.000000	70.774467
672.000000	71.089133
673.000000	71.422833
674.000000	71.737467
675.000000	72.097533
676.000000	72.472300
677.000000	72.860900
678.000000	73.225900
679.000000	73.584200
680.000000	73.917567
681.000000	74.282733
682.000000	74.691433
683.000000	75.109833
684.000000	75.492767
685.000000	75.842933
686.000000	76.243067
687.000000	76.606133
688.000000	76.961267
689.000000	77.344233
690.000000	77.698500
691.000000	78.065533
692.000000	78.443900
693.000000	78.838500
694.000000	79.207133
695.000000	79.592733
696.000000	79.950267
697.000000	80.318133
698.000000	80.705033
699.000000	81.047400
700.000000	81.371767
701.000000	81.702733
702.000000	82.086633
703.000000	82.425200
704.000000	82.822467
705.000000	83.234800
706.000000	83.541167
707.000000	83.872700
708.000000	84.209500
709.000000	84.610667
710.000000	85.058933
711.000000	85.448333
712.000000	85.827200
713.000000	86.196733
714.000000	86.553100
715.000000	86.963800
716.000000	87.349300
717.000000	87.736400
718.000000	88.168200
719.000000	88.539867
720.000000	88.895667
721.000000	89.271000
722.000000	89.614267
723.000000	89.976867
724.000000	90.356600
725.000000	90.749667
726.000000	91.094533
727.000000	91.379933
728.000000	91.691900
729.000000	92.075167
730.000000	92.428633
731.000000	92.682033
732.000000	92.961200
733.000000	93.289200
734.000000	93.561133
735.000000	93.809233
736.000000	94.030233
737.000000	94.283400
738.000000	94.590500
739.000000	94.823100
740.000000	95.007233
741.000000	95.248733
742.000000	95.458033
743.000000	95.682933
744.000000	95.910200
745.000000	96.093367
746.000000	96.279700
747.000000	96.473867
748.000000	96.600600
749.000000	96.747533
750.000000	96.933733
751.000000	97.110000
752.000000	97.271767
753.000000	97.350600
754.000000	97.417967
755.000000	97.524333
756.000000	97.639400
757.000000	97.824533
758.000000	97.917267
759.000000	97.981867
760.000000	98.156367
761.000000	98.232400
762.000000	98.330467
763.000000	98.421867
764.000000	98.453733
765.000000	98.545067
766.000000	98.626300
767.000000	98.682867
768.000000	98.738567
769.000000	98.809333
770.000000	98.849200
771.000000	98.921000
772.000000	98.921333
773.000000	98.951067
774.000000	99.049000
775.000000	99.070067
776.000000	99.003100
777.000000	99.061067
778.000000	99.103767
779.000000	99.150667
780.000000	99.143167
781.000000	99.078600
782.000000	99.017333
783.000000	99.009033
784.000000	99.000733
785.000000	98.913667
786.000000	98.780467
787.000000	98.725833
788.000000	98.660200
789.000000	98.631433
790.000000	98.602267
791.000000	98.354233
792.000000	98.252567
793.000000	98.124533
794.000000	97.950933
795.000000	97.802133
796.000000	97.596867
797.000000	97.418067
798.000000	97.251767
799.000000	97.011867
800.000000	96.844900
801.000000	96.611333
802.000000	96.348133
803.000000	96.243633
804.000000	95.940767
805.000000	95.647467
806.000000	95.216533
807.000000	94.971100
808.000000	94.740167
809.000000	94.382133
810.000000	94.138867
811.000000	93.873433
812.000000	93.522733
813.000000	93.188933
814.000000	92.933100
815.000000	92.666700
816.000000	92.423000
817.000000	91.971533
818.000000	91.559833
819.000000	91.312533
820.000000	90.976700
821.000000	90.518033
822.000000	90.286033
823.000000	89.847833
824.000000	89.531833
825.000000	88.960667
826.000000	88.734833
827.000000	88.284600
828.000000	87.908267
829.000000	87.624333
830.000000	87.382867
831.000000	86.909800
832.000000	86.605800
833.000000	86.120567
834.000000	85.682333
835.000000	85.335067
836.000000	85.018100
837.000000	84.801167
838.000000	84.337100
839.000000	84.067200
840.000000	83.594733
841.000000	83.146533
842.000000	82.941733
843.000000	82.472167
844.000000	82.012900
845.000000	81.737833
846.000000	81.742900
847.000000	81.281400
848.000000	80.858533
849.000000	80.539267
850.000000	80.404000
851.000000	80.051300
852.000000	79.859100
853.000000	79.593133
854.000000	79.427067
855.000000	79.152600
856.000000	79.031700
857.000000	78.499100
858.000000	78.894467
859.000000	77.369344
860.000000	77.118260
861.000000	76.882607
862.000000	76.619061
863.000000	76.387337
864.000000	76.146132
865.000000	75.911710
866.000000	75.680349
867.000000	75.456193
868.000000	75.216971
869.000000	74.983566
870.000000	74.744452
871.000000	74.529810
872.000000	74.389074
873.000000	74.507579
874.000000	74.815521
875.000000	75.132784
876.000000	75.341287
877.000000	75.567404
878.000000	75.828508
879.000000	75.999278
880.000000	76.116969
881.000000	76.215659
882.000000	76.310250
883.000000	76.409470
884.000000	76.496237
885.000000	76.563205
886.000000	76.615757
887.000000	76.676164
888.000000	76.711305
889.000000	76.672616
890.000000	76.615859
891.000000	76.668157
892.000000	76.640456
893.000000	76.606559
894.000000	76.591213
895.000000	76.530583
896.000000	76.431141
897.000000	76.327707
898.000000	76.271356
899.000000	76.220183
900.000000	76.117067
901.000000	76.020234
902.000000	75.921821
903.000000	75.800734
904.000000	75.686554
905.000000	75.577705
906.000000	75.528382
907.000000	75.436456
908.000000	75.333542
909.000000	75.173781
910.000000	75.081901
911.000000	75.009968
912.000000	74.919738
913.000000	74.837587
914.000000	74.754554
915.000000	74.629270
916.000000	74.525232
917.000000	74.469459
918.000000	74.384253
919.000000	74.298968
920.000000	74.166117
921.000000	74.068186
922.000000	73.972460
923.000000	73.846473
924.000000	73.752047
925.000000	73.657485
926.000000	73.546295
927.000000	73.430810
928.000000	73.320135
929.000000	73.194379
930.000000	73.092192
931.000000	72.973587
932.000000	72.840806
933.000000	72.721481
934.000000	72.594700
935.000000	72.495535
936.000000	72.357343
937.000000	72.218805
938.000000	72.088512
939.000000	71.980697
940.000000	71.898019
941.000000	71.763030
942.000000	71.652188
943.000000	71.552886
944.000000	71.439654
945.000000	71.325376
946.000000	71.207275
947.000000	71.125038
948.000000	71.039858
949.000000	70.922725
950.000000	70.844642
951.000000	70.748229
952.000000	70.638585
953.000000	70.556449
954.000000	70.469908
955.000000	70.365874
956.000000	70.260587
957.000000	70.161220
958.000000	70.052781
959.000000	69.945186
960.000000	69.841561
961.000000	69.732309
962.000000	69.628008
963.000000	69.515874
964.000000	69.419240
965.000000	69.332461
966.000000	69.240677
967.000000	69.149658
968.000000	69.048107
969.000000	68.964273
970.000000	68.894098
971.000000	68.796233
972.000000	68.711387
973.000000	68.622018
974.000000	68.546456
975.000000	68.454423
976.000000	68.366318
977.000000	68.274433
978.000000	68.189082
979.000000	68.110611
980.000000	68.010196
981.000000	67.926214
982.000000	67.851767
983.000000	67.761631
984.000000	67.690755
985.000000	67.624348
986.000000	67.541399
987.000000	67.455251
988.000000	67.392068
989.000000	67.332859
990.000000	67.262420
991.000000	67.194284
992.000000	67.134750
993.000000	67.074775
994.000000	67.033066
995.000000	66.987254
996.000000	66.922755
997.000000	66.873245
998.000000	66.816627
999.000000	66.783516
1000.000000	66.759947
1001.000000	66.716101
1002.000000	66.684190
1003.000000	66.655001
1004.000000	66.612836
1005.000000	66.584960
1006.000000	66.558164
1007.000000	66.531387
1008.000000	66.504223
1009.000000	66.478554
1010.000000	66.456786
1011.000000	66.439967
1012.000000	66.428644
1013.000000	66.420287
1014.000000	66.433794
1015.000000	66.453031
1016.000000	66.479611
1017.000000	66.504427
1018.000000	66.542826
1019.000000	66.593321
1020.000000	66.642008
1021.000000	66.697385
1022.000000	66.748574
1023.000000	66.806854
1024.000000	66.870495
1025.000000	66.932264
1026.000000	66.996651
1027.000000	67.068340
1028.000000	67.133916
1029.000000	67.193383
1030.000000	67.261798
1031.000000	67.332774
1032.000000	67.393973
1033.000000	67.454345
1034.000000	67.525331
1035.000000	67.589661
1036.000000	67.642853
1037.000000	67.708153
1038.000000	67.766454
1039.000000	67.819905
1040.000000	67.873989
1041.000000	67.929789
1042.000000	67.997034
1043.000000	68.052593
1044.000000	68.112660
1045.000000	68.179290
1046.000000	68.243272
1047.000000	68.310640
1048.000000	68.370327
1049.000000	68.438472
1050.000000	68.513265
1051.000000	68.586098
1052.000000	68.665367
1053.000000	68.748258
1054.000000	68.834948
1055.000000	68.913277
1056.000000	69.004234
1057.000000	69.103418
1058.000000	69.188415
1059.000000	69.274011
1060.000000	69.369247
1061.000000	69.460250
1062.000000	69.550200
1063.000000	69.640593
1064.000000	69.727959
1065.000000	69.808685
1066.000000	69.893836
1067.000000	69.984382
1068.000000	70.079839
1069.000000	70.160440
1070.000000	70.233786
1071.000000	70.312967
1072.000000	70.393888
1073.000000	70.492149
1074.000000	70.578294
1075.000000	70.656813
1076.000000	70.732048
1077.000000	70.817497
1078.000000	70.900534
1079.000000	70.989809
1080.000000	71.068851
1081.000000	71.143634
1082.000000	71.235008
1083.000000	71.325623
1084.000000	71.417669
1085.000000	71.502589
1086.000000	71.597320
1087.000000	71.688148
1088.000000	71.778690
1089.000000	71.870694
1090.000000	71.965669
1091.000000	72.038207
1092.000000	72.134944
1093.000000	72.221420
1094.000000	72.300104
1095.000000	72.364072
1096.000000	72.439954
1097.000000	72.525918
1098.000000	72.588803
1099.000000	72.649668
1100.000000	72.721346
1101.000000	72.782946
1102.000000	72.846901
1103.000000	72.895144
1104.000000	72.948231
1105.000000	73.000499
1106.000000	73.062603
1107.000000	73.100652
1108.000000	73.144636
1109.000000	73.191726
1110.000000	73.230485
1111.000000	73.272498
1112.000000	73.311652
1113.000000	73.345412
1114.000000	73.377704
1115.000000	73.418187
1116.000000	73.464632
1117.000000	73.492678
1118.000000	73.511803
1119.000000	73.521370
1120.000000	73.514139
1121.000000	73.498313
1122.000000	73.485611
1123.000000	73.436166
1124.000000	73.384762
1125.000000	73.311975
1126.000000	73.244055
1127.000000	73.144062
1128.000000	73.023029
1129.000000	72.870557
1130.000000	72.674403
1131.000000	72.430854
1132.000000	72.135749
1133.000000	71.824590
1134.000000	71.533495
1135.000000	71.181110
1136.000000	70.756873
1137.000000	70.320200
1138.000000	69.897343
1139.000000	69.496107
1140.000000	69.088316
1141.000000	68.707953
1142.000000	68.338268
1143.000000	67.978006
1144.000000	67.641350
1145.000000	67.352777
1146.000000	67.134048
1147.000000	66.975369
1148.000000	66.913193
1149.000000	66.918458
1150.000000	66.954007
1151.000000	66.988134
1152.000000	67.027975
1153.000000	67.008766
1154.000000	66.946382
1155.000000	66.851781
1156.000000	66.671763
1157.000000	66.428217
1158.000000	66.127953
1159.000000	65.771329
1160.000000	65.397785
1161.000000	65.007070
1162.000000	64.614967
1163.000000	64.184960
1164.000000	63.753965
1165.000000	63.348044
1166.000000	62.897032
