PE UV       SUBTECH     SPECTRUM    ASCII       PEDS        4.00        
   -1
CICIMAUCR0002-3.Sample.ASC
24/05/03
15:09:39.00
24/05/03
15:09:39.00
Vinicio Soto Monge
C. kalinini
250,000000
1
Lambda 1050
1050L1511233
PerkinElmer UV WinLab 6.3.2.0749 / 2.02.05 Lambda 900 UV/VIS/NIR, Aug  7 2015 09:38:08

0
0
3350/servo 860,8/2
0
0
UV/VIS
1
1
1
DoubleDePol,CommonBeamDepol,RBeamAtt,SBeamAtt,60mm sphere, WB InGaAs Detector
0
0
0
0
Program
Program
3350/servo 860,8/2
3350/0,2 860,8/0,2
3350/0,2 860,8/0,2
0
15.00
 
 
 
0
 
860,8
319,2
860,8
Front
100
on
S:100 R:100
0
0
0
0
 
0
 
 
 
0
 
 
0
0
0
0
0
 
 
 
 
0
0


0
0
#HDR
-1
-1
#GR
nm
%R
1.0
0.0
2500,000000
-1,000000
2251
8
99,074100
5,519500
#DATA
250.000000	6.254600
251.000000	6.232267
252.000000	6.194733
253.000000	6.171033
254.000000	6.210633
255.000000	6.197233
256.000000	6.182600
257.000000	6.134833
258.000000	6.149800
259.000000	6.134333
260.000000	6.115133
261.000000	6.095433
262.000000	6.065867
263.000000	6.043200
264.000000	6.011500
265.000000	5.978733
266.000000	5.991633
267.000000	5.917767
268.000000	5.889333
269.000000	5.900967
270.000000	5.905667
271.000000	5.843733
272.000000	5.865033
273.000000	5.824467
274.000000	5.814700
275.000000	5.799300
276.000000	5.796033
277.000000	5.794800
278.000000	5.781367
279.000000	5.768667
280.000000	5.754000
281.000000	5.767900
282.000000	5.756700
283.000000	5.747833
284.000000	5.742833
285.000000	5.741900
286.000000	5.723733
287.000000	5.708067
288.000000	5.738533
289.000000	5.725267
290.000000	5.693300
291.000000	5.702533
292.000000	5.688633
293.000000	5.704467
294.000000	5.711600
295.000000	5.690700
296.000000	5.694700
297.000000	5.687400
298.000000	5.665233
299.000000	5.670533
300.000000	5.666833
301.000000	5.622833
302.000000	5.670567
303.000000	5.686900
304.000000	5.678733
305.000000	5.658233
306.000000	5.671800
307.000000	5.676900
308.000000	5.644433
309.000000	5.655000
310.000000	5.693600
311.000000	5.648667
312.000000	5.655567
313.000000	5.644567
314.000000	5.664633
315.000000	5.630667
316.000000	5.654833
317.000000	5.879700
318.000000	5.855267
319.000000	6.096267
320.000000	5.869433
321.000000	5.805667
322.000000	5.951600
323.000000	5.881167
324.000000	5.666500
325.000000	5.579000
326.000000	5.782767
327.000000	5.779033
328.000000	5.733100
329.000000	5.718200
330.000000	5.605800
331.000000	5.683767
332.000000	5.819800
333.000000	5.878433
334.000000	5.802433
335.000000	5.818433
336.000000	5.886567
337.000000	5.833300
338.000000	5.753833
339.000000	5.826267
340.000000	5.690567
341.000000	5.803867
342.000000	5.894800
343.000000	5.732100
344.000000	5.781233
345.000000	5.812133
346.000000	5.820267
347.000000	5.858233
348.000000	5.886167
349.000000	5.899667
350.000000	5.957933
351.000000	5.993800
352.000000	5.968700
353.000000	5.970467
354.000000	5.983267
355.000000	6.030567
356.000000	5.985133
357.000000	6.012867
358.000000	6.017000
359.000000	6.023967
360.000000	6.133633
361.000000	6.076867
362.000000	6.062967
363.000000	6.077967
364.000000	6.086000
365.000000	6.112500
366.000000	6.239500
367.000000	6.206700
368.000000	6.140600
369.000000	6.227800
370.000000	6.215800
371.000000	6.242533
372.000000	6.246300
373.000000	6.120667
374.000000	6.219067
375.000000	6.352400
376.000000	6.445033
377.000000	6.456167
378.000000	6.488967
379.000000	6.520533
380.000000	6.564900
381.000000	6.608600
382.000000	6.647233
383.000000	6.689000
384.000000	6.740367
385.000000	6.796133
386.000000	6.854800
387.000000	6.912567
388.000000	6.982067
389.000000	7.058900
390.000000	7.137233
391.000000	7.223067
392.000000	7.331033
393.000000	7.434233
394.000000	7.535000
395.000000	7.638333
396.000000	7.761867
397.000000	7.895667
398.000000	8.039267
399.000000	8.186233
400.000000	8.359300
401.000000	8.527800
402.000000	8.730400
403.000000	8.934167
404.000000	9.136033
405.000000	9.373800
406.000000	9.610600
407.000000	9.863900
408.000000	10.138300
409.000000	10.423100
410.000000	10.733700
411.000000	11.056933
412.000000	11.384233
413.000000	11.736667
414.000000	12.108800
415.000000	12.489667
416.000000	12.875500
417.000000	13.277233
418.000000	13.695167
419.000000	14.120500
420.000000	14.561200
421.000000	15.014100
422.000000	15.464900
423.000000	15.922400
424.000000	16.384967
425.000000	16.851233
426.000000	17.320800
427.000000	17.778733
428.000000	18.245333
429.000000	18.712200
430.000000	19.170700
431.000000	19.630833
432.000000	20.086333
433.000000	20.518367
434.000000	20.948533
435.000000	21.376400
436.000000	21.785733
437.000000	22.188433
438.000000	22.585800
439.000000	22.971933
440.000000	23.347267
441.000000	23.710100
442.000000	24.068400
443.000000	24.432767
444.000000	24.759967
445.000000	25.072800
446.000000	25.388233
447.000000	25.681000
448.000000	25.964567
449.000000	26.244633
450.000000	26.495167
451.000000	26.742633
452.000000	26.994000
453.000000	27.216400
454.000000	27.436900
455.000000	27.636500
456.000000	27.820333
457.000000	27.976867
458.000000	28.143233
459.000000	28.301033
460.000000	28.421000
461.000000	28.550800
462.000000	28.648433
463.000000	28.751000
464.000000	28.832233
465.000000	28.892367
466.000000	28.953500
467.000000	28.993733
468.000000	29.024933
469.000000	29.044200
470.000000	29.054100
471.000000	29.050100
472.000000	29.034067
473.000000	29.015933
474.000000	28.986667
475.000000	28.944233
476.000000	28.909067
477.000000	28.864033
478.000000	28.802667
479.000000	28.765700
480.000000	28.724700
481.000000	28.680967
482.000000	28.629900
483.000000	28.594533
484.000000	28.556700
485.000000	28.536733
486.000000	28.530067
487.000000	28.545633
488.000000	28.597533
489.000000	28.682233
490.000000	28.802000
491.000000	28.969933
492.000000	29.209233
493.000000	29.495200
494.000000	29.847700
495.000000	30.264433
496.000000	30.719100
497.000000	31.221833
498.000000	31.782100
499.000000	32.395933
500.000000	33.084967
501.000000	33.825433
502.000000	34.611900
503.000000	35.397833
504.000000	36.242167
505.000000	37.073300
506.000000	37.908567
507.000000	38.769300
508.000000	39.626233
509.000000	40.492200
510.000000	41.334667
511.000000	42.161933
512.000000	42.970667
513.000000	43.773700
514.000000	44.553067
515.000000	45.352633
516.000000	46.125833
517.000000	46.901567
518.000000	47.677633
519.000000	48.424467
520.000000	49.173433
521.000000	49.916800
522.000000	50.648500
523.000000	51.364633
524.000000	52.093000
525.000000	52.794567
526.000000	53.467967
527.000000	54.133633
528.000000	54.770500
529.000000	55.414133
530.000000	56.040433
531.000000	56.690967
532.000000	57.317467
533.000000	57.955133
534.000000	58.601667
535.000000	59.244033
536.000000	59.897233
537.000000	60.538600
538.000000	61.143400
539.000000	61.780900
540.000000	62.392667
541.000000	62.995333
542.000000	63.589733
543.000000	64.186100
544.000000	64.739833
545.000000	65.270533
546.000000	65.766000
547.000000	66.250367
548.000000	66.726033
549.000000	67.133900
550.000000	67.559900
551.000000	67.956167
552.000000	68.337633
553.000000	68.693500
554.000000	69.018067
555.000000	69.321067
556.000000	69.621367
557.000000	69.885833
558.000000	70.169000
559.000000	70.417500
560.000000	70.658167
561.000000	70.885700
562.000000	71.087667
563.000000	71.253733
564.000000	71.411233
565.000000	71.553267
566.000000	71.677367
567.000000	71.808633
568.000000	71.914967
569.000000	71.981833
570.000000	72.033633
571.000000	72.080067
572.000000	72.112567
573.000000	72.056933
574.000000	72.045667
575.000000	71.995267
576.000000	71.956567
577.000000	71.878767
578.000000	71.799667
579.000000	71.710767
580.000000	71.626433
581.000000	71.520100
582.000000	71.372633
583.000000	71.246100
584.000000	71.043400
585.000000	70.884567
586.000000	70.711200
587.000000	70.474133
588.000000	70.290367
589.000000	70.056767
590.000000	69.798600
591.000000	69.518733
592.000000	69.246267
593.000000	68.939633
594.000000	68.585567
595.000000	68.206200
596.000000	67.814200
597.000000	67.385600
598.000000	66.953167
599.000000	66.481300
600.000000	66.064633
601.000000	65.609100
602.000000	65.183200
603.000000	64.742933
604.000000	64.280667
605.000000	63.881167
606.000000	63.468567
607.000000	63.123133
608.000000	62.757367
609.000000	62.426867
610.000000	62.175367
611.000000	61.920167
612.000000	61.753100
613.000000	61.559633
614.000000	61.446067
615.000000	61.377133
616.000000	61.336133
617.000000	61.307500
618.000000	61.298167
619.000000	61.288767
620.000000	61.293833
621.000000	61.296933
622.000000	61.354467
623.000000	61.349000
624.000000	61.392900
625.000000	61.419000
626.000000	61.489333
627.000000	61.508567
628.000000	61.563000
629.000000	61.626267
630.000000	61.708533
631.000000	61.754467
632.000000	61.858700
633.000000	61.925833
634.000000	62.023800
635.000000	62.116300
636.000000	62.189833
637.000000	62.300467
638.000000	62.380033
639.000000	62.455533
640.000000	62.521600
641.000000	62.573900
642.000000	62.610533
643.000000	62.655867
644.000000	62.659300
645.000000	62.680933
646.000000	62.742767
647.000000	62.787667
648.000000	62.833067
649.000000	62.938733
650.000000	63.056033
651.000000	63.239067
652.000000	63.488900
653.000000	63.813433
654.000000	64.141800
655.000000	64.550700
656.000000	65.026933
657.000000	65.493033
658.000000	65.996100
659.000000	66.575433
660.000000	67.141700
661.000000	67.744467
662.000000	68.333300
663.000000	68.935367
664.000000	69.519700
665.000000	70.096300
666.000000	70.614667
667.000000	71.093800
668.000000	71.576400
669.000000	72.027933
670.000000	72.486167
671.000000	72.904467
672.000000	73.291667
673.000000	73.732567
674.000000	74.087133
675.000000	74.467533
676.000000	74.867767
677.000000	75.319000
678.000000	75.753433
679.000000	76.208100
680.000000	76.655633
681.000000	77.167833
682.000000	77.684167
683.000000	78.258900
684.000000	78.784300
685.000000	79.317433
686.000000	79.864467
687.000000	80.400267
688.000000	80.881433
689.000000	81.417433
690.000000	81.931600
691.000000	82.405533
692.000000	82.905367
693.000000	83.394867
694.000000	83.844967
695.000000	84.297400
696.000000	84.766767
697.000000	85.222900
698.000000	85.713233
699.000000	86.120000
700.000000	86.579167
701.000000	87.058300
702.000000	87.551867
703.000000	88.062733
704.000000	88.591967
705.000000	89.085600
706.000000	89.590000
707.000000	90.043900
708.000000	90.498433
709.000000	90.962833
710.000000	91.375300
711.000000	91.783900
712.000000	92.181933
713.000000	92.556667
714.000000	92.867900
715.000000	93.195100
716.000000	93.513500
717.000000	93.820433
718.000000	94.046767
719.000000	94.244767
720.000000	94.549733
721.000000	94.833267
722.000000	95.050833
723.000000	95.286800
724.000000	95.518100
725.000000	95.709300
726.000000	95.908200
727.000000	96.119633
728.000000	96.341300
729.000000	96.518367
730.000000	96.689033
731.000000	96.889633
732.000000	97.124867
733.000000	97.354633
734.000000	97.500433
735.000000	97.681267
736.000000	97.896367
737.000000	98.067467
738.000000	98.212467
739.000000	98.352767
740.000000	98.499533
741.000000	98.582900
742.000000	98.667567
743.000000	98.785800
744.000000	98.859467
745.000000	98.901667
746.000000	98.902300
747.000000	98.986967
748.000000	99.046100
749.000000	99.070000
750.000000	99.148767
751.000000	99.199633
752.000000	99.262500
753.000000	99.325367
754.000000	99.342867
755.000000	99.338067
756.000000	99.415333
757.000000	99.476100
758.000000	99.497567
759.000000	99.493667
760.000000	99.426633
761.000000	99.409467
762.000000	99.384667
763.000000	99.262767
764.000000	99.216400
765.000000	99.145833
766.000000	99.027667
767.000000	98.931800
768.000000	98.813300
769.000000	98.677667
770.000000	98.556300
771.000000	98.369967
772.000000	98.165367
773.000000	97.934067
774.000000	97.771633
775.000000	97.602600
776.000000	97.445067
777.000000	97.262433
778.000000	97.009367
779.000000	96.809433
780.000000	96.666967
781.000000	96.401133
782.000000	96.194933
783.000000	96.017900
784.000000	95.717633
785.000000	95.453833
786.000000	95.201767
787.000000	94.929700
788.000000	94.624433
789.000000	94.303200
790.000000	93.995567
791.000000	93.659467
792.000000	93.296167
793.000000	92.881733
794.000000	92.569667
795.000000	92.191200
796.000000	91.887100
797.000000	91.571133
798.000000	91.189800
799.000000	90.779600
800.000000	90.461733
801.000000	90.035167
802.000000	89.666667
803.000000	89.254267
804.000000	88.812633
805.000000	88.488400
806.000000	88.101033
807.000000	87.784433
808.000000	87.321900
809.000000	86.956300
810.000000	86.642100
811.000000	86.291367
812.000000	85.845167
813.000000	85.482067
814.000000	85.124933
815.000000	84.713433
816.000000	84.316200
817.000000	83.940400
818.000000	83.606800
819.000000	83.368467
820.000000	82.957967
821.000000	82.527833
822.000000	82.195100
823.000000	81.868900
824.000000	81.608200
825.000000	81.262367
826.000000	80.960700
827.000000	80.576067
828.000000	80.348267
829.000000	80.089300
830.000000	79.745367
831.000000	79.408100
832.000000	79.260767
833.000000	79.031167
834.000000	78.717333
835.000000	78.631300
836.000000	78.351533
837.000000	78.177700
838.000000	77.735167
839.000000	77.750433
840.000000	77.393533
841.000000	77.172533
842.000000	77.111300
843.000000	76.834067
844.000000	76.753167
845.000000	76.531967
846.000000	76.484167
847.000000	76.493967
848.000000	76.356500
849.000000	76.112200
850.000000	75.925267
851.000000	75.832067
852.000000	75.813967
853.000000	75.851800
854.000000	75.244867
855.000000	75.177533
856.000000	74.916167
857.000000	75.072633
858.000000	75.055444
859.000000	74.683071
860.000000	74.569331
861.000000	74.458578
862.000000	74.328609
863.000000	74.224629
864.000000	74.121301
865.000000	74.012252
866.000000	73.903986
867.000000	73.805100
868.000000	73.708882
869.000000	73.588890
870.000000	73.477171
871.000000	73.366120
872.000000	73.328880
873.000000	73.434209
874.000000	73.614294
875.000000	73.790600
876.000000	73.975039
877.000000	74.096423
878.000000	74.144924
879.000000	74.205715
880.000000	74.248661
881.000000	74.282838
882.000000	74.276127
883.000000	74.280477
884.000000	74.275501
885.000000	74.269637
886.000000	74.259598
887.000000	74.239349
888.000000	74.207436
889.000000	74.187363
890.000000	74.161615
891.000000	74.122709
892.000000	74.080385
893.000000	74.058311
894.000000	73.993807
895.000000	73.952139
896.000000	73.904174
897.000000	73.836145
898.000000	73.787941
899.000000	73.720580
900.000000	73.636364
901.000000	73.568921
902.000000	73.496530
903.000000	73.432207
904.000000	73.366027
905.000000	73.318636
906.000000	73.262433
907.000000	73.207268
908.000000	73.165969
909.000000	73.139659
910.000000	73.106034
911.000000	73.081409
912.000000	73.060814
913.000000	73.055609
914.000000	73.034219
915.000000	73.031644
916.000000	73.012220
917.000000	73.004502
918.000000	72.997846
919.000000	72.983244
920.000000	72.955612
921.000000	72.932551
922.000000	72.911754
923.000000	72.868038
924.000000	72.830587
925.000000	72.793215
926.000000	72.756955
927.000000	72.732284
928.000000	72.706825
929.000000	72.646775
930.000000	72.615986
931.000000	72.587999
932.000000	72.563395
933.000000	72.501418
934.000000	72.462655
935.000000	72.415351
936.000000	72.366817
937.000000	72.329330
938.000000	72.271440
939.000000	72.224197
940.000000	72.174176
941.000000	72.139635
942.000000	72.080014
943.000000	72.024403
944.000000	71.994487
945.000000	71.954194
946.000000	71.888878
947.000000	71.841415
948.000000	71.788767
949.000000	71.746343
950.000000	71.689527
951.000000	71.632819
952.000000	71.578844
953.000000	71.515755
954.000000	71.455973
955.000000	71.397010
956.000000	71.311182
957.000000	71.231368
958.000000	71.153365
959.000000	71.055273
960.000000	70.970312
961.000000	70.893754
962.000000	70.780780
963.000000	70.680909
964.000000	70.592520
965.000000	70.507236
966.000000	70.410757
967.000000	70.318722
968.000000	70.230241
969.000000	70.128460
970.000000	70.034467
971.000000	69.935543
972.000000	69.846889
973.000000	69.738073
974.000000	69.641006
975.000000	69.528324
976.000000	69.425503
977.000000	69.323469
978.000000	69.209504
979.000000	69.093813
980.000000	68.975362
981.000000	68.863818
982.000000	68.749007
983.000000	68.635751
984.000000	68.515852
985.000000	68.388095
986.000000	68.261993
987.000000	68.139629
988.000000	68.019121
989.000000	67.887822
990.000000	67.764043
991.000000	67.641913
992.000000	67.518260
993.000000	67.389685
994.000000	67.257863
995.000000	67.139638
996.000000	67.018376
997.000000	66.896147
998.000000	66.780707
999.000000	66.657236
1000.000000	66.540116
1001.000000	66.418453
1002.000000	66.295670
1003.000000	66.177791
1004.000000	66.052676
1005.000000	65.931444
1006.000000	65.814311
1007.000000	65.687934
1008.000000	65.559539
1009.000000	65.442572
1010.000000	65.328585
1011.000000	65.213255
1012.000000	65.101408
1013.000000	64.994163
1014.000000	64.908683
1015.000000	64.829787
1016.000000	64.754047
1017.000000	64.685507
1018.000000	64.625672
1019.000000	64.582384
1020.000000	64.533258
1021.000000	64.495901
1022.000000	64.457975
1023.000000	64.428995
1024.000000	64.411566
1025.000000	64.380270
1026.000000	64.357410
1027.000000	64.336802
1028.000000	64.312597
1029.000000	64.292976
1030.000000	64.270694
1031.000000	64.237723
1032.000000	64.207924
1033.000000	64.190258
1034.000000	64.167301
1035.000000	64.136641
1036.000000	64.107839
1037.000000	64.078281
1038.000000	64.045011
1039.000000	64.010493
1040.000000	63.986310
1041.000000	63.951393
1042.000000	63.910393
1043.000000	63.871584
1044.000000	63.841695
1045.000000	63.818423
1046.000000	63.792061
1047.000000	63.766304
1048.000000	63.746909
1049.000000	63.738039
1050.000000	63.722241
1051.000000	63.703817
1052.000000	63.699536
1053.000000	63.700128
1054.000000	63.703706
1055.000000	63.703927
1056.000000	63.713109
1057.000000	63.731204
1058.000000	63.751935
1059.000000	63.759413
1060.000000	63.776916
1061.000000	63.795220
1062.000000	63.805794
1063.000000	63.811492
1064.000000	63.817708
1065.000000	63.829134
1066.000000	63.851857
1067.000000	63.874529
1068.000000	63.889930
1069.000000	63.906851
1070.000000	63.922100
1071.000000	63.942032
1072.000000	63.956468
1073.000000	63.981288
1074.000000	64.005196
1075.000000	64.022199
1076.000000	64.039545
1077.000000	64.063311
1078.000000	64.087206
1079.000000	64.107479
1080.000000	64.146322
1081.000000	64.170989
1082.000000	64.210627
1083.000000	64.245076
1084.000000	64.276126
1085.000000	64.315947
1086.000000	64.350333
1087.000000	64.397899
1088.000000	64.434910
1089.000000	64.473664
1090.000000	64.506018
1091.000000	64.547738
1092.000000	64.590123
1093.000000	64.624581
1094.000000	64.663572
1095.000000	64.695157
1096.000000	64.717012
1097.000000	64.747203
1098.000000	64.772808
1099.000000	64.796752
1100.000000	64.821257
1101.000000	64.836467
1102.000000	64.856846
1103.000000	64.881638
1104.000000	64.901871
1105.000000	64.911388
1106.000000	64.921578
1107.000000	64.927023
1108.000000	64.937270
1109.000000	64.944504
1110.000000	64.954325
1111.000000	64.956157
1112.000000	64.954424
1113.000000	64.953449
1114.000000	64.964799
1115.000000	64.967060
1116.000000	64.974546
1117.000000	64.967478
1118.000000	64.957947
1119.000000	64.941562
1120.000000	64.902471
1121.000000	64.852642
1122.000000	64.794535
1123.000000	64.719129
1124.000000	64.632546
1125.000000	64.527763
1126.000000	64.422026
1127.000000	64.277471
1128.000000	64.130858
1129.000000	63.933315
1130.000000	63.694253
1131.000000	63.413168
1132.000000	63.082455
1133.000000	62.730997
1134.000000	62.355697
1135.000000	61.953004
1136.000000	61.490711
1137.000000	61.000189
1138.000000	60.513618
1139.000000	60.037227
1140.000000	59.562310
1141.000000	59.107965
1142.000000	58.681920
1143.000000	58.261549
1144.000000	57.869358
1145.000000	57.524211
1146.000000	57.248850
1147.000000	57.058901
1148.000000	56.975327
1149.000000	56.953737
1150.000000	56.967673
1151.000000	56.998935
1152.000000	57.010914
1153.000000	57.004648
1154.000000	56.947222
1155.000000	56.835301
1156.000000	56.631583
1157.000000	56.362807
1158.000000	56.030770
1159.000000	55.657028
1160.000000	55.245660
1161.000000	54.811872
1162.000000	54.380787
1163.000000	53.930254
1164.000000	53.464880
1165.000000	53.008627
1166.000000	52.534761
1167.000000	52.101489
