PE UV       SUBTECH     SPECTRUM    ASCII       PEDS        4.00        
   -1
CICIMAUCR0210-3.ASC
24/06/06
17:17:43.00
24/06/06
17:17:43.00
Vinicio Soto Monge
C. resplendens. Sex F. Dorsal
250,000000
1
Lambda 1050
1050L1511233
PerkinElmer UV WinLab 6.3.2.0749 / 2.02.05 Lambda 900 UV/VIS/NIR, Aug  7 2015 09:38:08

0
0
3350/servo 860,8/2
0
0
UV/VIS
1
1
1
DoubleDePol,CommonBeamDepol,RBeamAtt,SBeamAtt,60mm sphere, WB InGaAs Detector
0
0
0
0
Program
Program
3350/servo 860,8/2
3350/0,2 860,8/0,2
3350/0,2 860,8/0,2
0
15.00
 
 
 
0
 
860,8
319,2
860,8
Front
100
on
S:100 R:100
0
0
0
0
 
0
 
 
 
0
 
 
0
0
0
0
0
 
 
 
 
0
0


0
0
#HDR
-1
-1
#GR
nm
%R
1.0
0.0
2500,000000
-1,000000
2251
8
91,100500
5,644400
#DATA
250.000000	6.154633
251.000000	6.131200
252.000000	6.156667
253.000000	6.146367
254.000000	6.116033
255.000000	6.100867
256.000000	6.109267
257.000000	6.103567
258.000000	6.070467
259.000000	6.071033
260.000000	6.048633
261.000000	6.001267
262.000000	5.998800
263.000000	5.955900
264.000000	5.944667
265.000000	5.922067
266.000000	5.903667
267.000000	5.905067
268.000000	5.880500
269.000000	5.863133
270.000000	5.831933
271.000000	5.834467
272.000000	5.827233
273.000000	5.812167
274.000000	5.803867
275.000000	5.782967
276.000000	5.754567
277.000000	5.744900
278.000000	5.754500
279.000000	5.751333
280.000000	5.717033
281.000000	5.712800
282.000000	5.692000
283.000000	5.671633
284.000000	5.672067
285.000000	5.658767
286.000000	5.650667
287.000000	5.637033
288.000000	5.640133
289.000000	5.641133
290.000000	5.617633
291.000000	5.606333
292.000000	5.593733
293.000000	5.589367
294.000000	5.586433
295.000000	5.593433
296.000000	5.586500
297.000000	5.569933
298.000000	5.557567
299.000000	5.536367
300.000000	5.544500
301.000000	5.547433
302.000000	5.548367
303.000000	5.532367
304.000000	5.532233
305.000000	5.533333
306.000000	5.532400
307.000000	5.528833
308.000000	5.519133
309.000000	5.506967
310.000000	5.514433
311.000000	5.509867
312.000000	5.485600
313.000000	5.491567
314.000000	5.501867
315.000000	5.479233
316.000000	5.599767
317.000000	5.780033
318.000000	5.741700
319.000000	5.665667
320.000000	5.675067
321.000000	5.653933
322.000000	5.594000
323.000000	5.565233
324.000000	5.652133
325.000000	5.705667
326.000000	5.702133
327.000000	5.685700
328.000000	5.671233
329.000000	5.709867
330.000000	5.774833
331.000000	5.727400
332.000000	5.657133
333.000000	5.662633
334.000000	5.648900
335.000000	5.605567
336.000000	5.702200
337.000000	5.766067
338.000000	5.670833
339.000000	5.650400
340.000000	5.671033
341.000000	5.703400
342.000000	5.739700
343.000000	5.692433
344.000000	5.659200
345.000000	5.720933
346.000000	5.759833
347.000000	5.758433
348.000000	5.746367
349.000000	5.792833
350.000000	5.823100
351.000000	5.819333
352.000000	5.845700
353.000000	5.858167
354.000000	5.881333
355.000000	5.855767
356.000000	5.879733
357.000000	5.950300
358.000000	5.953633
359.000000	5.965500
360.000000	5.978033
361.000000	5.953767
362.000000	5.953667
363.000000	6.005300
364.000000	6.058867
365.000000	6.024567
366.000000	5.999267
367.000000	6.022200
368.000000	5.994000
369.000000	5.982633
370.000000	6.038567
371.000000	6.076967
372.000000	6.073833
373.000000	6.090633
374.000000	6.122933
375.000000	6.176900
376.000000	6.204333
377.000000	6.237467
378.000000	6.261033
379.000000	6.263033
380.000000	6.285733
381.000000	6.304700
382.000000	6.325533
383.000000	6.337367
384.000000	6.371733
385.000000	6.398000
386.000000	6.421300
387.000000	6.429033
388.000000	6.447533
389.000000	6.468300
390.000000	6.484000
391.000000	6.498300
392.000000	6.518633
393.000000	6.539800
394.000000	6.554833
395.000000	6.574267
396.000000	6.593700
397.000000	6.625333
398.000000	6.647633
399.000000	6.677967
400.000000	6.693967
401.000000	6.729033
402.000000	6.768867
403.000000	6.798667
404.000000	6.835667
405.000000	6.881900
406.000000	6.940167
407.000000	6.993567
408.000000	7.049433
409.000000	7.118400
410.000000	7.197067
411.000000	7.279233
412.000000	7.385933
413.000000	7.495833
414.000000	7.601367
415.000000	7.732033
416.000000	7.873833
417.000000	8.045833
418.000000	8.217633
419.000000	8.417633
420.000000	8.609200
421.000000	8.836200
422.000000	9.098467
423.000000	9.371900
424.000000	9.678000
425.000000	9.991000
426.000000	10.322733
427.000000	10.696200
428.000000	11.092500
429.000000	11.516700
430.000000	11.936500
431.000000	12.394367
432.000000	12.873767
433.000000	13.380133
434.000000	13.901767
435.000000	14.433800
436.000000	14.973633
437.000000	15.527733
438.000000	16.103967
439.000000	16.658733
440.000000	17.256933
441.000000	17.816000
442.000000	18.408167
443.000000	18.955600
444.000000	19.537200
445.000000	20.063333
446.000000	20.581233
447.000000	21.125433
448.000000	21.602233
449.000000	22.081867
450.000000	22.526733
451.000000	22.985733
452.000000	23.409467
453.000000	23.805967
454.000000	24.199900
455.000000	24.582767
456.000000	24.925067
457.000000	25.278633
458.000000	25.583267
459.000000	25.893700
460.000000	26.169233
461.000000	26.468633
462.000000	26.764667
463.000000	27.030433
464.000000	27.285800
465.000000	27.550200
466.000000	27.800867
467.000000	28.047600
468.000000	28.294000
469.000000	28.531100
470.000000	28.767367
471.000000	29.013867
472.000000	29.230267
473.000000	29.460167
474.000000	29.671900
475.000000	29.902900
476.000000	30.119500
477.000000	30.336233
478.000000	30.518367
479.000000	30.721100
480.000000	30.931300
481.000000	31.110767
482.000000	31.265900
483.000000	31.422200
484.000000	31.540633
485.000000	31.664767
486.000000	31.743467
487.000000	31.811400
488.000000	31.870233
489.000000	31.919933
490.000000	31.935567
491.000000	31.932700
492.000000	31.948367
493.000000	31.922900
494.000000	31.895233
495.000000	31.871167
496.000000	31.819700
497.000000	31.806433
498.000000	31.811767
499.000000	31.848833
500.000000	31.890733
501.000000	31.957433
502.000000	32.077033
503.000000	32.287167
504.000000	32.536833
505.000000	32.860833
506.000000	33.273300
507.000000	33.752667
508.000000	34.327033
509.000000	34.981767
510.000000	35.740833
511.000000	36.604533
512.000000	37.561867
513.000000	38.589600
514.000000	39.731633
515.000000	40.943433
516.000000	42.196067
517.000000	43.501667
518.000000	44.868533
519.000000	46.267233
520.000000	47.699967
521.000000	49.200800
522.000000	50.690400
523.000000	52.178700
524.000000	53.674667
525.000000	55.132467
526.000000	56.585900
527.000000	58.027433
528.000000	59.416000
529.000000	60.823800
530.000000	62.164933
531.000000	63.514867
532.000000	64.821200
533.000000	66.093100
534.000000	67.306900
535.000000	68.490733
536.000000	69.616900
537.000000	70.717833
538.000000	71.783567
539.000000	72.798300
540.000000	73.787900
541.000000	74.770100
542.000000	75.708267
543.000000	76.608133
544.000000	77.495733
545.000000	78.322933
546.000000	79.139800
547.000000	79.922267
548.000000	80.675933
549.000000	81.399300
550.000000	82.118267
551.000000	82.792233
552.000000	83.461567
553.000000	84.086167
554.000000	84.686333
555.000000	85.252533
556.000000	85.788600
557.000000	86.287767
558.000000	86.725000
559.000000	87.174867
560.000000	87.600700
561.000000	87.981000
562.000000	88.330600
563.000000	88.665033
564.000000	88.964900
565.000000	89.231900
566.000000	89.477067
567.000000	89.713467
568.000000	89.907467
569.000000	90.093600
570.000000	90.233000
571.000000	90.395533
572.000000	90.512300
573.000000	90.617233
574.000000	90.705133
575.000000	90.825600
576.000000	90.903867
577.000000	90.961200
578.000000	91.012267
579.000000	91.059667
580.000000	91.091067
581.000000	91.105833
582.000000	91.090400
583.000000	91.062667
584.000000	91.059500
585.000000	91.029400
586.000000	90.972167
587.000000	90.879267
588.000000	90.815267
589.000000	90.717400
590.000000	90.535567
591.000000	90.357467
592.000000	90.145767
593.000000	89.917233
594.000000	89.655733
595.000000	89.365100
596.000000	89.047067
597.000000	88.708000
598.000000	88.329400
599.000000	87.905233
600.000000	87.486367
601.000000	86.990467
602.000000	86.461933
603.000000	85.922167
604.000000	85.329633
605.000000	84.772600
606.000000	84.129200
607.000000	83.454600
608.000000	82.766567
609.000000	82.026200
610.000000	81.269767
611.000000	80.474900
612.000000	79.605300
613.000000	78.678967
614.000000	77.751567
615.000000	76.789900
616.000000	75.771000
617.000000	74.708933
618.000000	73.617233
619.000000	72.482200
620.000000	71.312167
621.000000	70.120833
622.000000	68.908033
623.000000	67.686367
624.000000	66.464767
625.000000	65.269667
626.000000	64.080633
627.000000	62.940033
628.000000	61.842767
629.000000	60.782333
630.000000	59.768000
631.000000	58.802200
632.000000	57.912533
633.000000	57.098467
634.000000	56.346700
635.000000	55.679733
636.000000	55.101933
637.000000	54.620367
638.000000	54.217667
639.000000	53.867833
640.000000	53.627167
641.000000	53.506667
642.000000	53.449833
643.000000	53.494067
644.000000	53.660067
645.000000	53.934900
646.000000	54.286067
647.000000	54.737133
648.000000	55.291867
649.000000	55.906900
650.000000	56.583800
651.000000	57.337667
652.000000	58.107067
653.000000	58.883633
654.000000	59.694400
655.000000	60.461267
656.000000	61.184667
657.000000	61.873167
658.000000	62.528667
659.000000	63.146867
660.000000	63.710267
661.000000	64.204733
662.000000	64.696833
663.000000	65.116800
664.000000	65.477200
665.000000	65.815567
666.000000	66.108867
667.000000	66.382933
668.000000	66.636933
669.000000	66.901967
670.000000	67.139233
671.000000	67.335833
672.000000	67.517633
673.000000	67.663833
674.000000	67.794933
675.000000	67.935900
676.000000	68.016533
677.000000	68.056133
678.000000	68.120900
679.000000	68.148033
680.000000	68.175333
681.000000	68.192500
682.000000	68.188667
683.000000	68.219200
684.000000	68.246167
685.000000	68.227200
686.000000	68.260467
687.000000	68.288200
688.000000	68.343000
689.000000	68.481267
690.000000	68.542933
691.000000	68.659167
692.000000	68.825567
693.000000	68.965167
694.000000	69.167533
695.000000	69.357900
696.000000	69.555667
697.000000	69.776500
698.000000	69.994133
699.000000	70.270800
700.000000	70.559633
701.000000	70.811433
702.000000	71.149300
703.000000	71.488133
704.000000	71.846867
705.000000	72.263933
706.000000	72.650800
707.000000	73.103933
708.000000	73.549967
709.000000	74.065833
710.000000	74.622067
711.000000	75.097033
712.000000	75.637133
713.000000	76.231267
714.000000	76.788400
715.000000	77.314233
716.000000	77.922033
717.000000	78.485067
718.000000	79.035767
719.000000	79.616267
720.000000	80.102900
721.000000	80.576533
722.000000	81.111200
723.000000	81.563900
724.000000	82.133967
725.000000	82.483367
726.000000	82.865100
727.000000	83.279400
728.000000	83.748867
729.000000	84.066033
730.000000	84.337133
731.000000	84.655100
732.000000	84.940033
733.000000	85.175300
734.000000	85.453900
735.000000	85.686533
736.000000	85.897767
737.000000	86.095633
738.000000	86.284933
739.000000	86.401800
740.000000	86.563600
741.000000	86.704300
742.000000	86.821833
743.000000	86.950100
744.000000	87.003767
745.000000	87.088400
746.000000	87.122333
747.000000	87.128567
748.000000	87.241000
749.000000	87.324167
750.000000	87.343767
751.000000	87.348400
752.000000	87.278267
753.000000	87.190133
754.000000	87.222633
755.000000	87.216100
756.000000	87.160133
757.000000	87.095267
758.000000	87.094867
759.000000	86.957600
760.000000	87.003800
761.000000	86.891900
762.000000	86.867300
763.000000	86.772833
764.000000	86.632667
765.000000	86.588933
766.000000	86.462867
767.000000	86.365933
768.000000	86.345633
769.000000	86.277500
770.000000	86.181400
771.000000	86.113833
772.000000	86.039600
773.000000	86.031267
774.000000	85.836433
775.000000	85.790933
776.000000	85.721033
777.000000	85.615400
778.000000	85.495933
779.000000	85.453600
780.000000	85.339133
781.000000	85.224867
782.000000	84.964000
783.000000	84.876167
784.000000	84.645300
785.000000	84.377933
786.000000	84.275800
787.000000	84.012933
788.000000	83.797467
789.000000	83.655067
790.000000	83.470933
791.000000	83.343067
792.000000	83.066500
793.000000	82.906600
794.000000	82.667433
795.000000	82.531033
796.000000	82.324067
797.000000	82.051800
798.000000	81.777300
799.000000	81.627533
800.000000	81.411500
801.000000	81.260733
802.000000	80.993667
803.000000	80.769800
804.000000	80.558467
805.000000	80.341500
806.000000	80.009867
807.000000	79.678433
808.000000	79.491967
809.000000	79.259033
810.000000	78.946833
811.000000	78.667667
812.000000	78.290300
813.000000	77.865033
814.000000	77.608567
815.000000	77.243900
816.000000	76.958100
817.000000	76.489533
818.000000	76.193200
819.000000	75.901433
820.000000	75.485267
821.000000	75.123967
822.000000	74.791500
823.000000	74.475033
824.000000	74.064900
825.000000	73.708033
826.000000	73.444867
827.000000	73.038133
828.000000	72.717700
829.000000	72.657600
830.000000	72.323467
831.000000	72.222033
832.000000	71.828633
833.000000	71.948533
834.000000	71.923533
835.000000	71.717767
836.000000	71.641900
837.000000	71.551000
838.000000	71.605467
839.000000	71.612167
840.000000	71.477467
841.000000	71.448567
842.000000	71.688300
843.000000	71.682333
844.000000	71.839067
845.000000	71.811000
846.000000	71.654833
847.000000	71.791067
848.000000	71.935533
849.000000	71.684400
850.000000	71.775933
851.000000	72.037033
852.000000	72.063367
853.000000	72.045367
854.000000	71.917100
855.000000	71.821667
856.000000	72.008167
857.000000	71.721567
858.000000	71.850467
859.000000	71.838188
860.000000	71.797328
861.000000	71.784444
862.000000	71.746214
863.000000	71.707852
864.000000	71.685311
865.000000	71.651236
866.000000	71.621398
867.000000	71.567517
868.000000	71.499741
869.000000	71.460717
870.000000	71.457779
871.000000	71.583404
872.000000	71.791849
873.000000	71.992102
874.000000	72.125075
875.000000	72.244630
876.000000	72.340086
877.000000	72.432631
878.000000	72.481499
879.000000	72.512822
880.000000	72.543519
881.000000	72.563614
882.000000	72.587048
883.000000	72.596245
884.000000	72.605442
885.000000	72.612270
886.000000	72.616567
887.000000	72.611559
888.000000	72.578125
889.000000	72.546315
890.000000	72.531159
891.000000	72.499007
892.000000	72.470202
893.000000	72.438419
894.000000	72.394104
895.000000	72.344089
896.000000	72.283660
897.000000	72.220871
898.000000	72.158439
899.000000	72.103156
900.000000	72.048945
901.000000	71.980497
902.000000	71.907612
903.000000	71.841875
904.000000	71.766748
905.000000	71.701778
906.000000	71.645194
907.000000	71.590111
908.000000	71.528577
909.000000	71.471031
910.000000	71.432726
911.000000	71.397383
912.000000	71.337634
913.000000	71.264252
914.000000	71.203685
915.000000	71.139737
916.000000	71.081836
917.000000	71.019673
918.000000	70.954892
919.000000	70.879139
920.000000	70.803146
921.000000	70.721763
922.000000	70.659783
923.000000	70.571212
924.000000	70.455968
925.000000	70.378915
926.000000	70.293656
927.000000	70.216641
928.000000	70.122117
929.000000	70.011311
930.000000	69.932259
931.000000	69.837080
932.000000	69.728918
933.000000	69.624590
934.000000	69.517204
935.000000	69.415807
936.000000	69.331299
937.000000	69.229432
938.000000	69.109359
939.000000	69.002376
940.000000	68.894890
941.000000	68.779469
942.000000	68.654746
943.000000	68.543090
944.000000	68.427170
945.000000	68.294790
946.000000	68.159227
947.000000	68.028091
948.000000	67.892571
949.000000	67.750504
950.000000	67.622564
951.000000	67.482427
952.000000	67.322386
953.000000	67.188786
954.000000	67.037974
955.000000	66.873991
956.000000	66.724878
957.000000	66.576113
958.000000	66.419703
959.000000	66.247344
960.000000	66.076911
961.000000	65.923649
962.000000	65.764141
963.000000	65.592933
964.000000	65.430487
965.000000	65.263423
966.000000	65.097348
967.000000	64.941220
968.000000	64.784557
969.000000	64.627933
970.000000	64.478136
971.000000	64.327867
972.000000	64.173792
973.000000	64.023658
974.000000	63.876996
975.000000	63.719463
976.000000	63.571178
977.000000	63.433220
978.000000	63.296058
979.000000	63.157120
980.000000	63.009682
981.000000	62.880249
982.000000	62.740737
983.000000	62.612263
984.000000	62.492160
985.000000	62.366391
986.000000	62.235965
987.000000	62.122090
988.000000	62.006671
989.000000	61.909460
990.000000	61.819379
991.000000	61.708765
992.000000	61.606777
993.000000	61.523378
994.000000	61.435117
995.000000	61.346181
996.000000	61.258485
997.000000	61.176390
998.000000	61.118008
999.000000	61.042539
1000.000000	60.974413
1001.000000	60.908731
1002.000000	60.845065
1003.000000	60.787315
1004.000000	60.727270
1005.000000	60.668686
1006.000000	60.619209
1007.000000	60.555276
1008.000000	60.503556
1009.000000	60.460561
1010.000000	60.423282
1011.000000	60.389732
1012.000000	60.352638
1013.000000	60.344109
1014.000000	60.328363
1015.000000	60.316792
1016.000000	60.321317
1017.000000	60.331730
1018.000000	60.331490
1019.000000	60.348010
1020.000000	60.363847
1021.000000	60.377035
1022.000000	60.403867
1023.000000	60.422645
1024.000000	60.445205
1025.000000	60.478219
1026.000000	60.504994
1027.000000	60.523830
1028.000000	60.543640
1029.000000	60.558785
1030.000000	60.566160
1031.000000	60.584185
1032.000000	60.610782
1033.000000	60.634652
1034.000000	60.651736
1035.000000	60.669660
1036.000000	60.690838
1037.000000	60.702157
1038.000000	60.702734
1039.000000	60.723168
1040.000000	60.736845
1041.000000	60.754243
1042.000000	60.759351
1043.000000	60.774689
1044.000000	60.797704
1045.000000	60.813918
1046.000000	60.825447
1047.000000	60.848210
1048.000000	60.871203
1049.000000	60.900412
1050.000000	60.921032
1051.000000	60.950239
1052.000000	60.984872
1053.000000	61.029335
1054.000000	61.074349
1055.000000	61.105636
1056.000000	61.150884
1057.000000	61.197418
1058.000000	61.227824
1059.000000	61.278489
1060.000000	61.317654
1061.000000	61.363154
1062.000000	61.401991
1063.000000	61.439176
1064.000000	61.475803
1065.000000	61.526292
1066.000000	61.566550
1067.000000	61.605760
1068.000000	61.657499
1069.000000	61.694185
1070.000000	61.740732
1071.000000	61.785144
1072.000000	61.818319
1073.000000	61.854883
1074.000000	61.894730
1075.000000	61.943451
1076.000000	61.981356
1077.000000	62.031270
1078.000000	62.065954
1079.000000	62.098904
1080.000000	62.137851
1081.000000	62.187494
1082.000000	62.228973
1083.000000	62.272192
1084.000000	62.306379
1085.000000	62.336029
1086.000000	62.381970
1087.000000	62.410391
1088.000000	62.436621
1089.000000	62.470330
1090.000000	62.498068
1091.000000	62.519956
1092.000000	62.533610
1093.000000	62.553584
1094.000000	62.577425
1095.000000	62.585396
1096.000000	62.600594
1097.000000	62.607998
1098.000000	62.608150
1099.000000	62.617571
1100.000000	62.618737
1101.000000	62.619083
1102.000000	62.617811
1103.000000	62.603260
1104.000000	62.603364
1105.000000	62.592882
1106.000000	62.594171
1107.000000	62.590267
1108.000000	62.587667
1109.000000	62.570390
1110.000000	62.565782
1111.000000	62.552550
1112.000000	62.554361
1113.000000	62.539008
1114.000000	62.532281
1115.000000	62.516820
1116.000000	62.493928
1117.000000	62.465316
1118.000000	62.433317
1119.000000	62.384741
1120.000000	62.331863
1121.000000	62.265153
1122.000000	62.181541
1123.000000	62.095342
1124.000000	61.990338
1125.000000	61.853760
1126.000000	61.713095
1127.000000	61.524906
1128.000000	61.301690
1129.000000	61.022288
1130.000000	60.715279
1131.000000	60.363372
1132.000000	60.003466
1133.000000	59.638836
1134.000000	59.198523
1135.000000	58.733626
1136.000000	58.279418
1137.000000	57.860860
1138.000000	57.455317
1139.000000	57.063805
1140.000000	56.678747
1141.000000	56.313670
1142.000000	55.963416
1143.000000	55.641831
1144.000000	55.376943
1145.000000	55.152717
1146.000000	54.996917
1147.000000	54.866826
1148.000000	54.785763
1149.000000	54.698619
1150.000000	54.587979
1151.000000	54.469837
1152.000000	54.329657
1153.000000	54.148695
1154.000000	53.921718
1155.000000	53.642896
1156.000000	53.342823
1157.000000	53.017408
1158.000000	52.672316
1159.000000	52.323674
1160.000000	51.963368
1161.000000	51.588120
1162.000000	51.220514
1163.000000	50.849193
1164.000000	50.502253
1165.000000	50.151286
1166.000000	49.806697
1167.000000	49.469947
