PE UV       SUBTECH     SPECTRUM    ASCII       PEDS        4.00        
   -1
CICIMAUCR0013-1.Sample.ASC
24/04/11
15:20:09.00
24/04/11
15:20:09.00
Vinicio Soto Monge
C. resplendens
250,000000
1
Lambda 1050
1050L1511233
PerkinElmer UV WinLab 6.3.2.0749 / 2.02.05 Lambda 900 UV/VIS/NIR, Aug  7 2015 09:38:08

0
0
3350/2 860,8/2
0
0
UV/VIS
1
1
1
DoubleDePol,CommonBeamDepol,RBeamAtt,SBeamAtt,60mm sphere, WB InGaAs Detector
0
0
0
0
Program
Program
3350/2 860,8/2
3350/0,2 860,8/0,2
3350/0,2 860,8/0,2
0
15.00
 
 
 
0
 
860,8
319,2
860,8
Front
100
on
S:100 R:100
0
0
0
0
 
0
 
 
 
0
 
 
0
0
0
0
0
 
 
 
 
0
0


0
0
#HDR
-1
-1
#GR
nm
%R
1.0
0.0
2400,000000
-1,000000
2151
8
65,315600
4,166400
#DATA
2382.000000	11.018740
2381.000000	11.322487
2380.000000	11.092700
2379.000000	11.236116
2378.000000	10.164947
2377.000000	11.501332
2376.000000	10.887133
2375.000000	11.232413
2374.000000	11.615224
2373.000000	11.668767
2372.000000	10.585989
2371.000000	11.124426
2370.000000	10.587090
2369.000000	11.086095
2368.000000	10.780447
2367.000000	11.026647
2366.000000	11.179771
2365.000000	10.431864
2364.000000	10.206881
2363.000000	11.198786
2362.000000	10.101796
2361.000000	9.775331
2360.000000	10.512529
2359.000000	10.366011
2358.000000	10.381823
2357.000000	10.136124
2356.000000	10.142029
2355.000000	9.553351
2354.000000	9.772829
2353.000000	10.215889
2352.000000	9.953075
2351.000000	10.798662
2350.000000	10.250817
2349.000000	9.843487
2348.000000	9.767825
2347.000000	9.780736
2346.000000	10.492613
2345.000000	10.830187
2344.000000	10.716895
2343.000000	10.704885
2342.000000	10.510328
2341.000000	10.666554
2340.000000	10.236405
2339.000000	10.519935
2338.000000	9.897630
2337.000000	9.909540
2336.000000	10.082080
2335.000000	9.812962
2334.000000	9.667143
2333.000000	9.385415
2332.000000	9.701171
2331.000000	9.792946
2330.000000	9.492802
2329.000000	9.203267
2328.000000	9.774531
2327.000000	9.775932
2326.000000	9.403730
2325.000000	8.880705
2324.000000	9.317360
2323.000000	9.255209
2322.000000	8.926943
2321.000000	9.439959
2320.000000	9.746608
2319.000000	9.368801
2318.000000	8.727181
2317.000000	8.592371
2316.000000	8.810649
2315.000000	8.963473
2314.000000	8.738190
2313.000000	8.187043
2312.000000	8.231779
2311.000000	8.019507
2310.000000	7.604170
2309.000000	7.675127
2308.000000	7.892103
2307.000000	7.836858
2306.000000	7.843364
2305.000000	7.942744
2304.000000	8.037221
2303.000000	7.962460
2302.000000	8.438847
2301.000000	8.477778
2300.000000	8.085660
2299.000000	8.137502
2298.000000	8.430240
2297.000000	8.463467
2296.000000	8.523816
2295.000000	8.584965
2294.000000	8.702661
2293.000000	8.616091
2292.000000	8.568352
2291.000000	8.483483
2290.000000	8.670135
2289.000000	8.717773
2288.000000	8.422634
2287.000000	8.598276
2286.000000	8.933448
2285.000000	8.428338
2284.000000	8.195750
2283.000000	8.725880
2282.000000	8.443451
2281.000000	7.941243
2280.000000	7.860077
2279.000000	7.847267
2278.000000	7.858476
2277.000000	8.426637
2276.000000	8.500197
2275.000000	7.886399
2274.000000	8.029615
2273.000000	7.956856
2272.000000	7.832755
2271.000000	7.662517
2270.000000	7.649607
2269.000000	8.162523
2268.000000	7.989082
2267.000000	7.751089
2266.000000	7.746986
2265.000000	7.847167
2264.000000	8.036520
2263.000000	8.059939
2262.000000	8.198452
2261.000000	8.596074
2260.000000	8.876802
2259.000000	8.767814
2258.000000	9.125004
2257.000000	9.678653
2256.000000	9.542442
2255.000000	9.488198
2254.000000	9.709278
2253.000000	9.791444
2252.000000	10.107000
2251.000000	10.198975
2250.000000	10.143930
2249.000000	10.234204
2248.000000	10.378421
2247.000000	10.536849
2246.000000	10.697179
2245.000000	10.714493
2244.000000	10.697980
2243.000000	10.827985
2242.000000	10.848302
2241.000000	11.082892
2240.000000	11.362819
2239.000000	11.408656
2238.000000	11.261037
2237.000000	11.057371
2236.000000	11.112216
2235.000000	11.404853
2234.000000	11.572790
2233.000000	11.586301
2232.000000	11.639143
2231.000000	11.766947
2230.000000	12.031962
2229.000000	11.819790
2228.000000	11.658759
2227.000000	11.687483
2226.000000	11.747431
2225.000000	11.877837
2224.000000	11.949495
2223.000000	11.761543
2222.000000	11.554475
2221.000000	11.706098
2220.000000	11.624532
2219.000000	11.684780
2218.000000	11.542065
2217.000000	11.668267
2216.000000	11.950496
2215.000000	12.036666
2214.000000	12.009844
2213.000000	11.834402
2212.000000	12.089909
2211.000000	12.052979
2210.000000	11.823193
2209.000000	11.562081
2208.000000	11.809382
2207.000000	11.613423
2206.000000	11.946593
2205.000000	12.016049
2204.000000	12.270556
2203.000000	11.738524
2202.000000	11.373628
2201.000000	11.654056
2200.000000	11.753937
2199.000000	11.486119
2198.000000	11.848914
2197.000000	11.848213
2196.000000	11.947594
2195.000000	12.038768
2194.000000	12.088208
2193.000000	11.822993
2192.000000	11.487420
2191.000000	11.937586
2190.000000	11.826395
2189.000000	11.921773
2188.000000	11.655957
2187.000000	11.559779
2186.000000	11.644448
2185.000000	11.764946
2184.000000	11.761643
2183.000000	11.784862
2182.000000	11.639844
2181.000000	11.589503
2180.000000	11.593607
2179.000000	11.996033
2178.000000	11.733520
2177.000000	11.492625
2176.000000	11.512441
2175.000000	11.453193
2174.000000	11.475210
2173.000000	11.627534
2172.000000	11.378632
2171.000000	11.524851
2170.000000	11.988327
2169.000000	11.759041
2168.000000	11.988227
2167.000000	12.140150
2166.000000	12.041170
2165.000000	12.073996
2164.000000	11.716806
2163.000000	11.596209
2162.000000	11.967410
2161.000000	11.776955
2160.000000	11.715405
2159.000000	11.645749
2158.000000	11.530355
2157.000000	11.756839
2156.000000	12.077199
2155.000000	12.307486
2154.000000	11.801775
2153.000000	11.968511
2152.000000	11.713704
2151.000000	12.275059
2150.000000	12.091611
2149.000000	12.545979
2148.000000	11.783661
2147.000000	11.711102
2146.000000	12.108024
2145.000000	12.369436
2144.000000	11.934783
2143.000000	12.607929
2142.000000	12.295876
2141.000000	12.044372
2140.000000	11.884242
2139.000000	12.068892
2138.000000	12.158265
2137.000000	12.399560
2136.000000	11.970913
2135.000000	12.371237
2134.000000	12.223518
2133.000000	12.383948
2132.000000	12.126439
2131.000000	11.895451
2130.000000	12.167172
2129.000000	12.120734
2128.000000	12.529666
2127.000000	12.072895
2126.000000	12.006441
2125.000000	12.165971
2124.000000	11.924975
2123.000000	12.422179
2122.000000	12.303282
2121.000000	11.801675
2120.000000	11.773653
2119.000000	12.096214
2118.000000	11.985024
2117.000000	12.182885
2116.000000	12.101819
2115.000000	11.885543
2114.000000	11.847513
2113.000000	11.752435
2112.000000	11.919771
2111.000000	11.641245
2110.000000	11.814085
2109.000000	11.539363
2108.000000	11.547269
2107.000000	11.323187
2106.000000	11.185275
2105.000000	11.627234
2104.000000	11.577093
2103.000000	11.477212
2102.000000	11.357515
2101.000000	11.341602
2100.000000	11.770550
2099.000000	11.599511
2098.000000	11.483017
2097.000000	11.503934
2096.000000	11.136736
2095.000000	11.221705
2094.000000	11.136336
2093.000000	11.070982
2092.000000	11.192281
2091.000000	10.966998
2090.000000	11.409257
2089.000000	11.069882
2088.000000	11.117120
2087.000000	11.347807
2086.000000	11.446988
2085.000000	11.122024
2084.000000	11.129630
2083.000000	11.349508
2082.000000	11.319684
2081.000000	11.194182
2080.000000	11.368924
2079.000000	11.132432
2078.000000	11.109013
2077.000000	11.019741
2076.000000	10.925164
2075.000000	10.964496
2074.000000	10.964896
2073.000000	11.116019
2072.000000	11.152949
2071.000000	11.079489
2070.000000	10.875724
2069.000000	10.838694
2068.000000	10.958992
2067.000000	11.058973
2066.000000	10.931870
2065.000000	11.010133
2064.000000	11.121023
2063.000000	11.139538
2062.000000	11.148846
2061.000000	11.144842
2060.000000	11.224307
2059.000000	11.006530
2058.000000	11.152148
2057.000000	11.186276
2056.000000	10.981910
2055.000000	11.085694
2054.000000	11.158854
2053.000000	11.296165
2052.000000	11.337198
2051.000000	11.333596
2050.000000	11.450991
2049.000000	11.505435
2048.000000	11.552473
2047.000000	11.606317
2046.000000	11.581297
2045.000000	11.716406
2044.000000	11.907861
2043.000000	12.075197
2042.000000	12.300180
2041.000000	12.245235
2040.000000	12.281865
2039.000000	12.321197
2038.000000	12.285968
2037.000000	12.391954
2036.000000	12.575203
2035.000000	12.755049
2034.000000	12.886556
2033.000000	12.831711
2032.000000	12.907973
2031.000000	13.018963
2030.000000	13.085517
2029.000000	13.162780
2028.000000	13.219626
2027.000000	13.242244
2026.000000	13.269366
2025.000000	13.453215
2024.000000	13.463424
2023.000000	13.428896
2022.000000	13.538084
2021.000000	13.634362
2020.000000	13.682902
2019.000000	13.773575
2018.000000	13.786886
2017.000000	13.894373
2016.000000	13.928801
2015.000000	13.899177
2014.000000	13.951119
2013.000000	14.079423
2012.000000	14.134768
2011.000000	14.088130
2010.000000	14.099239
2009.000000	14.136570
2008.000000	14.089432
2007.000000	14.103843
2006.000000	14.180005
2005.000000	14.151282
2004.000000	14.221739
2003.000000	14.227243
2002.000000	14.130665
2001.000000	14.167395
2000.000000	14.125361
1999.000000	14.126862
1998.000000	14.117154
1997.000000	14.133167
1996.000000	14.082526
1995.000000	14.035488
1994.000000	14.073919
1993.000000	14.079724
1992.000000	14.022777
1991.000000	14.019175
1990.000000	14.048098
1989.000000	13.943813
1988.000000	13.894073
1987.000000	13.882664
1986.000000	13.809304
1985.000000	13.755160
1984.000000	13.727238
1983.000000	13.678999
1982.000000	13.635263
1981.000000	13.633261
1980.000000	13.577016
1979.000000	13.543188
1978.000000	13.500654
1977.000000	13.426894
1976.000000	13.374351
1975.000000	13.252152
1974.000000	13.246147
1973.000000	13.271168
1972.000000	13.245747
1971.000000	13.171687
1970.000000	13.137859
1969.000000	13.090121
1968.000000	13.073607
1967.000000	13.045985
1966.000000	13.023166
1965.000000	12.974227
1964.000000	12.939899
1963.000000	12.916280
1962.000000	12.821403
1961.000000	12.835914
1960.000000	12.782071
1959.000000	12.785874
1958.000000	12.718119
1957.000000	12.648763
1956.000000	12.587113
1955.000000	12.649163
1954.000000	12.692999
1953.000000	12.675484
1952.000000	12.548381
1951.000000	12.454205
1950.000000	12.391554
1949.000000	12.468216
1948.000000	12.405665
1947.000000	12.346918
1946.000000	12.329003
1945.000000	12.290972
1944.000000	12.332106
1943.000000	12.330404
1942.000000	12.308587
1941.000000	12.333507
1940.000000	12.375841
1939.000000	12.477524
1938.000000	12.479325
1937.000000	12.498841
1936.000000	12.462211
1935.000000	12.503945
1934.000000	12.575703
1933.000000	12.637053
1932.000000	12.704908
1931.000000	12.720721
1930.000000	12.817399
1929.000000	12.914578
1928.000000	12.920283
1927.000000	13.038279
1926.000000	13.169885
1925.000000	13.185999
1924.000000	13.387962
1923.000000	13.424692
1922.000000	13.428595
1921.000000	13.701517
1920.000000	14.044395
1919.000000	14.018274
1918.000000	14.049499
1917.000000	14.153784
1916.000000	14.329326
1915.000000	14.438214
1914.000000	14.581331
1913.000000	14.972848
1912.000000	15.109859
1911.000000	15.091645
1910.000000	15.343249
1909.000000	15.371272
1908.000000	15.449835
1907.000000	15.677020
1906.000000	16.103165
1905.000000	16.180328
1904.000000	16.308032
1903.000000	16.418421
1902.000000	16.641302
1901.000000	16.721467
1900.000000	17.032519
1899.000000	17.325857
1898.000000	17.460867
1897.000000	17.481784
1896.000000	17.609087
1895.000000	17.785130
1894.000000	17.998403
1893.000000	18.269123
1892.000000	18.519826
1891.000000	18.569667
1890.000000	18.702775
1889.000000	18.933562
1888.000000	19.052959
1887.000000	19.398039
1886.000000	19.497319
1885.000000	19.684571
1884.000000	20.021645
1883.000000	20.277752
1882.000000	20.495229
1881.000000	21.003341
1880.000000	21.251142
1879.000000	21.513355
1878.000000	21.737137
1877.000000	22.112341
1876.000000	22.432100
1875.000000	22.643672
1874.000000	22.682403
1873.000000	23.018576
1872.000000	23.331730
1871.000000	23.347443
1870.000000	23.524787
1869.000000	23.459234
1868.000000	23.591741
1867.000000	23.647086
1866.000000	23.558014
1865.000000	23.395882
1864.000000	23.609155
1863.000000	23.691122
1862.000000	23.528190
1861.000000	23.497265
1860.000000	23.613259
1859.000000	23.721547
1858.000000	23.474846
1857.000000	23.467040
1856.000000	23.585036
1855.000000	23.356951
1854.000000	23.285793
1853.000000	23.412696
1852.000000	23.235552
1851.000000	23.030986
1850.000000	23.008568
1849.000000	23.016274
1848.000000	23.111952
1847.000000	23.161392
1846.000000	22.937210
1845.000000	22.717832
1844.000000	22.561605
1843.000000	22.681603
1842.000000	22.710827
1841.000000	22.832525
1840.000000	22.622555
1839.000000	22.532982
1838.000000	22.537686
1837.000000	22.553499
1836.000000	22.482641
1835.000000	22.421592
1834.000000	22.284180
1833.000000	22.111340
1832.000000	22.048589
1831.000000	22.002852
1830.000000	21.915781
1829.000000	21.899268
1828.000000	21.875349
1827.000000	21.732833
1826.000000	21.685495
1825.000000	21.695603
1824.000000	21.515557
1823.000000	21.499344
1822.000000	21.512454
1821.000000	21.604929
1820.000000	21.596622
1819.000000	21.504648
1818.000000	21.412673
1817.000000	21.394559
1816.000000	21.387953
1815.000000	21.438694
1814.000000	21.461813
1813.000000	21.429987
1812.000000	21.447401
1811.000000	21.400864
1810.000000	21.344218
1809.000000	21.299381
1808.000000	21.282167
1807.000000	21.208408
1806.000000	21.229425
1805.000000	21.198099
1804.000000	21.167474
1803.000000	21.182687
1802.000000	21.076300
1801.000000	21.048278
1800.000000	20.994534
1799.000000	20.967012
1798.000000	20.915770
1797.000000	20.873536
1796.000000	20.839909
1795.000000	20.789968
1794.000000	20.763547
1793.000000	20.752337
1792.000000	20.712505
1791.000000	20.645151
1790.000000	20.585302
1789.000000	20.497130
1788.000000	20.467006
1787.000000	20.422370
1786.000000	20.332397
1785.000000	20.248228
1784.000000	20.204693
1783.000000	20.161858
1782.000000	20.081793
1781.000000	20.018242
1780.000000	19.949386
1779.000000	19.902548
1778.000000	19.848804
1777.000000	19.709491
1776.000000	19.618417
1775.000000	19.514934
1774.000000	19.406546
1773.000000	19.281244
1772.000000	19.153440
1771.000000	19.012126
1770.000000	18.870611
1769.000000	18.774633
1768.000000	18.677854
1767.000000	18.565463
1766.000000	18.475590
1765.000000	18.436859
1764.000000	18.373808
1763.000000	18.338379
1762.000000	18.351189
1761.000000	18.396526
1760.000000	18.445266
1759.000000	18.521327
1758.000000	18.571068
1757.000000	18.622409
1756.000000	18.688363
1755.000000	18.705677
1754.000000	18.689364
1753.000000	18.689864
1752.000000	18.683859
1751.000000	18.621809
1750.000000	18.597389
1749.000000	18.533237
1748.000000	18.442263
1747.000000	18.384717
1746.000000	18.300148
1745.000000	18.139818
1744.000000	17.981690
1743.000000	17.813553
1742.000000	17.634508
1741.000000	17.428741
1740.000000	17.178037
1739.000000	16.955957
1738.000000	16.778413
1737.000000	16.638900
1736.000000	16.517001
1735.000000	16.407412
1734.000000	16.350366
1733.000000	16.367580
1732.000000	16.416019
1731.000000	16.504891
1730.000000	16.599068
1729.000000	16.721167
1728.000000	16.837461
1727.000000	16.894407
1726.000000	16.996991
1725.000000	17.071251
1724.000000	17.106980
1723.000000	17.118789
1722.000000	17.107780
1721.000000	17.129298
1720.000000	17.149915
1719.000000	17.130899
1718.000000	17.132200
1717.000000	17.147313
1716.000000	17.163125
1715.000000	17.241489
1714.000000	17.304440
1713.000000	17.352979
1712.000000	17.367591
1711.000000	17.364188
1710.000000	17.396515
1709.000000	17.402319
1708.000000	17.381202
1707.000000	17.371995
1706.000000	17.329260
1705.000000	17.326458
1704.000000	17.308944
1703.000000	17.232882
1702.000000	17.163626
1701.000000	17.052536
1700.000000	16.909920
1699.000000	16.779614
1698.000000	16.659016
1697.000000	16.545524
1696.000000	16.464859
1695.000000	16.454450
1694.000000	16.519003
1693.000000	16.627291
1692.000000	16.763301
1691.000000	16.941646
1690.000000	17.083361
1689.000000	17.214167
1688.000000	17.286325
1687.000000	17.264007
1686.000000	17.243090
1685.000000	17.191248
1684.000000	17.240989
1683.000000	17.354481
1682.000000	17.646217
1681.000000	18.037435
1680.000000	18.526532
1679.000000	19.056061
1678.000000	19.582588
1677.000000	20.046064
1676.000000	20.458699
1675.000000	20.797474
1674.000000	21.100120
1673.000000	21.336011
1672.000000	21.609433
1671.000000	21.800388
1670.000000	21.968524
1669.000000	22.117745
1668.000000	22.227234
1667.000000	22.390767
1666.000000	22.496753
1665.000000	22.566710
1664.000000	22.640269
1663.000000	22.690210
1662.000000	22.772076
1661.000000	22.843234
1660.000000	22.863550
1659.000000	22.905284
1658.000000	22.956126
1657.000000	22.958227
1656.000000	22.978143
1655.000000	22.946818
1654.000000	22.960429
1653.000000	22.963532
1652.000000	22.972239
1651.000000	22.988252
1650.000000	22.956726
1649.000000	22.928503
1648.000000	22.888170
1647.000000	22.834527
1646.000000	22.810107
1645.000000	22.808606
1644.000000	22.752660
1643.000000	22.708625
1642.000000	22.665590
1641.000000	22.591430
1640.000000	22.562106
1639.000000	22.495452
1638.000000	22.466428
1637.000000	22.389766
1636.000000	22.370550
1635.000000	22.250453
1634.000000	22.205216
1633.000000	22.159379
1632.000000	22.108238
1631.000000	22.027172
1630.000000	21.960017
1629.000000	21.925790
1628.000000	21.810796
1627.000000	21.810996
1626.000000	21.716620
1625.000000	21.621242
1624.000000	21.523363
1623.000000	21.503347
1622.000000	21.408270
1621.000000	21.360131
1620.000000	21.297580
1619.000000	21.209608
1618.000000	21.156766
1617.000000	21.086308
1616.000000	21.031164
1615.000000	20.970815
1614.000000	20.926979
1613.000000	20.798575
1612.000000	20.777358
1611.000000	20.758342
1610.000000	20.660863
1609.000000	20.588705
1608.000000	20.544769
1607.000000	20.511942
1606.000000	20.474212
1605.000000	20.380736
1604.000000	20.311480
1603.000000	20.276451
1602.000000	20.221607
1601.000000	20.164360
1600.000000	20.106513
1599.000000	20.065480
1598.000000	20.010235
1597.000000	19.988017
1596.000000	19.890438
1595.000000	19.883032
1594.000000	19.849705
1593.000000	19.811374
1592.000000	19.800065
1591.000000	19.745220
1590.000000	19.725604
1589.000000	19.707690
1588.000000	19.688775
1587.000000	19.663054
1586.000000	19.600403
1585.000000	19.631728
1584.000000	19.633330
1583.000000	19.602505
1582.000000	19.553265
1581.000000	19.550863
1580.000000	19.576383
1579.000000	19.587192
1578.000000	19.601904
1577.000000	19.582188
1576.000000	19.535550
1575.000000	19.599302
1574.000000	19.617417
1573.000000	19.648042
1572.000000	19.648142
1571.000000	19.679067
1570.000000	19.677365
1569.000000	19.745320
1568.000000	19.748723
1567.000000	19.801666
1566.000000	19.831891
1565.000000	19.916459
1564.000000	19.920563
1563.000000	19.954390
1562.000000	19.965199
1561.000000	20.029951
1560.000000	20.050568
1559.000000	20.074788
1558.000000	20.084496
1557.000000	20.138840
1556.000000	20.120125
1555.000000	20.127831
1554.000000	20.126830
1553.000000	20.165061
1552.000000	20.204293
1551.000000	20.215902
1550.000000	20.192683
1549.000000	20.199589
1548.000000	20.224609
1547.000000	20.239421
1546.000000	20.246727
1545.000000	20.250130
1544.000000	20.263241
1543.000000	20.261339
1542.000000	20.294166
1541.000000	20.314382
1540.000000	20.318586
1539.000000	20.347909
1538.000000	20.355015
1537.000000	20.359319
1536.000000	20.345908
1535.000000	20.356817
1534.000000	20.394347
1533.000000	20.402754
1532.000000	20.390144
1531.000000	20.373130
1530.000000	20.398851
1529.000000	20.404455
1528.000000	20.418467
1527.000000	20.413162
1526.000000	20.402053
1525.000000	20.350411
1524.000000	20.366324
1523.000000	20.391845
1522.000000	20.384139
1521.000000	20.376032
1520.000000	20.377633
1519.000000	20.382037
1518.000000	20.377734
1517.000000	20.349310
1516.000000	20.323890
1515.000000	20.314582
1514.000000	20.342805
1513.000000	20.334899
1512.000000	20.301572
1511.000000	20.267944
1510.000000	20.253433
1509.000000	20.275350
1508.000000	20.271347
1507.000000	20.255935
1506.000000	20.259938
1505.000000	20.263141
1504.000000	20.269646
1503.000000	20.241623
1502.000000	20.237820
