PE UV       SUBTECH     SPECTRUM    ASCII       PEDS        4.00        
   -1
CICIMAUCR0240-2.ASC
24/06/20
14:09:08.00
24/06/20
14:09:08.00
Vinicio Soto Monge
C. resplendens. Sex M. Ventral 
250,000000
1
Lambda 1050
1050L1511233
PerkinElmer UV WinLab 6.3.2.0749 / 2.02.05 Lambda 900 UV/VIS/NIR, Aug  7 2015 09:38:08

0
0
3350/servo 860,8/2
0
0
UV/VIS
1
1
1
DoubleDePol,CommonBeamDepol,RBeamAtt,SBeamAtt,60mm sphere, WB InGaAs Detector
0
0
0
0
Program
Program
3350/servo 860,8/2
3350/0,2 860,8/0,2
3350/0,2 860,8/0,2
0
15.00
 
 
 
0
 
860,8
319,2
860,8
Front
100
on
S:100 R:100
0
0
0
0
 
0
 
 
 
0
 
 
0
0
0
0
0
 
 
 
 
0
0


0
0
#HDR
-1
-1
#GR
nm
%R
1.0
0.0
2500,000000
-1,000000
2251
8
59,400000
4,430400
#DATA
2482.000000	6.373447
2481.000000	6.386269
2480.000000	6.300750
2479.000000	6.351482
2478.000000	6.309670
2477.000000	6.307886
2476.000000	6.229726
2475.000000	6.246785
2474.000000	6.340889
2473.000000	6.305099
2472.000000	6.274548
2471.000000	6.313461
2470.000000	6.347468
2469.000000	6.337545
2468.000000	6.315468
2467.000000	6.331635
2466.000000	6.338437
2465.000000	6.311900
2464.000000	6.304653
2463.000000	6.340778
2462.000000	6.309336
2461.000000	6.333865
2460.000000	6.383928
2459.000000	6.363635
2458.000000	6.387830
2457.000000	6.356499
2456.000000	6.373335
2455.000000	6.438339
2454.000000	6.471342
2453.000000	6.473461
2452.000000	6.487844
2451.000000	6.495314
2450.000000	6.540694
2449.000000	6.563885
2448.000000	6.558199
2447.000000	6.634352
2446.000000	6.672373
2445.000000	6.665349
2444.000000	6.703369
2443.000000	6.745516
2442.000000	6.758784
2441.000000	6.801042
2440.000000	6.800819
2439.000000	6.818435
2438.000000	6.860693
2437.000000	6.896484
2436.000000	6.916999
2435.000000	6.940972
2434.000000	6.975536
2433.000000	6.994491
2432.000000	6.996832
2431.000000	7.058936
2430.000000	7.083800
2429.000000	7.084023
2428.000000	7.105431
2427.000000	7.118365
2426.000000	7.133975
2425.000000	7.168650
2424.000000	7.188051
2423.000000	7.203215
2422.000000	7.237110
2421.000000	7.245250
2420.000000	7.268553
2419.000000	7.284720
2418.000000	7.318615
2417.000000	7.322629
2416.000000	7.326532
2415.000000	7.338573
2414.000000	7.378601
2413.000000	7.390420
2412.000000	7.393653
2411.000000	7.417291
2410.000000	7.432678
2409.000000	7.446615
2408.000000	7.451855
2407.000000	7.462782
2406.000000	7.483744
2405.000000	7.500468
2404.000000	7.503813
2403.000000	7.525555
2402.000000	7.530907
2401.000000	7.558001
2400.000000	7.552538
2399.000000	7.565360
2398.000000	7.599925
2397.000000	7.620217
2396.000000	7.647200
2395.000000	7.679200
2394.000000	7.705179
2393.000000	7.731158
2392.000000	7.753680
2391.000000	7.769178
2390.000000	7.775980
2389.000000	7.768398
2388.000000	7.783227
2387.000000	7.806084
2386.000000	7.824258
2385.000000	7.829387
2384.000000	7.831729
2383.000000	7.845555
2382.000000	7.850126
2381.000000	7.838642
2380.000000	7.841875
2379.000000	7.859380
2378.000000	7.858711
2377.000000	7.860384
2376.000000	7.879004
2375.000000	7.876551
2374.000000	7.867408
2373.000000	7.860049
2372.000000	7.858042
2371.000000	7.860049
2370.000000	7.864621
2369.000000	7.864955
2368.000000	7.862056
2367.000000	7.850795
2366.000000	7.835185
2365.000000	7.827269
2364.000000	7.812997
2363.000000	7.801847
2362.000000	7.801513
2361.000000	7.786126
2360.000000	7.775645
2359.000000	7.774865
2358.000000	7.760816
2357.000000	7.755241
2356.000000	7.741638
2355.000000	7.733611
2354.000000	7.727813
2353.000000	7.715994
2352.000000	7.710754
2351.000000	7.717220
2350.000000	7.730823
2349.000000	7.731938
2348.000000	7.735618
2347.000000	7.746433
2346.000000	7.751450
2345.000000	7.762935
2344.000000	7.780105
2343.000000	7.788245
2342.000000	7.795492
2341.000000	7.812217
2340.000000	7.824035
2339.000000	7.839534
2338.000000	7.858265
2337.000000	7.869192
2336.000000	7.881903
2335.000000	7.886809
2334.000000	7.887478
2333.000000	7.900523
2332.000000	7.901081
2331.000000	7.897513
2330.000000	7.884690
2329.000000	7.860049
2328.000000	7.858042
2327.000000	7.858711
2326.000000	7.843436
2325.000000	7.835074
2324.000000	7.826711
2323.000000	7.796272
2322.000000	7.774196
2321.000000	7.754349
2320.000000	7.729931
2319.000000	7.688342
2318.000000	7.657569
2317.000000	7.621778
2316.000000	7.598141
2315.000000	7.548301
2314.000000	7.496343
2313.000000	7.458545
2312.000000	7.439702
2311.000000	7.405472
2310.000000	7.361430
2309.000000	7.336566
2308.000000	7.315047
2307.000000	7.302782
2306.000000	7.279702
2305.000000	7.279925
2304.000000	7.262309
2303.000000	7.261751
2302.000000	7.280483
2301.000000	7.294978
2300.000000	7.312817
2299.000000	7.321068
2298.000000	7.342587
2297.000000	7.384622
2296.000000	7.407145
2295.000000	7.443604
2294.000000	7.463340
2293.000000	7.496454
2292.000000	7.533695
2291.000000	7.547186
2290.000000	7.585653
2289.000000	7.583869
2288.000000	7.605388
2287.000000	7.606168
2286.000000	7.621667
2285.000000	7.617541
2284.000000	7.603938
2283.000000	7.617764
2282.000000	7.603269
2281.000000	7.598252
2280.000000	7.595799
2279.000000	7.587883
2278.000000	7.555660
2277.000000	7.555214
2276.000000	7.533472
2275.000000	7.520092
2274.000000	7.491660
2273.000000	7.507827
2272.000000	7.506935
2271.000000	7.476608
2270.000000	7.479618
2269.000000	7.496566
2268.000000	7.519980
2267.000000	7.524217
2266.000000	7.556440
2265.000000	7.607395
2264.000000	7.646531
2263.000000	7.706517
2262.000000	7.761597
2261.000000	7.831060
2260.000000	7.905094
2259.000000	7.993178
2258.000000	8.054836
2257.000000	8.171798
2256.000000	8.260884
2255.000000	8.365358
2254.000000	8.481985
2253.000000	8.599950
2252.000000	8.714124
2251.000000	8.821050
2250.000000	8.892074
2249.000000	8.995210
2248.000000	9.096896
2247.000000	9.189217
2246.000000	9.287223
2245.000000	9.381997
2244.000000	9.443878
2243.000000	9.515460
2242.000000	9.560393
2241.000000	9.642567
2240.000000	9.695975
2239.000000	9.727863
2238.000000	9.776811
2237.000000	9.843710
2236.000000	9.866121
2235.000000	9.921201
2234.000000	9.923431
2233.000000	9.953089
2232.000000	9.971932
2231.000000	10.014859
2230.000000	10.038608
2229.000000	10.014971
2228.000000	10.020322
2227.000000	10.033479
2226.000000	10.036267
2225.000000	10.048643
2224.000000	10.041061
2223.000000	10.022441
2222.000000	9.980183
2221.000000	10.014859
2220.000000	9.965465
2219.000000	9.972267
2218.000000	9.937033
2217.000000	9.901020
2216.000000	9.910497
2215.000000	9.877940
2214.000000	9.862776
2213.000000	9.844602
2212.000000	9.801006
2211.000000	9.803124
2210.000000	9.771682
2209.000000	9.767445
2208.000000	9.724295
2207.000000	9.721508
2206.000000	9.720393
2205.000000	9.730428
2204.000000	9.702776
2203.000000	9.712365
2202.000000	9.677689
2201.000000	9.661299
2200.000000	9.655278
2199.000000	9.656728
2198.000000	9.643682
2197.000000	9.635766
2196.000000	9.624282
2195.000000	9.619599
2194.000000	9.619264
2193.000000	9.619710
2192.000000	9.629968
2191.000000	9.616365
2190.000000	9.592393
2189.000000	9.588379
2188.000000	9.593731
2187.000000	9.585257
2186.000000	9.585703
2185.000000	9.572324
2184.000000	9.550804
2183.000000	9.558721
2182.000000	9.541104
2181.000000	9.547906
2180.000000	9.521481
2179.000000	9.539878
2178.000000	9.518359
2177.000000	9.514233
2176.000000	9.512338
2175.000000	9.509885
2174.000000	9.502637
2173.000000	9.499961
2172.000000	9.511669
2171.000000	9.527501
2170.000000	9.513787
2169.000000	9.519362
2168.000000	9.519362
2167.000000	9.538428
2166.000000	9.528505
2165.000000	9.542777
2164.000000	9.566191
2163.000000	9.584588
2162.000000	9.584923
2161.000000	9.609898
2160.000000	9.614916
2159.000000	9.651264
2158.000000	9.655390
2157.000000	9.690065
2156.000000	9.709243
2155.000000	9.721619
2154.000000	9.752727
2153.000000	9.786400
2152.000000	9.791640
2151.000000	9.815947
2150.000000	9.844936
2149.000000	9.891765
2148.000000	9.915403
2147.000000	9.943500
2146.000000	9.963793
2145.000000	9.978065
2144.000000	10.004378
2143.000000	10.045967
2142.000000	10.068267
2141.000000	10.083988
2140.000000	10.121451
2139.000000	10.148322
2138.000000	10.164489
2137.000000	10.186343
2136.000000	10.205855
2135.000000	10.232280
2134.000000	10.239193
2133.000000	10.263611
2132.000000	10.271639
2131.000000	10.282454
2130.000000	10.307318
2129.000000	10.296726
2128.000000	10.320921
2127.000000	10.327499
2126.000000	10.332628
2125.000000	10.343332
2124.000000	10.347680
2123.000000	10.350914
2122.000000	10.345562
2121.000000	10.347234
2120.000000	10.340099
2119.000000	10.338203
2118.000000	10.341771
2117.000000	10.331402
2116.000000	10.326161
2115.000000	10.321924
2114.000000	10.307207
2113.000000	10.300405
2112.000000	10.295053
2111.000000	10.280670
2110.000000	10.254468
2109.000000	10.239527
2108.000000	10.249674
2107.000000	10.229827
2106.000000	10.207305
2105.000000	10.190580
2104.000000	10.196378
2103.000000	10.177981
2102.000000	10.165158
2101.000000	10.146315
2100.000000	10.135723
2099.000000	10.127137
2098.000000	10.106956
2097.000000	10.089228
2096.000000	10.098706
2095.000000	10.091681
2094.000000	10.081758
2093.000000	10.074510
2092.000000	10.072392
2091.000000	10.058901
2090.000000	10.047305
2089.000000	10.041842
2088.000000	10.019207
2087.000000	10.012072
2086.000000	10.017981
2085.000000	10.010176
2084.000000	9.992894
2083.000000	9.979514
2082.000000	9.965577
2081.000000	9.931682
2080.000000	9.911612
2079.000000	9.892657
2078.000000	9.889981
2077.000000	9.878943
2076.000000	9.850623
2075.000000	9.826985
2074.000000	9.789076
2073.000000	9.759417
2072.000000	9.744142
2071.000000	9.721173
2070.000000	9.683822
2069.000000	9.650149
2068.000000	9.610344
2067.000000	9.571543
2066.000000	9.553146
2065.000000	9.522596
2064.000000	9.482791
2063.000000	9.459042
2062.000000	9.442651
2061.000000	9.411767
2060.000000	9.380547
2059.000000	9.361146
2058.000000	9.333606
2057.000000	9.316547
2056.000000	9.310415
2055.000000	9.309634
2054.000000	9.315321
2053.000000	9.304840
2052.000000	9.307516
2051.000000	9.344310
2050.000000	9.353899
2049.000000	9.373077
2048.000000	9.412882
2047.000000	9.442651
2046.000000	9.485132
2045.000000	9.520700
2044.000000	9.550247
2043.000000	9.585815
2042.000000	9.631641
2041.000000	9.690400
2040.000000	9.730093
2039.000000	9.772462
2038.000000	9.823306
2037.000000	9.850177
2036.000000	9.880615
2035.000000	9.933689
2034.000000	9.963458
2033.000000	10.000253
2032.000000	10.027681
2031.000000	10.042176
2030.000000	10.067709
2029.000000	10.097702
2028.000000	10.120671
2027.000000	10.127137
2026.000000	10.115988
2025.000000	10.144420
2024.000000	10.169172
2023.000000	10.198496
2022.000000	10.204071
2021.000000	10.202510
2020.000000	10.213660
2019.000000	10.204963
2018.000000	10.219569
2017.000000	10.231723
2016.000000	10.201284
2015.000000	10.220907
2014.000000	10.212879
2013.000000	10.190022
2012.000000	10.208531
2011.000000	10.199054
2010.000000	10.178650
2009.000000	10.163932
2008.000000	10.151667
2007.000000	10.141744
2006.000000	10.104057
2005.000000	10.096476
2004.000000	10.079305
2003.000000	10.050761
2002.000000	10.016755
2001.000000	9.992002
2000.000000	9.978511
1999.000000	9.948183
1998.000000	9.901020
1997.000000	9.870246
1996.000000	9.830330
1995.000000	9.821187
1994.000000	9.789745
1993.000000	9.737898
1992.000000	9.684268
1991.000000	9.654386
1990.000000	9.620379
1989.000000	9.596965
1988.000000	9.541773
1987.000000	9.498623
1986.000000	9.468742
1985.000000	9.440199
1984.000000	9.363265
1983.000000	9.328924
1982.000000	9.306178
1981.000000	9.266931
1980.000000	9.214527
1979.000000	9.180631
1978.000000	9.143502
1977.000000	9.110165
1976.000000	9.053078
1975.000000	9.013496
1974.000000	8.951280
1973.000000	8.919169
1972.000000	8.896088
1971.000000	8.880925
1970.000000	8.828186
1969.000000	8.796744
1968.000000	8.739211
1967.000000	8.709218
1966.000000	8.658375
1965.000000	8.630946
1964.000000	8.584229
1963.000000	8.566612
1962.000000	8.548549
1961.000000	8.517330
1960.000000	8.464926
1959.000000	8.459574
1958.000000	8.421442
1957.000000	8.387212
1956.000000	8.351309
1955.000000	8.335923
1954.000000	8.295337
1953.000000	8.245944
1952.000000	8.229665
1951.000000	8.190306
1950.000000	8.174474
1949.000000	8.151839
1948.000000	8.124968
1947.000000	8.119282
1946.000000	8.086836
1945.000000	8.038000
1944.000000	8.039896
1943.000000	8.036997
1942.000000	7.996411
1941.000000	8.007227
1940.000000	7.981917
1939.000000	7.962404
1938.000000	7.945568
1937.000000	7.982920
1936.000000	7.968760
1935.000000	7.963854
1934.000000	7.962070
1933.000000	7.994070
1932.000000	7.987937
1931.000000	7.986711
1930.000000	8.010572
1929.000000	8.031533
1928.000000	8.053387
1927.000000	8.093972
1926.000000	8.105902
1925.000000	8.165665
1924.000000	8.221191
1923.000000	8.246055
1922.000000	8.273038
1921.000000	8.329456
1920.000000	8.402821
1919.000000	8.456117
1918.000000	8.524466
1917.000000	8.581887
1916.000000	8.665734
1915.000000	8.749357
1914.000000	8.799308
1913.000000	8.880813
1912.000000	9.007363
1911.000000	9.099572
1910.000000	9.181635
1909.000000	9.265927
1908.000000	9.375084
1907.000000	9.479334
1906.000000	9.593174
1905.000000	9.761424
1904.000000	9.902692
1903.000000	10.043180
1902.000000	10.179653
1901.000000	10.332405
1900.000000	10.511359
1899.000000	10.695331
1898.000000	10.871386
1897.000000	11.094048
1896.000000	11.297086
1895.000000	11.495998
1894.000000	11.674729
1893.000000	11.868513
1892.000000	12.113697
1891.000000	12.385975
1890.000000	12.675758
1889.000000	12.953611
1888.000000	13.213401
1887.000000	13.511212
1886.000000	13.800327
1885.000000	14.147866
1884.000000	14.463516
1883.000000	14.850860
1882.000000	15.243110
1881.000000	15.617855
1880.000000	15.995945
1879.000000	16.355972
1878.000000	16.715218
1877.000000	17.081712
1876.000000	17.430477
1875.000000	17.795968
1874.000000	18.168148
1873.000000	18.519590
1872.000000	18.879059
1871.000000	19.233065
1870.000000	19.564103
1869.000000	19.877746
1868.000000	20.196854
1867.000000	20.452407
1866.000000	20.652992
1865.000000	20.840866
1864.000000	21.010231
1863.000000	21.157074
1862.000000	21.288642
1861.000000	21.452878
1860.000000	21.627038
1859.000000	21.752585
1858.000000	21.909462
1857.000000	22.033225
1856.000000	22.128890
1855.000000	22.191664
1854.000000	22.263357
1853.000000	22.330367
1852.000000	22.375301
1851.000000	22.408639
1850.000000	22.423691
1849.000000	22.455802
1848.000000	22.493043
1847.000000	22.532290
1846.000000	22.558381
1845.000000	22.550687
1844.000000	22.509656
1843.000000	22.483119
1842.000000	22.477321
1841.000000	22.501294
1840.000000	22.509767
1839.000000	22.493935
1838.000000	22.479774
1837.000000	22.451454
1836.000000	22.451788
1835.000000	22.450004
1834.000000	22.419008
1833.000000	22.366047
1832.000000	22.293796
1831.000000	22.242395
1830.000000	22.218981
1829.000000	22.194451
1828.000000	22.140486
1827.000000	22.082953
1826.000000	22.045155
1825.000000	22.011371
1824.000000	21.958187
1823.000000	21.901211
1822.000000	21.871219
1821.000000	21.862076
1820.000000	21.852598
1819.000000	21.855609
1818.000000	21.823609
1817.000000	21.787595
1816.000000	21.764403
1815.000000	21.745783
1814.000000	21.744334
1813.000000	21.720919
1812.000000	21.697059
1811.000000	21.682006
1810.000000	21.658146
1809.000000	21.626703
1808.000000	21.596265
1807.000000	21.552223
1806.000000	21.516766
1805.000000	21.494467
1804.000000	21.455220
1803.000000	21.417422
1802.000000	21.369255
1801.000000	21.334244
1800.000000	21.299122
1799.000000	21.245938
1798.000000	21.201004
1797.000000	21.158301
1796.000000	21.113590
1795.000000	21.072336
1794.000000	21.036433
1793.000000	21.005437
1792.000000	20.983137
1791.000000	20.937646
1790.000000	20.885130
1789.000000	20.853465
1788.000000	20.808308
1787.000000	20.772741
1786.000000	20.751667
1785.000000	20.690567
1784.000000	20.627013
1783.000000	20.594344
1782.000000	20.560002
1781.000000	20.507375
1780.000000	20.457201
1779.000000	20.415501
1778.000000	20.356073
1777.000000	20.299320
1776.000000	20.245913
1775.000000	20.179683
1774.000000	20.104199
1773.000000	20.032617
1772.000000	19.964157
1771.000000	19.892018
1770.000000	19.831252
1769.000000	19.753984
1768.000000	19.664674
1767.000000	19.605134
1766.000000	19.540353
1765.000000	19.465204
1764.000000	19.419824
1763.000000	19.386152
1762.000000	19.372549
1761.000000	19.379908
1760.000000	19.388270
1759.000000	19.408228
1758.000000	19.459517
1757.000000	19.494416
1756.000000	19.546040
1755.000000	19.598109
1754.000000	19.632228
1753.000000	19.666569
1752.000000	19.692325
1751.000000	19.706931
1750.000000	19.723879
1749.000000	19.707043
1748.000000	19.689538
1747.000000	19.668576
1746.000000	19.638249
1745.000000	19.580716
1744.000000	19.524855
1743.000000	19.438110
1742.000000	19.324493
1741.000000	19.216340
1740.000000	19.093358
1739.000000	18.975505
1738.000000	18.825540
1737.000000	18.709805
1736.000000	18.596077
1735.000000	18.484022
1734.000000	18.393262
1733.000000	18.350893
1732.000000	18.323799
1731.000000	18.309416
1730.000000	18.316329
1729.000000	18.353123
1728.000000	18.426489
1727.000000	18.473429
1726.000000	18.518029
1725.000000	18.582586
1724.000000	18.652049
1723.000000	18.675464
1722.000000	18.725638
1721.000000	18.768676
1720.000000	18.838808
1719.000000	18.908160
1718.000000	18.980188
1717.000000	19.056675
1716.000000	19.132605
1715.000000	19.195713
1714.000000	19.280675
1713.000000	19.360507
1712.000000	19.442570
1711.000000	19.518054
1710.000000	19.555629
1709.000000	19.630444
1708.000000	19.659768
1707.000000	19.657984
1706.000000	19.656311
1705.000000	19.660214
1704.000000	19.630109
1703.000000	19.584953
1702.000000	19.531768
1701.000000	19.473232
1700.000000	19.391838
1699.000000	19.303532
1698.000000	19.189023
1697.000000	19.103727
1696.000000	19.030473
1695.000000	18.973721
1694.000000	18.943951
1693.000000	18.951867
1692.000000	18.978738
1691.000000	19.008508
1690.000000	19.113428
1689.000000	19.199393
1688.000000	19.297399
1687.000000	19.379685
1686.000000	19.429302
1685.000000	19.516716
1684.000000	19.585845
1683.000000	19.680172
1682.000000	19.834039
1681.000000	20.036854
1680.000000	20.298094
1679.000000	20.600253
1678.000000	20.961061
1677.000000	21.318300
1676.000000	21.701519
1675.000000	22.060542
1674.000000	22.348318
1673.000000	22.643899
1672.000000	22.903132
1671.000000	23.143856
1670.000000	23.352469
1669.000000	23.524064
1668.000000	23.692315
1667.000000	23.844510
1666.000000	23.956454
1665.000000	24.073861
1664.000000	24.193944
1663.000000	24.282028
1662.000000	24.360299
1661.000000	24.435226
1660.000000	24.485734
1659.000000	24.552410
1658.000000	24.618528
1657.000000	24.623546
1656.000000	24.674054
1655.000000	24.689218
1654.000000	24.698807
1653.000000	24.721553
1652.000000	24.718319
1651.000000	24.692229
1650.000000	24.688549
1649.000000	24.666584
1648.000000	24.635365
1647.000000	24.591657
1646.000000	24.564563
1645.000000	24.518849
1644.000000	24.460870
1643.000000	24.401219
1642.000000	24.379700
1641.000000	24.336662
1640.000000	24.284258
1639.000000	24.247129
1638.000000	24.215129
1637.000000	24.159491
1636.000000	24.103631
1635.000000	24.046544
1634.000000	23.986781
1633.000000	23.927799
1632.000000	23.856217
1631.000000	23.802363
1630.000000	23.708259
1629.000000	23.648608
1628.000000	23.604789
1627.000000	23.537890
1626.000000	23.465862
1625.000000	23.389375
1624.000000	23.303856
1623.000000	23.235173
1622.000000	23.169055
1621.000000	23.106951
1620.000000	23.038491
1619.000000	22.968247
1618.000000	22.912944
1617.000000	22.838686
1616.000000	22.779258
1615.000000	22.721502
1614.000000	22.665084
1613.000000	22.589377
1612.000000	22.521586
1611.000000	22.468067
1610.000000	22.403064
1609.000000	22.336165
1608.000000	22.264583
1607.000000	22.206381
1606.000000	22.135023
1605.000000	22.063553
1604.000000	21.992974
1603.000000	21.936779
1602.000000	21.868320
1601.000000	21.789045
1600.000000	21.730508
1599.000000	21.659261
1598.000000	21.590801
1597.000000	21.526244
1596.000000	21.452321
1595.000000	21.392669
1594.000000	21.336697
1593.000000	21.240363
1592.000000	21.201896
1591.000000	21.137004
1590.000000	21.087611
1589.000000	21.031304
1588.000000	20.997632
1587.000000	20.913339
1586.000000	20.879890
1585.000000	20.822134
