PE UV       SUBTECH     SPECTRUM    ASCII       PEDS        4.00        
   -1
CICIMAUCR0252-1.ASC
24/06/27
14:04:34.00
24/06/27
14:04:34.00
Vinicio Soto Monge
C. resplendens. Sex F. Ventral
250,000000
1
Lambda 1050
1050L1511233
PerkinElmer UV WinLab 6.3.2.0749 / 2.02.05 Lambda 900 UV/VIS/NIR, Aug  7 2015 09:38:08

0
0
3350/servo 860,8/2
0
0
UV/VIS
1
1
1
DoubleDePol,CommonBeamDepol,RBeamAtt,SBeamAtt,60mm sphere, WB InGaAs Detector
0
0
0
0
Program
Program
3350/servo 860,8/2
3350/0,2 860,8/0,2
3350/0,2 860,8/0,2
0
15.00
 
 
 
0
 
860,8
319,2
860,8
Front
100
on
S:100 R:100
0
0
0
0
 
0
 
 
 
0
 
 
0
0
0
0
0
 
 
 
 
0
0


0
0
#HDR
-1
-1
#GR
nm
%R
1.0
0.0
2500,000000
-1,000000
2251
8
56,798400
4,471700
#DATA
2482.000000	5.180388
2481.000000	5.145178
2480.000000	5.192237
2479.000000	5.182080
2478.000000	5.141567
2477.000000	5.163686
2476.000000	5.134345
2475.000000	5.125317
2474.000000	5.089092
2473.000000	5.142583
2472.000000	5.108502
2471.000000	5.110308
2470.000000	5.087286
2469.000000	5.080515
2468.000000	5.078258
2467.000000	5.046322
2466.000000	5.096427
2465.000000	5.103875
2464.000000	5.074421
2463.000000	5.080854
2462.000000	5.118771
2461.000000	5.059864
2460.000000	5.104327
2459.000000	5.102634
2458.000000	5.103762
2457.000000	5.101618
2456.000000	5.117643
2455.000000	5.112000
2454.000000	5.088076
2453.000000	5.094283
2452.000000	5.113468
2451.000000	5.151272
2450.000000	5.141680
2449.000000	5.139423
2448.000000	5.168990
2447.000000	5.171360
2446.000000	5.152401
2445.000000	5.175648
2444.000000	5.196638
2443.000000	5.185127
2442.000000	5.183547
2441.000000	5.217967
2440.000000	5.234217
2439.000000	5.234669
2438.000000	5.261414
2437.000000	5.256223
2436.000000	5.290191
2435.000000	5.292674
2434.000000	5.296285
2433.000000	5.302830
2432.000000	5.291545
2431.000000	5.325400
2430.000000	5.341989
2429.000000	5.324497
2428.000000	5.339506
2427.000000	5.336347
2426.000000	5.364785
2425.000000	5.367832
2424.000000	5.380245
2423.000000	5.377875
2422.000000	5.377198
2421.000000	5.392095
2420.000000	5.416019
2419.000000	5.411392
2418.000000	5.385211
2417.000000	5.408345
2416.000000	5.446714
2415.000000	5.443667
2414.000000	5.437460
2413.000000	5.438927
2412.000000	5.468268
2411.000000	5.473460
2410.000000	5.467140
2409.000000	5.460369
2408.000000	5.468833
2407.000000	5.476507
2406.000000	5.491177
2405.000000	5.483616
2404.000000	5.495465
2403.000000	5.511377
2402.000000	5.514424
2401.000000	5.521759
2400.000000	5.523227
2399.000000	5.523114
2398.000000	5.520970
2397.000000	5.547602
2396.000000	5.578072
2395.000000	5.570736
2394.000000	5.559000
2393.000000	5.577169
2392.000000	5.585971
2391.000000	5.589131
2390.000000	5.599288
2389.000000	5.599965
2388.000000	5.592742
2387.000000	5.604479
2386.000000	5.622422
2385.000000	5.624453
2384.000000	5.618698
2383.000000	5.608880
2382.000000	5.623776
2381.000000	5.650070
2380.000000	5.655374
2379.000000	5.640478
2378.000000	5.624792
2377.000000	5.627839
2376.000000	5.632804
2375.000000	5.636077
2374.000000	5.651199
2373.000000	5.645556
2372.000000	5.623663
2371.000000	5.618359
2370.000000	5.638559
2369.000000	5.628177
2368.000000	5.633933
2367.000000	5.634158
2366.000000	5.605381
2365.000000	5.596015
2364.000000	5.608090
2363.000000	5.609557
2362.000000	5.601883
2361.000000	5.588792
2360.000000	5.571865
2359.000000	5.565658
2358.000000	5.563288
2357.000000	5.564868
2356.000000	5.558774
2355.000000	5.543878
2354.000000	5.530223
2353.000000	5.533834
2352.000000	5.540267
2351.000000	5.526725
2350.000000	5.519841
2349.000000	5.536204
2348.000000	5.539477
2347.000000	5.530449
2346.000000	5.533045
2345.000000	5.548505
2344.000000	5.557533
2343.000000	5.563401
2342.000000	5.571301
2341.000000	5.593984
2340.000000	5.594999
2339.000000	5.596918
2338.000000	5.607977
2337.000000	5.619601
2336.000000	5.627049
2335.000000	5.627613
2334.000000	5.618585
2333.000000	5.614522
2332.000000	5.610234
2331.000000	5.606510
2330.000000	5.610573
2329.000000	5.599626
2328.000000	5.597143
2327.000000	5.597256
2326.000000	5.585068
2325.000000	5.570059
2324.000000	5.558436
2323.000000	5.556066
2322.000000	5.533383
2321.000000	5.518035
2320.000000	5.483052
2319.000000	5.476394
2318.000000	5.478989
2317.000000	5.456532
2316.000000	5.439943
2315.000000	5.419517
2314.000000	5.401800
2313.000000	5.373587
2312.000000	5.351694
2311.000000	5.339168
2310.000000	5.306780
2309.000000	5.296059
2308.000000	5.287483
2307.000000	5.285225
2306.000000	5.293802
2305.000000	5.264235
2304.000000	5.253176
2303.000000	5.289627
2302.000000	5.294818
2301.000000	5.285790
2300.000000	5.288160
2299.000000	5.308473
2298.000000	5.301476
2297.000000	5.349212
2296.000000	5.367832
2295.000000	5.373361
2294.000000	5.384759
2293.000000	5.389950
2292.000000	5.399994
2291.000000	5.424595
2290.000000	5.446376
2289.000000	5.428432
2288.000000	5.440169
2287.000000	5.454275
2286.000000	5.463303
2285.000000	5.449648
2284.000000	5.459805
2283.000000	5.459128
2282.000000	5.423128
2281.000000	5.442200
2280.000000	5.438137
2279.000000	5.444457
2278.000000	5.430464
2277.000000	5.392320
2276.000000	5.362415
2275.000000	5.388145
2274.000000	5.399091
2273.000000	5.376521
2272.000000	5.362754
2271.000000	5.346729
2270.000000	5.349099
2269.000000	5.355531
2268.000000	5.350227
2267.000000	5.372910
2266.000000	5.400107
2265.000000	5.417824
2264.000000	5.434413
2263.000000	5.446601
2262.000000	5.476732
2261.000000	5.533722
2260.000000	5.556517
2259.000000	5.619601
2258.000000	5.658872
2257.000000	5.701078
2256.000000	5.756714
2255.000000	5.813929
2254.000000	5.857150
2253.000000	5.920685
2252.000000	5.981060
2251.000000	6.040757
2250.000000	6.092443
2249.000000	6.165795
2248.000000	6.211161
2247.000000	6.254270
2246.000000	6.296927
2245.000000	6.344099
2244.000000	6.407972
2243.000000	6.466316
2242.000000	6.488208
2241.000000	6.519355
2240.000000	6.557386
2239.000000	6.564157
2238.000000	6.604896
2237.000000	6.627353
2236.000000	6.678700
2235.000000	6.709846
2234.000000	6.740541
2233.000000	6.746523
2232.000000	6.777556
2231.000000	6.786359
2230.000000	6.795725
2229.000000	6.785117
2228.000000	6.831160
2227.000000	6.833191
2226.000000	6.834546
2225.000000	6.827888
2224.000000	6.842332
2223.000000	6.833304
2222.000000	6.820439
2221.000000	6.833417
2220.000000	6.824841
2219.000000	6.818295
2218.000000	6.808816
2217.000000	6.806785
2216.000000	6.819988
2215.000000	6.820778
2214.000000	6.791550
2213.000000	6.763337
2212.000000	6.773607
2211.000000	6.775412
2210.000000	6.760629
2209.000000	6.757130
2208.000000	6.752955
2207.000000	6.764691
2206.000000	6.713796
2205.000000	6.734335
2204.000000	6.733545
2203.000000	6.729369
2202.000000	6.735012
2201.000000	6.706461
2200.000000	6.722711
2199.000000	6.726209
2198.000000	6.717069
2197.000000	6.696417
2196.000000	6.716166
2195.000000	6.729031
2194.000000	6.705332
2193.000000	6.713570
2192.000000	6.685696
2191.000000	6.689533
2190.000000	6.692242
2189.000000	6.690436
2188.000000	6.672154
2187.000000	6.691113
2186.000000	6.683778
2185.000000	6.681521
2184.000000	6.654888
2183.000000	6.672267
2182.000000	6.669559
2181.000000	6.658387
2180.000000	6.647666
2179.000000	6.657258
2178.000000	6.641120
2177.000000	6.639879
2176.000000	6.643716
2175.000000	6.626788
2174.000000	6.626450
2173.000000	6.626676
2172.000000	6.641572
2171.000000	6.641346
2170.000000	6.639879
2169.000000	6.634914
2168.000000	6.631754
2167.000000	6.639992
2166.000000	6.633334
2165.000000	6.606250
2164.000000	6.640218
2163.000000	6.647102
2162.000000	6.673621
2161.000000	6.663916
2160.000000	6.662675
2159.000000	6.678474
2158.000000	6.670800
2157.000000	6.681408
2156.000000	6.704881
2155.000000	6.692919
2154.000000	6.701721
2153.000000	6.693483
2152.000000	6.726774
2151.000000	6.741219
2150.000000	6.751037
2149.000000	6.747087
2148.000000	6.774509
2147.000000	6.795048
2146.000000	6.795048
2145.000000	6.796628
2144.000000	6.813217
2143.000000	6.816377
2142.000000	6.840527
2141.000000	6.849329
2140.000000	6.854520
2139.000000	6.848313
2138.000000	6.868288
2137.000000	6.887247
2136.000000	6.877203
2135.000000	6.883748
2134.000000	6.887585
2133.000000	6.886457
2132.000000	6.901014
2131.000000	6.899773
2130.000000	6.897967
2129.000000	6.908124
2128.000000	6.916813
2127.000000	6.911171
2126.000000	6.917265
2125.000000	6.900450
2124.000000	6.911284
2123.000000	6.911509
2122.000000	6.895710
2121.000000	6.904738
2120.000000	6.907898
2119.000000	6.914105
2118.000000	6.908237
2117.000000	6.897403
2116.000000	6.880137
2115.000000	6.881604
2114.000000	6.870545
2113.000000	6.863661
2112.000000	6.850232
2111.000000	6.858357
2110.000000	6.854182
2109.000000	6.838947
2108.000000	6.827210
2107.000000	6.824051
2106.000000	6.826759
2105.000000	6.810396
2104.000000	6.806559
2103.000000	6.798434
2102.000000	6.780265
2101.000000	6.769995
2100.000000	6.751601
2099.000000	6.754422
2098.000000	6.759839
2097.000000	6.755325
2096.000000	6.753858
2095.000000	6.739752
2094.000000	6.720454
2093.000000	6.724630
2092.000000	6.715602
2091.000000	6.695966
2090.000000	6.698674
2089.000000	6.702398
2088.000000	6.692806
2087.000000	6.699238
2086.000000	6.695176
2085.000000	6.674298
2084.000000	6.683778
2083.000000	6.691226
2082.000000	6.674863
2081.000000	6.651954
2080.000000	6.642926
2079.000000	6.642475
2078.000000	6.646763
2077.000000	6.634801
2076.000000	6.613585
2075.000000	6.602639
2074.000000	6.577699
2073.000000	6.572056
2072.000000	6.583680
2071.000000	6.571492
2070.000000	6.542941
2069.000000	6.527932
2068.000000	6.512923
2067.000000	6.501638
2066.000000	6.487644
2065.000000	6.473989
2064.000000	6.459206
2063.000000	6.442843
2062.000000	6.431219
2061.000000	6.431106
2060.000000	6.429075
2059.000000	6.411696
2058.000000	6.393301
2057.000000	6.374455
2056.000000	6.371634
2055.000000	6.373101
2054.000000	6.373440
2053.000000	6.378292
2052.000000	6.389239
2051.000000	6.395897
2050.000000	6.409552
2049.000000	6.410793
2048.000000	6.416436
2047.000000	6.444310
2046.000000	6.466654
2045.000000	6.484823
2044.000000	6.505587
2043.000000	6.528270
2042.000000	6.535718
2041.000000	6.564157
2040.000000	6.578714
2039.000000	6.592031
2038.000000	6.609635
2037.000000	6.615503
2036.000000	6.645522
2035.000000	6.664255
2034.000000	6.659289
2033.000000	6.692354
2032.000000	6.697207
2031.000000	6.705219
2030.000000	6.715714
2029.000000	6.715150
2028.000000	6.742347
2027.000000	6.757469
2026.000000	6.757469
2025.000000	6.762096
2024.000000	6.772252
2023.000000	6.760516
2022.000000	6.765369
2021.000000	6.767964
2020.000000	6.765143
2019.000000	6.767626
2018.000000	6.761757
2017.000000	6.758936
2016.000000	6.757582
2015.000000	6.742911
2014.000000	6.753971
2013.000000	6.757130
2012.000000	6.747877
2011.000000	6.745507
2010.000000	6.730498
2009.000000	6.718423
2008.000000	6.721131
2007.000000	6.699577
2006.000000	6.700705
2005.000000	6.703075
2004.000000	6.676217
2003.000000	6.663578
2002.000000	6.658048
2001.000000	6.629835
2000.000000	6.606363
1999.000000	6.596883
1998.000000	6.580181
1997.000000	6.576344
1996.000000	6.551066
1995.000000	6.505587
1994.000000	6.504685
1993.000000	6.488434
1992.000000	6.473989
1991.000000	6.441376
1990.000000	6.429978
1989.000000	6.416549
1988.000000	6.382355
1987.000000	6.365202
1986.000000	6.338005
1985.000000	6.328074
1984.000000	6.300087
1983.000000	6.293090
1982.000000	6.290608
1981.000000	6.259913
1980.000000	6.234747
1979.000000	6.215111
1978.000000	6.193444
1977.000000	6.174485
1976.000000	6.152592
1975.000000	6.123702
1974.000000	6.123025
1973.000000	6.083641
1972.000000	6.087477
1971.000000	6.063102
1970.000000	6.048206
1969.000000	6.020106
1968.000000	6.003743
1967.000000	5.984558
1966.000000	5.957023
1965.000000	5.959392
1964.000000	5.934001
1963.000000	5.949236
1962.000000	5.906240
1961.000000	5.893149
1960.000000	5.862454
1959.000000	5.860197
1958.000000	5.851508
1957.000000	5.802305
1956.000000	5.827132
1955.000000	5.805803
1954.000000	5.800612
1953.000000	5.756262
1952.000000	5.771271
1951.000000	5.744074
1950.000000	5.718119
1949.000000	5.713943
1948.000000	5.705931
1947.000000	5.692276
1946.000000	5.676928
1945.000000	5.708301
1944.000000	5.677944
1943.000000	5.650296
1942.000000	5.661468
1941.000000	5.644540
1940.000000	5.645895
1939.000000	5.647362
1938.000000	5.656164
1937.000000	5.635061
1936.000000	5.660001
1935.000000	5.636528
1934.000000	5.622196
1933.000000	5.613055
1932.000000	5.666659
1931.000000	5.680653
1930.000000	5.654246
1929.000000	5.672866
1928.000000	5.637318
1927.000000	5.691938
1926.000000	5.709542
1925.000000	5.726695
1924.000000	5.741027
1923.000000	5.738883
1922.000000	5.775560
1921.000000	5.768901
1920.000000	5.814719
1919.000000	5.857376
1918.000000	5.878028
1917.000000	5.893601
1916.000000	5.924183
1915.000000	5.978464
1914.000000	5.982414
1913.000000	6.035679
1912.000000	6.082286
1911.000000	6.117044
1910.000000	6.157670
1909.000000	6.187237
1908.000000	6.253931
1907.000000	6.297830
1906.000000	6.386418
1905.000000	6.421175
1904.000000	6.498478
1903.000000	6.558627
1902.000000	6.626563
1901.000000	6.706461
1900.000000	6.787939
1899.000000	6.864338
1898.000000	6.970417
1897.000000	7.102565
1896.000000	7.182463
1895.000000	7.292040
1894.000000	7.378484
1893.000000	7.485353
1892.000000	7.613663
1891.000000	7.757999
1890.000000	7.914748
1889.000000	8.059647
1888.000000	8.220910
1887.000000	8.404743
1886.000000	8.569617
1885.000000	8.787418
1884.000000	8.990323
1883.000000	9.222794
1882.000000	9.502550
1881.000000	9.753867
1880.000000	10.006990
1879.000000	10.262934
1878.000000	10.543367
1877.000000	10.811612
1876.000000	11.053450
1875.000000	11.325644
1874.000000	11.612510
1873.000000	11.902083
1872.000000	12.180033
1871.000000	12.446021
1870.000000	12.694743
1869.000000	12.961069
1868.000000	13.252674
1867.000000	13.472393
1866.000000	13.657129
1865.000000	13.830129
1864.000000	14.006401
1863.000000	14.150397
1862.000000	14.278708
1861.000000	14.410856
1860.000000	14.560269
1859.000000	14.684743
1858.000000	14.810797
1857.000000	14.922518
1856.000000	15.007269
1855.000000	15.082427
1854.000000	15.141899
1853.000000	15.219991
1852.000000	15.254411
1851.000000	15.295488
1850.000000	15.352139
1849.000000	15.373355
1848.000000	15.385543
1847.000000	15.414094
1846.000000	15.437341
1845.000000	15.435422
1844.000000	15.401793
1843.000000	15.393668
1842.000000	15.397618
1841.000000	15.406420
1840.000000	15.408790
1839.000000	15.414658
1838.000000	15.403486
1837.000000	15.391411
1836.000000	15.383060
1835.000000	15.385994
1834.000000	15.362295
1833.000000	15.326522
1832.000000	15.277658
1831.000000	15.240079
1830.000000	15.220217
1829.000000	15.188393
1828.000000	15.157472
1827.000000	15.116959
1826.000000	15.059744
1825.000000	15.027469
1824.000000	14.985037
1823.000000	14.943170
1822.000000	14.927371
1821.000000	14.914957
1820.000000	14.906155
1819.000000	14.879522
1818.000000	14.834721
1817.000000	14.811022
1816.000000	14.800979
1815.000000	14.799737
1814.000000	14.794095
1813.000000	14.774120
1812.000000	14.773218
1811.000000	14.756967
1810.000000	14.734510
1809.000000	14.712278
1808.000000	14.671652
1807.000000	14.645923
1806.000000	14.637910
1805.000000	14.600557
1804.000000	14.553724
1803.000000	14.519982
1802.000000	14.489851
1801.000000	14.457350
1800.000000	14.424510
1799.000000	14.377903
1798.000000	14.335472
1797.000000	14.309290
1796.000000	14.272050
1795.000000	14.251737
1794.000000	14.221380
1793.000000	14.170372
1792.000000	14.130084
1791.000000	14.103452
1790.000000	14.076368
1789.000000	14.031905
1788.000000	13.990376
1787.000000	13.956746
1786.000000	13.925826
1785.000000	13.883507
1784.000000	13.842768
1783.000000	13.805753
1782.000000	13.754519
1781.000000	13.711184
1780.000000	13.668076
1779.000000	13.618760
1778.000000	13.563351
1777.000000	13.523853
1776.000000	13.497446
1775.000000	13.428720
1774.000000	13.366427
1773.000000	13.326365
1772.000000	13.266103
1771.000000	13.198506
1770.000000	13.140050
1769.000000	13.086897
1768.000000	13.040290
1767.000000	12.980818
1766.000000	12.912769
1765.000000	12.868645
1764.000000	12.829147
1763.000000	12.795744
1762.000000	12.783443
1761.000000	12.796195
1760.000000	12.825536
1759.000000	12.848106
1758.000000	12.869435
1757.000000	12.919540
1756.000000	12.983639
1755.000000	13.019639
1754.000000	13.055299
1753.000000	13.107662
1752.000000	13.132150
1751.000000	13.147498
1750.000000	13.171986
1749.000000	13.172438
1748.000000	13.168939
1747.000000	13.159234
1746.000000	13.131135
1745.000000	13.098634
1744.000000	13.058685
1743.000000	13.008354
1742.000000	12.938386
1741.000000	12.844382
1740.000000	12.742366
1739.000000	12.627033
1738.000000	12.514973
1737.000000	12.409683
1736.000000	12.298977
1735.000000	12.192334
1734.000000	12.136812
1733.000000	12.079032
1732.000000	12.037842
1731.000000	12.037729
1730.000000	12.058494
1729.000000	12.108599
1728.000000	12.144711
1727.000000	12.201588
1726.000000	12.261624
1725.000000	12.328883
1724.000000	12.378762
1723.000000	12.442861
1722.000000	12.475024
1721.000000	12.526709
1720.000000	12.555373
1719.000000	12.576702
1718.000000	12.612588
1717.000000	12.655358
1716.000000	12.706028
1715.000000	12.745187
1714.000000	12.794164
1713.000000	12.841448
1712.000000	12.869773
1711.000000	12.932631
1710.000000	12.989282
1709.000000	13.013545
1708.000000	13.028667
1707.000000	13.034083
1706.000000	13.022347
1705.000000	12.990636
1704.000000	12.964229
1703.000000	12.950574
1702.000000	12.905886
1701.000000	12.841335
1700.000000	12.784797
1699.000000	12.695646
1698.000000	12.602544
1697.000000	12.526483
1696.000000	12.462497
1695.000000	12.398173
1694.000000	12.357885
1693.000000	12.363302
1692.000000	12.400204
1691.000000	12.449745
1690.000000	12.525016
1689.000000	12.623309
1688.000000	12.712235
1687.000000	12.785700
1686.000000	12.829937
1685.000000	12.894601
1684.000000	12.915816
1683.000000	12.977433
1682.000000	13.087010
1681.000000	13.242856
1680.000000	13.426351
1679.000000	13.695724
1678.000000	13.996470
1677.000000	14.322268
1676.000000	14.626964
1675.000000	14.949828
1674.000000	15.225634
1673.000000	15.479321
1672.000000	15.702426
1671.000000	15.899688
1670.000000	16.079797
1669.000000	16.246251
1668.000000	16.343528
1667.000000	16.483462
1666.000000	16.576451
1665.000000	16.685351
1664.000000	16.754528
1663.000000	16.812759
1662.000000	16.873472
1661.000000	16.945132
1660.000000	16.948743
1659.000000	16.996818
1658.000000	17.042296
1657.000000	17.061819
1656.000000	17.055951
1655.000000	17.079085
1654.000000	17.094433
1653.000000	17.085969
1652.000000	17.064641
1651.000000	17.061368
1650.000000	17.029431
1649.000000	17.014309
1648.000000	16.995125
1647.000000	16.968831
1646.000000	16.959351
1645.000000	16.877648
1644.000000	16.861849
1643.000000	16.821787
1642.000000	16.780032
1641.000000	16.721125
1640.000000	16.686931
1639.000000	16.654543
1638.000000	16.590783
1637.000000	16.567197
1636.000000	16.512239
1635.000000	16.467437
1634.000000	16.412141
1633.000000	16.349622
1632.000000	16.292971
1631.000000	16.233837
1630.000000	16.188246
1629.000000	16.130015
1628.000000	16.085891
1627.000000	16.006783
1626.000000	15.950358
1625.000000	15.866172
1624.000000	15.818662
1623.000000	15.764832
1622.000000	15.712357
1621.000000	15.647806
1620.000000	15.612823
1619.000000	15.533828
1618.000000	15.490832
1617.000000	15.439824
1616.000000	15.355524
1615.000000	15.321331
1614.000000	15.272015
1613.000000	15.227552
1612.000000	15.179930
1611.000000	15.137498
1610.000000	15.064258
1609.000000	15.024873
1608.000000	14.977589
1607.000000	14.918569
1606.000000	14.863046
1605.000000	14.808201
1604.000000	14.755162
1603.000000	14.714535
1602.000000	14.645020
1601.000000	14.597171
1600.000000	14.558125
1599.000000	14.503618
1598.000000	14.439181
1597.000000	14.402843
1596.000000	14.354769
1595.000000	14.307259
1594.000000	14.259862
1593.000000	14.208177
1592.000000	14.151752
1591.000000	14.108869
1590.000000	14.075239
1589.000000	14.031792
1588.000000	13.981573
1587.000000	13.936433
1586.000000	13.892535
1585.000000	13.862291
1584.000000	13.823696
1583.000000	13.770995
1582.000000	13.734770
1581.000000	13.707799
1580.000000	13.667511
1579.000000	13.647763
