343ms
0ms
NA
NA
Counts
6/17/2024 4:05:35 PM
10.00000000
0.00000000
Resolution=2&-1
Time1=343ms:Average1=10:Objective=NA:Aperture=NA: (6/17/2024 4:05:35 PM)
