PE UV       SUBTECH     SPECTRUM    ASCII       PEDS        4.00        
   -1
INBUCR0143-3.Sample.ASC
24/04/29
13:57:43.00
24/04/29
13:57:43.00
Vinicio Soto Monge
C. kalinini
250,000000
1
Lambda 1050
1050L1511233
PerkinElmer UV WinLab 6.3.2.0749 / 2.02.05 Lambda 900 UV/VIS/NIR, Aug  7 2015 09:38:08

0
0
3350/servo 860,8/2
0
0
UV/VIS
1
1
1
DoubleDePol,CommonBeamDepol,RBeamAtt,SBeamAtt,60mm sphere, WB InGaAs Detector
0
0
0
0
Program
Program
3350/servo 860,8/2
3350/0,2 860,8/0,2
3350/0,2 860,8/0,2
0
15.00
 
 
 
0
 
860,8
319,2
860,8
Front
100
on
S:100 R:100
0
0
0
0
 
0
 
 
 
0
 
 
0
0
0
0
0
 
 
 
 
0
0


0
0
#HDR
-1
-1
#GR
nm
%R
1.0
0.0
2500,000000
-1,000000
2251
8
98,762200
5,959600
#DATA
2482.000000	13.845092
2481.000000	13.859953
2480.000000	13.826378
2479.000000	13.880759
2478.000000	13.882741
2477.000000	13.937563
2476.000000	13.948461
2475.000000	14.056014
2474.000000	13.971469
2473.000000	14.034987
2472.000000	14.088599
2471.000000	14.156190
2470.000000	14.174354
2469.000000	14.204627
2468.000000	14.270348
2467.000000	14.331555
2466.000000	14.403880
2465.000000	14.407513
2464.000000	14.459913
2463.000000	14.510442
2462.000000	14.616123
2461.000000	14.676229
2460.000000	14.737546
2459.000000	14.823632
2458.000000	14.869757
2457.000000	14.960247
2456.000000	15.084752
2455.000000	15.102035
2454.000000	15.229183
2453.000000	15.316920
2452.000000	15.415556
2451.000000	15.484138
2450.000000	15.599286
2449.000000	15.704087
2448.000000	15.813951
2447.000000	15.900257
2446.000000	16.005498
2445.000000	16.138920
2444.000000	16.248564
2443.000000	16.356117
2442.000000	16.482493
2441.000000	16.602155
2440.000000	16.695176
2439.000000	16.803830
2438.000000	16.909951
2437.000000	17.048878
2436.000000	17.161604
2435.000000	17.247250
2434.000000	17.366251
2433.000000	17.475565
2432.000000	17.587961
2431.000000	17.659956
2430.000000	17.744391
2429.000000	17.861190
2428.000000	17.964890
2427.000000	18.047233
2426.000000	18.134309
2425.000000	18.227771
2424.000000	18.308353
2423.000000	18.406988
2422.000000	18.482066
2421.000000	18.539860
2420.000000	18.615929
2419.000000	18.687814
2418.000000	18.753644
2417.000000	18.822117
2416.000000	18.884314
2415.000000	18.937485
2414.000000	19.000674
2413.000000	19.037442
2412.000000	19.067385
2411.000000	19.111528
2410.000000	19.181762
2409.000000	19.215999
2408.000000	19.228108
2407.000000	19.267848
2406.000000	19.303736
2405.000000	19.334229
2404.000000	19.362521
2403.000000	19.378593
2402.000000	19.411178
2401.000000	19.453561
2400.000000	19.515428
2399.000000	19.582029
2398.000000	19.629696
2397.000000	19.654905
2396.000000	19.657657
2395.000000	19.683637
2394.000000	19.703012
2393.000000	19.704223
2392.000000	19.727671
2391.000000	19.754752
2390.000000	19.765320
2389.000000	19.769613
2388.000000	19.773796
2387.000000	19.787557
2386.000000	19.794272
2385.000000	19.799666
2384.000000	19.813096
2383.000000	19.806051
2382.000000	19.785905
2381.000000	19.770273
2380.000000	19.764109
2379.000000	19.741211
2378.000000	19.728992
2377.000000	19.729322
2376.000000	19.702461
2375.000000	19.692003
2374.000000	19.689251
2373.000000	19.674830
2372.000000	19.663381
2371.000000	19.645107
2370.000000	19.625623
2369.000000	19.612522
2368.000000	19.619458
2367.000000	19.618797
2366.000000	19.607128
2365.000000	19.599533
2364.000000	19.592377
2363.000000	19.593148
2362.000000	19.595790
2361.000000	19.588524
2360.000000	19.565737
2359.000000	19.542068
2358.000000	19.550655
2357.000000	19.550655
2356.000000	19.531831
2355.000000	19.522584
2354.000000	19.501227
2353.000000	19.464569
2352.000000	19.458955
2351.000000	19.452019
2350.000000	19.425819
2349.000000	19.411178
2348.000000	19.382006
2347.000000	19.346889
2346.000000	19.350191
2345.000000	19.335991
2344.000000	19.310671
2343.000000	19.302745
2342.000000	19.286673
2341.000000	19.269610
2340.000000	19.271481
2339.000000	19.244731
2338.000000	19.238236
2337.000000	19.257500
2336.000000	19.270821
2335.000000	19.278086
2334.000000	19.279517
2333.000000	19.289975
2332.000000	19.306378
2331.000000	19.324872
2330.000000	19.343917
2329.000000	19.374410
2328.000000	19.414040
2327.000000	19.448167
2326.000000	19.478330
2325.000000	19.505520
2324.000000	19.532271
2323.000000	19.555829
2322.000000	19.572672
2321.000000	19.587093
2320.000000	19.616155
2319.000000	19.643016
2318.000000	19.625733
2317.000000	19.619568
2316.000000	19.615825
2315.000000	19.592927
2314.000000	19.578066
2313.000000	19.557921
2312.000000	19.534142
2311.000000	19.503759
2310.000000	19.490769
2309.000000	19.482293
2308.000000	19.429893
2307.000000	19.400720
2306.000000	19.376722
2305.000000	19.344247
2304.000000	19.345017
2303.000000	19.312432
2302.000000	19.310671
2301.000000	19.307919
2300.000000	19.300103
2299.000000	19.304837
2298.000000	19.312543
2297.000000	19.315625
2296.000000	19.327734
2295.000000	19.343476
2294.000000	19.375731
2293.000000	19.407766
2292.000000	19.447396
2291.000000	19.469413
2290.000000	19.509594
2289.000000	19.548784
2288.000000	19.559021
2287.000000	19.629806
2286.000000	19.673619
2285.000000	19.693655
2284.000000	19.740110
2283.000000	19.780952
2282.000000	19.819151
2281.000000	19.856249
2280.000000	19.903916
2279.000000	19.945638
2278.000000	19.970737
2277.000000	20.004533
2276.000000	20.032384
2275.000000	20.080711
2274.000000	20.105370
2273.000000	20.144010
2272.000000	20.160412
2271.000000	20.205767
2270.000000	20.264772
2269.000000	20.298128
2268.000000	20.358784
2267.000000	20.423294
2266.000000	20.461603
2265.000000	20.577522
2264.000000	20.652600
2263.000000	20.751896
2262.000000	20.867154
2261.000000	20.983844
2260.000000	21.119798
2259.000000	21.263678
2258.000000	21.430016
2257.000000	21.586335
2256.000000	21.744527
2255.000000	21.924955
2254.000000	22.109346
2253.000000	22.295609
2252.000000	22.469652
2251.000000	22.631146
2250.000000	22.790438
2249.000000	23.000699
2248.000000	23.163514
2247.000000	23.304863
2246.000000	23.438395
2245.000000	23.588770
2244.000000	23.734082
2243.000000	23.833598
2242.000000	23.951608
2241.000000	24.066867
2240.000000	24.126092
2239.000000	24.225608
2238.000000	24.264138
2237.000000	24.317088
2236.000000	24.346591
2235.000000	24.380827
2234.000000	24.410220
2233.000000	24.417595
2232.000000	24.419027
2231.000000	24.390405
2230.000000	24.379947
2229.000000	24.368718
2228.000000	24.334812
2227.000000	24.302888
2226.000000	24.223957
2225.000000	24.164071
2224.000000	24.123670
2223.000000	24.023493
2222.000000	23.954911
2221.000000	23.877081
2220.000000	23.786041
2219.000000	23.731109
2218.000000	23.645464
2217.000000	23.557726
2216.000000	23.467898
2215.000000	23.381701
2214.000000	23.300679
2213.000000	23.216355
2212.000000	23.147002
2211.000000	23.078199
2210.000000	22.989141
2209.000000	22.923090
2208.000000	22.867497
2207.000000	22.824454
2206.000000	22.765009
2205.000000	22.723947
2204.000000	22.676721
2203.000000	22.618707
2202.000000	22.594158
2201.000000	22.553096
2200.000000	22.500366
2199.000000	22.448626
2198.000000	22.411198
2197.000000	22.374429
2196.000000	22.341624
2195.000000	22.326323
2194.000000	22.263905
2193.000000	22.266877
2192.000000	22.236824
2191.000000	22.220421
2190.000000	22.177709
2189.000000	22.147105
2188.000000	22.147325
2187.000000	22.147766
2186.000000	22.088100
2185.000000	22.067514
2184.000000	22.060799
2183.000000	22.035370
2182.000000	22.000803
2181.000000	21.978126
2180.000000	21.966347
2179.000000	21.940147
2178.000000	21.931230
2177.000000	21.910754
2176.000000	21.927377
2175.000000	21.919561
2174.000000	21.903268
2173.000000	21.919561
2172.000000	21.907231
2171.000000	21.933431
2170.000000	21.943669
2169.000000	21.976144
2168.000000	22.022600
2167.000000	22.038892
2166.000000	22.061129
2165.000000	22.112759
2164.000000	22.170663
2163.000000	22.218770
2162.000000	22.280087
2161.000000	22.337111
2160.000000	22.408335
2159.000000	22.504219
2158.000000	22.577645
2157.000000	22.655035
2156.000000	22.758184
2155.000000	22.866617
2154.000000	22.976261
2153.000000	23.088217
2152.000000	23.209970
2151.000000	23.317632
2150.000000	23.435533
2149.000000	23.552773
2148.000000	23.680911
2147.000000	23.821819
2146.000000	23.948086
2145.000000	24.070830
2144.000000	24.186308
2143.000000	24.307731
2142.000000	24.417265
2141.000000	24.544303
2140.000000	24.653066
2139.000000	24.766563
2138.000000	24.875987
2137.000000	24.994988
2136.000000	25.112228
2135.000000	25.221432
2134.000000	25.312031
2133.000000	25.420904
2132.000000	25.509082
2131.000000	25.585701
2130.000000	25.685437
2129.000000	25.760735
2128.000000	25.831739
2127.000000	25.920137
2126.000000	25.990041
2125.000000	26.040569
2124.000000	26.095171
2123.000000	26.158470
2122.000000	26.232006
2121.000000	26.288700
2120.000000	26.318532
2119.000000	26.361465
2118.000000	26.410013
2117.000000	26.420801
2116.000000	26.451294
2115.000000	26.481347
2114.000000	26.499952
2113.000000	26.515914
2112.000000	26.529674
2111.000000	26.560718
2110.000000	26.578111
2109.000000	26.586698
2108.000000	26.588349
2107.000000	26.583726
2106.000000	26.593413
2105.000000	26.607064
2104.000000	26.621705
2103.000000	26.610807
2102.000000	26.595395
2101.000000	26.623576
2100.000000	26.636346
2099.000000	26.643832
2098.000000	26.664968
2097.000000	26.673445
2096.000000	26.699535
2095.000000	26.728156
2094.000000	26.740266
2093.000000	26.770759
2092.000000	26.800592
2091.000000	26.815894
2090.000000	26.842974
2089.000000	26.877101
2088.000000	26.900879
2087.000000	26.928180
2086.000000	26.937317
2085.000000	26.941500
2084.000000	26.927850
2083.000000	26.914639
2082.000000	26.916621
2081.000000	26.888219
2080.000000	26.851341
2079.000000	26.786831
2078.000000	26.717809
2077.000000	26.650327
2076.000000	26.586698
2075.000000	26.522849
2074.000000	26.438965
2073.000000	26.341100
2072.000000	26.232777
2071.000000	26.126215
2070.000000	26.020204
2069.000000	25.898120
2068.000000	25.769322
2067.000000	25.644596
2066.000000	25.499395
2065.000000	25.369605
2064.000000	25.236073
2063.000000	25.120594
2062.000000	25.001703
2061.000000	24.887326
2060.000000	24.793864
2059.000000	24.711851
2058.000000	24.618389
2057.000000	24.556742
2056.000000	24.528671
2055.000000	24.501590
2054.000000	24.514690
2053.000000	24.538468
2052.000000	24.570723
2051.000000	24.642828
2050.000000	24.749280
2049.000000	24.861786
2048.000000	24.988383
2047.000000	25.150097
2046.000000	25.307958
2045.000000	25.479029
2044.000000	25.664191
2043.000000	25.828217
2042.000000	26.024717
2041.000000	26.216704
2040.000000	26.404618
2039.000000	26.578222
2038.000000	26.749843
2037.000000	26.918382
2036.000000	27.084940
2035.000000	27.230912
2034.000000	27.379856
2033.000000	27.519993
2032.000000	27.654076
2031.000000	27.774288
2030.000000	27.910022
2029.000000	28.018125
2028.000000	28.140539
2027.000000	28.218809
2026.000000	28.301372
2025.000000	28.395935
2024.000000	28.498754
2023.000000	28.554897
2022.000000	28.628653
2021.000000	28.712207
2020.000000	28.755470
2019.000000	28.808641
2018.000000	28.874472
2017.000000	28.916083
2016.000000	28.952521
2015.000000	28.967053
2014.000000	29.002610
2013.000000	29.029580
2012.000000	29.033874
2011.000000	29.012627
2010.000000	29.024186
2009.000000	29.012848
2008.000000	29.004151
2007.000000	28.982464
2006.000000	28.939862
2005.000000	28.905075
2004.000000	28.855757
2003.000000	28.797853
2002.000000	28.739068
2001.000000	28.693823
2000.000000	28.621167
1999.000000	28.551704
1998.000000	28.474865
1997.000000	28.396705
1996.000000	28.299611
1995.000000	28.228827
1994.000000	28.140209
1993.000000	28.037830
1992.000000	27.931929
1991.000000	27.791461
1990.000000	27.708238
1989.000000	27.604098
1988.000000	27.497756
1987.000000	27.382608
1986.000000	27.278248
1985.000000	27.158366
1984.000000	27.025274
1983.000000	26.935776
1982.000000	26.820958
1981.000000	26.705919
1980.000000	26.576790
1979.000000	26.469018
1978.000000	26.347815
1977.000000	26.240483
1976.000000	26.136013
1975.000000	26.044422
1974.000000	25.913202
1973.000000	25.820731
1972.000000	25.690171
1971.000000	25.602434
1970.000000	25.504679
1969.000000	25.392723
1968.000000	25.300142
1967.000000	25.206460
1966.000000	25.085698
1965.000000	25.004675
1964.000000	24.890958
1963.000000	24.780544
1962.000000	24.701063
1961.000000	24.583603
1960.000000	24.481995
1959.000000	24.353857
1958.000000	24.245313
1957.000000	24.151962
1956.000000	24.043419
1955.000000	23.917702
1954.000000	23.827653
1953.000000	23.726155
1952.000000	23.633244
1951.000000	23.539673
1950.000000	23.442688
1949.000000	23.338658
1948.000000	23.281855
1947.000000	23.190485
1946.000000	23.117499
1945.000000	23.044403
1944.000000	22.979673
1943.000000	22.944556
1942.000000	22.868818
1941.000000	22.857260
1940.000000	22.822473
1939.000000	22.798695
1938.000000	22.790879
1937.000000	22.768862
1936.000000	22.765339
1935.000000	22.767210
1934.000000	22.791539
1933.000000	22.829518
1932.000000	22.886652
1931.000000	22.932998
1930.000000	23.028991
1929.000000	23.151295
1928.000000	23.248720
1927.000000	23.361006
1926.000000	23.492446
1925.000000	23.635116
1924.000000	23.746851
1923.000000	23.914950
1922.000000	24.158897
1921.000000	24.374552
1920.000000	24.622132
1919.000000	24.819514
1918.000000	25.064671
1917.000000	25.335039
1916.000000	25.579426
1915.000000	25.849683
1914.000000	26.232997
1913.000000	26.641520
1912.000000	27.035622
1911.000000	27.392295
1910.000000	27.769665
1909.000000	28.121164
1908.000000	28.532439
1907.000000	29.047965
1906.000000	29.640439
1905.000000	30.225427
1904.000000	30.801829
1903.000000	31.353572
1902.000000	31.963879
1901.000000	32.585856
1900.000000	33.274104
1899.000000	33.989982
1898.000000	34.653791
1897.000000	35.281272
1896.000000	35.846996
1895.000000	36.450919
1894.000000	37.047796
1893.000000	37.712155
1892.000000	38.468655
1891.000000	39.160866
1890.000000	39.814987
1889.000000	40.441477
1888.000000	40.984083
1887.000000	41.522176
1886.000000	42.065332
1885.000000	42.612561
1884.000000	43.131059
1883.000000	43.585267
1882.000000	44.029678
1881.000000	44.437100
1880.000000	44.779022
1879.000000	45.148465
1878.000000	45.514716
1877.000000	45.827135
1876.000000	46.163223
1875.000000	46.485330
1874.000000	46.791034
1873.000000	47.091895
1872.000000	47.337933
1871.000000	47.551277
1870.000000	47.758235
1869.000000	47.947801
1868.000000	48.062178
1867.000000	48.155640
1866.000000	48.214425
1865.000000	48.301282
1864.000000	48.381643
1863.000000	48.463986
1862.000000	48.584749
1861.000000	48.707273
1860.000000	48.800624
1859.000000	48.875702
1858.000000	48.960027
1857.000000	49.002189
1856.000000	49.030811
1855.000000	49.087174
1854.000000	49.117998
1853.000000	49.114805
1852.000000	49.137703
1851.000000	49.163903
1850.000000	49.180966
1849.000000	49.211019
1848.000000	49.251420
1847.000000	49.203203
1846.000000	49.145409
1845.000000	49.111283
1844.000000	49.059433
1843.000000	49.079798
1842.000000	49.110952
1841.000000	49.066919
1840.000000	49.026077
1839.000000	48.970044
1838.000000	48.917094
1837.000000	48.874271
1836.000000	48.818898
1835.000000	48.750096
1834.000000	48.669514
1833.000000	48.598620
1832.000000	48.557888
1831.000000	48.535101
1830.000000	48.498553
1829.000000	48.467949
1828.000000	48.418742
1827.000000	48.376579
1826.000000	48.355994
1825.000000	48.325390
1824.000000	48.302823
1823.000000	48.304254
1822.000000	48.347957
1821.000000	48.394964
1820.000000	48.384285
1819.000000	48.339701
1818.000000	48.314162
1817.000000	48.302272
1816.000000	48.301502
1815.000000	48.275632
1814.000000	48.262422
1813.000000	48.251964
1812.000000	48.229727
1811.000000	48.183051
1810.000000	48.142320
1809.000000	48.124486
1808.000000	48.096084
1807.000000	48.086287
1806.000000	48.033777
1805.000000	47.987982
1804.000000	47.980936
1803.000000	47.975982
1802.000000	47.974882
1801.000000	47.933380
1800.000000	47.887695
1799.000000	47.869090
1798.000000	47.857421
1797.000000	47.826708
1796.000000	47.809094
1795.000000	47.797426
1794.000000	47.775849
1793.000000	47.754933
1792.000000	47.746456
1791.000000	47.744145
1790.000000	47.740952
1789.000000	47.735228
1788.000000	47.740512
1787.000000	47.752511
1786.000000	47.763299
1785.000000	47.778711
1784.000000	47.776620
1783.000000	47.771556
1782.000000	47.755704
1781.000000	47.747117
1780.000000	47.736439
1779.000000	47.702313
1778.000000	47.657839
1777.000000	47.621401
1776.000000	47.573844
1775.000000	47.521334
1774.000000	47.486877
1773.000000	47.449999
1772.000000	47.390994
1771.000000	47.343658
1770.000000	47.301495
1769.000000	47.264177
1768.000000	47.214859
1767.000000	47.169394
1766.000000	47.129654
1765.000000	47.114132
1764.000000	47.076703
1763.000000	47.068006
1762.000000	47.068447
1761.000000	47.059310
1760.000000	47.061071
1759.000000	47.047421
1758.000000	47.045659
1757.000000	47.049622
1756.000000	47.056888
1755.000000	47.040595
1754.000000	47.027716
1753.000000	47.047311
1752.000000	47.018799
1751.000000	46.996672
1750.000000	46.953959
1749.000000	46.920163
1748.000000	46.855874
1747.000000	46.799070
1746.000000	46.739955
1745.000000	46.650787
1744.000000	46.566572
1743.000000	46.465074
1742.000000	46.346183
1741.000000	46.250960
1740.000000	46.166415
1739.000000	46.070532
1738.000000	45.982244
1737.000000	45.905515
1736.000000	45.828126
1735.000000	45.747104
1734.000000	45.684796
1733.000000	45.634598
1732.000000	45.584619
1731.000000	45.534751
1730.000000	45.456151
1729.000000	45.407384
1728.000000	45.332416
1727.000000	45.271209
1726.000000	45.230258
1725.000000	45.217158
1724.000000	45.206370
1723.000000	45.266366
1722.000000	45.365552
1721.000000	45.513065
1720.000000	45.716170
1719.000000	45.954173
1718.000000	46.206156
1717.000000	46.479495
1716.000000	46.750193
1715.000000	47.034651
1714.000000	47.252948
1713.000000	47.459687
1712.000000	47.659490
1711.000000	47.844101
1710.000000	48.005925
1709.000000	48.135715
1708.000000	48.249762
1707.000000	48.346306
1706.000000	48.461014
1705.000000	48.500975
1704.000000	48.550733
1703.000000	48.587831
1702.000000	48.601262
1701.000000	48.637589
1700.000000	48.653552
1699.000000	48.642653
1698.000000	48.636158
1697.000000	48.630214
1696.000000	48.581887
1695.000000	48.537633
1694.000000	48.415769
1693.000000	48.340692
1692.000000	48.227745
1691.000000	48.145292
1690.000000	48.087388
1689.000000	48.068233
1688.000000	48.090140
1687.000000	48.187234
1686.000000	48.353572
1685.000000	48.553925
1684.000000	48.770241
1683.000000	49.046663
1682.000000	49.321654
1681.000000	49.601708
1680.000000	49.860737
1679.000000	50.120536
1678.000000	50.344998
1677.000000	50.585092
1676.000000	50.786767
1675.000000	50.983598
1674.000000	51.183401
1673.000000	51.398946
1672.000000	51.626050
1671.000000	51.826404
1670.000000	52.046132
1669.000000	52.256503
1668.000000	52.463902
1667.000000	52.712913
1666.000000	52.874187
1665.000000	53.084668
1664.000000	53.249134
1663.000000	53.419214
1662.000000	53.581699
1661.000000	53.730313
1660.000000	53.868579
1659.000000	53.993855
1658.000000	54.126947
1657.000000	54.231747
1656.000000	54.309467
1655.000000	54.378600
1654.000000	54.458081
1653.000000	54.496390
1652.000000	54.535030
1651.000000	54.588090
1650.000000	54.615061
1649.000000	54.632344
1648.000000	54.655022
1647.000000	54.649297
1646.000000	54.660636
1645.000000	54.647096
1644.000000	54.657994
1643.000000	54.655242
1642.000000	54.676268
1641.000000	54.686616
1640.000000	54.685295
1639.000000	54.676818
1638.000000	54.662948
1637.000000	54.659865
1636.000000	54.650838
1635.000000	54.625849
1634.000000	54.618914
1633.000000	54.603172
1632.000000	54.578843
1631.000000	54.544387
1630.000000	54.513894
1629.000000	54.485382
1628.000000	54.444871
1627.000000	54.384214
1626.000000	54.353721
1625.000000	54.318384
1624.000000	54.277983
1623.000000	54.241875
1622.000000	54.211932
1621.000000	54.161734
1620.000000	54.144120
1619.000000	54.130580
1618.000000	54.082693
1617.000000	54.037118
1616.000000	54.008386
1615.000000	53.985158
1614.000000	53.930887
1613.000000	53.876725
1612.000000	53.828508
1611.000000	53.784254
1610.000000	53.727781
1609.000000	53.669546
1608.000000	53.604376
1607.000000	53.527868
1606.000000	53.449708
