PE UV       SUBTECH     SPECTRUM    ASCII       PEDS        4.00        
   -1
CICIMAUCR0001-5.Sample.ASC
24/04/23
10:47:46.00
24/04/23
10:47:46.00
Vinicio Soto Monge
C. kalinini
250,000000
1
Lambda 1050
1050L1511233
PerkinElmer UV WinLab 6.3.2.0749 / 2.02.05 Lambda 900 UV/VIS/NIR, Aug  7 2015 09:38:08

0
0
3350/servo 860,8/2
0
0
UV/VIS
1
1
1
DoubleDePol,CommonBeamDepol,RBeamAtt,SBeamAtt,60mm sphere, WB InGaAs Detector
0
0
0
0
Program
Program
3350/servo 860,8/2
3350/0,2 860,8/0,2
3350/0,2 860,8/0,2
0
15.00
 
 
 
0
 
860,8
319,2
860,8
Front
100
on
S:100 R:100
0
0
0
0
 
0
 
 
 
0
 
 
0
0
0
0
0
 
 
 
 
0
0


0
0
#HDR
-1
-1
#GR
nm
%R
1.0
0.0
2500,000000
-1,000000
2251
8
101,472100
5,465400
#DATA
2482.000000	14.904411
2481.000000	14.997940
2480.000000	15.007507
2479.000000	14.960911
2478.000000	14.990286
2477.000000	15.005931
2476.000000	15.054890
2475.000000	15.093720
2474.000000	15.160124
2473.000000	15.127710
2472.000000	15.140315
2471.000000	15.223152
2470.000000	15.258493
2469.000000	15.323772
2468.000000	15.337840
2467.000000	15.404470
2466.000000	15.459732
2465.000000	15.524898
2464.000000	15.557875
2463.000000	15.585788
2462.000000	15.680329
2461.000000	15.739981
2460.000000	15.785451
2459.000000	15.883144
2458.000000	15.946172
2457.000000	16.025632
2456.000000	16.098452
2455.000000	16.175324
2454.000000	16.214716
2453.000000	16.346962
2452.000000	16.430474
2451.000000	16.538972
2450.000000	16.646007
2449.000000	16.737285
2448.000000	16.845558
2447.000000	16.958670
2446.000000	17.058389
2445.000000	17.148429
2444.000000	17.267395
2443.000000	17.372291
2442.000000	17.484953
2441.000000	17.606732
2440.000000	17.717706
2439.000000	17.814387
2438.000000	17.908253
2437.000000	18.026431
2436.000000	18.129976
2435.000000	18.237011
2434.000000	18.345509
2433.000000	18.430935
2432.000000	18.538982
2431.000000	18.635550
2430.000000	18.737858
2429.000000	18.834426
2428.000000	18.917488
2427.000000	19.020808
2426.000000	19.108259
2425.000000	19.193797
2424.000000	19.308598
2423.000000	19.432628
2422.000000	19.547654
2421.000000	19.628015
2420.000000	19.707250
2419.000000	19.785472
2418.000000	19.846924
2417.000000	19.937189
2416.000000	20.043436
2415.000000	20.119407
2414.000000	20.176808
2413.000000	20.239273
2412.000000	20.311642
2411.000000	20.380860
2410.000000	20.405059
2409.000000	20.467524
2408.000000	20.539781
2407.000000	20.588965
2406.000000	20.631059
2405.000000	20.677429
2404.000000	20.732241
2403.000000	20.783001
2402.000000	20.818567
2401.000000	20.845241
2400.000000	20.892512
2399.000000	20.921775
2398.000000	20.955990
2397.000000	20.999547
2396.000000	21.028585
2395.000000	21.057848
2394.000000	21.078782
2393.000000	21.082046
2392.000000	21.129204
2391.000000	21.158242
2390.000000	21.167359
2389.000000	21.199998
2388.000000	21.207989
2387.000000	21.211478
2386.000000	21.213842
2385.000000	21.227798
2384.000000	21.243780
2383.000000	21.229374
2382.000000	21.233876
2381.000000	21.252221
2380.000000	21.242092
2379.000000	21.227010
2378.000000	21.227235
2377.000000	21.228586
2376.000000	21.222395
2375.000000	21.198647
2374.000000	21.190656
2373.000000	21.190656
2372.000000	21.177488
2371.000000	21.191107
2370.000000	21.194371
2369.000000	21.182553
2368.000000	21.183003
2367.000000	21.196847
2366.000000	21.202587
2365.000000	21.203825
2364.000000	21.205963
2363.000000	21.207989
2362.000000	21.209227
2361.000000	21.208889
2360.000000	21.218006
2359.000000	21.216881
2358.000000	21.207877
2357.000000	21.193020
2356.000000	21.188068
2355.000000	21.185592
2354.000000	21.181315
2353.000000	21.166796
2352.000000	21.164657
2351.000000	21.164882
2350.000000	21.144849
2349.000000	21.126390
2348.000000	21.116599
2347.000000	21.112659
2346.000000	21.108495
2345.000000	21.108382
2344.000000	21.100954
2343.000000	21.077769
2342.000000	21.061674
2341.000000	21.066964
2340.000000	21.079795
2339.000000	21.083509
2338.000000	21.080695
2337.000000	21.080020
2336.000000	21.096227
2335.000000	21.128979
2334.000000	21.148563
2333.000000	21.148113
2332.000000	21.155653
2331.000000	21.192682
2330.000000	21.229261
2329.000000	21.248169
2328.000000	21.266065
2327.000000	21.285086
2326.000000	21.331681
2325.000000	21.346876
2324.000000	21.385818
2323.000000	21.419808
2322.000000	21.437478
2321.000000	21.462127
2320.000000	21.460776
2319.000000	21.457062
2318.000000	21.468092
2317.000000	21.471243
2316.000000	21.442768
2315.000000	21.427349
2314.000000	21.401012
2313.000000	21.364321
2312.000000	21.326391
2311.000000	21.285086
2310.000000	21.258299
2309.000000	21.251658
2308.000000	21.208664
2307.000000	21.185704
2306.000000	21.141134
2305.000000	21.098140
2304.000000	21.089136
2303.000000	21.065501
2302.000000	21.052445
2301.000000	21.037926
2300.000000	21.019468
2299.000000	21.022282
2298.000000	21.028360
2297.000000	21.030723
2296.000000	21.053908
2295.000000	21.052220
2294.000000	21.075743
2293.000000	21.090712
2292.000000	21.090825
2291.000000	21.123352
2290.000000	21.157904
2289.000000	21.179739
2288.000000	21.231174
2287.000000	21.274731
2286.000000	21.306920
2285.000000	21.322115
2284.000000	21.360156
2283.000000	21.401575
2282.000000	21.460663
2281.000000	21.514912
2280.000000	21.535959
2279.000000	21.588745
2278.000000	21.625661
2277.000000	21.660214
2276.000000	21.678672
2275.000000	21.718290
2274.000000	21.749804
2273.000000	21.782106
2272.000000	21.795612
2271.000000	21.841420
2270.000000	21.883401
2269.000000	21.911200
2268.000000	21.958134
2267.000000	22.041758
2266.000000	22.075523
2265.000000	22.165901
2264.000000	22.258192
2263.000000	22.346431
2262.000000	22.432419
2261.000000	22.570292
2260.000000	22.699274
2259.000000	22.834334
2258.000000	22.980987
2257.000000	23.137318
2256.000000	23.303217
2255.000000	23.462475
2254.000000	23.640078
2253.000000	23.823760
2252.000000	23.996411
2251.000000	24.159608
2250.000000	24.326069
2249.000000	24.485890
2248.000000	24.645036
2247.000000	24.792476
2246.000000	24.925960
2245.000000	25.061358
2244.000000	25.193491
2243.000000	25.308179
2242.000000	25.398894
2241.000000	25.473515
2240.000000	25.540932
2239.000000	25.635249
2238.000000	25.678356
2237.000000	25.735644
2236.000000	25.762093
2235.000000	25.763894
2234.000000	25.826921
2233.000000	25.826696
2232.000000	25.792256
2231.000000	25.789893
2230.000000	25.762205
2229.000000	25.743522
2228.000000	25.690511
2227.000000	25.639188
2226.000000	25.628384
2225.000000	25.558040
2224.000000	25.471377
2223.000000	25.416115
2222.000000	25.363216
2221.000000	25.274752
2220.000000	25.188201
2219.000000	25.104689
2218.000000	25.028043
2217.000000	24.942843
2216.000000	24.890169
2215.000000	24.799004
2214.000000	24.696133
2213.000000	24.652689
2212.000000	24.580882
2211.000000	24.506712
2210.000000	24.431191
2209.000000	24.375254
2208.000000	24.332710
2207.000000	24.290391
2206.000000	24.223762
2205.000000	24.163097
2204.000000	24.126181
2203.000000	24.093992
2202.000000	24.071482
2201.000000	24.041431
2200.000000	24.024098
2199.000000	23.964109
2198.000000	23.947339
2197.000000	23.929669
2196.000000	23.924717
2195.000000	23.895792
2194.000000	23.883298
2193.000000	23.862027
2192.000000	23.864052
2191.000000	23.812730
2190.000000	23.810029
2189.000000	23.812730
2188.000000	23.803276
2187.000000	23.783354
2186.000000	23.785830
2185.000000	23.771199
2184.000000	23.740473
2183.000000	23.757580
2182.000000	23.728430
2181.000000	23.714024
2180.000000	23.700518
2179.000000	23.706820
2178.000000	23.704682
2177.000000	23.686561
2176.000000	23.693427
2175.000000	23.703894
2174.000000	23.709747
2173.000000	23.707158
2172.000000	23.717400
2171.000000	23.765909
2170.000000	23.789319
2169.000000	23.809353
2168.000000	23.846607
2167.000000	23.879584
2166.000000	23.882961
2165.000000	23.931920
2164.000000	23.998662
2163.000000	24.063941
2162.000000	24.132821
2161.000000	24.199113
2160.000000	24.263942
2159.000000	24.348017
2158.000000	24.414534
2157.000000	24.503448
2156.000000	24.612846
2155.000000	24.708626
2154.000000	24.808458
2153.000000	24.921796
2152.000000	25.035471
2151.000000	25.156687
2150.000000	25.272839
2149.000000	25.382125
2148.000000	25.510544
2147.000000	25.615103
2146.000000	25.728103
2145.000000	25.831986
2144.000000	25.951289
2143.000000	26.063051
2142.000000	26.183142
2141.000000	26.296592
2140.000000	26.402839
2139.000000	26.496368
2138.000000	26.617809
2137.000000	26.706611
2136.000000	26.804979
2135.000000	26.906724
2134.000000	27.015110
2133.000000	27.098172
2132.000000	27.176506
2131.000000	27.255179
2130.000000	27.325410
2129.000000	27.378083
2128.000000	27.466435
2127.000000	27.559063
2126.000000	27.603408
2125.000000	27.650904
2124.000000	27.704928
2123.000000	27.766042
2122.000000	27.816690
2121.000000	27.841001
2120.000000	27.866887
2119.000000	27.903691
2118.000000	27.949724
2117.000000	27.979437
2116.000000	27.998795
2115.000000	28.028846
2114.000000	28.046854
2113.000000	28.057884
2112.000000	28.070490
2111.000000	28.072966
2110.000000	28.089173
2109.000000	28.082082
2108.000000	28.075329
2107.000000	28.083771
2106.000000	28.084108
2105.000000	28.073866
2104.000000	28.084896
2103.000000	28.104480
2102.000000	28.101328
2101.000000	28.096376
2100.000000	28.093112
2099.000000	28.094350
2098.000000	28.096151
2097.000000	28.104030
2096.000000	28.115960
2095.000000	28.119561
2094.000000	28.126314
2093.000000	28.143309
2092.000000	28.164019
2091.000000	28.170096
2090.000000	28.172572
2089.000000	28.185516
2088.000000	28.198684
2087.000000	28.216017
2086.000000	28.221869
2085.000000	28.202286
2084.000000	28.161655
2083.000000	28.150062
2082.000000	28.131829
2081.000000	28.091987
2080.000000	28.049330
2079.000000	27.997220
2078.000000	27.924625
2077.000000	27.843139
2076.000000	27.771107
2075.000000	27.694573
2074.000000	27.598118
2073.000000	27.492997
2072.000000	27.393728
2071.000000	27.296822
2070.000000	27.202956
2069.000000	27.085454
2068.000000	26.965588
2067.000000	26.825576
2066.000000	26.717753
2065.000000	26.605429
2064.000000	26.461815
2063.000000	26.335759
2062.000000	26.241668
2061.000000	26.145550
2060.000000	26.038177
2059.000000	25.957817
2058.000000	25.894789
2057.000000	25.842791
2056.000000	25.810939
2055.000000	25.804524
2054.000000	25.819381
2053.000000	25.839752
2052.000000	25.878244
2051.000000	25.941835
2050.000000	26.031312
2049.000000	26.150277
2048.000000	26.288826
2047.000000	26.420172
2046.000000	26.552530
2045.000000	26.702559
2044.000000	26.881626
2043.000000	27.054953
2042.000000	27.208358
2041.000000	27.355348
2040.000000	27.533514
2039.000000	27.694348
2038.000000	27.837962
2037.000000	27.982026
2036.000000	28.128340
2035.000000	28.254396
2034.000000	28.381577
2033.000000	28.514949
2032.000000	28.646407
2031.000000	28.742187
2030.000000	28.841118
2029.000000	28.935548
2028.000000	29.011856
2027.000000	29.108987
2026.000000	29.221312
2025.000000	29.281863
2024.000000	29.337351
2023.000000	29.432343
2022.000000	29.470047
2021.000000	29.507751
2020.000000	29.583272
2019.000000	29.622889
2018.000000	29.651252
2017.000000	29.665208
2016.000000	29.688619
2015.000000	29.708878
2014.000000	29.747144
2013.000000	29.733639
2012.000000	29.733976
2011.000000	29.742417
2010.000000	29.727223
2009.000000	29.717094
2008.000000	29.684567
2007.000000	29.659468
2006.000000	29.616362
2005.000000	29.575956
2004.000000	29.501786
2003.000000	29.458679
2002.000000	29.407694
2001.000000	29.345904
2000.000000	29.275448
1999.000000	29.202516
1998.000000	29.119454
1997.000000	29.027951
1996.000000	28.944777
1995.000000	28.853161
1994.000000	28.738585
1993.000000	28.654286
1992.000000	28.555692
1991.000000	28.449783
1990.000000	28.329805
1989.000000	28.239990
1988.000000	28.121137
1987.000000	28.018942
1986.000000	27.898176
1985.000000	27.792492
1984.000000	27.666773
1983.000000	27.536553
1982.000000	27.429293
1981.000000	27.333626
1980.000000	27.202168
1979.000000	27.092544
1978.000000	26.985172
1977.000000	26.856752
1976.000000	26.754557
1975.000000	26.629514
1974.000000	26.519553
1973.000000	26.418258
1972.000000	26.298843
1971.000000	26.199686
1970.000000	26.087249
1969.000000	25.998447
1968.000000	25.888036
1967.000000	25.793044
1966.000000	25.694225
1965.000000	25.580100
1964.000000	25.448191
1963.000000	25.349260
1962.000000	25.243351
1961.000000	25.124160
1960.000000	25.012623
1959.000000	24.887693
1958.000000	24.788762
1957.000000	24.677112
1956.000000	24.576043
1955.000000	24.449086
1954.000000	24.351731
1953.000000	24.242332
1952.000000	24.112788
1951.000000	24.009917
1950.000000	23.918864
1949.000000	23.827136
1948.000000	23.762983
1947.000000	23.654597
1946.000000	23.550151
1945.000000	23.489712
1944.000000	23.403048
1943.000000	23.359829
1942.000000	23.298940
1941.000000	23.257296
1940.000000	23.198883
1939.000000	23.188641
1938.000000	23.171871
1937.000000	23.148573
1936.000000	23.121336
1935.000000	23.140470
1934.000000	23.174460
1933.000000	23.188979
1932.000000	23.245816
1931.000000	23.305805
1930.000000	23.358366
1929.000000	23.457297
1928.000000	23.553190
1927.000000	23.648520
1926.000000	23.751052
1925.000000	23.894216
1924.000000	24.050210
1923.000000	24.196300
1922.000000	24.380319
1921.000000	24.596189
1920.000000	24.834007
1919.000000	25.034458
1918.000000	25.284206
1917.000000	25.511669
1916.000000	25.772110
1915.000000	26.087587
1914.000000	26.431201
1913.000000	26.772565
1912.000000	27.141729
1911.000000	27.496711
1910.000000	27.862835
1909.000000	28.211627
1908.000000	28.658563
1907.000000	29.132960
1906.000000	29.696835
1905.000000	30.269376
1904.000000	30.808489
1903.000000	31.337811
1902.000000	31.855540
1901.000000	32.465560
1900.000000	33.134782
1899.000000	33.769113
1898.000000	34.418975
1897.000000	35.058146
1896.000000	35.633613
1895.000000	36.219547
1894.000000	36.871436
1893.000000	37.510269
1892.000000	38.232276
1891.000000	38.902510
1890.000000	39.520071
1889.000000	40.081132
1888.000000	40.669542
1887.000000	41.200553
1886.000000	41.739216
1885.000000	42.298364
1884.000000	42.850646
1883.000000	43.304109
1882.000000	43.727634
1881.000000	44.154198
1880.000000	44.515032
1879.000000	44.883633
1878.000000	45.250095
1877.000000	45.596299
1876.000000	45.921455
1875.000000	46.245261
1874.000000	46.547907
1873.000000	46.853368
1872.000000	47.114933
1871.000000	47.333730
1870.000000	47.519775
1869.000000	47.716737
1868.000000	47.851460
1867.000000	47.958720
1866.000000	48.044708
1865.000000	48.139249
1864.000000	48.239982
1863.000000	48.339701
1862.000000	48.448649
1861.000000	48.575155
1860.000000	48.705938
1859.000000	48.793614
1858.000000	48.861594
1857.000000	48.922033
1856.000000	48.962889
1855.000000	49.025129
1854.000000	49.065422
1853.000000	49.081967
1852.000000	49.116407
1851.000000	49.122822
1850.000000	49.171444
1849.000000	49.267111
1848.000000	49.305941
1847.000000	49.276003
1846.000000	49.213538
1845.000000	49.166267
1844.000000	49.135878
1843.000000	49.172007
1842.000000	49.232333
1841.000000	49.218715
1840.000000	49.180110
1839.000000	49.142068
1838.000000	49.109541
1837.000000	49.085118
1836.000000	49.038185
1835.000000	48.973244
1834.000000	48.893896
1833.000000	48.839534
1832.000000	48.816574
1831.000000	48.801380
1830.000000	48.797216
1829.000000	48.780671
1828.000000	48.718768
1827.000000	48.686579
1826.000000	48.661030
1825.000000	48.620175
1824.000000	48.603067
1823.000000	48.630980
1822.000000	48.673186
1821.000000	48.690293
1820.000000	48.679939
1819.000000	48.641784
1818.000000	48.602054
1817.000000	48.587873
1816.000000	48.586297
1815.000000	48.552757
1814.000000	48.527434
1813.000000	48.517867
1812.000000	48.499521
1811.000000	48.458441
1810.000000	48.425576
1809.000000	48.385508
1808.000000	48.348705
1807.000000	48.343640
1806.000000	48.315390
1805.000000	48.263167
1804.000000	48.228389
1803.000000	48.199914
1802.000000	48.192260
1801.000000	48.160521
1800.000000	48.108186
1799.000000	48.051235
1798.000000	48.029513
1797.000000	48.010718
1796.000000	47.977178
1795.000000	47.951404
1794.000000	47.942512
1793.000000	47.896817
1792.000000	47.857425
1791.000000	47.840430
1790.000000	47.831426
1789.000000	47.813755
1788.000000	47.815444
1787.000000	47.806327
1786.000000	47.811504
1785.000000	47.803176
1784.000000	47.766822
1783.000000	47.751403
1782.000000	47.737221
1781.000000	47.724391
1780.000000	47.701431
1779.000000	47.662488
1778.000000	47.616906
1777.000000	47.582128
1776.000000	47.523152
1775.000000	47.464963
1774.000000	47.421744
1773.000000	47.367720
1772.000000	47.309982
1771.000000	47.266763
1770.000000	47.219380
1769.000000	47.166481
1768.000000	47.110882
1767.000000	47.080381
1766.000000	47.048079
1765.000000	47.007336
1764.000000	46.963441
1763.000000	46.938455
1762.000000	46.910656
1761.000000	46.914370
1760.000000	46.904353
1759.000000	46.875427
1758.000000	46.877116
1757.000000	46.858770
1756.000000	46.861134
1755.000000	46.848753
1754.000000	46.835697
1753.000000	46.829620
1752.000000	46.822642
1751.000000	46.800919
1750.000000	46.773345
1749.000000	46.738679
1748.000000	46.700187
1747.000000	46.633783
1746.000000	46.581222
1745.000000	46.522134
1744.000000	46.442336
1743.000000	46.373005
1742.000000	46.313466
1741.000000	46.248075
1740.000000	46.177956
1739.000000	46.109301
1738.000000	46.055727
1737.000000	45.999227
1736.000000	45.957921
1735.000000	45.915152
1734.000000	45.869119
1733.000000	45.853362
1732.000000	45.813745
1731.000000	45.758483
1730.000000	45.734847
1729.000000	45.718303
1728.000000	45.683750
1727.000000	45.658876
1726.000000	45.640981
1725.000000	45.637154
1724.000000	45.683412
1723.000000	45.731809
1722.000000	45.825112
1721.000000	45.981782
1720.000000	46.157922
1719.000000	46.366702
1718.000000	46.624441
1717.000000	46.838399
1716.000000	47.066087
1715.000000	47.292537
1714.000000	47.479595
1713.000000	47.673181
1712.000000	47.843581
1711.000000	47.991809
1710.000000	48.140150
1709.000000	48.269244
1708.000000	48.373803
1707.000000	48.450112
1706.000000	48.543416
1705.000000	48.607907
1704.000000	48.630867
1703.000000	48.675099
1702.000000	48.698510
1701.000000	48.731262
1700.000000	48.731599
1699.000000	48.744767
1698.000000	48.729573
1697.000000	48.720007
1696.000000	48.690181
1695.000000	48.657541
1694.000000	48.581570
1693.000000	48.525858
1692.000000	48.462605
1691.000000	48.386972
1690.000000	48.342402
1689.000000	48.336774
1688.000000	48.371215
1687.000000	48.459341
1686.000000	48.592150
1685.000000	48.783260
1684.000000	48.951859
1683.000000	49.164016
1682.000000	49.379886
1681.000000	49.639539
1680.000000	49.835826
1679.000000	50.046406
1678.000000	50.240892
1677.000000	50.447421
1676.000000	50.621874
1675.000000	50.780456
1674.000000	50.971116
1673.000000	51.145680
1672.000000	51.326548
1671.000000	51.505952
1670.000000	51.675678
1669.000000	51.887159
1668.000000	52.057784
1667.000000	52.229535
1666.000000	52.364708
1665.000000	52.523403
1664.000000	52.659025
1663.000000	52.806128
1662.000000	52.930045
1661.000000	53.044509
1660.000000	53.160998
1659.000000	53.254864
1658.000000	53.324533
1657.000000	53.412434
1656.000000	53.471410
1655.000000	53.507651
1654.000000	53.540741
1653.000000	53.574618
1652.000000	53.598704
1651.000000	53.611197
1650.000000	53.618175
1649.000000	53.614461
1648.000000	53.626166
1647.000000	53.603206
1646.000000	53.571692
1645.000000	53.574618
1644.000000	53.558636
1643.000000	53.533988
1642.000000	53.532187
1641.000000	53.544455
1640.000000	53.533988
1639.000000	53.514066
1638.000000	53.508326
1637.000000	53.484128
1636.000000	53.467133
1635.000000	53.462181
1634.000000	53.415248
1633.000000	53.383284
1632.000000	53.352783
1631.000000	53.303486
1630.000000	53.271522
1629.000000	53.234155
1628.000000	53.201741
1627.000000	53.174053
1626.000000	53.134999
1625.000000	53.090767
1624.000000	53.058352
1623.000000	53.023574
1622.000000	53.001515
1621.000000	52.969438
1620.000000	52.951542
1619.000000	52.912825
1618.000000	52.875234
1617.000000	52.860827
1616.000000	52.838655
1615.000000	52.811418
1614.000000	52.776865
1613.000000	52.754017
1612.000000	52.710123
1611.000000	52.675345
1610.000000	52.618845
1609.000000	52.562570
1608.000000	52.525316
1607.000000	52.468704
1606.000000	52.406238
