PE UV       SUBTECH     SPECTRUM    ASCII       PEDS        4.00        
   -1
CICIMAUCR0070-2.Sample.ASC
24/04/18
13:05:53.00
24/04/18
13:05:53.00
Vinicio Soto Monge
C. resplendens
250,000000
1
Lambda 1050
1050L1511233
PerkinElmer UV WinLab 6.3.2.0749 / 2.02.05 Lambda 900 UV/VIS/NIR, Aug  7 2015 09:38:08

0
0
3350/servo 860,8/2
0
0
UV/VIS
1
1
1
DoubleDePol,CommonBeamDepol,RBeamAtt,SBeamAtt,60mm sphere, WB InGaAs Detector
0
0
0
0
Program
Program
3350/servo 860,8/2
3350/0,2 860,8/0,2
3350/0,2 860,8/0,2
0
15.00
 
 
 
0
 
860,8
319,2
860,8
Front
100
on
S:100 R:100
0
0
0
0
 
0
 
 
 
0
 
 
0
0
0
0
0
 
 
 
 
0
0


0
0
#HDR
-1
-1
#GR
nm
%R
1.0
0.0
2500,000000
-1,000000
2251
8
82,681400
5,204000
#DATA
2482.000000	21.442471
2481.000000	21.485337
2480.000000	21.427423
2479.000000	21.450110
2478.000000	21.510646
2477.000000	21.533675
2476.000000	21.572208
2475.000000	21.601393
2474.000000	21.681082
2473.000000	21.760771
2472.000000	21.761797
2471.000000	21.832594
2470.000000	21.935881
2469.000000	21.914220
2468.000000	22.009984
2467.000000	22.043387
2466.000000	22.109396
2465.000000	22.189883
2464.000000	22.275158
2463.000000	22.360661
2462.000000	22.457906
2461.000000	22.543181
2460.000000	22.598701
2459.000000	22.660492
2458.000000	22.761043
2457.000000	22.881432
2456.000000	22.959981
2455.000000	23.056542
2454.000000	23.155726
2453.000000	23.256847
2452.000000	23.378832
2451.000000	23.517917
2450.000000	23.648908
2449.000000	23.794149
2448.000000	23.909293
2447.000000	24.047694
2446.000000	24.198978
2445.000000	24.330197
2444.000000	24.461529
2443.000000	24.594458
2442.000000	24.714961
2441.000000	24.845267
2440.000000	24.983212
2439.000000	25.121271
2438.000000	25.256366
2437.000000	25.393969
2436.000000	25.520514
2435.000000	25.634176
2434.000000	25.764141
2433.000000	25.898096
2432.000000	26.031253
2431.000000	26.152553
2430.000000	26.263023
2429.000000	26.378965
2428.000000	26.500608
2427.000000	26.618374
2426.000000	26.725994
2425.000000	26.796562
2424.000000	26.905664
2423.000000	27.041899
2422.000000	27.236618
2421.000000	27.488226
2420.000000	27.707342
2419.000000	27.855091
2418.000000	27.979127
2417.000000	28.079451
2416.000000	28.168374
2415.000000	28.217624
2414.000000	28.330146
2413.000000	28.475274
2412.000000	28.573317
2411.000000	28.639326
2410.000000	28.732923
2409.000000	28.841227
2408.000000	28.946681
2407.000000	28.993536
2406.000000	29.035376
2405.000000	29.114609
2404.000000	29.209118
2403.000000	29.298042
2402.000000	29.344441
2401.000000	29.379213
2400.000000	29.440433
2399.000000	29.529014
2398.000000	29.596732
2397.000000	29.631504
2396.000000	29.670835
2395.000000	29.700476
2394.000000	29.755198
2393.000000	29.830213
2392.000000	29.880603
2391.000000	29.898729
2390.000000	29.927458
2389.000000	29.950715
2388.000000	29.978874
2387.000000	30.021968
2386.000000	30.033482
2385.000000	30.060501
2384.000000	30.095615
2383.000000	30.099263
2382.000000	30.099719
2381.000000	30.120354
2380.000000	30.138480
2379.000000	30.118415
2378.000000	30.148399
2377.000000	30.172681
2376.000000	30.153187
2375.000000	30.134604
2374.000000	30.144750
2373.000000	30.162193
2372.000000	30.146232
2371.000000	30.173479
2370.000000	30.195482
2369.000000	30.184652
2368.000000	30.181118
2367.000000	30.201638
2366.000000	30.224667
2365.000000	30.224895
2364.000000	30.239830
2363.000000	30.257273
2362.000000	30.271979
2361.000000	30.276881
2360.000000	30.274373
2359.000000	30.295464
2358.000000	30.311310
2357.000000	30.305040
2356.000000	30.321115
2355.000000	30.326815
2354.000000	30.311538
2353.000000	30.297858
2352.000000	30.313933
2351.000000	30.313477
2350.000000	30.282467
2349.000000	30.264341
2348.000000	30.274715
2347.000000	30.286458
2346.000000	30.269357
2345.000000	30.291702
2344.000000	30.292842
2343.000000	30.277793
2342.000000	30.310512
2341.000000	30.317923
2340.000000	30.304128
2339.000000	30.320773
2338.000000	30.323851
2337.000000	30.350870
2336.000000	30.358280
2335.000000	30.356570
2334.000000	30.410608
2333.000000	30.435917
2332.000000	30.469206
2331.000000	30.516062
2330.000000	30.515378
2329.000000	30.573292
2328.000000	30.624822
2327.000000	30.667687
2326.000000	30.701433
2325.000000	30.722181
2324.000000	30.770975
2323.000000	30.797196
2322.000000	30.811447
2321.000000	30.861723
2320.000000	30.860924
2319.000000	30.882471
2318.000000	30.901852
2317.000000	30.871983
2316.000000	30.843482
2315.000000	30.845990
2314.000000	30.819427
2313.000000	30.815323
2312.000000	30.794346
2311.000000	30.741220
2310.000000	30.689690
2309.000000	30.680798
2308.000000	30.641238
2307.000000	30.596093
2306.000000	30.591989
2305.000000	30.556875
2304.000000	30.540003
2303.000000	30.527918
2302.000000	30.529286
2301.000000	30.524042
2300.000000	30.504776
2299.000000	30.509678
2298.000000	30.515606
2297.000000	30.530882
2296.000000	30.538065
2295.000000	30.563602
2294.000000	30.585718
2293.000000	30.598943
2292.000000	30.664153
2291.000000	30.683990
2290.000000	30.717393
2289.000000	30.741790
2288.000000	30.817489
2287.000000	30.855110
2286.000000	30.911314
2285.000000	30.948480
2284.000000	31.009358
2283.000000	31.066132
2282.000000	31.124844
2281.000000	31.182872
2280.000000	31.238050
2279.000000	31.290492
2278.000000	31.337576
2277.000000	31.383748
2276.000000	31.435619
2275.000000	31.489657
2274.000000	31.505960
2273.000000	31.568890
2272.000000	31.643905
2271.000000	31.663286
2270.000000	31.718920
2269.000000	31.770792
2268.000000	31.864731
2267.000000	31.890154
2266.000000	31.982839
2265.000000	32.064010
2264.000000	32.179497
2263.000000	32.257247
2262.000000	32.406023
2261.000000	32.519343
2260.000000	32.675529
2259.000000	32.858961
2258.000000	33.025179
2257.000000	33.198466
2256.000000	33.336867
2255.000000	33.575591
2254.000000	33.746370
2253.000000	33.946219
2252.000000	34.113121
2251.000000	34.305332
2250.000000	34.505751
2249.000000	34.682914
2248.000000	34.844458
2247.000000	34.988103
2246.000000	35.141096
2245.000000	35.327949
2244.000000	35.413338
2243.000000	35.551397
2242.000000	35.641233
2241.000000	35.719782
2240.000000	35.841766
2239.000000	35.924761
2238.000000	35.957024
2237.000000	36.011062
2236.000000	36.028505
2235.000000	36.088129
2234.000000	36.079921
2233.000000	36.091093
2232.000000	36.071256
2231.000000	36.054384
2230.000000	36.020524
2229.000000	35.980053
2228.000000	35.948930
2227.000000	35.885772
2226.000000	35.842336
2225.000000	35.741328
2224.000000	35.655825
2223.000000	35.569638
2222.000000	35.487555
2221.000000	35.401254
2220.000000	35.316435
2219.000000	35.226258
2218.000000	35.142579
2217.000000	35.040431
2216.000000	34.937143
2215.000000	34.835451
2214.000000	34.725323
2213.000000	34.647230
2212.000000	34.566402
2211.000000	34.466648
2210.000000	34.386275
2209.000000	34.323801
2208.000000	34.261554
2207.000000	34.180839
2206.000000	34.124749
2205.000000	34.040500
2204.000000	33.991821
2203.000000	33.957049
2202.000000	33.909168
2201.000000	33.874966
2200.000000	33.819788
2199.000000	33.765066
2198.000000	33.721061
2197.000000	33.673749
2196.000000	33.674319
2195.000000	33.638636
2194.000000	33.619597
2193.000000	33.576731
2192.000000	33.541618
2191.000000	33.531928
2190.000000	33.507531
2189.000000	33.480740
2188.000000	33.466375
2187.000000	33.456001
2186.000000	33.416442
2185.000000	33.389879
2184.000000	33.343023
2183.000000	33.341769
2182.000000	33.314750
2181.000000	33.289783
2180.000000	33.277585
2179.000000	33.271770
2178.000000	33.233693
2177.000000	33.222749
2176.000000	33.213286
2175.000000	33.221837
2174.000000	33.208270
2173.000000	33.216706
2172.000000	33.217618
2171.000000	33.233921
2170.000000	33.267552
2169.000000	33.307568
2168.000000	33.332877
2167.000000	33.345645
2166.000000	33.404471
2165.000000	33.451441
2164.000000	33.491570
2163.000000	33.545722
2162.000000	33.614809
2161.000000	33.701794
2160.000000	33.775555
2159.000000	33.860830
2158.000000	33.952603
2157.000000	34.074474
2156.000000	34.184032
2155.000000	34.303508
2154.000000	34.418766
2153.000000	34.550555
2152.000000	34.666269
2151.000000	34.796576
2150.000000	34.928365
2149.000000	35.051147
2148.000000	35.182138
2147.000000	35.319969
2146.000000	35.464754
2145.000000	35.589817
2144.000000	35.712371
2143.000000	35.840170
2142.000000	35.966601
2141.000000	36.097249
2140.000000	36.208289
2139.000000	36.325486
2138.000000	36.438008
2137.000000	36.553722
2136.000000	36.659404
2135.000000	36.784124
2134.000000	36.885474
2133.000000	36.976677
2132.000000	37.077115
2131.000000	37.179719
2130.000000	37.258154
2129.000000	37.331800
2128.000000	37.415479
2127.000000	37.486162
2126.000000	37.542366
2125.000000	37.609400
2124.000000	37.662754
2123.000000	37.709838
2122.000000	37.774478
2121.000000	37.816204
2120.000000	37.846187
2119.000000	37.893499
2118.000000	37.930550
2117.000000	37.967601
2116.000000	38.004197
2115.000000	37.996787
2114.000000	38.030874
2113.000000	38.060173
2112.000000	38.072371
2111.000000	38.084000
2110.000000	38.086052
2109.000000	38.101328
2108.000000	38.110335
2107.000000	38.125269
2106.000000	38.125839
2105.000000	38.109879
2104.000000	38.118201
2103.000000	38.125155
2102.000000	38.110563
2101.000000	38.112843
2100.000000	38.113413
2099.000000	38.120367
2098.000000	38.134162
2097.000000	38.146360
2096.000000	38.158330
2095.000000	38.164715
2094.000000	38.168477
2093.000000	38.191962
2092.000000	38.225365
2091.000000	38.245088
2090.000000	38.272335
2089.000000	38.286585
2088.000000	38.290119
2087.000000	38.295933
2086.000000	38.308816
2085.000000	38.302774
2084.000000	38.302660
2083.000000	38.292399
2082.000000	38.247596
2081.000000	38.205642
2080.000000	38.171213
2079.000000	38.129031
2078.000000	38.070319
2077.000000	38.002601
2076.000000	37.939328
2075.000000	37.848239
2074.000000	37.763420
2073.000000	37.671647
2072.000000	37.555134
2071.000000	37.444208
2070.000000	37.316068
2069.000000	37.190207
2068.000000	37.062066
2067.000000	36.916255
2066.000000	36.792675
2065.000000	36.668866
2064.000000	36.540611
2063.000000	36.409849
2062.000000	36.279770
2061.000000	36.180928
2060.000000	36.058716
2059.000000	35.952008
2058.000000	35.871863
2057.000000	35.806767
2056.000000	35.760139
2055.000000	35.726736
2054.000000	35.715107
2053.000000	35.731068
2052.000000	35.770285
2051.000000	35.827059
2050.000000	35.916211
2049.000000	36.022691
2048.000000	36.127802
2047.000000	36.274868
2046.000000	36.436412
2045.000000	36.592939
2044.000000	36.776714
2043.000000	36.931760
2042.000000	37.102652
2041.000000	37.300221
2040.000000	37.466325
2039.000000	37.644286
2038.000000	37.808908
2037.000000	37.969198
2036.000000	38.126067
2035.000000	38.265152
2034.000000	38.388619
2033.000000	38.516531
2032.000000	38.657669
2031.000000	38.805076
2030.000000	38.895823
2029.000000	39.011994
2028.000000	39.114027
2027.000000	39.196110
2026.000000	39.276255
2025.000000	39.365292
2024.000000	39.455242
2023.000000	39.510990
2022.000000	39.552487
2021.000000	39.624310
2020.000000	39.706849
2019.000000	39.753135
2018.000000	39.798394
2017.000000	39.814811
2016.000000	39.842058
2015.000000	39.895754
2014.000000	39.914678
2013.000000	39.894500
2012.000000	39.895640
2011.000000	39.915932
2010.000000	39.899744
2009.000000	39.879451
2008.000000	39.857676
2007.000000	39.828719
2006.000000	39.803980
2005.000000	39.750968
2004.000000	39.692826
2003.000000	39.650189
2002.000000	39.583382
2001.000000	39.532308
2000.000000	39.455128
1999.000000	39.368712
1998.000000	39.295408
1997.000000	39.207283
1996.000000	39.123148
1995.000000	39.027840
1994.000000	38.932875
1993.000000	38.811688
1992.000000	38.718091
1991.000000	38.611611
1990.000000	38.502965
1989.000000	38.373228
1988.000000	38.284305
1987.000000	38.163233
1986.000000	38.046720
1985.000000	37.929068
1984.000000	37.807426
1983.000000	37.672787
1982.000000	37.580329
1981.000000	37.445804
1980.000000	37.333282
1979.000000	37.219962
1978.000000	37.082587
1977.000000	36.964593
1976.000000	36.838504
1975.000000	36.723588
1974.000000	36.607874
1973.000000	36.498886
1972.000000	36.375191
1971.000000	36.259819
1970.000000	36.157786
1969.000000	36.061224
1968.000000	35.934223
1967.000000	35.840056
1966.000000	35.723430
1965.000000	35.638383
1964.000000	35.522440
1963.000000	35.393046
1962.000000	35.263081
1961.000000	35.149077
1960.000000	35.041457
1959.000000	34.938169
1958.000000	34.815159
1957.000000	34.683028
1956.000000	34.581906
1955.000000	34.465394
1954.000000	34.350250
1953.000000	34.218689
1952.000000	34.128740
1951.000000	34.006983
1950.000000	33.913614
1949.000000	33.811922
1948.000000	33.718097
1947.000000	33.620509
1946.000000	33.527710
1945.000000	33.462613
1944.000000	33.398201
1943.000000	33.340743
1942.000000	33.275190
1941.000000	33.214540
1940.000000	33.186951
1939.000000	33.177261
1938.000000	33.144428
1937.000000	33.138157
1936.000000	33.132913
1935.000000	33.123793
1934.000000	33.170307
1933.000000	33.204850
1932.000000	33.252846
1931.000000	33.317828
1930.000000	33.408461
1929.000000	33.478004
1928.000000	33.613441
1927.000000	33.727445
1926.000000	33.852051
1925.000000	33.990909
1924.000000	34.192810
1923.000000	34.342497
1922.000000	34.543373
1921.000000	34.790420
1920.000000	35.047271
1919.000000	35.277103
1918.000000	35.542961
1917.000000	35.821131
1916.000000	36.088129
1915.000000	36.398790
1914.000000	36.782072
1913.000000	37.207992
1912.000000	37.587968
1911.000000	37.965207
1910.000000	38.382235
1909.000000	38.726755
1908.000000	39.154157
1907.000000	39.653837
1906.000000	40.203565
1905.000000	40.805621
1904.000000	41.369713
1903.000000	41.915565
1902.000000	42.471678
1901.000000	43.032692
1900.000000	43.675675
1899.000000	44.342258
1898.000000	44.985583
1897.000000	45.650797
1896.000000	46.209760
1895.000000	46.759602
1894.000000	47.371234
1893.000000	47.997117
1892.000000	48.656175
1891.000000	49.319793
1890.000000	49.916149
1889.000000	50.420959
1888.000000	50.994514
1887.000000	51.492940
1886.000000	51.986008
1885.000000	52.469044
1884.000000	52.969180
1883.000000	53.399774
1882.000000	53.768805
1881.000000	54.161664
1880.000000	54.512568
1879.000000	54.851389
1878.000000	55.190209
1877.000000	55.476929
1876.000000	55.749513
1875.000000	56.032130
1874.000000	56.323524
1873.000000	56.567265
1872.000000	56.794817
1871.000000	57.017696
1870.000000	57.157009
1869.000000	57.291648
1868.000000	57.450227
1867.000000	57.540633
1866.000000	57.585094
1865.000000	57.657145
1864.000000	57.736834
1863.000000	57.819715
1862.000000	57.919696
1861.000000	58.032219
1860.000000	58.145653
1859.000000	58.226482
1858.000000	58.273793
1857.000000	58.334558
1856.000000	58.359524
1855.000000	58.390534
1854.000000	58.447422
1853.000000	58.429523
1852.000000	58.446738
1851.000000	58.511264
1850.000000	58.564048
1849.000000	58.615806
1848.000000	58.631424
1847.000000	58.627434
1846.000000	58.563592
1845.000000	58.492453
1844.000000	58.470793
1843.000000	58.510466
1842.000000	58.561882
1841.000000	58.571572
1840.000000	58.538283
1839.000000	58.482079
1838.000000	58.447536
1837.000000	58.424279
1836.000000	58.393498
1835.000000	58.345958
1834.000000	58.266953
1833.000000	58.198209
1832.000000	58.176662
1831.000000	58.176320
1830.000000	58.164463
1829.000000	58.143259
1828.000000	58.078846
1827.000000	58.030394
1826.000000	58.015688
1825.000000	57.987415
1824.000000	57.968148
1823.000000	57.980689
1822.000000	58.053195
1821.000000	58.098455
1820.000000	58.075198
1819.000000	57.998929
1818.000000	57.962790
1817.000000	57.970200
1816.000000	57.977383
1815.000000	57.963360
1814.000000	57.952416
1813.000000	57.959712
1812.000000	57.947057
1811.000000	57.914452
1810.000000	57.863606
1809.000000	57.845024
1808.000000	57.839438
1807.000000	57.829177
1806.000000	57.807288
1805.000000	57.765791
1804.000000	57.750514
1803.000000	57.743560
1802.000000	57.749032
1801.000000	57.742534
1800.000000	57.694310
1799.000000	57.651217
1798.000000	57.644718
1797.000000	57.635598
1796.000000	57.625566
1795.000000	57.616787
1794.000000	57.601055
1793.000000	57.582586
1792.000000	57.562521
1791.000000	57.550779
1790.000000	57.561039
1789.000000	57.557847
1788.000000	57.567766
1787.000000	57.575974
1786.000000	57.587032
1785.000000	57.605957
1784.000000	57.605045
1783.000000	57.592505
1782.000000	57.591478
1781.000000	57.585436
1780.000000	57.588628
1779.000000	57.563661
1778.000000	57.553287
1777.000000	57.531740
1776.000000	57.498109
1775.000000	57.457068
1774.000000	57.433355
1773.000000	57.413518
1772.000000	57.405538
1771.000000	57.376695
1770.000000	57.337021
1769.000000	57.318667
1768.000000	57.297804
1767.000000	57.275231
1766.000000	57.248212
1765.000000	57.213897
1764.000000	57.214809
1763.000000	57.199304
1762.000000	57.199418
1761.000000	57.225411
1760.000000	57.211617
1759.000000	57.239548
1758.000000	57.251176
1757.000000	57.251746
1756.000000	57.263375
1755.000000	57.254482
1754.000000	57.279563
1753.000000	57.283325
1752.000000	57.285149
1751.000000	57.292674
1750.000000	57.278537
1749.000000	57.237610
1748.000000	57.223815
1747.000000	57.175363
1746.000000	57.150738
1745.000000	57.097042
1744.000000	57.029324
1743.000000	57.004357
1742.000000	56.946329
1741.000000	56.883969
1740.000000	56.829931
1739.000000	56.773727
1738.000000	56.739297
1737.000000	56.700992
1736.000000	56.668273
1735.000000	56.612411
1734.000000	56.590294
1733.000000	56.565555
1732.000000	56.543780
1731.000000	56.495899
1730.000000	56.462723
1729.000000	56.450639
1728.000000	56.443115
1727.000000	56.410623
1726.000000	56.397969
1725.000000	56.379044
1724.000000	56.419858
1723.000000	56.486322
1722.000000	56.547314
1721.000000	56.673517
1720.000000	56.842243
1719.000000	57.022484
1718.000000	57.255850
1717.000000	57.464022
1716.000000	57.695450
1715.000000	57.858818
1714.000000	58.060606
1713.000000	58.253729
1712.000000	58.403188
1711.000000	58.559716
1710.000000	58.686830
1709.000000	58.781682
1708.000000	58.905148
1707.000000	58.982329
1706.000000	59.059966
1705.000000	59.121414
1704.000000	59.155501
1703.000000	59.183661
1702.000000	59.222878
1701.000000	59.218546
1700.000000	59.242259
1699.000000	59.285238
1698.000000	59.256851
1697.000000	59.261183
1696.000000	59.220598
1695.000000	59.211136
1694.000000	59.173172
1693.000000	59.112522
1692.000000	59.047768
1691.000000	58.996124
1690.000000	58.946760
1689.000000	58.939350
1688.000000	58.948014
1687.000000	59.024625
1686.000000	59.117652
1685.000000	59.277258
1684.000000	59.421359
1683.000000	59.619726
1682.000000	59.809771
1681.000000	60.022389
1680.000000	60.213460
1679.000000	60.388114
1678.000000	60.578387
1677.000000	60.755208
1676.000000	60.915156
1675.000000	61.070885
1674.000000	61.227071
1673.000000	61.380407
1672.000000	61.542520
1671.000000	61.684912
1670.000000	61.842807
1669.000000	62.002755
1668.000000	62.167149
1667.000000	62.324931
1666.000000	62.442013
1665.000000	62.567760
1664.000000	62.671276
1663.000000	62.771485
1662.000000	62.904642
1661.000000	63.005764
1660.000000	63.088873
1659.000000	63.180532
1658.000000	63.247453
1657.000000	63.334210
1656.000000	63.374453
1655.000000	63.420511
1654.000000	63.445478
1653.000000	63.467367
1652.000000	63.477171
1651.000000	63.499288
1650.000000	63.511942
1649.000000	63.517072
1648.000000	63.517870
1647.000000	63.511600
1646.000000	63.498718
1645.000000	63.478995
1644.000000	63.466455
1643.000000	63.462236
1642.000000	63.451634
1641.000000	63.442400
1640.000000	63.437155
1639.000000	63.421879
1638.000000	63.416977
1637.000000	63.394632
1636.000000	63.383916
1635.000000	63.357239
1634.000000	63.325659
1633.000000	63.291572
1632.000000	63.266947
1631.000000	63.219978
1630.000000	63.175630
1629.000000	63.142797
1628.000000	63.111332
1627.000000	63.081235
1626.000000	63.040763
1625.000000	62.982051
1624.000000	62.953892
1623.000000	62.932801
1622.000000	62.882525
1621.000000	62.848894
1620.000000	62.825181
1619.000000	62.786876
1618.000000	62.755867
1617.000000	62.754043
1616.000000	62.725656
1615.000000	62.671618
1614.000000	62.641064
1613.000000	62.617010
1612.000000	62.573574
1611.000000	62.535041
1610.000000	62.493657
1609.000000	62.457746
1608.000000	62.409636
1607.000000	62.346022
1606.000000	62.291528
