Time1=100ms:Average1=5:Objective=10X:Aperture=1: (11/28/2018 10:47:44 AM)
11/28/2018 10:47:44 AM
Reflectance
10X
Ap#: 1
Avg1: 5.000000
Avg2: 0.000000
Int.Time1:100.000000
Int.Time2:0.000000
420.190645	5.355915
420.624620	5.277880
421.058582	5.221370
421.492531	5.161496
421.926468	5.103701
422.360391	5.052280
422.794301	5.003209
423.228199	4.958610
423.662083	4.918405
424.095955	4.890425
424.529813	4.859490
424.963658	4.839508
425.397491	4.809645
425.831310	4.796181
426.265116	4.775167
426.698909	4.749838
427.132689	4.734528
427.566455	4.719619
428.000209	4.704927
428.433949	4.674108
428.867676	4.651759
429.301389	4.629115
429.735090	4.620854
430.168777	4.610463
430.602451	4.592417
431.036111	4.565380
431.469759	4.553735
431.903392	4.537390
432.337013	4.517841
432.770620	4.499031
433.204213	4.485095
433.637794	4.473952
434.071360	4.464634
434.504914	4.445765
434.938453	4.439898
435.371979	4.425628
435.805492	4.418750
436.238991	4.404647
436.672477	4.402348
437.105949	4.398687
437.539407	4.390051
437.972852	4.381711
438.406283	4.362687
438.839700	4.351621
439.273104	4.337840
439.706494	4.329892
440.139871	4.324269
440.573233	4.308307
441.006582	4.299758
441.439917	4.297201
441.873238	4.295552
442.306546	4.293598
442.739839	4.291032
443.173119	4.283508
443.606385	4.273989
444.039636	4.265711
444.472874	4.261066
444.906099	4.248603
445.339309	4.244359
445.772505	4.239631
446.205687	4.235106
446.638855	4.226577
447.072009	4.221785
447.505149	4.214519
447.938275	4.212533
448.371387	4.207989
448.804485	4.202025
449.237569	4.189057
449.670638	4.183249
450.103694	4.168905
450.536735	4.156199
450.969762	4.145492
451.402774	4.135736
451.835773	4.130455
452.268757	4.119289
452.701727	4.108657
453.134683	4.099095
453.567624	4.090426
454.000551	4.082499
454.433464	4.072285
454.866362	4.056576
455.299246	4.042668
455.732116	4.029212
456.164971	4.016300
456.597811	4.001550
457.030638	3.992589
457.463449	3.982817
457.896246	3.976148
458.329029	3.973585
458.761797	3.966181
459.194551	3.958054
459.627290	3.950148
460.060014	3.945472
460.492724	3.939020
460.925419	3.935680
461.358099	3.929429
461.790765	3.925961
462.223416	3.923925
462.656052	3.921594
463.088674	3.920452
463.521281	3.919226
463.953873	3.918488
464.386450	3.919011
464.819012	3.922190
465.251560	3.924097
465.684093	3.930927
466.116611	3.934647
466.549114	3.937143
466.981602	3.936362
467.414075	3.939422
467.846533	3.941041
468.278977	3.944144
468.711405	3.946381
469.143818	3.946804
469.576216	3.950329
470.008600	3.955126
470.440968	3.958957
470.873321	3.962935
471.305659	3.965444
471.737982	3.968289
472.170289	3.969456
472.602582	3.973723
473.034859	3.975163
473.467122	3.978870
473.899369	3.979940
474.331600	3.979923
474.763817	3.981079
475.196018	3.980844
475.628204	3.982081
476.060375	3.986228
476.492530	3.989136
476.924670	3.992947
477.356795	3.995279
477.788904	3.995183
478.220998	3.996312
478.653076	3.995682
479.085139	3.994785
479.517186	3.995025
479.949219	3.997344
480.381235	4.000350
480.813236	3.999836
481.245221	4.002828
481.677191	4.006118
482.109146	4.008353
482.541084	4.011208
482.973008	4.012763
483.404915	4.013414
483.836807	4.011865
484.268683	4.012851
484.700544	4.013548
485.132388	4.013758
485.564217	4.014705
485.996031	4.016777
486.427828	4.018469
486.859610	4.020702
487.291376	4.023788
487.723126	4.030563
488.154860	4.037375
488.586579	4.046652
489.018281	4.054874
489.449968	4.060357
489.881639	4.069108
490.313293	4.078466
490.744932	4.092180
491.176555	4.106870
491.608162	4.121717
492.039753	4.138053
492.471328	4.158064
492.902886	4.176361
493.334429	4.195399
493.765956	4.217715
494.197466	4.243256
494.628960	4.270643
495.060439	4.300014
495.491901	4.333148
495.923347	4.367063
496.354776	4.404080
496.786190	4.443863
497.217587	4.487712
497.648968	4.531189
498.080332	4.576047
498.511681	4.621884
498.943013	4.674358
499.374328	4.724021
499.805628	4.776524
500.236911	4.829329
500.668177	4.884188
501.099427	4.937102
501.530661	4.991771
501.961878	5.045447
502.393079	5.099962
502.824264	5.158110
503.255431	5.214104
503.686583	5.268198
504.117717	5.319180
504.548835	5.371125
504.979937	5.421141
505.411022	5.472468
505.842090	5.519485
506.273142	5.566414
506.704177	5.612544
507.135195	5.656190
507.566197	5.697905
507.997182	5.735023
508.428150	5.769217
508.859102	5.804276
509.290036	5.837697
509.720954	5.867550
510.151855	5.894886
510.582739	5.920554
511.013607	5.948612
511.444457	5.973887
511.875291	5.999200
512.306107	6.021176
512.736907	6.044991
513.167690	6.069289
513.598456	6.094001
514.029205	6.118590
514.459936	6.142617
514.890651	6.165825
515.321349	6.190078
515.752030	6.217000
516.182693	6.244997
516.613340	6.276479
517.043969	6.315223
517.474582	6.361339
517.905177	6.413381
518.335755	6.474837
518.766315	6.546789
519.196859	6.630335
519.627385	6.726473
520.057894	6.834413
520.488386	6.954817
520.918860	7.091191
521.349318	7.244880
521.779757	7.416264
522.210180	7.604100
522.640585	7.810161
523.070973	8.033393
523.501343	8.276971
523.931696	8.539116
524.362031	8.821159
524.792349	9.127318
525.222650	9.454933
525.652933	9.805905
526.083198	10.180789
526.513446	10.577855
526.943677	11.002734
527.373890	11.448282
527.804085	11.917289
528.234262	12.414591
528.664422	12.932932
529.094565	13.471494
529.524689	14.028357
529.954796	14.604489
530.384885	15.193509
530.814957	15.799489
531.245011	16.418220
531.675047	17.050871
532.105065	17.691477
532.535065	18.348072
532.965048	19.014404
533.395013	19.691063
533.824959	20.371929
534.254888	21.061597
534.684799	21.773465
535.114693	22.487828
535.544568	23.194891
535.974425	23.901489
536.404264	24.610406
536.834086	25.314132
537.263889	26.012690
537.693674	26.699478
538.123441	27.379436
538.553190	28.048418
538.982921	28.712306
539.412634	29.360194
539.842329	29.999266
540.272006	30.619166
540.701664	31.227302
541.131304	31.822429
541.560926	32.398216
541.990530	32.958153
542.420116	33.508110
542.849683	34.034725
543.279232	34.540422
543.708763	35.030613
544.138275	35.505272
544.567769	35.965954
544.997245	36.404273
545.426702	36.830550
545.856141	37.240585
546.285562	37.643270
546.714964	38.029281
547.144347	38.415683
547.573713	38.786502
548.003059	39.139840
548.432387	39.490790
548.861697	39.833201
549.290988	40.162332
549.720260	40.482272
550.149514	40.793886
550.578750	41.095464
551.007966	41.392298
551.437164	41.673583
551.866344	41.953725
552.295504	42.219268
552.724646	42.475382
553.153769	42.728210
553.582874	42.972188
554.011960	43.211581
554.441027	43.437298
554.870075	43.657976
555.299104	43.875221
555.728115	44.078278
556.157106	44.284744
556.586079	44.481015
557.015033	44.675339
557.443968	44.856589
557.872884	45.035515
558.301781	45.218148
558.730659	45.384307
559.159518	45.550625
559.588358	45.707592
560.017180	45.864184
560.445982	46.019165
560.874765	46.172498
561.303528	46.317610
561.732273	46.454363
562.160999	46.589017
562.589705	46.726926
563.018393	46.856524
563.447061	46.984736
563.875710	47.103446
564.304340	47.222359
564.732950	47.347634
565.161542	47.458216
565.590114	47.578623
566.018666	47.698709
566.447200	47.816267
566.875714	47.937782
567.304208	48.058145
567.732684	48.177711
568.161140	48.296140
568.589576	48.415747
569.017993	48.534889
569.446391	48.644793
569.874769	48.760800
570.303128	48.866385
570.731467	48.970351
571.159787	49.061458
571.588087	49.144017
572.016368	49.236018
572.444629	49.317166
572.872870	49.394398
573.301092	49.467526
573.729294	49.525467
574.157476	49.585574
574.585639	49.638760
575.013782	49.691767
575.441906	49.740621
575.870009	49.775897
576.298093	49.809838
576.726157	49.835058
577.154202	49.865921
577.582226	49.890715
578.010231	49.907491
578.438216	49.928696
578.866181	49.937156
579.294126	49.945906
579.722051	49.950208
580.149957	49.952001
580.577842	49.947235
581.005707	49.947228
581.433553	49.939157
581.861378	49.919964
582.289184	49.899056
582.716969	49.876524
583.144734	49.857976
583.572479	49.841818
584.000205	49.820573
584.427910	49.802865
584.855594	49.779704
585.283259	49.756617
585.710904	49.728484
586.138528	49.700903
586.566132	49.668146
586.993716	49.641021
587.421280	49.608842
587.848823	49.580956
588.276346	49.547652
588.703849	49.505064
589.131332	49.471143
589.558794	49.430726
589.986236	49.390924
590.413657	49.341936
590.841058	49.284801
591.268438	49.227922
591.695799	49.164760
592.123138	49.108046
592.550458	49.036533
592.977756	48.962012
593.405034	48.878625
593.832292	48.795688
594.259529	48.700261
594.686746	48.602603
595.113942	48.506317
595.541117	48.403485
595.968272	48.294487
596.395406	48.166224
596.822519	48.040481
597.249612	47.904854
597.676684	47.767448
598.103735	47.621595
598.530766	47.469465
598.957775	47.311172
599.384764	47.144204
599.811733	46.976560
600.238680	46.799204
600.665606	46.608086
601.092512	46.412605
601.519397	46.202834
601.946261	45.997864
602.373104	45.779740
602.799926	45.550848
603.226727	45.312579
603.653507	45.067100
604.080266	44.816351
604.507004	44.553878
604.933721	44.282837
605.360417	43.998243
605.787092	43.709849
606.213746	43.419799
606.640379	43.118006
607.066991	42.811827
607.493581	42.513230
607.920150	42.200596
608.346699	41.881424
608.773226	41.560086
609.199731	41.239971
609.626216	40.923353
610.052679	40.593196
610.479121	40.272668
610.905542	39.939408
611.331941	39.611240
611.758319	39.271518
612.184676	38.935510
612.611011	38.593405
613.037325	38.246824
613.463617	37.895321
613.889888	37.535691
614.316138	37.170573
614.742366	36.802717
615.168573	36.427197
615.594758	36.046766
616.020921	35.665354
616.447063	35.279518
616.873184	34.892847
617.299283	34.498089
617.725360	34.101569
618.151416	33.700630
618.577450	33.295016
619.003462	32.888208
619.429453	32.469165
619.855422	32.048851
620.281369	31.620131
620.707295	31.181839
621.133199	30.744756
621.559081	30.301542
621.984941	29.848731
622.410779	29.392290
622.836596	28.923608
623.262391	28.450144
623.688163	27.966228
624.113914	27.479791
624.539644	26.987634
624.965351	26.491868
625.391036	25.989986
625.816699	25.485931
626.242340	24.979776
626.667960	24.474598
627.093557	23.973108
627.519132	23.471797
627.944685	22.976857
628.370216	22.488028
628.795725	22.009740
629.221212	21.540317
629.646677	21.082650
630.072119	20.639102
630.497540	20.218105
630.922938	19.816757
631.348314	19.440670
631.773668	19.086615
632.198999	18.759947
632.624308	18.466459
633.049595	18.206180
633.474860	17.977082
633.900102	17.778231
634.325322	17.611581
634.750520	17.476816
635.175695	17.374039
635.600848	17.298344
636.025978	17.251846
636.451086	17.235491
636.876171	17.241347
637.301234	17.273742
637.726275	17.326385
638.151293	17.400769
638.576288	17.495294
639.001261	17.610382
639.426211	17.742403
639.851139	17.887596
640.276044	18.052402
640.700927	18.232107
641.125787	18.423960
641.550624	18.626300
641.975438	18.835013
642.400230	19.054082
642.824999	19.276794
643.249745	19.506150
643.674469	19.734744
644.099169	19.962681
644.523847	20.188061
644.948502	20.414473
645.373135	20.638899
645.797744	20.856983
646.222330	21.069346
646.646894	21.277213
647.071435	21.477492
647.495953	21.670984
647.920447	21.857061
648.344919	22.032716
648.769368	22.203611
649.193794	22.368795
649.618197	22.527301
650.042576	22.681823
650.466933	22.831089
650.891267	22.977384
651.315577	23.120140
651.739864	23.261597
652.164129	23.399637
652.588370	23.536641
653.012587	23.672512
653.436782	23.803314
653.860953	23.939029
654.285102	24.075128
654.709226	24.209960
655.133328	24.349341
655.557406	24.491798
655.981461	24.638931
656.405493	24.789649
656.829501	24.941489
657.253486	25.091614
657.677448	25.244154
658.101386	25.399374
658.525301	25.551210
658.949192	25.698519
659.373060	25.842857
659.796904	25.982335
660.220725	26.119460
660.644522	26.250792
661.068296	26.375053
661.492046	26.494919
661.915772	26.607265
662.339475	26.711252
662.763154	26.805779
663.186810	26.895032
663.610442	26.972334
664.034050	27.039154
664.457635	27.096853
664.881196	27.142009
665.304733	27.170102
665.728247	27.187599
666.151736	27.194299
666.575202	27.188103
666.998644	27.163290
667.422062	27.127467
667.845457	27.079225
668.268827	27.014901
668.692174	26.934665
669.115496	26.839184
669.538795	26.725296
669.962070	26.602699
670.385321	26.469338
670.808547	26.323127
671.231750	26.163146
671.654929	25.993417
672.078084	25.816831
672.501214	25.627776
672.924321	25.430848
673.347404	25.225478
673.770462	25.017535
674.193496	24.806374
674.616506	24.596414
675.039492	24.382778
675.462454	24.167849
675.885391	23.953744
676.308305	23.745806
676.731194	23.546385
677.154058	23.354484
677.576899	23.170291
677.999715	22.994958
678.422507	22.834509
678.845274	22.685241
679.268017	22.552733
679.690736	22.431738
680.113430	22.325469
680.536100	22.229460
680.958746	22.150409
681.381367	22.083021
681.803963	22.031785
682.226535	21.991446
682.649083	21.965642
683.071605	21.950509
683.494104	21.944231
683.916578	21.949478
684.339027	21.964621
684.761451	21.994695
685.183851	22.032530
685.606227	22.080731
686.028577	22.136290
686.450903	22.203716
686.873204	22.275874
687.295481	22.353449
687.717733	22.434134
688.139959	22.522301
688.562162	22.617286
688.984339	22.713746
689.406492	22.808496
689.828619	22.900998
690.250722	22.993444
690.672800	23.083574
691.094853	23.172016
691.516881	23.263292
691.938884	23.348036
692.360863	23.426249
692.782816	23.504661
693.204744	23.574726
693.626647	23.646107
694.048526	23.709389
694.470379	23.771249
694.892207	23.826831
695.314010	23.881618
695.735788	23.930830
696.157540	23.975912
696.579268	24.019785
697.000970	24.059757
697.422648	24.097630
697.844300	24.127730
698.265926	24.158561
698.687528	24.190121
699.109104	24.221622
699.530655	24.245672
699.952181	24.274084
