PE UV       SUBTECH     SPECTRUM    ASCII       PEDS        4.00        
   -1
CICIMAUCR0250-1.ASC
24/05/30
14:50:06.00
24/05/30
14:50:06.00
Vinicio Soto Monge
C. resplendens, M Ventral
250,000000
1
Lambda 1050
1050L1511233
PerkinElmer UV WinLab 6.3.2.0749 / 2.02.05 Lambda 900 UV/VIS/NIR, Aug  7 2015 09:38:08

0
0
3350/servo 860,8/2
0
0
UV/VIS
1
1
1
DoubleDePol,CommonBeamDepol,RBeamAtt,SBeamAtt,60mm sphere, WB InGaAs Detector
0
0
0
0
Program
Program
3350/servo 860,8/2
3350/0,2 860,8/0,2
3350/0,2 860,8/0,2
0
15.00
 
 
 
0
 
860,8
319,2
860,8
Front
100
on
S:100 R:100
0
0
0
0
 
0
 
 
 
0
 
 
0
0
0
0
0
 
 
 
 
0
0


0
0
#HDR
-1
-1
#GR
nm
%R
1.0
0.0
2500,000000
-1,000000
2251
8
58,518500
4,181300
#DATA
2482.000000	5.587090
2481.000000	5.549925
2480.000000	5.474585
2479.000000	5.405963
2478.000000	5.498430
2477.000000	5.440666
2476.000000	5.423314
2475.000000	5.489138
2474.000000	5.471675
2473.000000	5.457458
2472.000000	5.462607
2471.000000	5.442233
2470.000000	5.424322
2469.000000	5.418724
2468.000000	5.400029
2467.000000	5.397791
2466.000000	5.390178
2465.000000	5.404731
2464.000000	5.398574
2463.000000	5.479063
2462.000000	5.449509
2461.000000	5.416821
2460.000000	5.436300
2459.000000	5.438539
2458.000000	5.504027
2457.000000	5.501004
2456.000000	5.494959
2455.000000	5.492385
2454.000000	5.520147
2453.000000	5.554738
2452.000000	5.567612
2451.000000	5.593695
2450.000000	5.589441
2449.000000	5.621122
2448.000000	5.608808
2447.000000	5.650564
2446.000000	5.641496
2445.000000	5.687841
2444.000000	5.695118
2443.000000	5.717507
2442.000000	5.732172
2441.000000	5.761837
2440.000000	5.781428
2439.000000	5.809862
2438.000000	5.816019
2437.000000	5.857887
2436.000000	5.877253
2435.000000	5.876470
2434.000000	5.891023
2433.000000	5.935129
2432.000000	5.937816
2431.000000	5.956399
2430.000000	5.967817
2429.000000	5.985169
2428.000000	6.005767
2427.000000	6.012372
2426.000000	6.030843
2425.000000	6.050993
2424.000000	6.065434
2423.000000	6.061628
2422.000000	6.079875
2421.000000	6.117265
2420.000000	6.114690
2419.000000	6.123645
2418.000000	6.140437
2417.000000	6.162938
2416.000000	6.173349
2415.000000	6.169207
2414.000000	6.191820
2413.000000	6.197865
2412.000000	6.199880
2411.000000	6.188574
2410.000000	6.217456
2409.000000	6.230106
2408.000000	6.237046
2407.000000	6.232792
2406.000000	6.255293
2405.000000	6.264137
2404.000000	6.288877
2403.000000	6.301303
2402.000000	6.308020
2401.000000	6.315296
2400.000000	6.308580
2399.000000	6.338133
2398.000000	6.351343
2397.000000	6.382240
2396.000000	6.413920
2395.000000	6.415376
2394.000000	6.422764
2393.000000	6.430824
2392.000000	6.417726
2391.000000	6.440899
2390.000000	6.464184
2389.000000	6.470229
2388.000000	6.464072
2387.000000	6.484446
2386.000000	6.493514
2385.000000	6.493626
2384.000000	6.498103
2383.000000	6.502917
2382.000000	6.513776
2381.000000	6.524634
2380.000000	6.525978
2379.000000	6.529336
2378.000000	6.512097
2377.000000	6.509522
2376.000000	6.512432
2375.000000	6.511985
2374.000000	6.500678
2373.000000	6.492954
2372.000000	6.485901
2371.000000	6.469333
2370.000000	6.466982
2369.000000	6.468662
2368.000000	6.463848
2367.000000	6.446944
2366.000000	6.431384
2365.000000	6.412465
2364.000000	6.394330
2363.000000	6.377202
2362.000000	6.353694
2361.000000	6.345186
2360.000000	6.336118
2359.000000	6.310035
2358.000000	6.295146
2357.000000	6.288429
2356.000000	6.277906
2355.000000	6.269399
2354.000000	6.249248
2353.000000	6.223501
2352.000000	6.211411
2351.000000	6.232345
2350.000000	6.249360
2349.000000	6.250704
2348.000000	6.266936
2347.000000	6.262682
2346.000000	6.253390
2345.000000	6.272757
2344.000000	6.286750
2343.000000	6.317647
2342.000000	6.342387
2341.000000	6.353582
2340.000000	6.355149
2339.000000	6.347760
2338.000000	6.361194
2337.000000	6.364664
2336.000000	6.359403
2335.000000	6.373620
2334.000000	6.387501
2333.000000	6.382464
2332.000000	6.355709
2331.000000	6.344178
2330.000000	6.336902
2329.000000	6.331081
2328.000000	6.316975
2327.000000	6.285519
2326.000000	6.265145
2325.000000	6.259995
2324.000000	6.220590
2323.000000	6.201560
2322.000000	6.190589
2321.000000	6.159020
2320.000000	6.124541
2319.000000	6.079315
2318.000000	6.052896
2317.000000	6.022447
2316.000000	5.980355
2315.000000	5.947107
2314.000000	5.922815
2313.000000	5.888224
2312.000000	5.864939
2311.000000	5.846692
2310.000000	5.827997
2309.000000	5.808407
2308.000000	5.777398
2307.000000	5.779637
2306.000000	5.778405
2305.000000	5.757919
2304.000000	5.750531
2303.000000	5.769226
2302.000000	5.766763
2301.000000	5.780756
2300.000000	5.816019
2299.000000	5.834490
2298.000000	5.844006
2297.000000	5.868522
2296.000000	5.897404
2295.000000	5.920688
2294.000000	5.970392
2293.000000	5.989983
2292.000000	5.999274
2291.000000	5.988191
2290.000000	6.023342
2289.000000	6.034537
2288.000000	6.036328
2287.000000	6.044388
2286.000000	6.045284
2285.000000	6.051441
2284.000000	6.051441
2283.000000	6.019088
2282.000000	6.006215
2281.000000	6.008342
2280.000000	5.967817
2279.000000	5.967146
2278.000000	5.962780
2277.000000	5.942853
2276.000000	5.926733
2275.000000	5.920017
2274.000000	5.916882
2273.000000	5.912964
2272.000000	5.898075
2271.000000	5.908598
2270.000000	5.881731
2269.000000	5.934010
2268.000000	5.925390
2267.000000	5.927517
2266.000000	5.959981
2265.000000	5.970728
2264.000000	6.022335
2263.000000	6.071255
2262.000000	6.123310
2261.000000	6.197082
2260.000000	6.266152
2259.000000	6.334999
2258.000000	6.394890
2257.000000	6.500678
2256.000000	6.588331
2255.000000	6.685724
2254.000000	6.775616
2253.000000	6.904913
2252.000000	6.963237
2251.000000	7.062981
2250.000000	7.175374
2249.000000	7.248139
2248.000000	7.347546
2247.000000	7.411803
2246.000000	7.504270
2245.000000	7.561698
2244.000000	7.630656
2243.000000	7.701966
2242.000000	7.795776
2241.000000	7.851861
2240.000000	7.908058
2239.000000	7.949365
2238.000000	8.010600
2237.000000	8.055042
2236.000000	8.077095
2235.000000	8.131613
2234.000000	8.182212
2233.000000	8.196989
2232.000000	8.243558
2231.000000	8.273672
2230.000000	8.259231
2229.000000	8.307032
2228.000000	8.313412
2227.000000	8.320241
2226.000000	8.336137
2225.000000	8.360318
2224.000000	8.337593
2223.000000	8.347668
2222.000000	8.355728
2221.000000	8.358862
2220.000000	8.366027
2219.000000	8.328413
2218.000000	8.307703
2217.000000	8.316883
2216.000000	8.319569
2215.000000	8.303225
2214.000000	8.294606
2213.000000	8.284754
2212.000000	8.245573
2211.000000	8.236058
2210.000000	8.244118
2209.000000	8.213893
2208.000000	8.209415
2207.000000	8.200683
2206.000000	8.204042
2205.000000	8.205497
2204.000000	8.195310
2203.000000	8.184787
2202.000000	8.189377
2201.000000	8.166652
2200.000000	8.162286
2199.000000	8.157024
2198.000000	8.130269
2197.000000	8.153442
2196.000000	8.139113
2195.000000	8.135979
2194.000000	8.140345
2193.000000	8.150308
2192.000000	8.130829
2191.000000	8.111687
2190.000000	8.099596
2189.000000	8.090977
2188.000000	8.074297
2187.000000	8.084596
2186.000000	8.090193
2185.000000	8.074521
2184.000000	8.078551
2183.000000	8.059072
2182.000000	8.059296
2181.000000	8.067356
2180.000000	8.037579
2179.000000	8.036347
2178.000000	8.030750
2177.000000	8.006234
2176.000000	8.008473
2175.000000	8.025041
2174.000000	8.013398
2173.000000	7.996830
2172.000000	8.012279
2171.000000	8.018884
2170.000000	8.023361
2169.000000	8.031086
2168.000000	8.026048
2167.000000	8.042728
2166.000000	8.038362
2165.000000	8.030638
2164.000000	8.058736
2163.000000	8.042728
2162.000000	8.055938
2161.000000	8.097357
2160.000000	8.083028
2159.000000	8.097805
2158.000000	8.112806
2157.000000	8.122433
2156.000000	8.140345
2155.000000	8.150532
2154.000000	8.166764
2153.000000	8.181541
2152.000000	8.178070
2151.000000	8.221057
2150.000000	8.257104
2149.000000	8.264268
2148.000000	8.285874
2147.000000	8.285874
2146.000000	8.321584
2145.000000	8.333898
2144.000000	8.355840
2143.000000	8.372296
2142.000000	8.399834
2141.000000	8.416514
2140.000000	8.405544
2139.000000	8.428716
2138.000000	8.443493
2137.000000	8.437784
2136.000000	8.462972
2135.000000	8.478420
2134.000000	8.499354
2133.000000	8.508645
2132.000000	8.502376
2131.000000	8.515250
2130.000000	8.512675
2129.000000	8.524094
2128.000000	8.524430
2127.000000	8.520176
2126.000000	8.514355
2125.000000	8.506854
2124.000000	8.510884
2123.000000	8.508757
2122.000000	8.496779
2121.000000	8.491518
2120.000000	8.509541
2119.000000	8.506966
2118.000000	8.482338
2117.000000	8.458494
2116.000000	8.466666
2115.000000	8.467114
2114.000000	8.449986
2113.000000	8.432858
2112.000000	8.429388
2111.000000	8.409686
2110.000000	8.390095
2109.000000	8.389535
2108.000000	8.360541
2107.000000	8.337481
2106.000000	8.337817
2105.000000	8.334122
2104.000000	8.331212
2103.000000	8.316435
2102.000000	8.283411
2101.000000	8.254753
2100.000000	8.241543
2099.000000	8.248820
2098.000000	8.240872
2097.000000	8.224416
2096.000000	8.217139
2095.000000	8.214117
2094.000000	8.214341
2093.000000	8.185906
2092.000000	8.169003
2091.000000	8.164861
2090.000000	8.158480
2089.000000	8.156689
2088.000000	8.152882
2087.000000	8.140457
2086.000000	8.129150
2085.000000	8.131837
2084.000000	8.118067
2083.000000	8.097246
2082.000000	8.087059
2081.000000	8.077767
2080.000000	8.059856
2079.000000	8.047318
2078.000000	8.051012
2077.000000	8.028959
2076.000000	8.002316
2075.000000	8.000189
2074.000000	7.988434
2073.000000	7.966605
2072.000000	7.946119
2071.000000	7.916006
2070.000000	7.891154
2069.000000	7.883541
2068.000000	7.876601
2067.000000	7.870668
2066.000000	7.850965
2065.000000	7.829920
2064.000000	7.808874
2063.000000	7.791746
2062.000000	7.776633
2061.000000	7.752117
2060.000000	7.740923
2059.000000	7.738572
2058.000000	7.738908
2057.000000	7.734542
2056.000000	7.738124
2055.000000	7.732415
2054.000000	7.732191
2053.000000	7.749431
2052.000000	7.767006
2051.000000	7.784694
2050.000000	7.819509
2049.000000	7.850406
2048.000000	7.878280
2047.000000	7.925185
2046.000000	7.953172
2045.000000	7.994480
2044.000000	8.033549
2043.000000	8.071498
2042.000000	8.131389
2041.000000	8.187586
2040.000000	8.219154
2039.000000	8.262813
2038.000000	8.314644
2037.000000	8.356623
2036.000000	8.416402
2035.000000	8.450882
2034.000000	8.474838
2033.000000	8.513347
2032.000000	8.539095
2031.000000	8.564058
2030.000000	8.599545
2029.000000	8.630666
2028.000000	8.655518
2027.000000	8.691453
2026.000000	8.706789
2025.000000	8.726827
2024.000000	8.756493
2023.000000	8.773285
2022.000000	8.796122
2021.000000	8.806309
2020.000000	8.824220
2019.000000	8.828586
2018.000000	8.840564
2017.000000	8.836758
2016.000000	8.865304
2015.000000	8.875603
2014.000000	8.881760
2013.000000	8.875603
2012.000000	8.872468
2011.000000	8.872692
2010.000000	8.866200
2009.000000	8.869558
2008.000000	8.842803
2007.000000	8.837653
2006.000000	8.834183
2005.000000	8.800152
2004.000000	8.799928
2003.000000	8.772501
2002.000000	8.764329
2001.000000	8.752463
2000.000000	8.716192
1999.000000	8.679027
1998.000000	8.646338
1997.000000	8.642196
1996.000000	8.594620
1995.000000	8.564842
1994.000000	8.539878
1993.000000	8.522303
1992.000000	8.456143
1991.000000	8.424686
1990.000000	8.406103
1989.000000	8.355392
1988.000000	8.316547
1987.000000	8.262141
1986.000000	8.255984
1985.000000	8.209863
1984.000000	8.154898
1983.000000	8.132956
1982.000000	8.084708
1981.000000	8.056609
1980.000000	7.996718
1979.000000	7.965150
1978.000000	7.922051
1977.000000	7.889587
1976.000000	7.845704
1975.000000	7.813687
1974.000000	7.773163
1973.000000	7.739132
1972.000000	7.709018
1971.000000	7.680024
1970.000000	7.620581
1969.000000	7.601551
1968.000000	7.574908
1967.000000	7.535839
1966.000000	7.503934
1965.000000	7.451879
1964.000000	7.433185
1963.000000	7.420871
1962.000000	7.371279
1961.000000	7.353927
1960.000000	7.315866
1959.000000	7.282394
1958.000000	7.247243
1957.000000	7.238735
1956.000000	7.235153
1955.000000	7.167986
1954.000000	7.165635
1953.000000	7.130372
1952.000000	7.103393
1951.000000	7.051226
1950.000000	7.051562
1949.000000	7.008127
1948.000000	6.991112
1947.000000	6.998836
1946.000000	6.961670
1945.000000	6.948796
1944.000000	6.934691
1943.000000	6.933460
1942.000000	6.905137
1941.000000	6.874128
1940.000000	6.894838
1939.000000	6.875808
1938.000000	6.862822
1937.000000	6.876927
1936.000000	6.869427
1935.000000	6.859911
1934.000000	6.881853
1933.000000	6.889913
1932.000000	6.898421
1931.000000	6.930885
1930.000000	6.944542
1929.000000	6.971409
1928.000000	6.973088
1927.000000	7.009359
1926.000000	7.044845
1925.000000	7.066339
1924.000000	7.113692
1923.000000	7.153433
1922.000000	7.181531
1921.000000	7.241982
1920.000000	7.315642
1919.000000	7.370495
1918.000000	7.395347
1917.000000	7.448521
1916.000000	7.535951
1915.000000	7.590916
1914.000000	7.665919
1913.000000	7.764543
1912.000000	7.831599
1911.000000	7.944440
1910.000000	8.032541
1909.000000	8.131277
1908.000000	8.193183
1907.000000	8.296173
1906.000000	8.408454
1905.000000	8.560140
1904.000000	8.694027
1903.000000	8.815824
1902.000000	8.950942
1901.000000	9.099046
1900.000000	9.240881
1899.000000	9.405889
1898.000000	9.596085
1897.000000	9.782026
1896.000000	9.930130
1895.000000	10.084615
1894.000000	10.271788
1893.000000	10.448326
1892.000000	10.649268
1891.000000	10.879428
1890.000000	11.147650
1889.000000	11.391243
1888.000000	11.606291
1887.000000	11.886602
1886.000000	12.172287
1885.000000	12.472973
1884.000000	12.812056
1883.000000	13.199276
1882.000000	13.610340
1881.000000	14.004612
1880.000000	14.432244
1879.000000	14.827860
1878.000000	15.212057
1877.000000	15.633420
1876.000000	16.035864
1875.000000	16.437189
1874.000000	16.800228
1873.000000	17.169649
1872.000000	17.564593
1871.000000	17.906251
1870.000000	18.242871
1869.000000	18.566281
1868.000000	18.846257
1867.000000	19.100598
1866.000000	19.314414
1865.000000	19.469234
1864.000000	19.633906
1863.000000	19.774062
1862.000000	19.885336
1861.000000	20.015976
1860.000000	20.127138
1859.000000	20.235390
1858.000000	20.350470
1857.000000	20.432862
1856.000000	20.483573
1855.000000	20.518500
1854.000000	20.563502
1853.000000	20.575816
1852.000000	20.568540
1851.000000	20.552196
1850.000000	20.527232
1849.000000	20.527456
1848.000000	20.508201
1847.000000	20.523314
1846.000000	20.513127
1845.000000	20.457602
1844.000000	20.418868
1843.000000	20.358642
1842.000000	20.332334
1841.000000	20.335693
1840.000000	20.329760
1839.000000	20.296736
1838.000000	20.259906
1837.000000	20.246584
1836.000000	20.218150
1835.000000	20.174043
1834.000000	20.115944
1833.000000	20.044075
1832.000000	19.981833
1831.000000	19.911643
1830.000000	19.857797
1829.000000	19.803504
1828.000000	19.721671
1827.000000	19.632675
1826.000000	19.575023
1825.000000	19.530692
1824.000000	19.457928
1823.000000	19.396470
1822.000000	19.360199
1821.000000	19.340833
1820.000000	19.339042
1819.000000	19.332885
1818.000000	19.285756
1817.000000	19.238850
1816.000000	19.227544
1815.000000	19.223066
1814.000000	19.222954
1813.000000	19.199334
1812.000000	19.184557
1811.000000	19.157354
1810.000000	19.123658
1809.000000	19.110561
1808.000000	19.075298
1807.000000	19.023915
1806.000000	18.985070
1805.000000	18.931672
1804.000000	18.872229
1803.000000	18.828346
1802.000000	18.776739
1801.000000	18.732297
1800.000000	18.696586
1799.000000	18.641733
1798.000000	18.586768
1797.000000	18.537847
1796.000000	18.487472
1795.000000	18.442806
1794.000000	18.408774
1793.000000	18.354480
1792.000000	18.292687
1791.000000	18.241192
1790.000000	18.188577
1789.000000	18.134619
1788.000000	18.079990
1787.000000	18.018644
1786.000000	17.961664
1785.000000	17.906139
1784.000000	17.832702
1783.000000	17.773707
1782.000000	17.713256
1781.000000	17.643738
1780.000000	17.553510
1779.000000	17.468431
1778.000000	17.414698
1777.000000	17.342717
1776.000000	17.258198
1775.000000	17.153305
1774.000000	17.057591
1773.000000	16.958967
1772.000000	16.845454
1771.000000	16.742241
1770.000000	16.641490
1769.000000	16.525178
1768.000000	16.417375
1767.000000	16.339461
1766.000000	16.243299
1765.000000	16.159676
1764.000000	16.100569
1763.000000	16.066649
1762.000000	16.055231
1761.000000	16.068217
1760.000000	16.091277
1759.000000	16.137399
1758.000000	16.203335
1757.000000	16.255725
1756.000000	16.328154
1755.000000	16.358715
1754.000000	16.385134
1753.000000	16.426778
1752.000000	16.453757
1751.000000	16.452973
1750.000000	16.433047
1749.000000	16.418606
1748.000000	16.376962
1747.000000	16.315840
1746.000000	16.252479
1745.000000	16.176468
1744.000000	16.057358
1743.000000	15.919553
1742.000000	15.776822
1741.000000	15.632077
1740.000000	15.457330
1739.000000	15.275754
1738.000000	15.100895
1737.000000	14.909916
1736.000000	14.743677
1735.000000	14.642926
1734.000000	14.567251
1733.000000	14.492135
1732.000000	14.466947
1731.000000	14.493031
1730.000000	14.555944
1729.000000	14.635985
1728.000000	14.711548
1727.000000	14.798530
1726.000000	14.881706
1725.000000	14.962754
1724.000000	15.019175
1723.000000	15.060259
1722.000000	15.095522
1721.000000	15.127650
1720.000000	15.172092
1719.000000	15.204892
1718.000000	15.246312
1717.000000	15.282807
1716.000000	15.304636
1715.000000	15.369340
1714.000000	15.448598
1713.000000	15.516101
1712.000000	15.595806
1711.000000	15.635659
1710.000000	15.676519
1709.000000	15.692303
1708.000000	15.691744
1707.000000	15.710327
1706.000000	15.683460
1705.000000	15.643271
1704.000000	15.592672
1703.000000	15.565245
1702.000000	15.480950
1701.000000	15.408745
1700.000000	15.287956
1699.000000	15.154405
1698.000000	15.022421
1697.000000	14.904878
1696.000000	14.822486
1695.000000	14.747259
1694.000000	14.745580
1693.000000	14.745132
1692.000000	14.849129
1691.000000	14.935999
1690.000000	15.065520
1689.000000	15.191123
1688.000000	15.275642
1687.000000	15.370236
1686.000000	15.408633
1685.000000	15.429791
1684.000000	15.491249
1683.000000	15.585395
1682.000000	15.740216
1681.000000	16.021759
1680.000000	16.358603
1679.000000	16.769555
1678.000000	17.274878
1677.000000	17.751542
1676.000000	18.195966
1675.000000	18.634680
1674.000000	19.019213
1673.000000	19.331653
1672.000000	19.665475
1671.000000	19.910188
1670.000000	20.124004
1669.000000	20.347783
1668.000000	20.516037
1667.000000	20.684179
1666.000000	20.808887
1665.000000	20.924303
1664.000000	21.026061
1663.000000	21.142596
1662.000000	21.213234
1661.000000	21.283648
1660.000000	21.376003
1659.000000	21.414848
1658.000000	21.458843
1657.000000	21.467686
1656.000000	21.508882
1655.000000	21.519405
1654.000000	21.516047
1653.000000	21.523547
1652.000000	21.499143
1651.000000	21.489068
1650.000000	21.480672
1649.000000	21.449551
1648.000000	21.417647
1647.000000	21.376786
1646.000000	21.328202
1645.000000	21.276595
1644.000000	21.229802
1643.000000	21.174053
1642.000000	21.118976
1641.000000	21.063899
1640.000000	20.995164
1639.000000	20.953073
1638.000000	20.904600
1637.000000	20.821089
1636.000000	20.743510
1635.000000	20.672873
1634.000000	20.609400
1633.000000	20.533613
1632.000000	20.450661
1631.000000	20.382934
1630.000000	20.306363
1629.000000	20.212217
1628.000000	20.142923
1627.000000	20.045530
1626.000000	19.980714
1625.000000	19.908956
1624.000000	19.811564
1623.000000	19.735441
1622.000000	19.667714
1621.000000	19.600882
1620.000000	19.507184
1619.000000	19.441472
1618.000000	19.370722
1617.000000	19.282845
1616.000000	19.201237
1615.000000	19.136084
1614.000000	19.047983
1613.000000	19.002309
1612.000000	18.926634
1611.000000	18.842339
1610.000000	18.780209
1609.000000	18.706437
1608.000000	18.669943
1607.000000	18.578260
1606.000000	18.527212
1605.000000	18.456575
1604.000000	18.393102
1603.000000	18.311046
1602.000000	18.246453
1601.000000	18.168763
1600.000000	18.109656
1599.000000	18.047302
1598.000000	17.977448
1597.000000	17.914982
1596.000000	17.854979
1595.000000	17.780424
1594.000000	17.740683
1593.000000	17.673852
1592.000000	17.611050
1591.000000	17.569966
1590.000000	17.534479
1589.000000	17.463954
1588.000000	17.405966
1587.000000	17.365106
1586.000000	17.319768
1585.000000	17.275661
1584.000000	17.247787
1583.000000	17.200546
1582.000000	17.176701
1581.000000	17.146924
1580.000000	17.087481
