PE UV       SUBTECH     SPECTRUM    ASCII       PEDS        4.00        
   -1
CICIMAUCR0233-1.ASC
24/06/14
12:09:47.00
24/06/14
12:09:47.00
Vinicio Soto Monge
C. resplendens. Sex F. Ventral
250,000000
1
Lambda 1050
1050L1511233
PerkinElmer UV WinLab 6.3.2.0749 / 2.02.05 Lambda 900 UV/VIS/NIR, Aug  7 2015 09:38:08

0
0
3350/servo 860,8/2
0
0
UV/VIS
1
1
1
DoubleDePol,CommonBeamDepol,RBeamAtt,SBeamAtt,60mm sphere, WB InGaAs Detector
0
0
0
0
Program
Program
3350/servo 860,8/2
3350/0,2 860,8/0,2
3350/0,2 860,8/0,2
0
15.00
 
 
 
0
 
860,8
319,2
860,8
Front
100
on
S:100 R:100
0
0
0
0
 
0
 
 
 
0
 
 
0
0
0
0
0
 
 
 
 
0
0


0
0
#HDR
-1
-1
#GR
nm
%R
1.0
0.0
2500,000000
-1,000000
2251
8
49,687100
4,221700
#DATA
2482.000000	5.040146
2481.000000	4.975120
2480.000000	5.024778
2479.000000	5.113315
2478.000000	5.015030
2477.000000	5.003103
2476.000000	5.019274
2475.000000	5.021682
2474.000000	5.016636
2473.000000	5.056087
2472.000000	4.981428
2471.000000	4.977873
2470.000000	4.988997
2469.000000	4.991979
2468.000000	4.986015
2467.000000	5.011016
2466.000000	4.995305
2465.000000	4.967666
2464.000000	4.974547
2463.000000	4.996451
2462.000000	4.989570
2461.000000	5.022026
2460.000000	5.003677
2459.000000	4.986015
2458.000000	5.009984
2457.000000	4.970877
2456.000000	5.009755
2455.000000	5.002300
2454.000000	5.020076
2453.000000	5.055858
2452.000000	5.045192
2451.000000	5.071799
2450.000000	5.063312
2449.000000	5.089804
2448.000000	5.102076
2447.000000	5.092557
2446.000000	5.111939
2445.000000	5.128453
2444.000000	5.129256
2443.000000	5.173753
2442.000000	5.185795
2441.000000	5.172951
2440.000000	5.183043
2439.000000	5.197837
2438.000000	5.216645
2437.000000	5.217219
2436.000000	5.242335
2435.000000	5.254606
2434.000000	5.247839
2433.000000	5.250248
2432.000000	5.257702
2431.000000	5.282933
2430.000000	5.287520
2429.000000	5.297727
2428.000000	5.313439
2427.000000	5.320893
2426.000000	5.313095
2425.000000	5.329953
2424.000000	5.358395
2423.000000	5.355643
2422.000000	5.374680
2421.000000	5.382249
2420.000000	5.372043
2419.000000	5.365276
2418.000000	5.397847
2417.000000	5.412182
2416.000000	5.424568
2415.000000	5.439592
2414.000000	5.428926
2413.000000	5.435234
2412.000000	5.437642
2411.000000	5.445555
2410.000000	5.460235
2409.000000	5.464019
2408.000000	5.468836
2407.000000	5.460579
2406.000000	5.465166
2405.000000	5.465510
2404.000000	5.485580
2403.000000	5.501521
2402.000000	5.505879
2401.000000	5.505420
2400.000000	5.519985
2399.000000	5.522967
2398.000000	5.523655
2397.000000	5.520329
2396.000000	5.527784
2395.000000	5.537532
2394.000000	5.533977
2393.000000	5.549918
2392.000000	5.559666
2391.000000	5.572281
2390.000000	5.560928
2389.000000	5.565859
2388.000000	5.560698
2387.000000	5.575951
2386.000000	5.581685
2385.000000	5.577213
2384.000000	5.588222
2383.000000	5.607948
2382.000000	5.593154
2381.000000	5.592810
2380.000000	5.605540
2379.000000	5.602214
2378.000000	5.599462
2377.000000	5.588911
2376.000000	5.590172
2375.000000	5.597971
2374.000000	5.580195
2373.000000	5.582259
2372.000000	5.591548
2371.000000	5.587190
2370.000000	5.571479
2369.000000	5.572281
2368.000000	5.579506
2367.000000	5.569988
2366.000000	5.550033
2365.000000	5.546019
2364.000000	5.549459
2363.000000	5.540514
2362.000000	5.525605
2361.000000	5.522623
2360.000000	5.526293
2359.000000	5.523426
2358.000000	5.509320
2357.000000	5.492690
2356.000000	5.486383
2355.000000	5.496590
2354.000000	5.498195
2353.000000	5.483172
2352.000000	5.475602
2351.000000	5.485695
2350.000000	5.495099
2349.000000	5.484777
2348.000000	5.495672
2347.000000	5.504503
2346.000000	5.495099
2345.000000	5.507026
2344.000000	5.517118
2343.000000	5.514366
2342.000000	5.522738
2341.000000	5.531912
2340.000000	5.521132
2339.000000	5.527325
2338.000000	5.540743
2337.000000	5.546821
2336.000000	5.554391
2335.000000	5.561386
2334.000000	5.565056
2333.000000	5.572396
2332.000000	5.562763
2331.000000	5.559207
2330.000000	5.548312
2329.000000	5.542005
2328.000000	5.546133
2327.000000	5.540973
2326.000000	5.524802
2325.000000	5.504388
2324.000000	5.506338
2323.000000	5.502209
2322.000000	5.479043
2321.000000	5.465969
2320.000000	5.470671
2319.000000	5.457712
2318.000000	5.424453
2317.000000	5.392686
2316.000000	5.369634
2315.000000	5.351285
2314.000000	5.343257
2313.000000	5.340619
2312.000000	5.325251
2311.000000	5.295548
2310.000000	5.281098
2309.000000	5.274102
2308.000000	5.284538
2307.000000	5.267909
2306.000000	5.253574
2305.000000	5.244972
2304.000000	5.254376
2303.000000	5.265042
2302.000000	5.270776
2301.000000	5.253000
2300.000000	5.243367
2299.000000	5.264813
2298.000000	5.296810
2297.000000	5.309998
2296.000000	5.321581
2295.000000	5.344174
2294.000000	5.353234
2293.000000	5.369520
2292.000000	5.376859
2291.000000	5.393259
2290.000000	5.405186
2289.000000	5.397847
2288.000000	5.406104
2287.000000	5.410462
2286.000000	5.415049
2285.000000	5.421127
2284.000000	5.396012
2283.000000	5.398191
2282.000000	5.381332
2281.000000	5.396241
2280.000000	5.407595
2279.000000	5.375827
2278.000000	5.373648
2277.000000	5.363900
2276.000000	5.368373
2275.000000	5.350023
2274.000000	5.320320
2273.000000	5.324449
2272.000000	5.346009
2271.000000	5.326857
2270.000000	5.323416
2269.000000	5.312521
2268.000000	5.323990
2267.000000	5.355528
2266.000000	5.383511
2265.000000	5.389245
2264.000000	5.401746
2263.000000	5.426288
2262.000000	5.454730
2261.000000	5.466542
2260.000000	5.528816
2259.000000	5.563795
2258.000000	5.597512
2257.000000	5.635472
2256.000000	5.706577
2255.000000	5.767933
2254.000000	5.820688
2253.000000	5.860483
2252.000000	5.890416
2251.000000	5.967484
2250.000000	6.003380
2249.000000	6.063818
2248.000000	6.090196
2247.000000	6.138937
2246.000000	6.194100
2245.000000	6.227129
2244.000000	6.277246
2243.000000	6.294793
2242.000000	6.306490
2241.000000	6.372548
2240.000000	6.398238
2239.000000	6.445717
2238.000000	6.464181
2237.000000	6.480237
2236.000000	6.510858
2235.000000	6.503403
2234.000000	6.539644
2233.000000	6.540790
2232.000000	6.571067
2231.000000	6.577375
2230.000000	6.579898
2229.000000	6.602491
2228.000000	6.589646
2227.000000	6.606619
2226.000000	6.624395
2225.000000	6.616711
2224.000000	6.640107
2223.000000	6.608454
2222.000000	6.594233
2221.000000	6.614762
2220.000000	6.601229
2219.000000	6.601114
2218.000000	6.596298
2217.000000	6.595495
2216.000000	6.565906
2215.000000	6.592628
2214.000000	6.547557
2213.000000	6.565792
2212.000000	6.565677
2211.000000	6.552718
2210.000000	6.548818
2209.000000	6.535859
2208.000000	6.528290
2207.000000	6.522212
2206.000000	6.536203
2205.000000	6.524505
2204.000000	6.522900
2203.000000	6.525537
2202.000000	6.526340
2201.000000	6.505124
2200.000000	6.514642
2199.000000	6.526225
2198.000000	6.498472
2197.000000	6.513954
2196.000000	6.518198
2195.000000	6.489641
2194.000000	6.495834
2193.000000	6.512349
2192.000000	6.491591
2191.000000	6.462920
2190.000000	6.470260
2189.000000	6.470718
2188.000000	6.477829
2187.000000	6.491247
2186.000000	6.482072
2185.000000	6.493426
2184.000000	6.477599
2183.000000	6.477943
2182.000000	6.459135
2181.000000	6.480466
2180.000000	6.476797
2179.000000	6.466590
2178.000000	6.464411
2177.000000	6.469342
2176.000000	6.442735
2175.000000	6.436198
2174.000000	6.438033
2173.000000	6.444685
2172.000000	6.448240
2171.000000	6.454433
2170.000000	6.466246
2169.000000	6.480466
2168.000000	6.461314
2167.000000	6.453516
2166.000000	6.473356
2165.000000	6.473815
2164.000000	6.471750
2163.000000	6.502371
2162.000000	6.493655
2161.000000	6.481155
2160.000000	6.518656
2159.000000	6.517051
2158.000000	6.528519
2157.000000	6.509138
2156.000000	6.530239
2155.000000	6.546525
2154.000000	6.549162
2153.000000	6.564759
2152.000000	6.569806
2151.000000	6.587582
2150.000000	6.604670
2149.000000	6.615106
2148.000000	6.629441
2147.000000	6.637584
2146.000000	6.640336
2145.000000	6.645153
2144.000000	6.656507
2143.000000	6.674627
2142.000000	6.682540
2141.000000	6.706624
2140.000000	6.704330
2139.000000	6.711097
2138.000000	6.721648
2137.000000	6.716143
2136.000000	6.733460
2135.000000	6.731969
2134.000000	6.721762
2133.000000	6.718092
2132.000000	6.736786
2131.000000	6.757658
2130.000000	6.766260
2129.000000	6.753874
2128.000000	6.765113
2127.000000	6.763851
2126.000000	6.765342
2125.000000	6.762131
2124.000000	6.748484
2123.000000	6.743094
2122.000000	6.742291
2121.000000	6.749975
2120.000000	6.746534
2119.000000	6.730478
2118.000000	6.733689
2117.000000	6.720042
2116.000000	6.711670
2115.000000	6.727038
2114.000000	6.721189
2113.000000	6.701692
2112.000000	6.685751
2111.000000	6.684260
2110.000000	6.683802
2109.000000	6.674971
2108.000000	6.661553
2107.000000	6.639878
2106.000000	6.642057
2105.000000	6.637813
2104.000000	6.629900
2103.000000	6.618546
2102.000000	6.608454
2101.000000	6.606963
2100.000000	6.602835
2099.000000	6.598935
2098.000000	6.586091
2097.000000	6.572443
2096.000000	6.569117
2095.000000	6.560401
2094.000000	6.554208
2093.000000	6.551227
2092.000000	6.555585
2091.000000	6.555126
2090.000000	6.550309
2089.000000	6.545836
2088.000000	6.545148
2087.000000	6.527831
2086.000000	6.518312
2085.000000	6.526455
2084.000000	6.526455
2083.000000	6.507073
2082.000000	6.497784
2081.000000	6.498472
2080.000000	6.491247
2079.000000	6.488609
2078.000000	6.502027
2077.000000	6.487003
2076.000000	6.448814
2075.000000	6.433446
2074.000000	6.419225
2073.000000	6.419340
2072.000000	6.403055
2071.000000	6.390095
2070.000000	6.398123
2069.000000	6.388834
2068.000000	6.365667
2067.000000	6.344336
2066.000000	6.344910
2065.000000	6.340437
2064.000000	6.339634
2063.000000	6.320941
2062.000000	6.300183
2061.000000	6.285503
2060.000000	6.277016
2059.000000	6.284930
2058.000000	6.269333
2057.000000	6.257635
2056.000000	6.246510
2055.000000	6.239973
2054.000000	6.248689
2053.000000	6.256259
2052.000000	6.258208
2051.000000	6.257750
2050.000000	6.269333
2049.000000	6.278163
2048.000000	6.284815
2047.000000	6.306605
2046.000000	6.313715
2045.000000	6.332524
2044.000000	6.350988
2043.000000	6.358901
2042.000000	6.381150
2041.000000	6.404201
2040.000000	6.406380
2039.000000	6.427941
2038.000000	6.439065
2037.000000	6.475535
2036.000000	6.483104
2035.000000	6.476452
2034.000000	6.493999
2033.000000	6.492738
2032.000000	6.515330
2031.000000	6.530469
2030.000000	6.543772
2029.000000	6.542167
2028.000000	6.541593
2027.000000	6.553520
2026.000000	6.559369
2025.000000	6.547442
2024.000000	6.558796
2023.000000	6.559599
2022.000000	6.549736
2021.000000	6.548589
2020.000000	6.561892
2019.000000	6.573705
2018.000000	6.563154
2017.000000	6.551227
2016.000000	6.558681
2015.000000	6.555814
2014.000000	6.552603
2013.000000	6.543543
2012.000000	6.544690
2011.000000	6.541134
2010.000000	6.507876
2009.000000	6.511431
2008.000000	6.498243
2007.000000	6.479549
2006.000000	6.465902
2005.000000	6.457644
2004.000000	6.466016
2003.000000	6.447208
2002.000000	6.422436
2001.000000	6.397894
2000.000000	6.410394
1999.000000	6.375301
1998.000000	6.400417
1997.000000	6.364865
1996.000000	6.342042
1995.000000	6.326331
1994.000000	6.328166
1993.000000	6.290664
1992.000000	6.250639
1991.000000	6.243185
1990.000000	6.241808
1989.000000	6.213596
1988.000000	6.185498
1987.000000	6.176782
1986.000000	6.174718
1985.000000	6.152355
1984.000000	6.132400
1983.000000	6.121734
1982.000000	6.088934
1981.000000	6.065080
1980.000000	6.057969
1979.000000	6.052809
1978.000000	6.018059
1977.000000	5.995466
1976.000000	5.984686
1975.000000	5.976429
1974.000000	5.956130
1973.000000	5.956703
1972.000000	5.908306
1971.000000	5.893168
1970.000000	5.885828
1969.000000	5.859336
1968.000000	5.873901
1967.000000	5.854175
1966.000000	5.855666
1965.000000	5.841101
1964.000000	5.808760
1963.000000	5.817820
1962.000000	5.797521
1961.000000	5.781351
1960.000000	5.780892
1959.000000	5.752450
1958.000000	5.739262
1957.000000	5.733413
1956.000000	5.729284
1955.000000	5.723779
1954.000000	5.677103
1953.000000	5.692700
1952.000000	5.693273
1951.000000	5.671254
1950.000000	5.671713
1949.000000	5.654739
1948.000000	5.622972
1947.000000	5.642698
1946.000000	5.625266
1945.000000	5.605310
1944.000000	5.613682
1943.000000	5.616091
1942.000000	5.612880
1941.000000	5.603934
1940.000000	5.617123
1939.000000	5.605999
1938.000000	5.610013
1937.000000	5.614256
1936.000000	5.602329
1935.000000	5.600838
1934.000000	5.598085
1933.000000	5.587420
1932.000000	5.589713
1931.000000	5.639830
1930.000000	5.649579
1929.000000	5.647400
1928.000000	5.643271
1927.000000	5.667125
1926.000000	5.680085
1925.000000	5.679052
1924.000000	5.696714
1923.000000	5.729858
1922.000000	5.742932
1921.000000	5.768965
1920.000000	5.806925
1919.000000	5.836055
1918.000000	5.828945
1917.000000	5.840643
1916.000000	5.891333
1915.000000	5.908536
1914.000000	5.930785
1913.000000	5.989732
1912.000000	6.034803
1911.000000	6.067029
1910.000000	6.094439
1909.000000	6.148570
1908.000000	6.173801
1907.000000	6.211990
1906.000000	6.271626
1905.000000	6.334473
1904.000000	6.375760
1903.000000	6.414982
1902.000000	6.511775
1901.000000	6.562236
1900.000000	6.597559
1899.000000	6.684949
1898.000000	6.749975
1897.000000	6.845736
1896.000000	6.912253
1895.000000	6.993679
1894.000000	7.068109
1893.000000	7.198620
1892.000000	7.284518
1891.000000	7.386931
1890.000000	7.510332
1889.000000	7.620773
1888.000000	7.764013
1887.000000	7.890395
1886.000000	8.035242
1885.000000	8.202222
1884.000000	8.383194
1883.000000	8.561872
1882.000000	8.754656
1881.000000	8.969001
1880.000000	9.203645
1879.000000	9.388746
1878.000000	9.611807
1877.000000	9.860672
1876.000000	10.098527
1875.000000	10.305303
1874.000000	10.545452
1873.000000	10.764040
1872.000000	10.985496
1871.000000	11.200643
1870.000000	11.423819
1869.000000	11.621305
1868.000000	11.812255
1867.000000	11.960427
1866.000000	12.100686
1865.000000	12.217090
1864.000000	12.348404
1863.000000	12.452996
1862.000000	12.548413
1861.000000	12.665047
1860.000000	12.794411
1859.000000	12.903705
1858.000000	12.994191
1857.000000	13.080434
1856.000000	13.139840
1855.000000	13.203720
1854.000000	13.266337
1853.000000	13.308082
1852.000000	13.339276
1851.000000	13.349369
1850.000000	13.382054
1849.000000	13.404876
1848.000000	13.430794
1847.000000	13.453158
1846.000000	13.444671
1845.000000	13.438937
1844.000000	13.414968
1843.000000	13.413592
1842.000000	13.434923
1841.000000	13.453846
1840.000000	13.455681
1839.000000	13.459466
1838.000000	13.441804
1837.000000	13.425060
1836.000000	13.411642
1835.000000	13.387214
1834.000000	13.368406
1833.000000	13.324712
1832.000000	13.300972
1831.000000	13.266911
1830.000000	13.240877
1829.000000	13.218973
1828.000000	13.184911
1827.000000	13.141675
1826.000000	13.095687
1825.000000	13.066786
1824.000000	13.042703
1823.000000	13.017931
1822.000000	12.999811
1821.000000	12.972516
1820.000000	12.954511
1819.000000	12.941551
1818.000000	12.922170
1817.000000	12.911045
1816.000000	12.894416
1815.000000	12.881342
1814.000000	12.873429
1813.000000	12.855882
1812.000000	12.849345
1811.000000	12.823426
1810.000000	12.802095
1809.000000	12.785351
1808.000000	12.760235
1807.000000	12.734317
1806.000000	12.715164
1805.000000	12.692228
1804.000000	12.670667
1803.000000	12.637752
1802.000000	12.601742
1801.000000	12.572612
1800.000000	12.534307
1799.000000	12.499902
1798.000000	12.461253
1797.000000	12.439578
1796.000000	12.427536
1795.000000	12.405058
1794.000000	12.380630
1793.000000	12.351042
1792.000000	12.297943
1791.000000	12.255968
1790.000000	12.238651
1789.000000	12.205851
1788.000000	12.159175
1787.000000	12.140596
1786.000000	12.132224
1785.000000	12.086924
1784.000000	12.045408
1783.000000	12.010888
1782.000000	11.981414
1781.000000	11.941848
1780.000000	11.902970
1779.000000	11.867189
1778.000000	11.828999
1777.000000	11.801360
1776.000000	11.755371
1775.000000	11.697456
1774.000000	11.647912
1773.000000	11.607658
1772.000000	11.566830
1771.000000	11.516713
1770.000000	11.459830
1769.000000	11.405355
1768.000000	11.369229
1767.000000	11.312231
1766.000000	11.267046
1765.000000	11.229314
1764.000000	11.204772
1763.000000	11.190895
1762.000000	11.183785
1761.000000	11.196744
1760.000000	11.221287
1759.000000	11.233787
1758.000000	11.266587
1757.000000	11.306841
1756.000000	11.344228
1755.000000	11.387120
1754.000000	11.421640
1753.000000	11.452261
1752.000000	11.465105
1751.000000	11.469005
1750.000000	11.476000
1749.000000	11.478065
1748.000000	11.478868
1747.000000	11.459371
1746.000000	11.432420
1745.000000	11.394345
1744.000000	11.350994
1743.000000	11.296634
1742.000000	11.239980
1741.000000	11.173922
1740.000000	11.092037
1739.000000	10.980679
1738.000000	10.881018
1737.000000	10.789844
1736.000000	10.732273
1735.000000	10.652108
1734.000000	10.593275
1733.000000	10.551530
1732.000000	10.563228
1731.000000	10.574467
1730.000000	10.571485
1729.000000	10.602794
1728.000000	10.666788
1727.000000	10.716217
1726.000000	10.756930
1725.000000	10.808767
1724.000000	10.845351
1723.000000	10.891569
1722.000000	10.926089
1721.000000	10.957283
1720.000000	10.979532
1719.000000	11.004763
1718.000000	11.031828
1717.000000	11.064972
1716.000000	11.086762
1715.000000	11.124034
1714.000000	11.176674
1713.000000	11.211882
1712.000000	11.252481
1711.000000	11.303745
1710.000000	11.320488
1709.000000	11.332416
1708.000000	11.344802
1707.000000	11.354435
1706.000000	11.341361
1705.000000	11.308791
1704.000000	11.287345
1703.000000	11.259706
1702.000000	11.235163
1701.000000	11.161880
1700.000000	11.082519
1699.000000	11.014625
1698.000000	10.953613
1697.000000	10.889275
1696.000000	10.816336
1695.000000	10.793055
1694.000000	10.782046
1693.000000	10.801198
1692.000000	10.807964
1691.000000	10.889849
1690.000000	10.918864
1689.000000	10.998799
1688.000000	11.093758
1687.000000	11.147430
1686.000000	11.186078
1685.000000	11.193762
1684.000000	11.246517
1683.000000	11.308332
1682.000000	11.380124
1681.000000	11.536668
1680.000000	11.716608
1679.000000	11.967193
1678.000000	12.201264
1677.000000	12.470772
1676.000000	12.726403
1675.000000	13.003595
1674.000000	13.234570
1673.000000	13.431941
1672.000000	13.602592
1671.000000	13.753172
1670.000000	13.911436
1669.000000	14.014652
1668.000000	14.129566
1667.000000	14.217758
1666.000000	14.278197
1665.000000	14.348269
1664.000000	14.418800
1663.000000	14.468229
1662.000000	14.495409
1661.000000	14.536237
1660.000000	14.551604
1659.000000	14.596216
1658.000000	14.618695
1657.000000	14.629934
1656.000000	14.654591
1655.000000	14.640714
1654.000000	14.642320
1653.000000	14.639223
1652.000000	14.624429
1651.000000	14.627181
1650.000000	14.599313
1649.000000	14.581766
1648.000000	14.535893
1647.000000	14.543118
1646.000000	14.489445
1645.000000	14.451141
1644.000000	14.428777
1643.000000	14.388867
1642.000000	14.365930
1641.000000	14.330493
1640.000000	14.275789
1639.000000	14.271201
1638.000000	14.218676
1637.000000	14.154682
1636.000000	14.108923
1635.000000	14.070160
1634.000000	14.016143
1633.000000	13.972219
1632.000000	13.954099
1631.000000	13.885747
1630.000000	13.841823
1629.000000	13.801225
1628.000000	13.750878
1627.000000	13.700876
1626.000000	13.644566
1625.000000	13.596513
1624.000000	13.531143
1623.000000	13.500293
1622.000000	13.462333
1621.000000	13.404761
1620.000000	13.343978
1619.000000	13.297990
1618.000000	13.253263
1617.000000	13.221610
1616.000000	13.146492
1615.000000	13.114610
1614.000000	13.053598
1613.000000	13.018160
1612.000000	12.988113
1611.000000	12.951987
1610.000000	12.893613
1609.000000	12.848886
1608.000000	12.814366
1607.000000	12.756565
1606.000000	12.730188
1605.000000	12.673075
1604.000000	12.639587
1603.000000	12.604150
1602.000000	12.546578
1601.000000	12.502196
1600.000000	12.476162
1599.000000	12.413315
1598.000000	12.384071
1597.000000	12.327073
1596.000000	12.286933
1595.000000	12.249431
1594.000000	12.203443
1593.000000	12.175804
1592.000000	12.129930
1591.000000	12.111122
1590.000000	12.061120
1589.000000	12.035660
1588.000000	12.002516
1587.000000	11.986116
1586.000000	11.938063
1585.000000	11.894025
1584.000000	11.879230
1583.000000	11.832439
1582.000000	11.808700
1581.000000	11.779684
1580.000000	11.770624
1579.000000	11.740577
