PE UV       SUBTECH     SPECTRUM    ASCII       PEDS        4.00        
   -1
CICIMAUCR0247-2.ASC
24/06/27
14:19:16.00
24/06/27
14:19:16.00
Vinicio Soto Monge
C. resplendens. Sex M. Ventral
250,000000
1
Lambda 1050
1050L1511233
PerkinElmer UV WinLab 6.3.2.0749 / 2.02.05 Lambda 900 UV/VIS/NIR, Aug  7 2015 09:38:08

0
0
3350/servo 860,8/2
0
0
UV/VIS
1
1
1
DoubleDePol,CommonBeamDepol,RBeamAtt,SBeamAtt,60mm sphere, WB InGaAs Detector
0
0
0
0
Program
Program
3350/servo 860,8/2
3350/0,2 860,8/0,2
3350/0,2 860,8/0,2
0
15.00
 
 
 
0
 
860,8
319,2
860,8
Front
100
on
S:100 R:100
0
0
0
0
 
0
 
 
 
0
 
 
0
0
0
0
0
 
 
 
 
0
0


0
0
#HDR
-1
-1
#GR
nm
%R
1.0
0.0
2500,000000
-1,000000
2251
8
67,093700
4,185900
#DATA
2482.000000	8.112995
2481.000000	8.052118
2480.000000	8.099626
2479.000000	8.055433
2478.000000	7.990911
2477.000000	8.020299
2476.000000	8.075541
2475.000000	8.067918
2474.000000	8.017648
2473.000000	8.015659
2472.000000	8.095649
2471.000000	8.080955
2470.000000	8.027812
2469.000000	8.041070
2468.000000	8.077530
2467.000000	8.084159
2466.000000	8.139179
2465.000000	8.099074
2464.000000	8.100841
2463.000000	8.111116
2462.000000	8.178180
2461.000000	8.182157
2460.000000	8.164259
2459.000000	8.190775
2458.000000	8.234084
2457.000000	8.246790
2456.000000	8.312196
2455.000000	8.332193
2454.000000	8.341142
2453.000000	8.408979
2452.000000	8.444112
2451.000000	8.456376
2450.000000	8.536587
2449.000000	8.564097
2448.000000	8.604755
2447.000000	8.649611
2446.000000	8.693362
2445.000000	8.725181
2444.000000	8.774236
2443.000000	8.835665
2442.000000	8.885051
2441.000000	8.923167
2440.000000	8.953219
2439.000000	8.985480
2438.000000	9.054974
2437.000000	9.088781
2436.000000	9.151646
2435.000000	9.184570
2434.000000	9.222797
2433.000000	9.262903
2432.000000	9.303892
2431.000000	9.341788
2430.000000	9.397582
2429.000000	9.429401
2428.000000	9.470390
2427.000000	9.509722
2426.000000	9.557009
2425.000000	9.591479
2424.000000	9.641197
2423.000000	9.673458
2422.000000	9.708371
2421.000000	9.722070
2420.000000	9.752674
2419.000000	9.793332
2418.000000	9.832001
2417.000000	9.863268
2416.000000	9.895529
2415.000000	9.927127
2414.000000	9.939833
2413.000000	9.982921
2412.000000	10.009768
2411.000000	10.032749
2410.000000	10.037279
2409.000000	10.065231
2408.000000	10.105778
2407.000000	10.134393
2406.000000	10.158700
2405.000000	10.180465
2404.000000	10.195159
2403.000000	10.223001
2402.000000	10.232060
2401.000000	10.269293
2400.000000	10.274707
2399.000000	10.288959
2398.000000	10.324314
2397.000000	10.350277
2396.000000	10.336798
2395.000000	10.316138
2394.000000	10.337461
2393.000000	10.362651
2392.000000	10.382759
2391.000000	10.403420
2390.000000	10.416015
2389.000000	10.403199
2388.000000	10.413584
2387.000000	10.425295
2386.000000	10.432808
2385.000000	10.446950
2384.000000	10.445735
2383.000000	10.447723
2382.000000	10.450375
2381.000000	10.446287
2380.000000	10.458882
2379.000000	10.455457
2378.000000	10.440652
2377.000000	10.432145
2376.000000	10.428168
2375.000000	10.413916
2374.000000	10.402094
2373.000000	10.412479
2372.000000	10.398669
2371.000000	10.386516
2370.000000	10.391377
2369.000000	10.379224
2368.000000	10.359447
2367.000000	10.340665
2366.000000	10.331827
2365.000000	10.320999
2364.000000	10.314702
2363.000000	10.290837
2362.000000	10.259350
2361.000000	10.246644
2360.000000	10.218802
2359.000000	10.197921
2358.000000	10.185437
2357.000000	10.160025
2356.000000	10.139917
2355.000000	10.130195
2354.000000	10.124008
2353.000000	10.112186
2352.000000	10.096166
2351.000000	10.088874
2350.000000	10.103016
2349.000000	10.113070
2348.000000	10.106220
2347.000000	10.112739
2346.000000	10.118042
2345.000000	10.131742
2344.000000	10.165881
2343.000000	10.190077
2342.000000	10.198805
2341.000000	10.218802
2340.000000	10.227199
2339.000000	10.248301
2338.000000	10.280121
2337.000000	10.286197
2336.000000	10.289733
2335.000000	10.289622
2334.000000	10.299234
2333.000000	10.299676
2332.000000	10.303764
2331.000000	10.292605
2330.000000	10.283766
2329.000000	10.263769
2328.000000	10.268299
2327.000000	10.260123
2326.000000	10.237032
2325.000000	10.216372
2324.000000	10.195270
2323.000000	10.163671
2322.000000	10.126880
2321.000000	10.097271
2320.000000	10.061695
2319.000000	10.008332
2318.000000	9.963918
2317.000000	9.920609
2316.000000	9.858517
2315.000000	9.803717
2314.000000	9.749360
2313.000000	9.714226
2312.000000	9.669812
2311.000000	9.627386
2310.000000	9.585182
2309.000000	9.526184
2308.000000	9.484532
2307.000000	9.452823
2306.000000	9.416695
2305.000000	9.408298
2304.000000	9.403437
2303.000000	9.392278
2302.000000	9.394930
2301.000000	9.410177
2300.000000	9.450945
2299.000000	9.466523
2298.000000	9.493149
2297.000000	9.541320
2296.000000	9.594131
2295.000000	9.639761
2294.000000	9.684064
2293.000000	9.719087
2292.000000	9.768805
2291.000000	9.794879
2290.000000	9.845038
2289.000000	9.857081
2288.000000	9.904257
2287.000000	9.914532
2286.000000	9.920388
2285.000000	9.940496
2284.000000	9.950991
2283.000000	9.949113
2282.000000	9.919946
2281.000000	9.916521
2280.000000	9.914421
2279.000000	9.897186
2278.000000	9.865367
2277.000000	9.839072
2276.000000	9.810236
2275.000000	9.792780
2274.000000	9.786261
2273.000000	9.761844
2272.000000	9.754221
2271.000000	9.750575
2270.000000	9.737759
2269.000000	9.752895
2268.000000	9.773666
2267.000000	9.817196
2266.000000	9.841945
2265.000000	9.904589
2264.000000	9.956074
2263.000000	10.025788
2262.000000	10.115390
2261.000000	10.228083
2260.000000	10.339008
2259.000000	10.467831
2258.000000	10.618309
2257.000000	10.743266
2256.000000	10.872641
2255.000000	11.034941
2254.000000	11.198456
2253.000000	11.348161
2252.000000	11.490131
2251.000000	11.619397
2250.000000	11.800920
2249.000000	11.941786
2248.000000	12.077460
2247.000000	12.191036
2246.000000	12.318865
2245.000000	12.435867
2244.000000	12.550769
2243.000000	12.658159
2242.000000	12.735607
2241.000000	12.798583
2240.000000	12.906635
2239.000000	12.986404
2238.000000	13.046175
2237.000000	13.089816
2236.000000	13.139754
2235.000000	13.181186
2234.000000	13.232118
2233.000000	13.252889
2232.000000	13.272224
2231.000000	13.283824
2230.000000	13.315533
2229.000000	13.322714
2228.000000	13.306473
2227.000000	13.310009
2226.000000	13.297303
2225.000000	13.315202
2224.000000	13.299844
2223.000000	13.268136
2222.000000	13.235764
2221.000000	13.206376
2220.000000	13.157432
2219.000000	13.150582
2218.000000	13.095340
2217.000000	13.039988
2216.000000	13.041425
2215.000000	12.980769
2214.000000	12.942542
2213.000000	12.942763
2212.000000	12.880893
2211.000000	12.834821
2210.000000	12.806648
2209.000000	12.787534
2208.000000	12.754610
2207.000000	12.725332
2206.000000	12.706771
2205.000000	12.674289
2204.000000	12.655839
2203.000000	12.623577
2202.000000	12.631311
2201.000000	12.590654
2200.000000	12.574523
2199.000000	12.546460
2198.000000	12.533423
2197.000000	12.536627
2196.000000	12.514310
2195.000000	12.494312
2194.000000	12.491992
2193.000000	12.476414
2192.000000	12.445147
2191.000000	12.424266
2190.000000	12.410456
2189.000000	12.393994
2188.000000	12.398965
2187.000000	12.374549
2186.000000	12.354220
2185.000000	12.340188
2184.000000	12.323837
2183.000000	12.323174
2182.000000	12.287819
2181.000000	12.316434
2180.000000	12.281632
2179.000000	12.261966
2178.000000	12.270584
2177.000000	12.240201
2176.000000	12.227054
2175.000000	12.214017
2174.000000	12.232688
2173.000000	12.224181
2172.000000	12.231915
2171.000000	12.227496
2170.000000	12.232025
2169.000000	12.235450
2168.000000	12.249703
2167.000000	12.250476
2166.000000	12.242521
2165.000000	12.259204
2164.000000	12.287488
2163.000000	12.293233
2162.000000	12.340630
2161.000000	12.347812
2160.000000	12.375985
2159.000000	12.382945
2158.000000	12.402943
2157.000000	12.456638
2156.000000	12.468570
2155.000000	12.513536
2154.000000	12.549996
2153.000000	12.601702
2152.000000	12.642691
2151.000000	12.672190
2150.000000	12.721686
2149.000000	12.758588
2148.000000	12.806869
2147.000000	12.849073
2146.000000	12.882771
2145.000000	12.938786
2144.000000	12.971710
2143.000000	13.008169
2142.000000	13.041646
2141.000000	13.082524
2140.000000	13.128927
2139.000000	13.168591
2138.000000	13.213668
2137.000000	13.223722
2136.000000	13.241509
2135.000000	13.276422
2134.000000	13.300728
2133.000000	13.339397
2132.000000	13.356964
2131.000000	13.382596
2130.000000	13.400274
2129.000000	13.418282
2128.000000	13.439053
2127.000000	13.464796
2126.000000	13.455405
2125.000000	13.453637
2124.000000	13.471867
2123.000000	13.462144
2122.000000	13.457946
2121.000000	13.451538
2120.000000	13.457835
2119.000000	13.436512
2118.000000	13.434081
2117.000000	13.418614
2116.000000	13.413642
2115.000000	13.405356
2114.000000	13.384143
2113.000000	13.379061
2112.000000	13.358842
2111.000000	13.323930
2110.000000	13.297414
2109.000000	13.283824
2108.000000	13.263606
2107.000000	13.232781
2106.000000	13.211900
2105.000000	13.195659
2104.000000	13.168591
2103.000000	13.127601
2102.000000	13.111029
2101.000000	13.091363
2100.000000	13.052473
2099.000000	13.024742
2098.000000	13.010379
2097.000000	13.004081
2096.000000	12.967622
2095.000000	12.937570
2094.000000	12.907298
2093.000000	12.882329
2092.000000	12.848742
2091.000000	12.821784
2090.000000	12.808195
2089.000000	12.786871
2088.000000	12.764664
2087.000000	12.742347
2086.000000	12.712295
2085.000000	12.684564
2084.000000	12.655397
2083.000000	12.625677
2082.000000	12.588333
2081.000000	12.549443
2080.000000	12.504256
2079.000000	12.467907
2078.000000	12.432663
2077.000000	12.372339
2076.000000	12.326599
2075.000000	12.275335
2074.000000	12.215232
2073.000000	12.163857
2072.000000	12.094142
2071.000000	12.039343
2070.000000	11.993382
2069.000000	11.929302
2068.000000	11.861686
2067.000000	11.796280
2066.000000	11.741480
2065.000000	11.680936
2064.000000	11.614425
2063.000000	11.559625
2062.000000	11.506483
2061.000000	11.450689
2060.000000	11.397215
2059.000000	11.346393
2058.000000	11.311370
2057.000000	11.278667
2056.000000	11.245632
2055.000000	11.232264
2054.000000	11.211493
2053.000000	11.212377
2052.000000	11.214587
2051.000000	11.218895
2050.000000	11.229060
2049.000000	11.254802
2048.000000	11.275684
2047.000000	11.308829
2046.000000	11.331478
2045.000000	11.382521
2044.000000	11.427929
2043.000000	11.467261
2042.000000	11.507919
2041.000000	11.547141
2040.000000	11.591444
2039.000000	11.646575
2038.000000	11.685797
2037.000000	11.708777
2036.000000	11.735735
2035.000000	11.768217
2034.000000	11.784127
2033.000000	11.811085
2032.000000	11.845445
2031.000000	11.862459
2030.000000	11.858924
2029.000000	11.870967
2028.000000	11.893837
2027.000000	11.888975
2026.000000	11.895052
2025.000000	11.887539
2024.000000	11.880800
2023.000000	11.886324
2022.000000	11.882346
2021.000000	11.885329
2020.000000	11.875165
2019.000000	11.874834
2018.000000	11.865884
2017.000000	11.853068
2016.000000	11.823238
2015.000000	11.805671
2014.000000	11.783133
2013.000000	11.787552
2012.000000	11.744353
2011.000000	11.717285
2010.000000	11.689995
2009.000000	11.667678
2008.000000	11.637405
2007.000000	11.596748
2006.000000	11.560178
2005.000000	11.523055
2004.000000	11.476984
2003.000000	11.450137
2002.000000	11.400640
2001.000000	11.345399
2000.000000	11.307834
1999.000000	11.270712
1998.000000	11.203428
1997.000000	11.144540
1996.000000	11.108412
1995.000000	11.055822
1994.000000	11.014944
1993.000000	10.945560
1992.000000	10.886783
1991.000000	10.839717
1990.000000	10.790442
1989.000000	10.737410
1988.000000	10.660403
1987.000000	10.612343
1986.000000	10.519316
1985.000000	10.494900
1984.000000	10.437117
1983.000000	10.386626
1982.000000	10.305532
1981.000000	10.241010
1980.000000	10.205876
1979.000000	10.144889
1978.000000	10.060038
1977.000000	10.022805
1976.000000	9.964581
1975.000000	9.917184
1974.000000	9.859069
1973.000000	9.793663
1972.000000	9.735881
1971.000000	9.697212
1970.000000	9.650146
1969.000000	9.599434
1968.000000	9.542646
1967.000000	9.515357
1966.000000	9.461662
1965.000000	9.409514
1964.000000	9.374933
1963.000000	9.317150
1962.000000	9.270747
1961.000000	9.224123
1960.000000	9.178273
1959.000000	9.130654
1958.000000	9.085025
1957.000000	9.051217
1956.000000	8.996970
1955.000000	8.965261
1954.000000	8.922062
1953.000000	8.890354
1952.000000	8.844945
1951.000000	8.809480
1950.000000	8.757884
1949.000000	8.749488
1948.000000	8.708499
1947.000000	8.704853
1946.000000	8.653367
1945.000000	8.636353
1944.000000	8.609174
1943.000000	8.590613
1942.000000	8.569732
1941.000000	8.544542
1940.000000	8.542774
1939.000000	8.512391
1938.000000	8.506756
1937.000000	8.513938
1936.000000	8.516479
1935.000000	8.514269
1934.000000	8.506314
1933.000000	8.525649
1932.000000	8.536808
1931.000000	8.557579
1930.000000	8.549292
1929.000000	8.590171
1928.000000	8.651047
1927.000000	8.701428
1926.000000	8.734131
1925.000000	8.769154
1924.000000	8.806718
1923.000000	8.873892
1922.000000	8.895436
1921.000000	9.009565
1920.000000	9.089555
1919.000000	9.142587
1918.000000	9.241911
1917.000000	9.302014
1916.000000	9.381893
1915.000000	9.451276
1914.000000	9.544303
1913.000000	9.674563
1912.000000	9.809352
1911.000000	9.943479
1910.000000	10.069429
1909.000000	10.185547
1908.000000	10.282220
1907.000000	10.406182
1906.000000	10.569034
1905.000000	10.764920
1904.000000	10.985224
1903.000000	11.186966
1902.000000	11.386277
1901.000000	11.586583
1900.000000	11.841578
1899.000000	12.054700
1898.000000	12.392005
1897.000000	12.653739
1896.000000	12.928953
1895.000000	13.185605
1894.000000	13.453858
1893.000000	13.771386
1892.000000	14.132998
1891.000000	14.539133
1890.000000	15.014211
1889.000000	15.463435
1888.000000	15.882608
1887.000000	16.333931
1886.000000	16.781609
1885.000000	17.299222
1884.000000	17.824348
1883.000000	18.401512
1882.000000	18.963760
1881.000000	19.513745
1880.000000	20.045500
1879.000000	20.547315
1878.000000	21.081279
1877.000000	21.577680
1876.000000	22.102143
1875.000000	22.633014
1874.000000	23.128973
1873.000000	23.621728
1872.000000	24.162874
1871.000000	24.661042
1870.000000	25.131700
1869.000000	25.617052
1868.000000	26.062299
1867.000000	26.413635
1866.000000	26.727628
1865.000000	26.991131
1864.000000	27.235077
1863.000000	27.462341
1862.000000	27.642649
1861.000000	27.875216
1860.000000	28.121041
1859.000000	28.363662
1858.000000	28.619872
1857.000000	28.814765
1856.000000	28.967231
1855.000000	29.080145
1854.000000	29.203776
1853.000000	29.345083
1852.000000	29.458771
1851.000000	29.534230
1850.000000	29.582401
1849.000000	29.608033
1848.000000	29.658082
1847.000000	29.795302
1846.000000	29.916281
1845.000000	29.942024
1844.000000	29.894074
1843.000000	29.837396
1842.000000	29.802042
1841.000000	29.856510
1840.000000	29.919706
1839.000000	29.943128
1838.000000	29.936389
1837.000000	29.925562
1836.000000	29.940477
1835.000000	29.940587
1834.000000	29.902139
1833.000000	29.839937
1832.000000	29.759947
1831.000000	29.698519
1830.000000	29.656977
1829.000000	29.636980
1828.000000	29.609801
1827.000000	29.559310
1826.000000	29.512244
1825.000000	29.476337
1824.000000	29.418334
1823.000000	29.357126
1822.000000	29.292273
1821.000000	29.277026
1820.000000	29.312159
1819.000000	29.332488
1818.000000	29.301553
1817.000000	29.230733
1816.000000	29.188197
1815.000000	29.151407
1814.000000	29.134834
1813.000000	29.119808
1812.000000	29.082686
1811.000000	29.040261
1810.000000	29.015954
1809.000000	28.989217
1808.000000	28.936185
1807.000000	28.879397
1806.000000	28.845258
1805.000000	28.803716
1804.000000	28.753115
1803.000000	28.706381
1802.000000	28.658541
1801.000000	28.611918
1800.000000	28.573138
1799.000000	28.525741
1798.000000	28.477239
1797.000000	28.420671
1796.000000	28.359353
1795.000000	28.324772
1794.000000	28.282457
1793.000000	28.227436
1792.000000	28.177830
1791.000000	28.127228
1790.000000	28.087454
1789.000000	28.045360
1788.000000	28.009895
1787.000000	27.973546
1786.000000	27.923166
1785.000000	27.890905
1784.000000	27.863837
1783.000000	27.825941
1782.000000	27.779648
1781.000000	27.713469
1780.000000	27.669939
1779.000000	27.641103
1778.000000	27.590170
1777.000000	27.534818
1776.000000	27.479355
1775.000000	27.407099
1774.000000	27.339705
1773.000000	27.290098
1772.000000	27.229443
1771.000000	27.161606
1770.000000	27.086809
1769.000000	27.011901
1768.000000	26.948263
1767.000000	26.879874
1766.000000	26.815021
1765.000000	26.764972
1764.000000	26.709951
1763.000000	26.671613
1762.000000	26.650843
1761.000000	26.643330
1760.000000	26.647418
1759.000000	26.676254
1758.000000	26.717685
1757.000000	26.760773
1756.000000	26.812700
1755.000000	26.877333
1754.000000	26.925393
1753.000000	26.970360
1752.000000	27.012233
1751.000000	27.036429
1750.000000	27.059409
1749.000000	27.058746
1748.000000	27.064602
1747.000000	27.053001
1746.000000	27.016431
1745.000000	26.976657
1744.000000	26.915781
1743.000000	26.849933
1742.000000	26.780329
1741.000000	26.658466
1740.000000	26.549972
1739.000000	26.426672
1738.000000	26.296413
1737.000000	26.175986
1736.000000	26.055118
1735.000000	25.939442
1734.000000	25.849509
1733.000000	25.788854
1732.000000	25.741346
1731.000000	25.712399
1730.000000	25.722453
1729.000000	25.743224
1728.000000	25.787196
1727.000000	25.856359
1726.000000	25.893039
1725.000000	25.959218
1724.000000	26.022636
1723.000000	26.086053
1722.000000	26.150907
1721.000000	26.208910
1720.000000	26.299285
1719.000000	26.403471
1718.000000	26.496608
1717.000000	26.596043
1716.000000	26.708736
1715.000000	26.834024
1714.000000	26.934342
1713.000000	27.069463
1712.000000	27.190995
1711.000000	27.281259
1710.000000	27.371524
1709.000000	27.443006
1708.000000	27.502999
1707.000000	27.549402
1706.000000	27.573156
1705.000000	27.570946
1704.000000	27.548407
1703.000000	27.511616
1702.000000	27.471732
1701.000000	27.390969
1700.000000	27.323906
1699.000000	27.234967
1698.000000	27.132659
1697.000000	27.033225
1696.000000	26.932022
1695.000000	26.870925
1694.000000	26.817451
1693.000000	26.794360
1692.000000	26.799000
1691.000000	26.861976
1690.000000	26.937657
1689.000000	27.024607
1688.000000	27.134206
1687.000000	27.253196
1686.000000	27.379368
1685.000000	27.505208
1684.000000	27.597793
1683.000000	27.748271
1682.000000	27.944047
1681.000000	28.182249
1680.000000	28.462434
1679.000000	28.799076
1678.000000	29.132182
1677.000000	29.534672
1676.000000	29.900040
1675.000000	30.273031
1674.000000	30.636962
1673.000000	30.923445
1672.000000	31.220423
1671.000000	31.492764
1670.000000	31.717266
1669.000000	31.942762
1668.000000	32.141632
1667.000000	32.352323
1666.000000	32.479820
1665.000000	32.605661
1664.000000	32.708078
1663.000000	32.822870
1662.000000	32.911036
1661.000000	32.978430
1660.000000	33.082285
1659.000000	33.131781
1658.000000	33.191331
1657.000000	33.219284
1656.000000	33.259389
1655.000000	33.297948
1654.000000	33.309659
1653.000000	33.290214
1652.000000	33.295186
1651.000000	33.299826
1650.000000	33.268780
1649.000000	33.230332
1648.000000	33.198292
1647.000000	33.179841
1646.000000	33.123716
1645.000000	33.082947
1644.000000	33.012017
1643.000000	32.968156
1642.000000	32.918659
1641.000000	32.843199
1640.000000	32.801878
1639.000000	32.755034
1638.000000	32.709404
1637.000000	32.650185
1636.000000	32.573620
1635.000000	32.516832
1634.000000	32.465347
1633.000000	32.389224
1632.000000	32.306583
1631.000000	32.242503
1630.000000	32.163618
1629.000000	32.088931
1628.000000	31.994689
1627.000000	31.914699
1626.000000	31.806647
1625.000000	31.718371
1624.000000	31.656390
1623.000000	31.556844
1622.000000	31.469673
1621.000000	31.373001
1620.000000	31.306379
1619.000000	31.215120
1618.000000	31.140323
1617.000000	31.032713
1616.000000	30.960125
1615.000000	30.891736
1614.000000	30.806222
1613.000000	30.717725
1612.000000	30.639835
1611.000000	30.533550
1610.000000	30.467371
1609.000000	30.367163
1608.000000	30.290598
1607.000000	30.189506
1606.000000	30.090623
1605.000000	29.999585
1604.000000	29.908547
1603.000000	29.813200
1602.000000	29.705700
1601.000000	29.616982
1600.000000	29.518984
1599.000000	29.411815
1598.000000	29.312933
