PE UV       SUBTECH     SPECTRUM    ASCII       PEDS        4.00        
   -1
CICIMAUCR0233-3.Sample.ASC
24/06/13
17:34:49.00
24/06/13
17:34:49.00
Vinicio Soto Monge
C. resplendens. Sex F. Dorsal.
250,000000
1
Lambda 1050
1050L1511233
PerkinElmer UV WinLab 6.3.2.0749 / 2.02.05 Lambda 900 UV/VIS/NIR, Aug  7 2015 09:38:08

0
0
3350/servo 860,8/2
0
0
UV/VIS
1
1
1
DoubleDePol,CommonBeamDepol,RBeamAtt,SBeamAtt,60mm sphere, WB InGaAs Detector
0
0
0
0
Program
Program
3350/servo 860,8/2
3350/0,2 860,8/0,2
3350/0,2 860,8/0,2
0
15.00
 
 
 
0
 
860,8
319,2
860,8
Front
100
on
S:100 R:100
0
0
0
0
 
0
 
 
 
0
 
 
0
0
0
0
0
 
 
 
 
0
0


0
0
#HDR
-1
-1
#GR
nm
%R
1.0
0.0
2500,000000
-1,000000
2251
8
88,468100
5,541400
#DATA
2482.000000	6.133591
2481.000000	6.135189
2480.000000	6.168745
2479.000000	6.089915
2478.000000	6.018010
2477.000000	6.089915
2476.000000	6.090448
2475.000000	6.142859
2474.000000	6.128691
2473.000000	6.064029
2472.000000	6.133058
2471.000000	6.101633
2470.000000	6.064029
2469.000000	6.081500
2468.000000	6.098331
2467.000000	6.102166
2466.000000	6.071699
2465.000000	6.102485
2464.000000	6.068077
2463.000000	6.131034
2462.000000	6.104722
2461.000000	6.097905
2460.000000	6.147972
2459.000000	6.155003
2458.000000	6.164697
2457.000000	6.171728
2456.000000	6.214338
2455.000000	6.229465
2454.000000	6.226269
2453.000000	6.265152
2452.000000	6.283687
2451.000000	6.273780
2450.000000	6.292955
2449.000000	6.280491
2448.000000	6.314899
2447.000000	6.337909
2446.000000	6.384355
2445.000000	6.384248
2444.000000	6.428137
2443.000000	6.455089
2442.000000	6.462226
2441.000000	6.469683
2440.000000	6.484596
2439.000000	6.551176
2438.000000	6.578766
2437.000000	6.602948
2436.000000	6.625318
2435.000000	6.632242
2434.000000	6.659620
2433.000000	6.681138
2432.000000	6.712457
2431.000000	6.732164
2430.000000	6.750700
2429.000000	6.749635
2428.000000	6.757092
2427.000000	6.791713
2426.000000	6.825162
2425.000000	6.851155
2424.000000	6.877467
2423.000000	6.876508
2422.000000	6.906655
2421.000000	6.925830
2420.000000	6.961197
2419.000000	6.958001
2418.000000	6.965777
2417.000000	6.979732
2416.000000	7.007429
2415.000000	7.017656
2414.000000	7.043648
2413.000000	7.068575
2412.000000	7.080400
2411.000000	7.092011
2410.000000	7.102557
2409.000000	7.117578
2408.000000	7.139735
2407.000000	7.151773
2406.000000	7.169776
2405.000000	7.187566
2404.000000	7.200136
2403.000000	7.223572
2402.000000	7.231774
2401.000000	7.234331
2400.000000	7.251056
2399.000000	7.253612
2398.000000	7.260536
2397.000000	7.278646
2396.000000	7.283653
2395.000000	7.290577
2394.000000	7.296542
2393.000000	7.308687
2392.000000	7.316356
2391.000000	7.335957
2390.000000	7.347995
2389.000000	7.348314
2388.000000	7.346184
2387.000000	7.364080
2386.000000	7.385173
2385.000000	7.393162
2384.000000	7.401258
2383.000000	7.404241
2382.000000	7.405413
2381.000000	7.406691
2380.000000	7.394973
2379.000000	7.393056
2378.000000	7.414787
2377.000000	7.428209
2376.000000	7.425866
2375.000000	7.422457
2374.000000	7.419581
2373.000000	7.424694
2372.000000	7.414148
2371.000000	7.408289
2370.000000	7.424481
2369.000000	7.416385
2368.000000	7.398915
2367.000000	7.409674
2366.000000	7.404561
2365.000000	7.389114
2364.000000	7.377609
2363.000000	7.365465
2362.000000	7.355665
2361.000000	7.342136
2360.000000	7.323813
2359.000000	7.319446
2358.000000	7.304852
2357.000000	7.280244
2356.000000	7.280244
2355.000000	7.288873
2354.000000	7.256382
2353.000000	7.237314
2352.000000	7.231561
2351.000000	7.224317
2350.000000	7.231135
2349.000000	7.238272
2348.000000	7.237846
2347.000000	7.238912
2346.000000	7.254997
2345.000000	7.254038
2344.000000	7.258939
2343.000000	7.286316
2342.000000	7.291323
2341.000000	7.298140
2340.000000	7.316569
2339.000000	7.334892
2338.000000	7.360991
2337.000000	7.366744
2336.000000	7.375479
2335.000000	7.389434
2334.000000	7.381338
2333.000000	7.363548
2332.000000	7.372922
2331.000000	7.367170
2330.000000	7.355026
2329.000000	7.365891
2328.000000	7.345012
2327.000000	7.326476
2326.000000	7.314226
2325.000000	7.293453
2324.000000	7.276622
2323.000000	7.246795
2322.000000	7.218458
2321.000000	7.175209
2320.000000	7.150281
2319.000000	7.126419
2318.000000	7.090626
2317.000000	7.055899
2316.000000	7.008388
2315.000000	6.968973
2314.000000	6.920184
2313.000000	6.849131
2312.000000	6.807798
2311.000000	6.776160
2310.000000	6.745161
2309.000000	6.695093
2308.000000	6.667609
2307.000000	6.656211
2306.000000	6.641297
2305.000000	6.602095
2304.000000	6.584305
2303.000000	6.587714
2302.000000	6.601030
2301.000000	6.607741
2300.000000	6.634799
2299.000000	6.648647
2298.000000	6.663135
2297.000000	6.711498
2296.000000	6.716398
2295.000000	6.746013
2294.000000	6.794482
2293.000000	6.822925
2292.000000	6.847320
2291.000000	6.872353
2290.000000	6.897920
2289.000000	6.919651
2288.000000	6.937761
2287.000000	6.954485
2286.000000	6.944152
2285.000000	6.959386
2284.000000	6.948094
2283.000000	6.930837
2282.000000	6.929132
2281.000000	6.909957
2280.000000	6.888758
2279.000000	6.875762
2278.000000	6.850409
2277.000000	6.842313
2276.000000	6.825482
2275.000000	6.800235
2274.000000	6.761033
2273.000000	6.757198
2272.000000	6.756452
2271.000000	6.768383
2270.000000	6.759542
2269.000000	6.740580
2268.000000	6.728116
2267.000000	6.757837
2266.000000	6.779249
2265.000000	6.797785
2264.000000	6.835176
2263.000000	6.883965
2262.000000	6.935417
2261.000000	7.014673
2260.000000	7.070173
2259.000000	7.138990
2258.000000	7.234331
2257.000000	7.304425
2256.000000	7.412124
2255.000000	7.516733
2254.000000	7.608879
2253.000000	7.694952
2252.000000	7.794448
2251.000000	7.887872
2250.000000	7.985770
2249.000000	8.064280
2248.000000	8.163243
2247.000000	8.270409
2246.000000	8.324098
2245.000000	8.395152
2244.000000	8.476858
2243.000000	8.536406
2242.000000	8.597552
2241.000000	8.664558
2240.000000	8.702694
2239.000000	8.748820
2238.000000	8.781950
2237.000000	8.818276
2236.000000	8.865254
2235.000000	8.879528
2234.000000	8.932685
2233.000000	8.959317
2232.000000	8.972313
2231.000000	9.003312
2230.000000	9.009597
2229.000000	9.053486
2228.000000	9.044964
2227.000000	9.051569
2226.000000	9.045603
2225.000000	9.054126
2224.000000	9.037720
2223.000000	9.062754
2222.000000	9.061902
2221.000000	9.043793
2220.000000	9.043260
2219.000000	9.017800
2218.000000	9.010343
2217.000000	9.010130
2216.000000	8.985203
2215.000000	8.971461
2214.000000	8.954310
2213.000000	8.932366
2212.000000	8.915961
2211.000000	8.894229
2210.000000	8.889968
2209.000000	8.888796
2208.000000	8.879209
2207.000000	8.857371
2206.000000	8.860460
2205.000000	8.832231
2204.000000	8.819021
2203.000000	8.806451
2202.000000	8.805705
2201.000000	8.783228
2200.000000	8.778435
2199.000000	8.772469
2198.000000	8.755958
2197.000000	8.780246
2196.000000	8.758195
2195.000000	8.728687
2194.000000	8.726237
2193.000000	8.716543
2192.000000	8.708766
2191.000000	8.695663
2190.000000	8.702588
2189.000000	8.720910
2188.000000	8.696835
2187.000000	8.666049
2186.000000	8.676382
2185.000000	8.672334
2184.000000	8.662427
2183.000000	8.646661
2182.000000	8.652307
2181.000000	8.642081
2180.000000	8.636435
2179.000000	8.622586
2178.000000	8.633665
2177.000000	8.636541
2176.000000	8.597765
2175.000000	8.608844
2174.000000	8.618325
2173.000000	8.626741
2172.000000	8.626741
2171.000000	8.634411
2170.000000	8.624184
2169.000000	8.621308
2168.000000	8.624823
2167.000000	8.637180
2166.000000	8.641867
2165.000000	8.668925
2164.000000	8.663705
2163.000000	8.685117
2162.000000	8.709192
2161.000000	8.699072
2160.000000	8.740085
2159.000000	8.752016
2158.000000	8.780352
2157.000000	8.794840
2156.000000	8.809221
2155.000000	8.824454
2154.000000	8.825200
2153.000000	8.859714
2152.000000	8.876865
2151.000000	8.911060
2150.000000	8.921606
2149.000000	8.922352
2148.000000	8.958784
2147.000000	8.979663
2146.000000	8.972420
2145.000000	8.992234
2144.000000	9.008639
2143.000000	9.042727
2142.000000	9.044006
2141.000000	9.053380
2140.000000	9.074792
2139.000000	9.084379
2138.000000	9.086403
2137.000000	9.098760
2136.000000	9.110159
2135.000000	9.120172
2134.000000	9.127522
2133.000000	9.120811
2132.000000	9.117189
2131.000000	9.136045
2130.000000	9.110052
2129.000000	9.118787
2128.000000	9.123368
2127.000000	9.105471
2126.000000	9.100252
2125.000000	9.105045
2124.000000	9.093540
2123.000000	9.077668
2122.000000	9.051675
2121.000000	9.043686
2120.000000	9.043260
2119.000000	9.029731
2118.000000	8.997134
2117.000000	8.985522
2116.000000	8.972100
2115.000000	8.956547
2114.000000	8.914789
2113.000000	8.896573
2112.000000	8.871539
2111.000000	8.857797
2110.000000	8.839368
2109.000000	8.804960
2108.000000	8.779287
2107.000000	8.770126
2106.000000	8.755425
2105.000000	8.733480
2104.000000	8.706636
2103.000000	8.675743
2102.000000	8.640270
2101.000000	8.636115
2100.000000	8.615023
2099.000000	8.581041
2098.000000	8.580508
2097.000000	8.553983
2096.000000	8.521918
2095.000000	8.511053
2094.000000	8.506153
2093.000000	8.494328
2092.000000	8.470147
2091.000000	8.453528
2090.000000	8.425938
2089.000000	8.402822
2088.000000	8.390358
2087.000000	8.363513
2086.000000	8.351902
2085.000000	8.352967
2084.000000	8.331768
2083.000000	8.298532
2082.000000	8.281381
2081.000000	8.265722
2080.000000	8.244843
2079.000000	8.235255
2078.000000	8.211713
2077.000000	8.180074
2076.000000	8.142897
2075.000000	8.116158
2074.000000	8.109767
2073.000000	8.084733
2072.000000	8.057675
2071.000000	8.025930
2070.000000	7.997488
2069.000000	7.970324
2068.000000	7.944970
2067.000000	7.926221
2066.000000	7.887126
2065.000000	7.856873
2064.000000	7.836206
2063.000000	7.808403
2062.000000	7.783902
2061.000000	7.766432
2060.000000	7.740119
2059.000000	7.704326
2058.000000	7.691224
2057.000000	7.674606
2056.000000	7.654792
2055.000000	7.629971
2054.000000	7.619957
2053.000000	7.626669
2052.000000	7.625923
2051.000000	7.618892
2050.000000	7.614311
2049.000000	7.624112
2048.000000	7.628906
2047.000000	7.637854
2046.000000	7.659372
2045.000000	7.668747
2044.000000	7.672901
2043.000000	7.683660
2042.000000	7.704540
2041.000000	7.721584
2040.000000	7.745765
2039.000000	7.761638
2038.000000	7.769521
2037.000000	7.792104
2036.000000	7.804675
2035.000000	7.797963
2034.000000	7.801905
2033.000000	7.811918
2032.000000	7.835035
2031.000000	7.850375
2030.000000	7.843450
2029.000000	7.826726
2028.000000	7.828110
2027.000000	7.836526
2026.000000	7.845261
2025.000000	7.834076
2024.000000	7.836846
2023.000000	7.848564
2022.000000	7.811492
2021.000000	7.805314
2020.000000	7.787098
2019.000000	7.797963
2018.000000	7.796898
2017.000000	7.769734
2016.000000	7.743102
2015.000000	7.740972
2014.000000	7.735965
2013.000000	7.735965
2012.000000	7.702835
2011.000000	7.688880
2010.000000	7.664912
2009.000000	7.660864
2008.000000	7.626456
2007.000000	7.595563
2006.000000	7.584058
2005.000000	7.562646
2004.000000	7.547626
2003.000000	7.511939
2002.000000	7.486586
2001.000000	7.460061
2000.000000	7.440140
1999.000000	7.398808
1998.000000	7.371750
1997.000000	7.354386
1996.000000	7.308473
1995.000000	7.277261
1994.000000	7.252334
1993.000000	7.218139
1992.000000	7.204077
1991.000000	7.173078
1990.000000	7.150175
1989.000000	7.130041
1988.000000	7.072197
1987.000000	7.036511
1986.000000	7.025006
1985.000000	6.993474
1984.000000	6.950544
1983.000000	6.920823
1982.000000	6.909957
1981.000000	6.872673
1980.000000	6.858611
1979.000000	6.802791
1978.000000	6.769449
1977.000000	6.748676
1976.000000	6.708089
1975.000000	6.680499
1974.000000	6.653548
1973.000000	6.645984
1972.000000	6.614346
1971.000000	6.574718
1970.000000	6.550643
1969.000000	6.510695
1968.000000	6.485236
1967.000000	6.461800
1966.000000	6.461480
1965.000000	6.439216
1964.000000	6.412691
1963.000000	6.385846
1962.000000	6.350586
1961.000000	6.351119
1960.000000	6.339081
1959.000000	6.297642
1958.000000	6.279426
1957.000000	6.243740
1956.000000	6.239692
1955.000000	6.226269
1954.000000	6.190370
1953.000000	6.181102
1952.000000	6.181848
1951.000000	6.156494
1950.000000	6.154577
1949.000000	6.115908
1948.000000	6.106107
1947.000000	6.091726
1946.000000	6.102059
1945.000000	6.088211
1944.000000	6.061366
1943.000000	6.073191
1942.000000	6.055081
1941.000000	6.032284
1940.000000	6.033882
1939.000000	6.052631
1938.000000	6.054016
1937.000000	6.050074
1936.000000	6.032817
1935.000000	6.042830
1934.000000	6.041339
1933.000000	6.024082
1932.000000	6.075428
1931.000000	6.061046
1930.000000	6.087678
1929.000000	6.077345
1928.000000	6.101100
1927.000000	6.127839
1926.000000	6.140196
1925.000000	6.177480
1924.000000	6.204538
1923.000000	6.198359
1922.000000	6.227122
1921.000000	6.277935
1920.000000	6.305632
1919.000000	6.346644
1918.000000	6.384568
1917.000000	6.427818
1916.000000	6.461374
1915.000000	6.480655
1914.000000	6.545423
1913.000000	6.602415
1912.000000	6.662709
1911.000000	6.713522
1910.000000	6.785960
1909.000000	6.814403
1908.000000	6.869264
1907.000000	6.954272
1906.000000	7.023195
1905.000000	7.148470
1904.000000	7.216648
1903.000000	7.337875
1902.000000	7.420966
1901.000000	7.519396
1900.000000	7.638386
1899.000000	7.769201
1898.000000	7.923665
1897.000000	8.060552
1896.000000	8.189981
1895.000000	8.337840
1894.000000	8.496246
1893.000000	8.660084
1892.000000	8.852684
1891.000000	9.092475
1890.000000	9.347500
1889.000000	9.609875
1888.000000	9.861384
1887.000000	10.133560
1886.000000	10.409890
1885.000000	10.690268
1884.000000	11.024442
1883.000000	11.375448
1882.000000	11.741580
1881.000000	12.094183
1880.000000	12.442738
1879.000000	12.795980
1878.000000	13.123337
1877.000000	13.502039
1876.000000	13.864017
1875.000000	14.244530
1874.000000	14.607786
1873.000000	14.955702
1872.000000	15.315016
1871.000000	15.645781
1870.000000	15.966213
1869.000000	16.269282
1868.000000	16.565958
1867.000000	16.801808
1866.000000	16.993769
1865.000000	17.168047
1864.000000	17.366719
1863.000000	17.543234
1862.000000	17.716766
1861.000000	17.890298
1860.000000	18.051366
1859.000000	18.186122
1858.000000	18.355286
1857.000000	18.478538
1856.000000	18.582295
1855.000000	18.674760
1854.000000	18.762538
1853.000000	18.839450
1852.000000	18.889198
1851.000000	18.944059
1850.000000	19.015219
1849.000000	19.056232
1848.000000	19.102251
1847.000000	19.139962
1846.000000	19.175648
1845.000000	19.182679
1844.000000	19.159882
1843.000000	19.140601
1842.000000	19.161161
1841.000000	19.207287
1840.000000	19.230509
1839.000000	19.227420
1838.000000	19.223798
1837.000000	19.208245
1836.000000	19.197167
1835.000000	19.175648
1834.000000	19.162332
1833.000000	19.120361
1832.000000	19.081905
1831.000000	19.063263
1830.000000	19.031624
1829.000000	18.991464
1828.000000	18.948001
1827.000000	18.921689
1826.000000	18.885896
1825.000000	18.843711
1824.000000	18.792578
1823.000000	18.763816
1822.000000	18.764349
1821.000000	18.740274
1820.000000	18.724721
1819.000000	18.707677
1818.000000	18.669220
1817.000000	18.632149
1816.000000	18.611803
1815.000000	18.602961
1814.000000	18.575584
1813.000000	18.554278
1812.000000	18.551402
1811.000000	18.537447
1810.000000	18.498458
1809.000000	18.465648
1808.000000	18.440721
1807.000000	18.413663
1806.000000	18.382131
1805.000000	18.345379
1804.000000	18.304473
1803.000000	18.265804
1802.000000	18.230650
1801.000000	18.207427
1800.000000	18.171528
1799.000000	18.124976
1798.000000	18.089716
1797.000000	18.039648
1796.000000	17.998103
1795.000000	17.970299
1794.000000	17.942283
1793.000000	17.915225
1792.000000	17.877088
1791.000000	17.828512
1790.000000	17.796022
1789.000000	17.762466
1788.000000	17.719535
1787.000000	17.681825
1786.000000	17.652743
1785.000000	17.624940
1784.000000	17.589999
1783.000000	17.558148
1782.000000	17.530770
1781.000000	17.491355
1780.000000	17.442460
1779.000000	17.414869
1778.000000	17.366613
1777.000000	17.317930
1776.000000	17.289487
1775.000000	17.256464
1774.000000	17.205438
1773.000000	17.162295
1772.000000	17.124797
1771.000000	17.071960
1770.000000	17.014755
1769.000000	16.957976
1768.000000	16.910359
1767.000000	16.876910
1766.000000	16.818853
1765.000000	16.767933
1764.000000	16.742899
1763.000000	16.718718
1762.000000	16.722020
1761.000000	16.749291
1760.000000	16.755682
1759.000000	16.783060
1758.000000	16.818107
1757.000000	16.858907
1756.000000	16.921864
1755.000000	16.957870
1754.000000	17.015927
1753.000000	17.074197
1752.000000	17.109777
1751.000000	17.148446
1750.000000	17.160164
1749.000000	17.171775
1748.000000	17.167088
1747.000000	17.165384
1746.000000	17.152388
1745.000000	17.134917
1744.000000	17.095928
1743.000000	17.046394
1742.000000	16.987804
1741.000000	16.928256
1740.000000	16.832062
1739.000000	16.737466
1738.000000	16.630087
1737.000000	16.528141
1736.000000	16.432694
1735.000000	16.345768
1734.000000	16.260440
1733.000000	16.201531
1732.000000	16.186191
1731.000000	16.181930
1730.000000	16.187789
1729.000000	16.212077
1728.000000	16.258096
1727.000000	16.307844
1726.000000	16.350135
1725.000000	16.430883
1724.000000	16.477115
1723.000000	16.531763
1722.000000	16.595466
1721.000000	16.624229
1720.000000	16.650967
1719.000000	16.701354
1718.000000	16.753765
1717.000000	16.817574
1716.000000	16.864020
1715.000000	16.916538
1714.000000	16.985460
1713.000000	17.057153
1712.000000	17.122454
1711.000000	17.185091
1710.000000	17.231963
1709.000000	17.258382
1708.000000	17.282031
1707.000000	17.301631
1706.000000	17.296944
1705.000000	17.294494
1704.000000	17.257849
1703.000000	17.218008
1702.000000	17.171243
1701.000000	17.104983
1700.000000	17.040109
1699.000000	16.952650
1698.000000	16.878081
1697.000000	16.770277
1696.000000	16.701673
1695.000000	16.628490
1694.000000	16.590673
1693.000000	16.577463
1692.000000	16.579061
1691.000000	16.631685
1690.000000	16.699010
1689.000000	16.765696
1688.000000	16.830251
1687.000000	16.926125
1686.000000	16.975660
1685.000000	17.015607
1684.000000	17.060988
1683.000000	17.146955
1682.000000	17.233241
1681.000000	17.376200
1680.000000	17.546110
1679.000000	17.778232
1678.000000	18.053070
1677.000000	18.319707
1676.000000	18.585704
1675.000000	18.899105
1674.000000	19.142092
1673.000000	19.350458
1672.000000	19.556161
1671.000000	19.770280
1670.000000	19.902160
1669.000000	20.048314
1668.000000	20.160061
1667.000000	20.236760
1666.000000	20.329971
1665.000000	20.390371
1664.000000	20.458549
1663.000000	20.522997
1662.000000	20.559216
1661.000000	20.606088
1660.000000	20.646248
1659.000000	20.671921
1658.000000	20.704732
1657.000000	20.718687
1656.000000	20.743614
1655.000000	20.742549
1654.000000	20.732855
1653.000000	20.749899
1652.000000	20.739246
1651.000000	20.711336
1650.000000	20.698660
1649.000000	20.684065
1648.000000	20.632613
1647.000000	20.613864
1646.000000	20.588085
1645.000000	20.554103
1644.000000	20.512131
1643.000000	20.474421
1642.000000	20.413275
1641.000000	20.397189
1640.000000	20.345311
1639.000000	20.301848
1638.000000	20.278092
1637.000000	20.213644
1636.000000	20.163470
1635.000000	20.103495
1634.000000	20.067276
1633.000000	20.014545
1632.000000	19.933266
1631.000000	19.890442
1630.000000	19.825141
1629.000000	19.764634
1628.000000	19.713182
1627.000000	19.660451
1626.000000	19.601116
1625.000000	19.531234
1624.000000	19.496826
1623.000000	19.402124
1622.000000	19.340232
1621.000000	19.299006
1620.000000	19.252454
1619.000000	19.202386
1618.000000	19.128776
1617.000000	19.081905
1616.000000	19.013195
1615.000000	18.949599
1614.000000	18.914658
1613.000000	18.876521
1612.000000	18.827839
1611.000000	18.751459
1610.000000	18.708316
1609.000000	18.652815
1608.000000	18.582827
1607.000000	18.528286
1606.000000	18.477579
1605.000000	18.428364
1604.000000	18.375633
1603.000000	18.304154
1602.000000	18.272409
1601.000000	18.206149
1600.000000	18.152140
1599.000000	18.109423
1598.000000	18.032511
1597.000000	17.973282
1596.000000	17.936743
1595.000000	17.867927
1594.000000	17.829364
1593.000000	17.784623
1592.000000	17.716340
1591.000000	17.658815
1590.000000	17.627070
1589.000000	17.585099
1588.000000	17.528640
1587.000000	17.462806
1586.000000	17.415295
1585.000000	17.365974
1584.000000	17.329222
1583.000000	17.287570
1582.000000	17.234094
1581.000000	17.186796
1580.000000	17.154305
