PE UV       SUBTECH     SPECTRUM    ASCII       PEDS        4.00        
   -1
CICIMAUCR0018-5.Sample.ASC
24/04/25
10:17:18.00
24/04/25
10:17:18.00
Vinicio Soto Monge
C. cupreomarginata
250,000000
1
Lambda 1050
1050L1511233
PerkinElmer UV WinLab 6.3.2.0749 / 2.02.05 Lambda 900 UV/VIS/NIR, Aug  7 2015 09:38:08

0
0
3350/servo 860,8/2
0
0
UV/VIS
1
1
1
DoubleDePol,CommonBeamDepol,RBeamAtt,SBeamAtt,60mm sphere, WB InGaAs Detector
0
0
0
0
Program
Program
3350/servo 860,8/2
3350/0,2 860,8/0,2
3350/0,2 860,8/0,2
0
15.00
 
 
 
0
 
860,8
319,2
860,8
Front
100
on
S:100 R:100
0
0
0
0
 
0
 
 
 
0
 
 
0
0
0
0
0
 
 
 
 
0
0


0
0
#HDR
-1
-1
#GR
nm
%R
1.0
0.0
2500,000000
-1,000000
2251
8
70,377300
5,315300
#DATA
2482.000000	8.366986
2481.000000	8.396520
2480.000000	8.312254
2479.000000	8.303347
2478.000000	8.278500
2477.000000	8.378237
2476.000000	8.303933
2475.000000	8.340850
2474.000000	8.388785
2473.000000	8.312605
2472.000000	8.316824
2471.000000	8.329599
2470.000000	8.359368
2469.000000	8.332881
2468.000000	8.360305
2467.000000	8.366751
2466.000000	8.325966
2465.000000	8.377299
2464.000000	8.432032
2463.000000	8.444103
2462.000000	8.477856
2461.000000	8.497898
2460.000000	8.572202
2459.000000	8.571968
2458.000000	8.599041
2457.000000	8.652249
2456.000000	8.698543
2455.000000	8.755268
2454.000000	8.811875
2453.000000	8.871881
2452.000000	8.930481
2451.000000	8.986619
2450.000000	9.032679
2449.000000	9.090692
2448.000000	9.143198
2447.000000	9.241294
2446.000000	9.280673
2445.000000	9.316653
2444.000000	9.409592
2443.000000	9.462449
2442.000000	9.538160
2441.000000	9.578945
2440.000000	9.655125
2439.000000	9.707865
2438.000000	9.773145
2437.000000	9.811235
2436.000000	9.864912
2435.000000	9.907573
2434.000000	9.973790
2433.000000	10.029812
2432.000000	10.069425
2431.000000	10.100483
2430.000000	10.149003
2429.000000	10.171740
2428.000000	10.229051
2427.000000	10.285658
2426.000000	10.320935
2425.000000	10.343086
2424.000000	10.363127
2423.000000	10.380355
2422.000000	10.420086
2421.000000	10.464973
2420.000000	10.496851
2419.000000	10.498727
2418.000000	10.531894
2417.000000	10.560256
2416.000000	10.582290
2415.000000	10.608308
2414.000000	10.633740
2413.000000	10.670189
2412.000000	10.718827
2411.000000	10.812001
2410.000000	10.883727
2409.000000	10.978072
2408.000000	11.040071
2407.000000	11.067144
2406.000000	11.074293
2405.000000	11.111680
2404.000000	11.151410
2403.000000	11.214698
2402.000000	11.268493
2401.000000	11.276462
2400.000000	11.309278
2399.000000	11.351704
2398.000000	11.410304
2397.000000	11.449800
2396.000000	11.481678
2395.000000	11.515901
2394.000000	11.543091
2393.000000	11.600519
2392.000000	11.621614
2391.000000	11.637788
2390.000000	11.676581
2389.000000	11.705646
2388.000000	11.712678
2387.000000	11.750768
2386.000000	11.774091
2385.000000	11.784756
2384.000000	11.796828
2383.000000	11.789679
2382.000000	11.804563
2381.000000	11.826831
2380.000000	11.823198
2379.000000	11.824252
2378.000000	11.831284
2377.000000	11.834214
2376.000000	11.811946
2375.000000	11.822963
2374.000000	11.834683
2373.000000	11.819564
2372.000000	11.801633
2371.000000	11.792960
2370.000000	11.791436
2369.000000	11.757683
2368.000000	11.733423
2367.000000	11.724633
2366.000000	11.682910
2365.000000	11.631342
2364.000000	11.609074
2363.000000	11.575438
2362.000000	11.530785
2361.000000	11.520589
2360.000000	11.491054
2359.000000	11.442534
2358.000000	11.398115
2357.000000	11.385106
2356.000000	11.386864
2355.000000	11.369284
2354.000000	11.372683
2353.000000	11.378894
2352.000000	11.397295
2351.000000	11.410655
2350.000000	11.443237
2349.000000	11.497852
2348.000000	11.530551
2347.000000	11.586103
2346.000000	11.633686
2345.000000	11.668611
2344.000000	11.737173
2343.000000	11.795187
2342.000000	11.814173
2341.000000	11.873359
2340.000000	11.941686
2339.000000	11.971455
2338.000000	11.991144
2337.000000	11.972861
2336.000000	11.989504
2335.000000	12.010717
2334.000000	12.030523
2333.000000	12.006380
2332.000000	11.973916
2331.000000	11.977784
2330.000000	11.982706
2329.000000	11.938873
2328.000000	11.881914
2327.000000	11.828003
2326.000000	11.810892
2325.000000	11.783936
2324.000000	11.709983
2323.000000	11.644468
2322.000000	11.565007
2321.000000	11.504532
2320.000000	11.421555
2319.000000	11.338812
2318.000000	11.292987
2317.000000	11.164419
2316.000000	11.059174
2315.000000	10.991902
2314.000000	10.900017
2313.000000	10.823369
2312.000000	10.771801
2311.000000	10.729258
2310.000000	10.671479
2309.000000	10.639014
2308.000000	10.621903
2307.000000	10.599167
2306.000000	10.604909
2305.000000	10.650500
2304.000000	10.669017
2303.000000	10.718124
2302.000000	10.807313
2301.000000	10.880680
2300.000000	10.952171
2299.000000	11.065972
2298.000000	11.187977
2297.000000	11.234974
2296.000000	11.334241
2295.000000	11.430579
2294.000000	11.476639
2293.000000	11.530785
2292.000000	11.604503
2291.000000	11.636030
2290.000000	11.665916
2289.000000	11.697677
2288.000000	11.705646
2287.000000	11.734360
2286.000000	11.710920
2285.000000	11.679394
2284.000000	11.677870
2283.000000	11.636968
2282.000000	11.601105
2281.000000	11.554459
2280.000000	11.542153
2279.000000	11.516487
2278.000000	11.449214
2277.000000	11.428939
2276.000000	11.418156
2275.000000	11.384637
2274.000000	11.381238
2273.000000	11.392490
2272.000000	11.377254
2271.000000	11.421438
2270.000000	11.433978
2269.000000	11.509103
2268.000000	11.591729
2267.000000	11.666502
2266.000000	11.802922
2265.000000	11.903714
2264.000000	12.055135
2263.000000	12.199994
2262.000000	12.404976
2261.000000	12.603277
2260.000000	12.836504
2259.000000	13.070317
2258.000000	13.294871
2257.000000	13.516378
2256.000000	13.804923
2255.000000	14.036978
2254.000000	14.243015
2253.000000	14.496517
2252.000000	14.682512
2251.000000	14.933437
2250.000000	15.116033
2249.000000	15.303084
2248.000000	15.482399
2247.000000	15.676833
2246.000000	15.794852
2245.000000	15.963620
2244.000000	16.083163
2243.000000	16.209387
2242.000000	16.343111
2241.000000	16.445661
2240.000000	16.556649
2239.000000	16.645017
2238.000000	16.737370
2237.000000	16.794095
2236.000000	16.890433
2235.000000	16.925476
2234.000000	16.998022
2233.000000	17.044667
2232.000000	17.114870
2231.000000	17.134677
2230.000000	17.154952
2229.000000	17.197613
2228.000000	17.178861
2227.000000	17.195855
2226.000000	17.196558
2225.000000	17.191284
2224.000000	17.195269
2223.000000	17.198316
2222.000000	17.171243
2221.000000	17.148037
2220.000000	17.136552
2219.000000	17.115456
2218.000000	17.082406
2217.000000	17.034705
2216.000000	17.019469
2215.000000	16.994037
2214.000000	16.964972
2213.000000	16.974465
2212.000000	16.900512
2211.000000	16.878830
2210.000000	16.863946
2209.000000	16.851054
2208.000000	16.868048
2207.000000	16.851054
2206.000000	16.819176
2205.000000	16.795384
2204.000000	16.770538
2203.000000	16.774640
2202.000000	16.753778
2201.000000	16.731510
2200.000000	16.728346
2199.000000	16.727877
2198.000000	16.724127
2197.000000	16.715454
2196.000000	16.699163
2195.000000	16.705609
2194.000000	16.710766
2193.000000	16.691428
2192.000000	16.685217
2191.000000	16.670098
2190.000000	16.641618
2189.000000	16.650643
2188.000000	16.635993
2187.000000	16.611967
2186.000000	16.619585
2185.000000	16.612319
2184.000000	16.593332
2183.000000	16.593332
2182.000000	16.572471
2181.000000	16.514223
2180.000000	16.530279
2179.000000	16.520083
2178.000000	16.513285
2177.000000	16.504495
2176.000000	16.488908
2175.000000	16.491955
2174.000000	16.496291
2173.000000	16.495705
2172.000000	16.501331
2171.000000	16.486329
2170.000000	16.472734
2169.000000	16.490548
2168.000000	16.526880
2167.000000	16.520669
2166.000000	16.551023
2165.000000	16.563681
2164.000000	16.602122
2163.000000	16.628961
2162.000000	16.636227
2161.000000	16.665996
2160.000000	16.705961
2159.000000	16.718384
2158.000000	16.725064
2157.000000	16.766084
2156.000000	16.812847
2155.000000	16.848593
2154.000000	16.902270
2153.000000	16.954189
2152.000000	17.005992
2151.000000	17.058731
2150.000000	17.089906
2149.000000	17.112409
2148.000000	17.154014
2147.000000	17.181322
2146.000000	17.231835
2145.000000	17.268401
2144.000000	17.313289
2143.000000	17.355129
2142.000000	17.390171
2141.000000	17.423222
2140.000000	17.439044
2139.000000	17.497526
2138.000000	17.547219
2137.000000	17.566205
2136.000000	17.586832
2135.000000	17.609920
2134.000000	17.641681
2133.000000	17.676021
2132.000000	17.699461
2131.000000	17.695828
2130.000000	17.711884
2129.000000	17.747747
2128.000000	17.746340
2127.000000	17.744934
2126.000000	17.748098
2125.000000	17.751146
2124.000000	17.738137
2123.000000	17.748450
2122.000000	17.742473
2121.000000	17.736027
2120.000000	17.732159
2119.000000	17.697820
2118.000000	17.693249
2117.000000	17.688561
2116.000000	17.660785
2115.000000	17.656800
2114.000000	17.638165
2113.000000	17.613553
2112.000000	17.606639
2111.000000	17.586363
2110.000000	17.556243
2109.000000	17.520732
2108.000000	17.499753
2107.000000	17.483462
2106.000000	17.462952
2105.000000	17.434121
2104.000000	17.406696
2103.000000	17.379506
2102.000000	17.349738
2101.000000	17.336494
2100.000000	17.325477
2099.000000	17.293130
2098.000000	17.249298
2097.000000	17.253282
2096.000000	17.234296
2095.000000	17.189643
2094.000000	17.185307
2093.000000	17.180267
2092.000000	17.150264
2091.000000	17.138193
2090.000000	17.128348
2089.000000	17.103384
2088.000000	17.096118
2087.000000	17.071975
2086.000000	17.041503
2085.000000	17.030369
2084.000000	16.995326
2083.000000	16.954307
2082.000000	16.932390
2081.000000	16.906958
2080.000000	16.858672
2079.000000	16.842498
2078.000000	16.810972
2077.000000	16.754130
2076.000000	16.729401
2075.000000	16.683459
2074.000000	16.654510
2073.000000	16.632594
2072.000000	16.564150
2071.000000	16.511879
2070.000000	16.479297
2069.000000	16.437574
2068.000000	16.395851
2067.000000	16.346159
2066.000000	16.298810
2065.000000	16.258493
2064.000000	16.208098
2063.000000	16.170945
2062.000000	16.123128
2061.000000	16.082811
2060.000000	16.059840
2059.000000	16.064880
2058.000000	16.057145
2057.000000	16.060192
2056.000000	16.071209
2055.000000	16.071560
2054.000000	16.083866
2053.000000	16.121956
2052.000000	16.185009
2051.000000	16.227084
2050.000000	16.275722
2049.000000	16.347331
2048.000000	16.428315
2047.000000	16.535084
2046.000000	16.620523
2045.000000	16.714165
2044.000000	16.803002
2043.000000	16.898871
2042.000000	17.004937
2041.000000	17.115690
2040.000000	17.219060
2039.000000	17.292896
2038.000000	17.398141
2037.000000	17.469164
2036.000000	17.524599
2035.000000	17.618007
2034.000000	17.702273
2033.000000	17.762866
2032.000000	17.825333
2031.000000	17.877252
2030.000000	17.930812
2029.000000	17.996210
2028.000000	18.034182
2027.000000	18.097001
2026.000000	18.126887
2025.000000	18.157593
2024.000000	18.188300
2023.000000	18.228616
2022.000000	18.267526
2021.000000	18.290498
2020.000000	18.319563
2019.000000	18.333744
2018.000000	18.356598
2017.000000	18.389765
2016.000000	18.399845
2015.000000	18.379686
2014.000000	18.393047
2013.000000	18.403712
2012.000000	18.395039
2011.000000	18.400782
2010.000000	18.386249
2009.000000	18.352496
2008.000000	18.326947
2007.000000	18.310890
2006.000000	18.315578
2005.000000	18.289677
2004.000000	18.245610
2003.000000	18.208809
2002.000000	18.158414
2001.000000	18.130520
2000.000000	18.056919
1999.000000	18.005586
1998.000000	17.974411
1997.000000	17.929992
1996.000000	17.867642
1995.000000	17.805878
1994.000000	17.741770
1993.000000	17.681295
1992.000000	17.611327
1991.000000	17.543820
1990.000000	17.474789
1989.000000	17.401422
1988.000000	17.322313
1987.000000	17.257267
1986.000000	17.162687
1985.000000	17.098579
1984.000000	17.024157
1983.000000	16.960518
1982.000000	16.869806
1981.000000	16.804057
1980.000000	16.701156
1979.000000	16.635055
1978.000000	16.538952
1977.000000	16.466757
1976.000000	16.403469
1975.000000	16.343815
1974.000000	16.269276
1973.000000	16.200363
1972.000000	16.112932
1971.000000	16.059958
1970.000000	15.976394
1969.000000	15.912286
1968.000000	15.835989
1967.000000	15.766607
1966.000000	15.705898
1965.000000	15.645306
1964.000000	15.592449
1963.000000	15.522715
1962.000000	15.456849
1961.000000	15.393327
1960.000000	15.316093
1959.000000	15.241437
1958.000000	15.203230
1957.000000	15.171351
1956.000000	15.089077
1955.000000	15.025555
1954.000000	14.959338
1953.000000	14.910231
1952.000000	14.851514
1951.000000	14.817175
1950.000000	14.741112
1949.000000	14.690365
1948.000000	14.675363
1947.000000	14.635750
1946.000000	14.603637
1945.000000	14.556757
1944.000000	14.536130
1943.000000	14.529450
1942.000000	14.496986
1941.000000	14.493118
1940.000000	14.485383
1939.000000	14.492415
1938.000000	14.483039
1937.000000	14.507768
1936.000000	14.536482
1935.000000	14.541990
1934.000000	14.615357
1933.000000	14.659190
1932.000000	14.757169
1931.000000	14.783773
1930.000000	14.868156
1929.000000	14.942461
1928.000000	15.041377
1927.000000	15.138418
1926.000000	15.233115
1925.000000	15.362621
1924.000000	15.465522
1923.000000	15.609326
1922.000000	15.762623
1921.000000	15.916505
1920.000000	16.056442
1919.000000	16.233061
1918.000000	16.412376
1917.000000	16.604349
1916.000000	16.796673
1915.000000	16.991928
1914.000000	17.216951
1913.000000	17.433535
1912.000000	17.650940
1911.000000	17.885339
1910.000000	18.097353
1909.000000	18.323782
1908.000000	18.551969
1907.000000	18.814848
1906.000000	19.104213
1905.000000	19.395923
1904.000000	19.677670
1903.000000	19.947581
1902.000000	20.227101
1901.000000	20.565808
1900.000000	20.895138
1899.000000	21.199153
1898.000000	21.572082
1897.000000	21.883833
1896.000000	22.181871
1895.000000	22.538626
1894.000000	22.889638
1893.000000	23.247800
1892.000000	23.634792
1891.000000	24.001041
1890.000000	24.372211
1889.000000	24.765533
1888.000000	25.177371
1887.000000	25.598586
1886.000000	26.030349
1885.000000	26.534424
1884.000000	27.017754
1883.000000	27.479169
1882.000000	27.980548
1881.000000	28.452979
1880.000000	28.913104
1879.000000	29.376159
1878.000000	29.798897
1877.000000	30.180499
1876.000000	30.516978
1875.000000	30.856036
1874.000000	31.195798
1873.000000	31.490671
1872.000000	31.744643
1871.000000	31.987245
1870.000000	32.210510
1869.000000	32.427564
1868.000000	32.602425
1867.000000	32.743182
1866.000000	32.871046
1865.000000	33.001958
1864.000000	33.113415
1863.000000	33.222176
1862.000000	33.314060
1861.000000	33.390006
1860.000000	33.439698
1859.000000	33.458802
1858.000000	33.501580
1857.000000	33.541076
1856.000000	33.562640
1855.000000	33.562289
1854.000000	33.540255
1853.000000	33.502751
1852.000000	33.500642
1851.000000	33.522558
1850.000000	33.506150
1849.000000	33.456927
1848.000000	33.377465
1847.000000	33.268118
1846.000000	33.218191
1845.000000	33.232021
1844.000000	33.239404
1843.000000	33.268939
1842.000000	33.251124
1841.000000	33.174827
1840.000000	33.102867
1839.000000	33.052471
1838.000000	33.009342
1837.000000	32.952734
1836.000000	32.886751
1835.000000	32.827331
1834.000000	32.770489
1833.000000	32.720211
1832.000000	32.666182
1831.000000	32.600433
1830.000000	32.525074
1829.000000	32.439167
1828.000000	32.357830
1827.000000	32.280010
1826.000000	32.215550
1825.000000	32.175702
1824.000000	32.158122
1823.000000	32.165506
1822.000000	32.136792
1821.000000	32.084755
1820.000000	32.029203
1819.000000	31.993223
1818.000000	31.975174
1817.000000	31.967908
1816.000000	31.955367
1815.000000	31.916340
1814.000000	31.895009
1813.000000	31.871921
1812.000000	31.842387
1811.000000	31.810040
1810.000000	31.762105
1809.000000	31.717687
1808.000000	31.677253
1807.000000	31.614786
1806.000000	31.547865
1805.000000	31.505321
1804.000000	31.472154
1803.000000	31.420703
1802.000000	31.357767
1801.000000	31.291315
1800.000000	31.228145
1799.000000	31.168138
1798.000000	31.144933
1797.000000	31.110828
1796.000000	31.047657
1795.000000	30.992457
1794.000000	30.944405
1793.000000	30.899517
1792.000000	30.842324
1791.000000	30.773645
1790.000000	30.706138
1789.000000	30.651172
1788.000000	30.596205
1787.000000	30.535965
1786.000000	30.450175
1785.000000	30.377980
1784.000000	30.312465
1783.000000	30.230777
1782.000000	30.161161
1781.000000	30.082403
1780.000000	29.994386
1779.000000	29.916800
1778.000000	29.810734
1777.000000	29.726116
1776.000000	29.619699
1775.000000	29.504141
1774.000000	29.389051
1773.000000	29.284626
1772.000000	29.151605
1771.000000	29.026319
1770.000000	28.901736
1769.000000	28.796959
1768.000000	28.701442
1767.000000	28.609909
1766.000000	28.533612
1765.000000	28.456143
1764.000000	28.429422
1763.000000	28.417467
1762.000000	28.432938
1761.000000	28.456612
1760.000000	28.510641
1759.000000	28.573460
1758.000000	28.612956
1757.000000	28.653624
1756.000000	28.716912
1755.000000	28.728280
1754.000000	28.743165
1753.000000	28.739297
1752.000000	28.708122
1751.000000	28.655734
1750.000000	28.625262
1749.000000	28.577796
1748.000000	28.489662
1747.000000	28.388871
1746.000000	28.285852
1745.000000	28.185413
1744.000000	28.044304
1743.000000	27.861590
1742.000000	27.676064
1741.000000	27.475418
1740.000000	27.288954
1739.000000	27.077409
1738.000000	26.901141
1737.000000	26.778082
1736.000000	26.672954
1735.000000	26.610955
1734.000000	26.592086
1733.000000	26.606150
1732.000000	26.681040
1731.000000	26.754290
1730.000000	26.837384
1729.000000	26.955873
1728.000000	27.064165
1727.000000	27.174098
1726.000000	27.226018
1725.000000	27.309933
1724.000000	27.380721
1723.000000	27.410373
1722.000000	27.464870
1721.000000	27.479286
1720.000000	27.545386
1719.000000	27.607854
1718.000000	27.675947
1717.000000	27.755173
1716.000000	27.818695
1715.000000	27.917729
1714.000000	27.989924
1713.000000	28.059540
1712.000000	28.140056
1711.000000	28.186585
1710.000000	28.184006
1709.000000	28.194788
1708.000000	28.200062
1707.000000	28.175451
1706.000000	28.176740
1705.000000	28.112514
1704.000000	28.069971
1703.000000	27.989455
1702.000000	27.901087
1701.000000	27.758221
1700.000000	27.604103
1699.000000	27.515383
1698.000000	27.384940
1697.000000	27.293173
1696.000000	27.254263
1695.000000	27.318019
1694.000000	27.375096
1693.000000	27.478348
1692.000000	27.645943
1691.000000	27.802991
1690.000000	27.919370
1689.000000	28.013012
1688.000000	28.078644
1687.000000	28.131266
1686.000000	28.204516
1685.000000	28.283508
1684.000000	28.447236
1683.000000	28.700739
1682.000000	29.038156
1681.000000	29.487967
1680.000000	29.962859
1679.000000	30.475841
1678.000000	30.963039
1677.000000	31.384957
1676.000000	31.761285
1675.000000	32.140308
1674.000000	32.420766
1673.000000	32.684699
1672.000000	32.911480
1671.000000	33.128768
1670.000000	33.294136
1669.000000	33.476382
1668.000000	33.635538
1667.000000	33.740080
1666.000000	33.827042
1665.000000	33.923732
1664.000000	34.017140
1663.000000	34.107266
1662.000000	34.166452
1661.000000	34.218137
1660.000000	34.277088
1659.000000	34.321624
1658.000000	34.335102
1657.000000	34.347525
1656.000000	34.362644
1655.000000	34.369090
1654.000000	34.365574
1653.000000	34.351979
1652.000000	34.350690
1651.000000	34.311662
1650.000000	34.295606
1649.000000	34.259274
1648.000000	34.198447
1647.000000	34.168093
1646.000000	34.128714
1645.000000	34.079842
1644.000000	34.038236
1643.000000	33.997802
1642.000000	33.922560
1641.000000	33.885290
1640.000000	33.823175
1639.000000	33.764575
1638.000000	33.707265
1637.000000	33.656752
1636.000000	33.590065
1635.000000	33.510838
1634.000000	33.452239
1633.000000	33.368207
1632.000000	33.280190
1631.000000	33.237529
1630.000000	33.170022
1629.000000	33.070989
1628.000000	32.993520
1627.000000	32.917575
1626.000000	32.828503
1625.000000	32.742830
1624.000000	32.670753
1623.000000	32.584377
1622.000000	32.495305
1621.000000	32.430611
1620.000000	32.357010
1619.000000	32.278486
1618.000000	32.202306
1617.000000	32.128588
1616.000000	32.039048
1615.000000	31.955602
1614.000000	31.863600
1613.000000	31.795507
1612.000000	31.727531
1611.000000	31.642796
1610.000000	31.569429
1609.000000	31.500985
1608.000000	31.430782
1607.000000	31.341125
1606.000000	31.262132
1605.000000	31.184781
1604.000000	31.093834
