PE UV       SUBTECH     SPECTRUM    ASCII       PEDS        4.00        
   -1
CICIMAUCR0006-1.Sample.ASC
24/04/12
09:51:50.00
24/04/12
09:51:50.00
Vinicio Soto Monge
C. kalinini
250,000000
1
Lambda 1050
1050L1511233
PerkinElmer UV WinLab 6.3.2.0749 / 2.02.05 Lambda 900 UV/VIS/NIR, Aug  7 2015 09:38:08

0
0
3350/servo 860,8/2
0
0
UV/VIS
1
1
1
DoubleDePol,CommonBeamDepol,RBeamAtt,SBeamAtt,60mm sphere, WB InGaAs Detector
0
0
0
0
Program
Program
3350/servo 860,8/2
3350/0,2 860,8/0,2
3350/0,2 860,8/0,2
0
15.00
 
 
 
0
 
860,8
319,2
860,8
Front
100
on
S:100 R:100
0
0
0
0
 
0
 
 
 
0
 
 
0
0
0
0
0
 
 
 
 
0
0


0
0
#HDR
-1
-1
#GR
nm
%R
1.0
0.0
2500,000000
-1,000000
2251
8
44,260600
2,230600
#DATA
2482.000000	7.319080
2481.000000	7.305716
2480.000000	7.287300
2479.000000	7.338555
2478.000000	7.330896
2477.000000	7.357134
2476.000000	7.353386
2475.000000	7.393070
2474.000000	7.389648
2473.000000	7.417353
2472.000000	7.424198
2471.000000	7.430147
2470.000000	7.479528
2469.000000	7.506337
2468.000000	7.567941
2467.000000	7.588313
2466.000000	7.608277
2465.000000	7.646169
2464.000000	7.687972
2463.000000	7.740286
2462.000000	7.765955
2461.000000	7.820388
2460.000000	7.884926
2459.000000	7.932025
2458.000000	8.005526
2457.000000	8.067619
2456.000000	8.118304
2455.000000	8.201747
2454.000000	8.248765
2453.000000	8.277774
2452.000000	8.374010
2451.000000	8.440748
2450.000000	8.495345
2449.000000	8.541059
2448.000000	8.588403
2447.000000	8.647155
2446.000000	8.713404
2445.000000	8.759607
2444.000000	8.830908
2443.000000	8.877763
2442.000000	8.912639
2441.000000	8.979866
2440.000000	9.029818
2439.000000	9.089548
2438.000000	9.151478
2437.000000	9.186028
2436.000000	9.240543
2435.000000	9.270775
2434.000000	9.332297
2433.000000	9.378012
2432.000000	9.432771
2431.000000	9.478078
2430.000000	9.514013
2429.000000	9.549949
2428.000000	9.552394
2427.000000	9.493397
2426.000000	9.439127
2425.000000	9.416148
2424.000000	9.404821
2423.000000	9.438882
2422.000000	9.468136
2421.000000	9.498368
2420.000000	9.485982
2419.000000	9.477344
2418.000000	9.505702
2417.000000	9.496005
2416.000000	9.474981
2415.000000	9.483863
2414.000000	9.507250
2413.000000	9.507332
2412.000000	9.498123
2411.000000	9.517110
2410.000000	9.513850
2409.000000	9.487367
2408.000000	9.490708
2407.000000	9.505539
2406.000000	9.508635
2405.000000	9.515562
2404.000000	9.492093
2403.000000	9.474981
2402.000000	9.501057
2401.000000	9.523221
2400.000000	9.518658
2399.000000	9.494049
2398.000000	9.509043
2397.000000	9.500731
2396.000000	9.483374
2395.000000	9.485982
2394.000000	9.479952
2393.000000	9.456402
2392.000000	9.451920
2391.000000	9.433423
2390.000000	9.418837
2389.000000	9.412236
2388.000000	9.412725
2387.000000	9.396835
2386.000000	9.370922
2385.000000	9.371330
2384.000000	9.341750
2383.000000	9.312415
2382.000000	9.302066
2381.000000	9.287480
2380.000000	9.282509
2379.000000	9.260181
2378.000000	9.239484
2377.000000	9.225712
2376.000000	9.171850
2375.000000	9.139418
2374.000000	9.133225
2373.000000	9.116764
2372.000000	9.079525
2371.000000	9.040981
2370.000000	9.016698
2369.000000	8.993719
2368.000000	8.948086
2367.000000	8.903676
2366.000000	8.880941
2365.000000	8.851687
2364.000000	8.801573
2363.000000	8.752355
2362.000000	8.722123
2361.000000	8.689447
2360.000000	8.647318
2359.000000	8.610323
2358.000000	8.581395
2357.000000	8.559638
2356.000000	8.527858
2355.000000	8.501945
2354.000000	8.501375
2353.000000	8.500723
2352.000000	8.480025
2351.000000	8.464950
2350.000000	8.473262
2349.000000	8.486625
2348.000000	8.482796
2347.000000	8.476195
2346.000000	8.480514
2345.000000	8.467558
2344.000000	8.464787
2343.000000	8.478151
2342.000000	8.458431
2341.000000	8.449793
2340.000000	8.442052
2339.000000	8.415895
2338.000000	8.406442
2337.000000	8.377107
2336.000000	8.345572
2335.000000	8.340519
2334.000000	8.295294
2333.000000	8.269707
2332.000000	8.260010
2331.000000	8.234994
2330.000000	8.185939
2329.000000	8.157825
2328.000000	8.136476
2327.000000	8.129712
2326.000000	8.091577
2325.000000	8.049285
2324.000000	8.005771
2323.000000	7.976598
2322.000000	7.959079
2321.000000	7.905216
2320.000000	7.870747
2319.000000	7.849071
2318.000000	7.818106
2317.000000	7.764977
2316.000000	7.736701
2315.000000	7.677867
2314.000000	7.643561
2313.000000	7.622537
2312.000000	7.606322
2311.000000	7.606892
2310.000000	7.573890
2309.000000	7.569815
2308.000000	7.595158
2307.000000	7.599151
2306.000000	7.616915
2305.000000	7.656110
2304.000000	7.681778
2303.000000	7.704106
2302.000000	7.742323
2301.000000	7.798712
2300.000000	7.817862
2299.000000	7.854612
2298.000000	7.912631
2297.000000	7.942700
2296.000000	7.952560
2295.000000	7.981406
2294.000000	8.008867
2293.000000	8.007563
2292.000000	8.035514
2291.000000	8.046107
2290.000000	8.045862
2289.000000	8.017994
2288.000000	8.007482
2287.000000	7.992814
2286.000000	7.991348
2285.000000	7.946856
2284.000000	7.905868
2283.000000	7.884192
2282.000000	7.841574
2281.000000	7.804905
2280.000000	7.782578
2279.000000	7.767014
2278.000000	7.743872
2277.000000	7.704513
2276.000000	7.683245
2275.000000	7.675667
2274.000000	7.634598
2273.000000	7.638916
2272.000000	7.645680
2271.000000	7.674037
2270.000000	7.699950
2269.000000	7.722522
2268.000000	7.760250
2267.000000	7.817210
2266.000000	7.892178
2265.000000	7.939440
2264.000000	8.033395
2263.000000	8.133461
2262.000000	8.234016
2261.000000	8.344023
2260.000000	8.440015
2259.000000	8.536251
2258.000000	8.668179
2257.000000	8.780712
2256.000000	8.878741
2255.000000	8.975873
2254.000000	9.097778
2253.000000	9.231580
2252.000000	9.316245
2251.000000	9.427637
2250.000000	9.489404
2249.000000	9.588819
2248.000000	9.680736
2247.000000	9.750163
2246.000000	9.811930
2245.000000	9.884127
2244.000000	9.970259
2243.000000	10.000083
2242.000000	10.071873
2241.000000	10.132092
2240.000000	10.165502
2239.000000	10.238025
2238.000000	10.254812
2237.000000	10.294170
2236.000000	10.355693
2235.000000	10.390569
2234.000000	10.438402
2233.000000	10.427972
2232.000000	10.441743
2231.000000	10.469774
2230.000000	10.498458
2229.000000	10.531379
2228.000000	10.559084
2227.000000	10.518911
2226.000000	10.543683
2225.000000	10.556395
2224.000000	10.550854
2223.000000	10.556314
2222.000000	10.554928
2221.000000	10.543928
2220.000000	10.542705
2219.000000	10.532682
2218.000000	10.535942
2217.000000	10.533660
2216.000000	10.515081
2215.000000	10.494628
2214.000000	10.473360
2213.000000	10.478249
2212.000000	10.440276
2211.000000	10.415260
2210.000000	10.405237
2209.000000	10.401896
2208.000000	10.384295
2207.000000	10.375412
2206.000000	10.373701
2205.000000	10.368079
2204.000000	10.366204
2203.000000	10.349744
2202.000000	10.336706
2201.000000	10.290014
2200.000000	10.293029
2199.000000	10.288466
2198.000000	10.282436
2197.000000	10.268420
2196.000000	10.255464
2195.000000	10.250900
2194.000000	10.256767
2193.000000	10.240633
2192.000000	10.243811
2191.000000	10.228980
2190.000000	10.213824
2189.000000	10.198015
2188.000000	10.203149
2187.000000	10.191578
2186.000000	10.169576
2185.000000	10.158005
2184.000000	10.142197
2183.000000	10.142523
2182.000000	10.112454
2181.000000	10.104876
2180.000000	10.097216
2179.000000	10.112454
2178.000000	10.104957
2177.000000	10.096808
2176.000000	10.089882
2175.000000	10.086134
2174.000000	10.090289
2173.000000	10.082956
2172.000000	10.076681
2171.000000	10.083933
2170.000000	10.083689
2169.000000	10.103409
2168.000000	10.109765
2167.000000	10.113676
2166.000000	10.124514
2165.000000	10.152627
2164.000000	10.136900
2163.000000	10.133070
2162.000000	10.134618
2161.000000	10.140404
2160.000000	10.153116
2159.000000	10.145619
2158.000000	10.154990
2157.000000	10.166235
2156.000000	10.184488
2155.000000	10.198423
2154.000000	10.199808
2153.000000	10.208201
2152.000000	10.202253
2151.000000	10.217328
2150.000000	10.218468
2149.000000	10.219691
2148.000000	10.214720
2147.000000	10.216594
2146.000000	10.209994
2145.000000	10.200052
2144.000000	10.209912
2143.000000	10.222135
2142.000000	10.216268
2141.000000	10.208609
2140.000000	10.224091
2139.000000	10.222624
2138.000000	10.214720
2137.000000	10.213987
2136.000000	10.208446
2135.000000	10.188237
2134.000000	10.161509
2133.000000	10.147167
2132.000000	10.137307
2131.000000	10.117832
2130.000000	10.094690
2129.000000	10.069836
2128.000000	10.050931
2127.000000	10.027137
2126.000000	9.997802
2125.000000	9.994624
2124.000000	9.959014
2123.000000	9.923323
2122.000000	9.900343
2121.000000	9.872638
2120.000000	9.842406
2119.000000	9.814212
2118.000000	9.786587
2117.000000	9.766542
2116.000000	9.731665
2115.000000	9.701108
2114.000000	9.671691
2113.000000	9.636244
2112.000000	9.628095
2111.000000	9.605686
2110.000000	9.573010
2109.000000	9.548727
2108.000000	9.532348
2107.000000	9.501709
2106.000000	9.484760
2105.000000	9.472537
2104.000000	9.455832
2103.000000	9.434727
2102.000000	9.416637
2101.000000	9.412888
2100.000000	9.397080
2099.000000	9.376871
2098.000000	9.377115
2097.000000	9.382412
2096.000000	9.373204
2095.000000	9.354299
2094.000000	9.339305
2093.000000	9.332542
2092.000000	9.330505
2091.000000	9.320400
2090.000000	9.303614
2089.000000	9.307525
2088.000000	9.299377
2087.000000	9.286746
2086.000000	9.300599
2085.000000	9.288294
2084.000000	9.276968
2083.000000	9.273382
2082.000000	9.271345
2081.000000	9.273708
2080.000000	9.261811
2079.000000	9.244210
2078.000000	9.240054
2077.000000	9.248773
2076.000000	9.242662
2075.000000	9.228076
2074.000000	9.228565
2073.000000	9.234024
2072.000000	9.232476
2071.000000	9.238099
2070.000000	9.233128
2069.000000	9.247388
2068.000000	9.261567
2067.000000	9.256433
2066.000000	9.252685
2065.000000	9.258878
2064.000000	9.270775
2063.000000	9.280961
2062.000000	9.293102
2061.000000	9.298969
2060.000000	9.318526
2059.000000	9.331157
2058.000000	9.353729
2057.000000	9.381190
2056.000000	9.393576
2055.000000	9.421852
2054.000000	9.461128
2053.000000	9.486960
2052.000000	9.526318
2051.000000	9.568365
2050.000000	9.629806
2049.000000	9.666150
2048.000000	9.715775
2047.000000	9.791477
2046.000000	9.866852
2045.000000	9.917863
2044.000000	9.969526
2043.000000	10.025426
2042.000000	10.085563
2041.000000	10.158168
2040.000000	10.193941
2039.000000	10.242752
2038.000000	10.302808
2037.000000	10.355693
2036.000000	10.400999
2035.000000	10.442232
2034.000000	10.486479
2033.000000	10.531216
2032.000000	10.581086
2031.000000	10.603820
2030.000000	10.637475
2029.000000	10.673410
2028.000000	10.710161
2027.000000	10.753757
2026.000000	10.785781
2025.000000	10.785862
2024.000000	10.806968
2023.000000	10.844370
2022.000000	10.862542
2021.000000	10.876965
2020.000000	10.883402
2019.000000	10.903856
2018.000000	10.926101
2017.000000	10.932132
2016.000000	10.943540
2015.000000	10.943703
2014.000000	10.939384
2013.000000	10.931317
2012.000000	10.930013
2011.000000	10.944518
2010.000000	10.945169
2009.000000	10.944762
2008.000000	10.920560
2007.000000	10.914612
2006.000000	10.906789
2005.000000	10.882099
2004.000000	10.857897
2003.000000	10.842985
2002.000000	10.817805
2001.000000	10.784151
2000.000000	10.776980
1999.000000	10.750090
1998.000000	10.711709
1997.000000	10.688567
1996.000000	10.662247
1995.000000	10.634215
1994.000000	10.580923
1993.000000	10.517200
1992.000000	10.488353
1991.000000	10.462278
1990.000000	10.423001
1989.000000	10.384295
1988.000000	10.343144
1987.000000	10.297755
1986.000000	10.253834
1985.000000	10.211053
1984.000000	10.159879
1983.000000	10.116936
1982.000000	10.075703
1981.000000	10.033004
1980.000000	9.975393
1979.000000	9.924300
1978.000000	9.883883
1977.000000	9.840124
1976.000000	9.808996
1975.000000	9.749674
1974.000000	9.704856
1973.000000	9.648548
1972.000000	9.625080
1971.000000	9.582707
1970.000000	9.543430
1969.000000	9.470092
1968.000000	9.463899
1967.000000	9.409629
1966.000000	9.370922
1965.000000	9.324964
1964.000000	9.294813
1963.000000	9.256841
1962.000000	9.208356
1961.000000	9.157915
1960.000000	9.124424
1959.000000	9.078221
1958.000000	9.047582
1957.000000	8.995186
1956.000000	8.982392
1955.000000	8.935863
1954.000000	8.901231
1953.000000	8.855110
1952.000000	8.807277
1951.000000	8.790409
1950.000000	8.751703
1949.000000	8.734672
1948.000000	8.686513
1947.000000	8.668586
1946.000000	8.648866
1945.000000	8.629228
1944.000000	8.618471
1943.000000	8.583921
1942.000000	8.578706
1941.000000	8.591581
1940.000000	8.581558
1939.000000	8.596551
1938.000000	8.570639
1937.000000	8.550267
1936.000000	8.563631
1935.000000	8.563875
1934.000000	8.584247
1933.000000	8.617005
1932.000000	8.647644
1931.000000	8.687491
1930.000000	8.727664
1929.000000	8.778104
1928.000000	8.796683
1927.000000	8.843294
1926.000000	8.876378
1925.000000	8.941649
1924.000000	8.993963
1923.000000	9.101689
1922.000000	9.161990
1921.000000	9.231335
1920.000000	9.309970
1919.000000	9.376871
1918.000000	9.434727
1917.000000	9.521673
1916.000000	9.669654
1915.000000	9.792536
1914.000000	9.901240
1913.000000	10.016381
1912.000000	10.117180
1911.000000	10.199075
1910.000000	10.313808
1909.000000	10.445491
1908.000000	10.586301
1907.000000	10.749112
1906.000000	10.941828
1905.000000	11.118737
1904.000000	11.260443
1903.000000	11.399459
1902.000000	11.577183
1901.000000	11.734615
1900.000000	11.865972
1899.000000	12.017701
1898.000000	12.167637
1897.000000	12.297202
1896.000000	12.450642
1895.000000	12.629831
1894.000000	12.779849
1893.000000	12.962706
1892.000000	13.154689
1891.000000	13.319374
1890.000000	13.484793
1889.000000	13.649478
1888.000000	13.807889
1887.000000	13.978930
1886.000000	14.179714
1885.000000	14.387261
1884.000000	14.606380
1883.000000	14.861027
1882.000000	15.083975
1881.000000	15.301627
1880.000000	15.508278
1879.000000	15.729108
1878.000000	15.947167
1877.000000	16.181523
1876.000000	16.432585
1875.000000	16.633776
1874.000000	16.810358
1873.000000	17.008127
1872.000000	17.169879
1871.000000	17.268071
1870.000000	17.338394
1869.000000	17.374819
1868.000000	17.371315
1867.000000	17.355669
1866.000000	17.345728
1865.000000	17.330327
1864.000000	17.331712
1863.000000	17.366181
1862.000000	17.406680
1861.000000	17.440660
1860.000000	17.481322
1859.000000	17.514162
1858.000000	17.505361
1857.000000	17.477574
1856.000000	17.473255
1855.000000	17.447750
1854.000000	17.408310
1853.000000	17.367241
1852.000000	17.325601
1851.000000	17.305473
1850.000000	17.332609
1849.000000	17.340676
1848.000000	17.295695
1847.000000	17.251040
1846.000000	17.183732
1845.000000	17.115446
1844.000000	17.086681
1843.000000	17.077554
1842.000000	17.063539
1841.000000	17.049441
1840.000000	17.061257
1839.000000	17.066717
1838.000000	17.032411
1837.000000	16.976347
1836.000000	16.899913
1835.000000	16.823396
1834.000000	16.754132
1833.000000	16.707114
1832.000000	16.657407
1831.000000	16.594581
1830.000000	16.547156
1829.000000	16.522791
1828.000000	16.489544
1827.000000	16.429488
1826.000000	16.375870
1825.000000	16.324289
1824.000000	16.301228
1823.000000	16.323474
1822.000000	16.329422
1821.000000	16.303998
1820.000000	16.288760
1819.000000	16.268226
1818.000000	16.246306
1817.000000	16.215096
1816.000000	16.191791
1815.000000	16.171826
1814.000000	16.166611
1813.000000	16.181116
1812.000000	16.164574
1811.000000	16.130431
1810.000000	16.107207
1809.000000	16.098244
1808.000000	16.087976
1807.000000	16.056522
1806.000000	16.021401
1805.000000	15.998259
1804.000000	15.982451
1803.000000	15.966072
1802.000000	15.943500
1801.000000	15.910742
1800.000000	15.877495
1799.000000	15.840337
1798.000000	15.824610
1797.000000	15.813528
1796.000000	15.786719
1795.000000	15.763984
1794.000000	15.742390
1793.000000	15.713625
1792.000000	15.687060
1791.000000	15.661636
1790.000000	15.635479
1789.000000	15.610300
1788.000000	15.589031
1787.000000	15.565808
1786.000000	15.546088
1785.000000	15.497603
1784.000000	15.459060
1783.000000	15.422065
1782.000000	15.393544
1781.000000	15.363313
1780.000000	15.332185
1779.000000	15.290708
1778.000000	15.245645
1777.000000	15.201479
1776.000000	15.152995
1775.000000	15.104836
1774.000000	15.025712
1773.000000	14.962560
1772.000000	14.912119
1771.000000	14.852634
1770.000000	14.791518
1769.000000	14.733418
1768.000000	14.683711
1767.000000	14.637997
1766.000000	14.593260
1765.000000	14.556510
1764.000000	14.554799
1763.000000	14.541516
1762.000000	14.563518
1761.000000	14.606624
1760.000000	14.627078
1759.000000	14.656983
1758.000000	14.688274
1757.000000	14.723558
1756.000000	14.758435
1755.000000	14.764546
1754.000000	14.784347
1753.000000	14.793230
1752.000000	14.772613
1751.000000	14.765117
1750.000000	14.737900
1749.000000	14.720217
1748.000000	14.673199
1747.000000	14.632700
1746.000000	14.577859
1745.000000	14.516826
1744.000000	14.436805
1743.000000	14.360452
1742.000000	14.263075
1741.000000	14.153231
1740.000000	14.033689
1739.000000	13.936231
1738.000000	13.841136
1737.000000	13.776761
1736.000000	13.704808
1735.000000	13.665042
1734.000000	13.636522
1733.000000	13.645241
1732.000000	13.644344
1731.000000	13.697311
1730.000000	13.753944
1729.000000	13.801207
1728.000000	13.849692
1727.000000	13.889294
1726.000000	13.928571
1725.000000	13.959862
1724.000000	13.991235
1723.000000	14.010058
1722.000000	14.006228
1721.000000	14.033852
1720.000000	14.034993
1719.000000	14.049416
1718.000000	14.062047
1717.000000	14.085434
1716.000000	14.106131
1715.000000	14.142882
1714.000000	14.182322
1713.000000	14.215405
1712.000000	14.237814
1711.000000	14.240014
1710.000000	14.256556
1709.000000	14.245067
1708.000000	14.243192
1707.000000	14.222332
1706.000000	14.214835
1705.000000	14.182403
1704.000000	14.166839
1703.000000	14.127236
1702.000000	14.078507
1701.000000	14.023666
1700.000000	13.950817
1699.000000	13.892554
1698.000000	13.833231
1697.000000	13.801696
1696.000000	13.782058
1695.000000	13.801451
1694.000000	13.858492
1693.000000	13.899725
1692.000000	13.989849
1691.000000	14.074107
1690.000000	14.136281
1689.000000	14.198863
1688.000000	14.226243
1687.000000	14.257290
1686.000000	14.257290
1685.000000	14.273587
1684.000000	14.326065
1683.000000	14.446991
1682.000000	14.616158
1681.000000	14.848804
1680.000000	15.109644
1679.000000	15.379610
1678.000000	15.638983
1677.000000	15.880103
1676.000000	16.082435
1675.000000	16.258121
1674.000000	16.396160
1673.000000	16.544222
1672.000000	16.661645
1671.000000	16.760081
1670.000000	16.851672
1669.000000	16.916373
1668.000000	16.989711
1667.000000	17.053434
1666.000000	17.103956
1665.000000	17.139403
1664.000000	17.167842
1663.000000	17.215349
1662.000000	17.241017
1661.000000	17.268071
1660.000000	17.277686
1659.000000	17.293576
1658.000000	17.302214
1657.000000	17.314030
1656.000000	17.308407
1655.000000	17.307837
1654.000000	17.323401
1653.000000	17.300992
1652.000000	17.271330
1651.000000	17.265789
1650.000000	17.255522
1649.000000	17.219016
1648.000000	17.197340
1647.000000	17.173220
1646.000000	17.144211
1645.000000	17.127995
1644.000000	17.098985
1643.000000	17.056612
1642.000000	17.036077
1641.000000	16.995334
1640.000000	16.958013
1639.000000	16.921670
1638.000000	16.870088
1637.000000	16.844502
1636.000000	16.806366
1635.000000	16.778090
1634.000000	16.751688
1633.000000	16.716974
1632.000000	16.664741
1631.000000	16.618294
1630.000000	16.582684
1629.000000	16.536155
1628.000000	16.487507
1627.000000	16.436089
1626.000000	16.396160
1625.000000	16.355498
1624.000000	16.298620
1623.000000	16.254699
1622.000000	16.211429
1621.000000	16.162537
1620.000000	16.124320
1619.000000	16.081620
1618.000000	16.032158
1617.000000	15.986362
1616.000000	15.941789
1615.000000	15.888333
1614.000000	15.844656
1613.000000	15.804565
1612.000000	15.763903
1611.000000	15.722426
1610.000000	15.676223
1609.000000	15.637190
1608.000000	15.594817
1607.000000	15.555622
1606.000000	15.505752
1605.000000	15.464682
1604.000000	15.419946
1603.000000	15.368772
1602.000000	15.330066
1601.000000	15.292745
1600.000000	15.246949
1599.000000	15.211176
1598.000000	15.189582
1597.000000	15.144927
1596.000000	15.094813
1595.000000	15.047143
1594.000000	15.022045
1593.000000	14.997273
1592.000000	14.960359
1591.000000	14.932246
1590.000000	14.912038
1589.000000	14.889792
