17ms
0ms
10X
1
Counts
7/4/2024 5:30:16 PM
10.00000000
0.00000000
Resolution=2&-1
Time1=17ms:Average1=10:Objective=10X:Aperture=1: (7/4/2024 5:30:16 PM)
