PE UV       SUBTECH     SPECTRUM    ASCII       PEDS        4.00        
   -1
CICIMAUCR0253-3.ASC
24/06/27
11:10:49.00
24/06/27
11:10:49.00
Vinicio Soto Monge
C. resplendens. Sex M. Ventral
250,000000
1
Lambda 1050
1050L1511233
PerkinElmer UV WinLab 6.3.2.0749 / 2.02.05 Lambda 900 UV/VIS/NIR, Aug  7 2015 09:38:08

0
0
3350/servo 860,8/2
0
0
UV/VIS
1
1
1
DoubleDePol,CommonBeamDepol,RBeamAtt,SBeamAtt,60mm sphere, WB InGaAs Detector
0
0
0
0
Program
Program
3350/servo 860,8/2
3350/0,2 860,8/0,2
3350/0,2 860,8/0,2
0
15.00
 
 
 
0
 
860,8
319,2
860,8
Front
100
on
S:100 R:100
0
0
0
0
 
0
 
 
 
0
 
 
0
0
0
0
0
 
 
 
 
0
0


0
0
#HDR
-1
-1
#GR
nm
%R
1.0
0.0
2500,000000
-1,000000
2251
8
63,618000
4,515400
#DATA
2482.000000	6.497617
2481.000000	6.477841
2480.000000	6.499790
2479.000000	6.557814
2478.000000	6.505984
2477.000000	6.473820
2476.000000	6.499790
2475.000000	6.508700
2474.000000	6.511308
2473.000000	6.530432
2472.000000	6.489033
2471.000000	6.507722
2470.000000	6.530867
2469.000000	6.514785
2468.000000	6.530867
2467.000000	6.560531
2466.000000	6.544775
2465.000000	6.487620
2464.000000	6.511308
2463.000000	6.557705
2462.000000	6.579220
2461.000000	6.585414
2460.000000	6.600191
2459.000000	6.607145
2458.000000	6.626270
2457.000000	6.659737
2456.000000	6.708851
2455.000000	6.709720
2454.000000	6.721129
2453.000000	6.737971
2452.000000	6.795778
2451.000000	6.837286
2450.000000	6.837503
2449.000000	6.878577
2448.000000	6.904872
2447.000000	6.939209
2446.000000	6.989953
2445.000000	7.019617
2444.000000	7.054605
2443.000000	7.073403
2442.000000	7.093396
2441.000000	7.144249
2440.000000	7.175978
2439.000000	7.210966
2438.000000	7.239869
2437.000000	7.288657
2436.000000	7.297785
2435.000000	7.346356
2434.000000	7.368631
2433.000000	7.396448
2432.000000	7.420896
2431.000000	7.439911
2430.000000	7.480876
2429.000000	7.520754
2428.000000	7.543355
2427.000000	7.555525
2426.000000	7.596707
2425.000000	7.631804
2424.000000	7.646147
2423.000000	7.673638
2422.000000	7.716993
2421.000000	7.709278
2420.000000	7.721883
2419.000000	7.752633
2418.000000	7.777625
2417.000000	7.790773
2416.000000	7.812722
2415.000000	7.841408
2414.000000	7.851622
2413.000000	7.864226
2412.000000	7.874766
2411.000000	7.894108
2410.000000	7.920621
2409.000000	7.938550
2408.000000	7.970930
2407.000000	7.971365
2406.000000	7.962237
2405.000000	8.000703
2404.000000	8.022978
2403.000000	8.034387
2402.000000	8.039277
2401.000000	8.056554
2400.000000	8.080459
2399.000000	8.102082
2398.000000	8.110883
2397.000000	8.134571
2396.000000	8.162714
2395.000000	8.172059
2394.000000	8.181512
2393.000000	8.195094
2392.000000	8.207264
2391.000000	8.219108
2390.000000	8.225628
2389.000000	8.235733
2388.000000	8.239753
2387.000000	8.248229
2386.000000	8.263659
2385.000000	8.269309
2384.000000	8.272895
2383.000000	8.275720
2382.000000	8.274742
2381.000000	8.274090
2380.000000	8.283109
2379.000000	8.295496
2378.000000	8.280175
2377.000000	8.274090
2376.000000	8.283869
2375.000000	8.273547
2374.000000	8.263224
2373.000000	8.262246
2372.000000	8.251597
2371.000000	8.243231
2370.000000	8.227692
2369.000000	8.215196
2368.000000	8.217261
2367.000000	8.205417
2366.000000	8.199875
2365.000000	8.178252
2364.000000	8.157172
2363.000000	8.143699
2362.000000	8.134245
2361.000000	8.117838
2360.000000	8.084805
2359.000000	8.064160
2358.000000	8.055358
2357.000000	8.045362
2356.000000	8.032540
2355.000000	8.017219
2354.000000	8.000051
2353.000000	7.992010
2352.000000	7.983426
2351.000000	7.991793
2350.000000	7.992336
2349.000000	7.995813
2348.000000	7.992227
2347.000000	7.995813
2346.000000	8.014394
2345.000000	8.032757
2344.000000	8.047318
2343.000000	8.048404
2342.000000	8.058401
2341.000000	8.083610
2340.000000	8.107080
2339.000000	8.108384
2338.000000	8.105885
2337.000000	8.127400
2336.000000	8.128595
2335.000000	8.124140
2334.000000	8.135006
2333.000000	8.134028
2332.000000	8.135114
2331.000000	8.125226
2330.000000	8.117294
2329.000000	8.107624
2328.000000	8.105016
2327.000000	8.080676
2326.000000	8.037321
2325.000000	8.017002
2324.000000	7.998312
2323.000000	7.984186
2322.000000	7.966040
2321.000000	7.936159
2320.000000	7.907038
2319.000000	7.862053
2318.000000	7.815656
2317.000000	7.763717
2316.000000	7.729380
2315.000000	7.693197
2314.000000	7.656361
2313.000000	7.599967
2312.000000	7.559871
2311.000000	7.528903
2310.000000	7.485222
2309.000000	7.465881
2308.000000	7.435130
2307.000000	7.413833
2306.000000	7.398078
2305.000000	7.393840
2304.000000	7.395361
2303.000000	7.396665
2302.000000	7.414594
2301.000000	7.425025
2300.000000	7.439042
2299.000000	7.458709
2298.000000	7.504129
2297.000000	7.537379
2296.000000	7.568781
2295.000000	7.605400
2294.000000	7.629957
2293.000000	7.658751
2292.000000	7.695478
2291.000000	7.722643
2290.000000	7.743723
2289.000000	7.760891
2288.000000	7.783710
2287.000000	7.792620
2286.000000	7.792837
2285.000000	7.800769
2284.000000	7.794358
2283.000000	7.776430
2282.000000	7.775343
2281.000000	7.765346
2280.000000	7.747635
2279.000000	7.740789
2278.000000	7.723730
2277.000000	7.690045
2276.000000	7.676680
2275.000000	7.673312
2274.000000	7.647668
2273.000000	7.619960
2272.000000	7.632565
2271.000000	7.629631
2270.000000	7.636911
2269.000000	7.646364
2268.000000	7.666358
2267.000000	7.687981
2266.000000	7.728511
2265.000000	7.754154
2264.000000	7.808376
2263.000000	7.869659
2262.000000	7.965171
2261.000000	8.041015
2260.000000	8.111644
2259.000000	8.211611
2258.000000	8.317988
2257.000000	8.428821
2256.000000	8.545521
2255.000000	8.670153
2254.000000	8.797937
2253.000000	8.918984
2252.000000	9.011127
2251.000000	9.141844
2250.000000	9.279190
2249.000000	9.381221
2248.000000	9.484882
2247.000000	9.578220
2246.000000	9.691335
2245.000000	9.769352
2244.000000	9.844219
2243.000000	9.946033
2242.000000	9.993843
2241.000000	10.070665
2240.000000	10.153898
2239.000000	10.193341
2238.000000	10.238870
2237.000000	10.278422
2236.000000	10.361438
2235.000000	10.372195
2234.000000	10.405336
2233.000000	10.432935
2232.000000	10.450973
2231.000000	10.492046
2230.000000	10.475639
2229.000000	10.495197
2228.000000	10.492372
2227.000000	10.510518
2226.000000	10.514756
2225.000000	10.487808
2224.000000	10.493024
2223.000000	10.467163
2222.000000	10.463686
2221.000000	10.442389
2220.000000	10.430002
2219.000000	10.401750
2218.000000	10.377954
2217.000000	10.341118
2216.000000	10.307977
2215.000000	10.291026
2214.000000	10.272663
2213.000000	10.233871
2212.000000	10.202252
2211.000000	10.185844
2210.000000	10.161396
2209.000000	10.128472
2208.000000	10.135861
2207.000000	10.140424
2206.000000	10.104241
2205.000000	10.087942
2204.000000	10.053931
2203.000000	10.029374
2202.000000	10.048281
2201.000000	10.019269
2200.000000	10.027744
2199.000000	10.005795
2198.000000	9.996342
2197.000000	9.976023
2196.000000	9.974067
2195.000000	9.979282
2194.000000	9.967764
2193.000000	9.951466
2192.000000	9.967438
2191.000000	9.936797
2190.000000	9.953421
2189.000000	9.929842
2188.000000	9.911913
2187.000000	9.926691
2186.000000	9.921258
2185.000000	9.891703
2184.000000	9.890399
2183.000000	9.882358
2182.000000	9.881380
2181.000000	9.863234
2180.000000	9.871601
2179.000000	9.827376
2178.000000	9.847044
2177.000000	9.828246
2176.000000	9.837264
2175.000000	9.823791
2174.000000	9.818466
2173.000000	9.825638
2172.000000	9.822704
2171.000000	9.828463
2170.000000	9.825095
2169.000000	9.840850
2168.000000	9.838242
2167.000000	9.839655
2166.000000	9.836830
2165.000000	9.868232
2164.000000	9.880837
2163.000000	9.893550
2162.000000	9.903438
2161.000000	9.922236
2160.000000	9.937666
2159.000000	9.954943
2158.000000	9.977978
2157.000000	10.018943
2156.000000	10.006665
2155.000000	10.046651
2154.000000	10.074903
2153.000000	10.118692
2152.000000	10.168241
2151.000000	10.190299
2150.000000	10.224309
2149.000000	10.245933
2148.000000	10.274836
2147.000000	10.297111
2146.000000	10.334055
2145.000000	10.375563
2144.000000	10.408813
2143.000000	10.422830
2142.000000	10.447496
2141.000000	10.490308
2140.000000	10.519211
2139.000000	10.543225
2138.000000	10.566804
2137.000000	10.595164
2136.000000	10.597772
2135.000000	10.628740
2134.000000	10.654383
2133.000000	10.677093
2132.000000	10.692414
2131.000000	10.710886
2130.000000	10.750982
2129.000000	10.742615
2128.000000	10.742289
2127.000000	10.746635
2126.000000	10.755763
2125.000000	10.747505
2124.000000	10.760000
2123.000000	10.779450
2122.000000	10.786405
2121.000000	10.782819
2120.000000	10.802921
2119.000000	10.775213
2118.000000	10.755871
2117.000000	10.753589
2116.000000	10.757393
2115.000000	10.749243
2114.000000	10.722839
2113.000000	10.715667
2112.000000	10.710126
2111.000000	10.699151
2110.000000	10.688394
2109.000000	10.661229
2108.000000	10.651015
2107.000000	10.645908
2106.000000	10.636455
2105.000000	10.618526
2104.000000	10.602118
2103.000000	10.604509
2102.000000	10.582125
2101.000000	10.563544
2100.000000	10.558328
2099.000000	10.538661
2098.000000	10.505629
2097.000000	10.486505
2096.000000	10.488134
2095.000000	10.483788
2094.000000	10.467598
2093.000000	10.458796
2092.000000	10.447279
2091.000000	10.431306
2090.000000	10.422721
2089.000000	10.429132
2088.000000	10.418918
2087.000000	10.397404
2086.000000	10.388276
2085.000000	10.371869
2084.000000	10.363285
2083.000000	10.341662
2082.000000	10.319169
2081.000000	10.304500
2080.000000	10.275162
2079.000000	10.249518
2078.000000	10.230612
2077.000000	10.194754
2076.000000	10.167480
2075.000000	10.134883
2074.000000	10.091745
2073.000000	10.070230
2072.000000	10.034373
2071.000000	9.993191
2070.000000	9.954943
2069.000000	9.906589
2068.000000	9.863234
2067.000000	9.829224
2066.000000	9.787607
2065.000000	9.761855
2064.000000	9.722520
2063.000000	9.683946
2062.000000	9.653956
2061.000000	9.622553
2060.000000	9.589956
2059.000000	9.570940
2058.000000	9.557032
2057.000000	9.520305
2056.000000	9.498356
2055.000000	9.502267
2054.000000	9.507809
2053.000000	9.511503
2052.000000	9.516719
2051.000000	9.537473
2050.000000	9.569636
2049.000000	9.582458
2048.000000	9.619185
2047.000000	9.659606
2046.000000	9.711002
2045.000000	9.768918
2044.000000	9.815424
2043.000000	9.859757
2042.000000	9.907132
2041.000000	9.952009
2040.000000	10.006447
2039.000000	10.065232
2038.000000	10.112825
2037.000000	10.152268
2036.000000	10.179868
2035.000000	10.217464
2034.000000	10.263753
2033.000000	10.311346
2032.000000	10.351332
2031.000000	10.379692
2030.000000	10.388276
2029.000000	10.413051
2028.000000	10.442498
2027.000000	10.465859
2026.000000	10.497045
2025.000000	10.500087
2024.000000	10.521602
2023.000000	10.541595
2022.000000	10.559958
2021.000000	10.563109
2020.000000	10.555286
2019.000000	10.562675
2018.000000	10.564087
2017.000000	10.583755
2016.000000	10.584298
2015.000000	10.576801
2014.000000	10.573541
2013.000000	10.577453
2012.000000	10.543877
2011.000000	10.551266
2010.000000	10.542030
2009.000000	10.552026
2008.000000	10.518776
2007.000000	10.500196
2006.000000	10.479985
2005.000000	10.448148
2004.000000	10.423265
2003.000000	10.403271
2002.000000	10.379584
2001.000000	10.348398
2000.000000	10.311780
1999.000000	10.270816
1998.000000	10.255386
1997.000000	10.223331
1996.000000	10.169436
1995.000000	10.126516
1994.000000	10.084791
1993.000000	10.065775
1992.000000	10.027744
1991.000000	9.982542
1990.000000	9.930603
1989.000000	9.882141
1988.000000	9.857366
1987.000000	9.792714
1986.000000	9.741427
1985.000000	9.704483
1984.000000	9.653739
1983.000000	9.605059
1982.000000	9.555293
1981.000000	9.512699
1980.000000	9.487490
1979.000000	9.442831
1978.000000	9.388392
1977.000000	9.344168
1976.000000	9.281797
1975.000000	9.234748
1974.000000	9.213125
1973.000000	9.153688
1972.000000	9.119678
1971.000000	9.077626
1970.000000	9.028512
1969.000000	8.987656
1968.000000	8.971140
1967.000000	8.927894
1966.000000	8.860416
1965.000000	8.828688
1964.000000	8.795112
1963.000000	8.762731
1962.000000	8.734697
1961.000000	8.691451
1960.000000	8.637882
1959.000000	8.631471
1958.000000	8.599851
1957.000000	8.545956
1956.000000	8.498254
1955.000000	8.460984
1954.000000	8.446532
1953.000000	8.406002
1952.000000	8.366776
1951.000000	8.341567
1950.000000	8.333853
1949.000000	8.287020
1948.000000	8.268983
1947.000000	8.218456
1946.000000	8.200745
1945.000000	8.178361
1944.000000	8.153695
1943.000000	8.123923
1942.000000	8.133702
1941.000000	8.118490
1940.000000	8.101756
1939.000000	8.110231
1938.000000	8.084696
1937.000000	8.076221
1936.000000	8.081980
1935.000000	8.077090
1934.000000	8.103603
1933.000000	8.113057
1932.000000	8.128378
1931.000000	8.148371
1930.000000	8.152283
1929.000000	8.185315
1928.000000	8.232039
1927.000000	8.275285
1926.000000	8.281913
1925.000000	8.323530
1924.000000	8.377316
1923.000000	8.402634
1922.000000	8.478370
1921.000000	8.566058
1920.000000	8.592679
1919.000000	8.672653
1918.000000	8.736110
1917.000000	8.836511
1916.000000	8.888016
1915.000000	8.992111
1914.000000	9.095012
1913.000000	9.214320
1912.000000	9.272235
1911.000000	9.391217
1910.000000	9.492379
1909.000000	9.610058
1908.000000	9.739036
1907.000000	9.864538
1906.000000	10.011011
1905.000000	10.173239
1904.000000	10.349376
1903.000000	10.504216
1902.000000	10.677745
1901.000000	10.847254
1900.000000	11.039798
1899.000000	11.269830
1898.000000	11.500623
1897.000000	11.712618
1896.000000	11.944062
1895.000000	12.162359
1894.000000	12.401518
1893.000000	12.672624
1892.000000	12.926126
1891.000000	13.251127
1890.000000	13.561784
1889.000000	13.860380
1888.000000	14.212654
1887.000000	14.561994
1886.000000	14.897534
1885.000000	15.266433
1884.000000	15.648806
1883.000000	16.073773
1882.000000	16.505803
1881.000000	16.929466
1880.000000	17.354759
1879.000000	17.728330
1878.000000	18.122112
1877.000000	18.521435
1876.000000	18.938361
1875.000000	19.332904
1874.000000	19.712668
1873.000000	20.090369
1872.000000	20.472632
1871.000000	20.807955
1870.000000	21.165228
1869.000000	21.495661
1868.000000	21.810013
1867.000000	22.078945
1866.000000	22.291265
1865.000000	22.482397
1864.000000	22.675377
1863.000000	22.842386
1862.000000	22.984513
1861.000000	23.166952
1860.000000	23.336026
1859.000000	23.498689
1858.000000	23.633861
1857.000000	23.744911
1856.000000	23.851724
1855.000000	23.939194
1854.000000	24.004499
1853.000000	24.078930
1852.000000	24.105661
1851.000000	24.145213
1850.000000	24.174985
1849.000000	24.216711
1848.000000	24.243332
1847.000000	24.273539
1846.000000	24.288752
1845.000000	24.256371
1844.000000	24.241702
1843.000000	24.225295
1842.000000	24.216711
1841.000000	24.229858
1840.000000	24.232032
1839.000000	24.231706
1838.000000	24.192154
1837.000000	24.178136
1836.000000	24.148907
1835.000000	24.102835
1834.000000	24.070564
1833.000000	24.015908
1832.000000	23.963208
1831.000000	23.926590
1830.000000	23.893340
1829.000000	23.842705
1828.000000	23.788810
1827.000000	23.732415
1826.000000	23.679933
1825.000000	23.652225
1824.000000	23.604849
1823.000000	23.545087
1822.000000	23.521616
1821.000000	23.514771
1820.000000	23.500102
1819.000000	23.479782
1818.000000	23.441534
1817.000000	23.397310
1816.000000	23.370254
1815.000000	23.361778
1814.000000	23.338634
1813.000000	23.331897
1812.000000	23.318532
1811.000000	23.283761
1810.000000	23.253119
1809.000000	23.213784
1808.000000	23.181621
1807.000000	23.148806
1806.000000	23.115121
1805.000000	23.071766
1804.000000	23.011569
1803.000000	22.967127
1802.000000	22.927575
1801.000000	22.890522
1800.000000	22.844668
1799.000000	22.785883
1798.000000	22.738073
1797.000000	22.699499
1796.000000	22.670487
1795.000000	22.636150
1794.000000	22.586493
1793.000000	22.547810
1792.000000	22.501739
1791.000000	22.456102
1790.000000	22.416332
1789.000000	22.367979
1788.000000	22.306369
1787.000000	22.274858
1786.000000	22.258124
1785.000000	22.207706
1784.000000	22.164677
1783.000000	22.112847
1782.000000	22.048520
1781.000000	22.001362
1780.000000	21.952139
1779.000000	21.895202
1778.000000	21.832940
1777.000000	21.765028
1776.000000	21.705374
1775.000000	21.644959
1774.000000	21.573570
1773.000000	21.488815
1772.000000	21.407647
1771.000000	21.339517
1770.000000	21.254763
1769.000000	21.166749
1768.000000	21.099380
1767.000000	21.020711
1766.000000	20.941824
1765.000000	20.882713
1764.000000	20.837185
1763.000000	20.802523
1762.000000	20.793721
1761.000000	20.793178
1760.000000	20.818930
1759.000000	20.851854
1758.000000	20.886951
1757.000000	20.928893
1756.000000	20.990612
1755.000000	21.023970
1754.000000	21.054830
1753.000000	21.092861
1752.000000	21.118721
1751.000000	21.126545
1750.000000	21.133282
1749.000000	21.102314
1748.000000	21.087536
1747.000000	21.065587
1746.000000	21.005390
1745.000000	20.942911
1744.000000	20.871304
1743.000000	20.776770
1742.000000	20.667350
1741.000000	20.550541
1740.000000	20.415152
1739.000000	20.260747
1738.000000	20.115904
1737.000000	19.978015
1736.000000	19.851644
1735.000000	19.733205
1734.000000	19.657361
1733.000000	19.620743
1732.000000	19.579452
1731.000000	19.545985
1730.000000	19.566739
1729.000000	19.602270
1728.000000	19.677245
1727.000000	19.727337
1726.000000	19.773518
1725.000000	19.836323
1724.000000	19.891413
1723.000000	19.920969
1722.000000	19.974538
1721.000000	20.024956
1720.000000	20.061031
1719.000000	20.150131
1718.000000	20.237385
1717.000000	20.297691
1716.000000	20.388856
1715.000000	20.474697
1714.000000	20.589767
1713.000000	20.672131
1712.000000	20.769599
1711.000000	20.858265
1710.000000	20.909769
1709.000000	20.972031
1708.000000	20.999305
1707.000000	21.018103
1706.000000	21.004629
1705.000000	20.998327
1704.000000	20.968228
1703.000000	20.925416
1702.000000	20.858047
1701.000000	20.780139
1700.000000	20.699731
1699.000000	20.609326
1698.000000	20.493386
1697.000000	20.401678
1696.000000	20.318662
1695.000000	20.239884
1694.000000	20.220434
1693.000000	20.213371
1692.000000	20.243904
1691.000000	20.313881
1690.000000	20.389182
1689.000000	20.479043
1688.000000	20.572708
1687.000000	20.659201
1686.000000	20.719181
1685.000000	20.811433
1684.000000	20.894448
1683.000000	21.033315
1682.000000	21.207931
1681.000000	21.436985
1680.000000	21.725150
1679.000000	22.092853
1678.000000	22.460231
1677.000000	22.878135
1676.000000	23.226497
1675.000000	23.573012
1674.000000	23.899425
1673.000000	24.189763
1672.000000	24.424033
1671.000000	24.688075
1670.000000	24.899744
1669.000000	25.097287
1668.000000	25.259950
1667.000000	25.432827
1666.000000	25.574736
1665.000000	25.678289
1664.000000	25.795641
1663.000000	25.885937
1662.000000	25.964280
1661.000000	26.057293
1660.000000	26.112926
1659.000000	26.164866
1658.000000	26.212350
1657.000000	26.260377
1656.000000	26.308948
1655.000000	26.310143
1654.000000	26.330680
1653.000000	26.348609
1652.000000	26.340133
1651.000000	26.300798
1650.000000	26.298408
1649.000000	26.265593
1648.000000	26.256900
1647.000000	26.214088
1646.000000	26.171711
1645.000000	26.110536
1644.000000	26.072070
1643.000000	26.029476
1642.000000	25.996009
1641.000000	25.935377
1640.000000	25.883112
1639.000000	25.827043
1638.000000	25.791946
1637.000000	25.736639
1636.000000	25.675029
1635.000000	25.617222
1634.000000	25.554851
1633.000000	25.489113
1632.000000	25.429241
1631.000000	25.359373
1630.000000	25.271576
1629.000000	25.222788
1628.000000	25.139664
1627.000000	25.076533
1626.000000	24.975697
1625.000000	24.925387
1624.000000	24.840742
1623.000000	24.776307
1622.000000	24.660910
1621.000000	24.600713
1620.000000	24.545079
1619.000000	24.476515
1618.000000	24.399041
1617.000000	24.330042
1616.000000	24.251699
1615.000000	24.197369
1614.000000	24.136303
1613.000000	24.054373
1612.000000	23.968967
1611.000000	23.911269
1610.000000	23.833577
1609.000000	23.775010
1608.000000	23.721224
1607.000000	23.638316
1606.000000	23.554975
1605.000000	23.470112
1604.000000	23.404699
1603.000000	23.335700
1602.000000	23.240080
1601.000000	23.192595
1600.000000	23.091977
1599.000000	23.030476
1598.000000	22.952567
1597.000000	22.885198
1596.000000	22.812831
1595.000000	22.734379
1594.000000	22.682222
1593.000000	22.604965
1592.000000	22.546289
1591.000000	22.480007
1590.000000	22.408726
1589.000000	22.344400
