PE UV       SUBTECH     SPECTRUM    ASCII       PEDS        4.00        
   -1
CICIMAUCR0254-3.ASC
24/06/27
11:23:41.00
24/06/27
11:23:41.00
Vinicio Soto Monge
C. resplendens. Sex F. Ventral
250,000000
1
Lambda 1050
1050L1511233
PerkinElmer UV WinLab 6.3.2.0749 / 2.02.05 Lambda 900 UV/VIS/NIR, Aug  7 2015 09:38:08

0
0
3350/servo 860,8/2
0
0
UV/VIS
1
1
1
DoubleDePol,CommonBeamDepol,RBeamAtt,SBeamAtt,60mm sphere, WB InGaAs Detector
0
0
0
0
Program
Program
3350/servo 860,8/2
3350/0,2 860,8/0,2
3350/0,2 860,8/0,2
0
15.00
 
 
 
0
 
860,8
319,2
860,8
Front
100
on
S:100 R:100
0
0
0
0
 
0
 
 
 
0
 
 
0
0
0
0
0
 
 
 
 
0
0


0
0
#HDR
-1
-1
#GR
nm
%R
1.0
0.0
2500,000000
-1,000000
2251
8
54,815200
4,004400
#DATA
2482.000000	5.251063
2481.000000	5.246278
2480.000000	5.189965
2479.000000	5.161030
2478.000000	5.224465
2477.000000	5.202875
2476.000000	5.218121
2475.000000	5.231254
2474.000000	5.219123
2473.000000	5.214115
2472.000000	5.203209
2471.000000	5.204322
2470.000000	5.199202
2469.000000	5.190522
2468.000000	5.214560
2467.000000	5.207994
2466.000000	5.213336
2465.000000	5.201651
2464.000000	5.212223
2463.000000	5.218678
2462.000000	5.200649
2461.000000	5.232478
2460.000000	5.210665
2459.000000	5.257518
2458.000000	5.244274
2457.000000	5.243718
2456.000000	5.272653
2455.000000	5.276548
2454.000000	5.233924
2453.000000	5.291238
2452.000000	5.344991
2451.000000	5.346104
2450.000000	5.366136
2449.000000	5.371589
2448.000000	5.387058
2447.000000	5.413211
2446.000000	5.414769
2445.000000	5.463625
2444.000000	5.454945
2443.000000	5.480652
2442.000000	5.497902
2441.000000	5.502354
2440.000000	5.521273
2439.000000	5.558889
2438.000000	5.577029
2437.000000	5.600733
2436.000000	5.611194
2435.000000	5.650591
2434.000000	5.646696
2433.000000	5.663166
2432.000000	5.670400
2431.000000	5.686426
2430.000000	5.712801
2429.000000	5.733056
2428.000000	5.738620
2427.000000	5.754312
2426.000000	5.766443
2425.000000	5.801721
2424.000000	5.813407
2423.000000	5.841563
2422.000000	5.827318
2421.000000	5.851801
2420.000000	5.853248
2419.000000	5.875172
2418.000000	5.887080
2417.000000	5.906444
2416.000000	5.903106
2415.000000	5.920912
2414.000000	5.949513
2413.000000	5.965316
2412.000000	5.949402
2411.000000	5.968098
2410.000000	5.979005
2409.000000	5.992693
2408.000000	5.991692
2407.000000	5.995809
2406.000000	6.014395
2405.000000	6.019959
2404.000000	6.052010
2403.000000	6.059689
2402.000000	6.067702
2401.000000	6.069705
2400.000000	6.078275
2399.000000	6.072488
2398.000000	6.089181
2397.000000	6.092074
2396.000000	6.086621
2395.000000	6.089849
2394.000000	6.090962
2393.000000	6.099308
2392.000000	6.111439
2391.000000	6.114221
2390.000000	6.124014
2389.000000	6.130358
2388.000000	6.138816
2387.000000	6.141487
2386.000000	6.146829
2385.000000	6.158291
2384.000000	6.156956
2383.000000	6.158069
2382.000000	6.154174
2381.000000	6.149388
2380.000000	6.136813
2379.000000	6.154062
2378.000000	6.156288
2377.000000	6.146050
2376.000000	6.137035
2375.000000	6.136479
2374.000000	6.132250
2373.000000	6.130469
2372.000000	6.138816
2371.000000	6.131248
2370.000000	6.114666
2369.000000	6.111327
2368.000000	6.108656
2367.000000	6.090183
2366.000000	6.082949
2365.000000	6.092074
2364.000000	6.072265
2363.000000	6.050897
2362.000000	6.061804
2361.000000	6.051565
2360.000000	6.031644
2359.000000	6.027527
2358.000000	6.028306
2357.000000	6.025746
2356.000000	6.007495
2355.000000	5.998814
2354.000000	5.999371
2353.000000	6.003043
2352.000000	5.982121
2351.000000	5.976779
2350.000000	5.993250
2349.000000	5.998035
2348.000000	5.995476
2347.000000	5.996143
2346.000000	5.998814
2345.000000	6.002153
2344.000000	6.000261
2343.000000	6.007940
2342.000000	6.018067
2341.000000	6.033425
2340.000000	6.052678
2339.000000	6.047670
2338.000000	6.049896
2337.000000	6.064809
2336.000000	6.069928
2335.000000	6.059244
2334.000000	6.054014
2333.000000	6.054793
2332.000000	6.070484
2331.000000	6.070373
2330.000000	6.040659
2329.000000	6.041327
2328.000000	6.042551
2327.000000	6.027861
2326.000000	6.003711
2325.000000	6.003488
2324.000000	5.996811
2323.000000	5.990468
2322.000000	5.979561
2321.000000	5.939052
2320.000000	5.936381
2319.000000	5.924918
2318.000000	5.898765
2317.000000	5.875395
2316.000000	5.843789
2315.000000	5.811960
2314.000000	5.811292
2313.000000	5.775234
2312.000000	5.749527
2311.000000	5.753644
2310.000000	5.729050
2309.000000	5.717030
2308.000000	5.699892
2307.000000	5.683644
2306.000000	5.685090
2305.000000	5.674184
2304.000000	5.670623
2303.000000	5.670623
2302.000000	5.669621
2301.000000	5.694439
2300.000000	5.711355
2299.000000	5.720146
2298.000000	5.731164
2297.000000	5.747523
2296.000000	5.770894
2295.000000	5.793152
2294.000000	5.817747
2293.000000	5.819082
2292.000000	5.825315
2291.000000	5.838892
2290.000000	5.849353
2289.000000	5.859035
2288.000000	5.880625
2287.000000	5.889862
2286.000000	5.881961
2285.000000	5.893312
2284.000000	5.900657
2283.000000	5.897207
2282.000000	5.890085
2281.000000	5.865935
2280.000000	5.856253
2279.000000	5.838335
2278.000000	5.849130
2277.000000	5.843455
2276.000000	5.825092
2275.000000	5.783025
2274.000000	5.787365
2273.000000	5.811403
2272.000000	5.801054
2271.000000	5.812739
2270.000000	5.806952
2269.000000	5.814408
2268.000000	5.807620
2267.000000	5.841897
2266.000000	5.847016
2265.000000	5.869274
2264.000000	5.897986
2263.000000	5.952741
2262.000000	5.981564
2261.000000	6.037209
2260.000000	6.075270
2259.000000	6.140930
2258.000000	6.201360
2257.000000	6.245208
2256.000000	6.330344
2255.000000	6.402460
2254.000000	6.463780
2253.000000	6.536452
2252.000000	6.610348
2251.000000	6.682018
2250.000000	6.732098
2249.000000	6.799428
2248.000000	6.860414
2247.000000	6.920399
2246.000000	6.982164
2245.000000	7.035472
2244.000000	7.072197
2243.000000	7.153104
2242.000000	7.196730
2241.000000	7.227000
2240.000000	7.257382
2239.000000	7.299338
2238.000000	7.332836
2237.000000	7.340293
2236.000000	7.387479
2235.000000	7.393823
2234.000000	7.430771
2233.000000	7.454364
2232.000000	7.468609
2231.000000	7.474841
2230.000000	7.505891
2229.000000	7.493426
2228.000000	7.476955
2227.000000	7.523808
2226.000000	7.499770
2225.000000	7.506781
2224.000000	7.465938
2223.000000	7.471057
2222.000000	7.474507
2221.000000	7.462377
2220.000000	7.473506
2219.000000	7.460262
2218.000000	7.436669
2217.000000	7.431216
2216.000000	7.416192
2215.000000	7.406732
2214.000000	7.370118
2213.000000	7.357097
2212.000000	7.367892
2211.000000	7.337844
2210.000000	7.343409
2209.000000	7.335952
2208.000000	7.333059
2207.000000	7.327717
2206.000000	7.305570
2205.000000	7.302232
2204.000000	7.265061
2203.000000	7.285538
2202.000000	7.264505
2201.000000	7.282867
2200.000000	7.246810
2199.000000	7.239799
2198.000000	7.249815
2197.000000	7.263280
2196.000000	7.220768
2195.000000	7.220768
2194.000000	7.202739
2193.000000	7.207970
2192.000000	7.209083
2191.000000	7.199846
2190.000000	7.199289
2189.000000	7.198622
2188.000000	7.199623
2187.000000	7.193725
2186.000000	7.169798
2185.000000	7.186602
2184.000000	7.166014
2183.000000	7.159893
2182.000000	7.164456
2181.000000	7.147095
2180.000000	7.154217
2179.000000	7.143533
2178.000000	7.126284
2177.000000	7.141530
2176.000000	7.114042
2175.000000	7.107698
2174.000000	7.117937
2173.000000	7.115711
2172.000000	7.115711
2171.000000	7.106919
2170.000000	7.113597
2169.000000	7.112595
2168.000000	7.108366
2167.000000	7.117269
2166.000000	7.128398
2165.000000	7.150211
2164.000000	7.136967
2163.000000	7.132961
2162.000000	7.157667
2161.000000	7.136077
2160.000000	7.156666
2159.000000	7.171912
2158.000000	7.194281
2157.000000	7.209750
2156.000000	7.215426
2155.000000	7.228892
2154.000000	7.265395
2153.000000	7.271850
2152.000000	7.277748
2151.000000	7.305236
2150.000000	7.334728
2149.000000	7.343075
2148.000000	7.367781
2147.000000	7.381469
2146.000000	7.396271
2145.000000	7.417750
2144.000000	7.433664
2143.000000	7.467496
2142.000000	7.488307
2141.000000	7.486526
2140.000000	7.492981
2139.000000	7.536495
2138.000000	7.546400
2137.000000	7.565096
2136.000000	7.598594
2135.000000	7.612839
2134.000000	7.612839
2133.000000	7.617402
2132.000000	7.627307
2131.000000	7.649565
2130.000000	7.654350
2129.000000	7.661807
2128.000000	7.659247
2127.000000	7.667037
2126.000000	7.667594
2125.000000	7.673603
2124.000000	7.682173
2123.000000	7.677053
2122.000000	7.678611
2121.000000	7.680837
2120.000000	7.680058
2119.000000	7.688850
2118.000000	7.681393
2117.000000	7.667148
2116.000000	7.657689
2115.000000	7.652458
2114.000000	7.653571
2113.000000	7.645225
2112.000000	7.655129
2111.000000	7.658134
2110.000000	7.636099
2109.000000	7.633428
2108.000000	7.635765
2107.000000	7.612728
2106.000000	7.599151
2105.000000	7.587577
2104.000000	7.589469
2103.000000	7.570327
2102.000000	7.563984
2101.000000	7.555303
2100.000000	7.535827
2099.000000	7.524365
2098.000000	7.527147
2097.000000	7.526702
2096.000000	7.507004
2095.000000	7.515128
2094.000000	7.523474
2093.000000	7.515462
2092.000000	7.518466
2091.000000	7.499436
2090.000000	7.486415
2089.000000	7.484301
2088.000000	7.488196
2087.000000	7.485747
2086.000000	7.467273
2085.000000	7.473839
2084.000000	7.466272
2083.000000	7.443124
2082.000000	7.443012
2081.000000	7.437559
2080.000000	7.427877
2079.000000	7.426653
2078.000000	7.401390
2077.000000	7.374792
2076.000000	7.363107
2075.000000	7.356096
2074.000000	7.345968
2073.000000	7.311803
2072.000000	7.296667
2071.000000	7.275077
2070.000000	7.249926
2069.000000	7.237239
2068.000000	7.215204
2067.000000	7.190831
2066.000000	7.175473
2065.000000	7.154996
2064.000000	7.137301
2063.000000	7.114821
2062.000000	7.094900
2061.000000	7.073199
2060.000000	7.058731
2059.000000	7.039923
2058.000000	7.028238
2057.000000	7.022896
2056.000000	7.016998
2055.000000	7.012769
2054.000000	7.004645
2053.000000	7.013103
2052.000000	7.005424
2051.000000	7.025122
2050.000000	7.026569
2049.000000	7.040925
2048.000000	7.062181
2047.000000	7.071084
2046.000000	7.090894
2045.000000	7.131069
2044.000000	7.165346
2043.000000	7.206634
2042.000000	7.224663
2041.000000	7.235570
2040.000000	7.261834
2039.000000	7.292104
2038.000000	7.327939
2037.000000	7.344633
2036.000000	7.364442
2035.000000	7.390373
2034.000000	7.410516
2033.000000	7.422535
2032.000000	7.435890
2031.000000	7.449245
2030.000000	7.464714
2029.000000	7.481184
2028.000000	7.488418
2027.000000	7.504221
2026.000000	7.502441
2025.000000	7.500437
2024.000000	7.514571
2023.000000	7.530152
2022.000000	7.531376
2021.000000	7.514126
2020.000000	7.539277
2019.000000	7.549516
2018.000000	7.542393
2017.000000	7.539166
2016.000000	7.545955
2015.000000	7.531487
2014.000000	7.517576
2013.000000	7.521249
2012.000000	7.520915
2011.000000	7.491868
2010.000000	7.503331
2009.000000	7.477735
2008.000000	7.448354
2007.000000	7.447909
2006.000000	7.437448
2005.000000	7.431995
2004.000000	7.400389
2003.000000	7.394379
2002.000000	7.375126
2001.000000	7.355094
2000.000000	7.347749
1999.000000	7.310690
1998.000000	7.270737
1997.000000	7.264171
1996.000000	7.232453
1995.000000	7.206189
1994.000000	7.203296
1993.000000	7.169798
1992.000000	7.135743
1991.000000	7.111927
1990.000000	7.105584
1989.000000	7.067634
1988.000000	7.032912
1987.000000	7.033914
1986.000000	6.986393
1985.000000	6.955010
1984.000000	6.932418
1983.000000	6.887902
1982.000000	6.864866
1981.000000	6.862751
1980.000000	6.838824
1979.000000	6.792194
1978.000000	6.774833
1977.000000	6.765373
1976.000000	6.712288
1975.000000	6.708727
1974.000000	6.669553
1973.000000	6.645626
1972.000000	6.612462
1971.000000	6.601222
1970.000000	6.561380
1969.000000	6.539679
1968.000000	6.528105
1967.000000	6.502063
1966.000000	6.466451
1965.000000	6.457993
1964.000000	6.435401
1963.000000	6.394447
1962.000000	6.398119
1961.000000	6.398676
1960.000000	6.374860
1959.000000	6.336799
1958.000000	6.305638
1957.000000	6.311091
1956.000000	6.302411
1955.000000	6.275590
1954.000000	6.245542
1953.000000	6.237418
1952.000000	6.200915
1951.000000	6.201360
1950.000000	6.205144
1949.000000	6.161408
1948.000000	6.143379
1947.000000	6.154508
1946.000000	6.125572
1945.000000	6.102758
1944.000000	6.091741
1943.000000	6.104984
1942.000000	6.108323
1941.000000	6.072488
1940.000000	6.099086
1939.000000	6.066812
1938.000000	6.064809
1937.000000	6.083728
1936.000000	6.092297
1935.000000	6.086844
1934.000000	6.093855
1933.000000	6.078386
1932.000000	6.095636
1931.000000	6.081725
1930.000000	6.118784
1929.000000	6.135811
1928.000000	6.129690
1927.000000	6.173872
1926.000000	6.186336
1925.000000	6.199914
1924.000000	6.213491
1923.000000	6.246210
1922.000000	6.273253
1921.000000	6.313206
1920.000000	6.368405
1919.000000	6.407356
1918.000000	6.424717
1917.000000	6.481475
1916.000000	6.503955
1915.000000	6.529440
1914.000000	6.582970
1913.000000	6.661207
1912.000000	6.724641
1911.000000	6.786741
1910.000000	6.855740
1909.000000	6.928189
1908.000000	6.958126
1907.000000	6.997522
1906.000000	7.071307
1905.000000	7.180148
1904.000000	7.288654
1903.000000	7.391152
1902.000000	7.465938
1901.000000	7.582124
1900.000000	7.685177
1899.000000	7.818613
1898.000000	7.953384
1897.000000	8.092718
1896.000000	8.202671
1895.000000	8.323754
1894.000000	8.435711
1893.000000	8.583614
1892.000000	8.745651
1891.000000	8.945526
1890.000000	9.169551
1889.000000	9.360634
1888.000000	9.557838
1887.000000	9.785313
1886.000000	9.986301
1885.000000	10.221900
1884.000000	10.499455
1883.000000	10.780015
1882.000000	11.071147
1881.000000	11.356603
1880.000000	11.634047
1879.000000	11.900028
1878.000000	12.148425
1877.000000	12.449128
1876.000000	12.751278
1875.000000	13.010470
1874.000000	13.271332
1873.000000	13.551001
1872.000000	13.865949
1871.000000	14.135936
1870.000000	14.401695
1869.000000	14.674242
1868.000000	14.924865
1867.000000	15.114835
1866.000000	15.295680
1865.000000	15.422994
1864.000000	15.559991
1863.000000	15.687974
1862.000000	15.781123
1861.000000	15.899200
1860.000000	16.052111
1859.000000	16.187884
1858.000000	16.315087
1857.000000	16.412688
1856.000000	16.479350
1855.000000	16.550464
1854.000000	16.615123
1853.000000	16.658637
1852.000000	16.712501
1851.000000	16.741547
1850.000000	16.749115
1849.000000	16.733757
1848.000000	16.780832
1847.000000	16.837923
1846.000000	16.887336
1845.000000	16.879434
1844.000000	16.843043
1843.000000	16.774600
1842.000000	16.760578
1841.000000	16.796301
1840.000000	16.812995
1839.000000	16.825459
1838.000000	16.781277
1837.000000	16.782947
1836.000000	16.779163
1835.000000	16.773598
1834.000000	16.744441
1833.000000	16.699702
1832.000000	16.645282
1831.000000	16.587746
1830.000000	16.587523
1829.000000	16.563151
1828.000000	16.525424
1827.000000	16.493929
1826.000000	16.461544
1825.000000	16.434834
1824.000000	16.386201
1823.000000	16.332449
1822.000000	16.294054
1821.000000	16.286709
1820.000000	16.289825
1819.000000	16.303959
1818.000000	16.272464
1817.000000	16.233513
1816.000000	16.204800
1815.000000	16.185992
1814.000000	16.195007
1813.000000	16.165292
1812.000000	16.138249
1811.000000	16.139251
1810.000000	16.130236
1809.000000	16.099521
1808.000000	16.058232
1807.000000	16.022397
1806.000000	15.997468
1805.000000	15.970314
1804.000000	15.941268
1803.000000	15.905544
1802.000000	15.864367
1801.000000	15.835098
1800.000000	15.808055
1799.000000	15.766878
1798.000000	15.720025
1797.000000	15.688753
1796.000000	15.654142
1795.000000	15.618752
1794.000000	15.591152
1793.000000	15.567336
1792.000000	15.521930
1791.000000	15.490213
1790.000000	15.469068
1789.000000	15.432899
1788.000000	15.407859
1787.000000	15.371245
1786.000000	15.339305
1785.000000	15.304694
1784.000000	15.268748
1783.000000	15.236585
1782.000000	15.200861
1781.000000	15.156234
1780.000000	15.117172
1779.000000	15.075550
1778.000000	15.026471
1777.000000	14.986407
1776.000000	14.947901
1775.000000	14.898378
1774.000000	14.846406
1773.000000	14.795213
1772.000000	14.730665
1771.000000	14.681030
1770.000000	14.611697
1769.000000	14.545480
1768.000000	14.492395
1767.000000	14.433635
1766.000000	14.369421
1765.000000	14.317004
1764.000000	14.300755
1763.000000	14.280612
1762.000000	14.262361
1761.000000	14.247337
1760.000000	14.264253
1759.000000	14.308880
1758.000000	14.343268
1757.000000	14.379326
1756.000000	14.413825
1755.000000	14.445320
1754.000000	14.486274
1753.000000	14.510758
1752.000000	14.517769
1751.000000	14.523667
1750.000000	14.537245
1749.000000	14.538246
1748.000000	14.538024
1747.000000	14.525559
1746.000000	14.489724
1745.000000	14.448881
1744.000000	14.410375
1743.000000	14.342711
1742.000000	14.262583
1741.000000	14.193028
1740.000000	14.088527
1739.000000	13.989925
1738.000000	13.876076
1737.000000	13.782594
1736.000000	13.688777
1735.000000	13.595739
1734.000000	13.521398
1733.000000	13.484339
1732.000000	13.458520
1731.000000	13.441047
1730.000000	13.437709
1729.000000	13.472765
1728.000000	13.515389
1727.000000	13.549220
1726.000000	13.589730
1725.000000	13.611654
1724.000000	13.643594
1723.000000	13.685883
1722.000000	13.728173
1721.000000	13.768905
1720.000000	13.815424
1719.000000	13.863167
1718.000000	13.930608
1717.000000	13.983248
1716.000000	14.058145
1715.000000	14.111342
1714.000000	14.188799
1713.000000	14.269372
1712.000000	14.341932
1711.000000	14.390566
1710.000000	14.455225
1709.000000	14.467689
1708.000000	14.496068
1707.000000	14.514653
1706.000000	14.507085
1705.000000	14.515766
1704.000000	14.506863
1703.000000	14.482491
1702.000000	14.449215
1701.000000	14.412156
1700.000000	14.340041
1699.000000	14.279499
1698.000000	14.219514
1697.000000	14.143615
1696.000000	14.087414
1695.000000	14.033217
1694.000000	14.003169
1693.000000	14.025092
1692.000000	14.070944
1691.000000	14.097764
1690.000000	14.142725
1689.000000	14.212615
1688.000000	14.288514
1687.000000	14.350947
1686.000000	14.421949
1685.000000	14.481155
1684.000000	14.530011
1683.000000	14.643971
1682.000000	14.753479
1681.000000	14.924753
1680.000000	15.154565
1679.000000	15.406524
1678.000000	15.666606
1677.000000	15.964193
1676.000000	16.244641
1675.000000	16.542340
1674.000000	16.769926
1673.000000	17.003744
1672.000000	17.221871
1671.000000	17.385911
1670.000000	17.548504
1669.000000	17.705310
1668.000000	17.830733
1667.000000	17.980640
1666.000000	18.064440
1665.000000	18.195650
1664.000000	18.235825
1663.000000	18.325858
1662.000000	18.407767
1661.000000	18.474763
1660.000000	18.544764
1659.000000	18.577928
1658.000000	18.624892
1657.000000	18.658056
1656.000000	18.686323
1655.000000	18.695338
1654.000000	18.739297
1653.000000	18.720712
1652.000000	18.730060
1651.000000	18.712810
1650.000000	18.684765
1649.000000	18.685656
1648.000000	18.656164
1647.000000	18.647261
1646.000000	18.597181
1645.000000	18.583492
1644.000000	18.551886
1643.000000	18.526624
1642.000000	18.465860
1641.000000	18.445828
1640.000000	18.402536
1639.000000	18.373379
1638.000000	18.334205
1637.000000	18.255078
1636.000000	18.238051
1635.000000	18.184187
1634.000000	18.099385
1633.000000	18.091261
1632.000000	18.033391
1631.000000	17.984423
1630.000000	17.924216
1629.000000	17.861783
1628.000000	17.792895
1627.000000	17.751050
1626.000000	17.701193
1625.000000	17.638871
1624.000000	17.553623
1623.000000	17.509776
1622.000000	17.441667
1621.000000	17.418185
1620.000000	17.330600
1619.000000	17.289980
1618.000000	17.238342
1617.000000	17.170344
1616.000000	17.102791
1615.000000	17.071297
1614.000000	17.035684
1613.000000	16.964237
1612.000000	16.901581
1611.000000	16.835030
1610.000000	16.797303
1609.000000	16.739655
1608.000000	16.685791
1607.000000	16.616903
1606.000000	16.591975
1605.000000	16.527093
1604.000000	16.460431
1603.000000	16.403562
1602.000000	16.329444
1601.000000	16.270015
1600.000000	16.214371
1599.000000	16.152717
1598.000000	16.098630
1597.000000	16.050553
1596.000000	15.988788
1595.000000	15.936482
1594.000000	15.870488
1593.000000	15.811059
1592.000000	15.781568
1591.000000	15.730041
1590.000000	15.674619
1589.000000	15.640787
1588.000000	15.594157
1587.000000	15.525937
1586.000000	15.491660
1585.000000	15.452486
1584.000000	15.425665
1583.000000	15.369353
1582.000000	15.324949
1581.000000	15.284106
1580.000000	15.260735
