PE UV       SUBTECH     SPECTRUM    ASCII       PEDS        4.00        
   -1
CICIMAUCR0141-1.ASC
24/04/03
17:28:52.00
24/04/03
17:28:52.00
Vinicio Soto Monge
C. kalinini
250,000000
1
Lambda 1050
1050L1511233
PerkinElmer UV WinLab 6.3.2.0749 / 2.02.05 Lambda 900 UV/VIS/NIR, Aug  7 2015 09:38:08

0
0
3350/servo 860,8/2
0
0
UV/VIS
1
1
1
DoubleDePol,CommonBeamDepol,RBeamAtt,SBeamAtt,60mm sphere, WB InGaAs Detector
0
0
0
0
Program
Program
3350/servo 860,8/2
3350/0,2 860,8/0,2
3350/0,2 860,8/0,2
0
15.00
 
 
 
0
 
860,8
319,2
860,8
Front
100
on
S:100 R:100
0
0
0
0
 
0
 
 
 
0
 
 
0
0
0
0
0
 
 
 
 
0
0


0
0
#HDR
-1
-1
#GR
nm
%R
1.0
0.0
2500,000000
-1,000000
2251
8
70,071300
5,462100
#DATA
2482.000000	6.476986
2481.000000	6.485859
2480.000000	6.446317
2479.000000	6.442556
2478.000000	6.494828
2477.000000	6.521158
2476.000000	6.511706
2475.000000	6.521833
2474.000000	6.557999
2473.000000	6.546040
2472.000000	6.572080
2471.000000	6.560989
2470.000000	6.602749
2469.000000	6.607282
2468.000000	6.616444
2467.000000	6.642002
2466.000000	6.685787
2465.000000	6.717614
2464.000000	6.727355
2463.000000	6.761978
2462.000000	6.792358
2461.000000	6.815794
2460.000000	6.885041
2459.000000	6.929501
2458.000000	6.924101
2457.000000	6.951394
2456.000000	6.980810
2455.000000	7.038290
2454.000000	7.062112
2453.000000	7.117857
2452.000000	7.156434
2451.000000	7.231178
2450.000000	7.269177
2449.000000	7.327044
2448.000000	7.379509
2447.000000	7.437086
2446.000000	7.482126
2445.000000	7.557931
2444.000000	7.623705
2443.000000	7.667394
2442.000000	7.714170
2441.000000	7.787274
2440.000000	7.843308
2439.000000	7.897317
2438.000000	7.979873
2437.000000	8.034267
2436.000000	8.094063
2435.000000	8.151447
2434.000000	8.201984
2433.000000	8.261297
2432.000000	8.323407
2431.000000	8.376451
2430.000000	8.440393
2429.000000	8.497199
2428.000000	8.549278
2427.000000	8.603866
2426.000000	8.642540
2425.000000	8.689990
2424.000000	8.751811
2423.000000	8.819418
2422.000000	8.872559
2421.000000	8.908822
2420.000000	8.946628
2419.000000	8.981733
2418.000000	9.020214
2417.000000	9.052041
2416.000000	9.104796
2415.000000	9.142891
2414.000000	9.176164
2413.000000	9.201529
2412.000000	9.254188
2411.000000	9.279070
2410.000000	9.301445
2409.000000	9.344556
2408.000000	9.348606
2407.000000	9.372332
2406.000000	9.396250
2405.000000	9.427208
2404.000000	9.454984
2403.000000	9.469547
2402.000000	9.492019
2401.000000	9.530114
2400.000000	9.535129
2399.000000	9.551042
2398.000000	9.566763
2397.000000	9.580361
2396.000000	9.602543
2395.000000	9.623857
2394.000000	9.632923
2393.000000	9.642471
2392.000000	9.678059
2391.000000	9.684810
2390.000000	9.681627
2389.000000	9.700048
2388.000000	9.716251
2387.000000	9.715672
2386.000000	9.720591
2385.000000	9.725895
2384.000000	9.735540
2383.000000	9.738144
2382.000000	9.741230
2381.000000	9.753671
2380.000000	9.732646
2379.000000	9.712682
2378.000000	9.724931
2377.000000	9.732550
2376.000000	9.735636
2375.000000	9.725606
2374.000000	9.715672
2373.000000	9.722809
2372.000000	9.714418
2371.000000	9.694262
2370.000000	9.690500
2369.000000	9.694165
2368.000000	9.708246
2367.000000	9.709403
2366.000000	9.692815
2365.000000	9.686450
2364.000000	9.688668
2363.000000	9.688379
2362.000000	9.686450
2361.000000	9.686450
2360.000000	9.679795
2359.000000	9.668704
2358.000000	9.676709
2357.000000	9.680084
2356.000000	9.660796
2355.000000	9.645750
2354.000000	9.637360
2353.000000	9.620385
2352.000000	9.597432
2351.000000	9.582869
2350.000000	9.585473
2349.000000	9.581422
2348.000000	9.568306
2347.000000	9.549499
2346.000000	9.532718
2345.000000	9.515551
2344.000000	9.503399
2343.000000	9.488643
2342.000000	9.485557
2341.000000	9.479867
2340.000000	9.453248
2339.000000	9.432898
2338.000000	9.429619
2337.000000	9.427015
2336.000000	9.417660
2335.000000	9.418625
2334.000000	9.407630
2333.000000	9.394803
2332.000000	9.379661
2331.000000	9.390077
2330.000000	9.388920
2329.000000	9.385834
2328.000000	9.388245
2327.000000	9.387763
2326.000000	9.391138
2325.000000	9.392103
2324.000000	9.397696
2323.000000	9.397986
2322.000000	9.375514
2321.000000	9.367509
2320.000000	9.353621
2319.000000	9.354489
2318.000000	9.332114
2317.000000	9.311475
2316.000000	9.299999
2315.000000	9.286593
2314.000000	9.250426
2313.000000	9.233934
2312.000000	9.194296
2311.000000	9.148292
2310.000000	9.122445
2309.000000	9.084543
2308.000000	9.065447
2307.000000	9.038249
2306.000000	9.011920
2305.000000	8.967749
2304.000000	8.932065
2303.000000	8.893583
2302.000000	8.886929
2301.000000	8.858574
2300.000000	8.812956
2299.000000	8.799454
2298.000000	8.797622
2297.000000	8.779780
2296.000000	8.752486
2295.000000	8.746024
2294.000000	8.722974
2293.000000	8.707929
2292.000000	8.699827
2291.000000	8.688254
2290.000000	8.673016
2289.000000	8.656235
2288.000000	8.631834
2287.000000	8.635114
2286.000000	8.627205
2285.000000	8.614378
2284.000000	8.595186
2283.000000	8.597308
2282.000000	8.567313
2281.000000	8.547157
2280.000000	8.549664
2279.000000	8.523624
2278.000000	8.489194
2277.000000	8.476656
2276.000000	8.474341
2275.000000	8.465854
2274.000000	8.434124
2273.000000	8.382045
2272.000000	8.351086
2271.000000	8.345974
2270.000000	8.309036
2269.000000	8.306336
2268.000000	8.272388
2267.000000	8.258210
2266.000000	8.259368
2265.000000	8.253774
2264.000000	8.225516
2263.000000	8.232460
2262.000000	8.242394
2261.000000	8.233810
2260.000000	8.254546
2259.000000	8.265251
2258.000000	8.297463
2257.000000	8.323214
2256.000000	8.347710
2255.000000	8.390339
2254.000000	8.432388
2253.000000	8.450520
2252.000000	8.506361
2251.000000	8.540502
2250.000000	8.566156
2249.000000	8.614475
2248.000000	8.640900
2247.000000	8.687193
2246.000000	8.715162
2245.000000	8.750750
2244.000000	8.771678
2243.000000	8.803891
2242.000000	8.833788
2241.000000	8.845265
2240.000000	8.865711
2239.000000	8.882782
2238.000000	8.907954
2237.000000	8.887122
2236.000000	8.916248
2235.000000	8.900913
2234.000000	8.875163
2233.000000	8.853752
2232.000000	8.820479
2231.000000	8.800901
2230.000000	8.733969
2229.000000	8.714680
2228.000000	8.673113
2227.000000	8.631449
2226.000000	8.545228
2225.000000	8.510604
2224.000000	8.434028
2223.000000	8.370182
2222.000000	8.297270
2221.000000	8.230917
2220.000000	8.133991
2219.000000	8.076124
2218.000000	8.005141
2217.000000	7.943321
2216.000000	7.876774
2215.000000	7.826431
2214.000000	7.765864
2213.000000	7.717931
2212.000000	7.673856
2211.000000	7.645598
2210.000000	7.626792
2209.000000	7.624380
2208.000000	7.623609
2207.000000	7.667587
2206.000000	7.690541
2205.000000	7.765767
2204.000000	7.825370
2203.000000	7.899439
2202.000000	7.985756
2201.000000	8.085769
2200.000000	8.183756
2199.000000	8.282900
2198.000000	8.407506
2197.000000	8.512630
2196.000000	8.620358
2195.000000	8.729629
2194.000000	8.837550
2193.000000	8.941998
2192.000000	9.033910
2191.000000	9.132572
2190.000000	9.207702
2189.000000	9.280420
2188.000000	9.357383
2187.000000	9.421711
2186.000000	9.477263
2185.000000	9.522013
2184.000000	9.562712
2183.000000	9.604665
2182.000000	9.626172
2181.000000	9.673044
2180.000000	9.691561
2179.000000	9.723195
2178.000000	9.744220
2177.000000	9.763123
2176.000000	9.780868
2175.000000	9.817999
2174.000000	9.846064
2173.000000	9.864196
2172.000000	9.877023
2171.000000	9.894094
2170.000000	9.947716
2169.000000	9.982822
2168.000000	9.993142
2167.000000	10.024679
2166.000000	10.063160
2165.000000	10.091997
2164.000000	10.112539
2163.000000	10.157386
2162.000000	10.178989
2161.000000	10.226440
2160.000000	10.264439
2159.000000	10.311310
2158.000000	10.364933
2157.000000	10.416627
2156.000000	10.491275
2155.000000	10.542776
2154.000000	10.603246
2153.000000	10.658509
2152.000000	10.730359
2151.000000	10.781957
2150.000000	10.849082
2149.000000	10.933278
2148.000000	10.990565
2147.000000	11.049493
2146.000000	11.122887
2145.000000	11.183068
2144.000000	11.262730
2143.000000	11.319343
2142.000000	11.365154
2141.000000	11.426203
2140.000000	11.492074
2139.000000	11.550230
2138.000000	11.598452
2137.000000	11.651400
2136.000000	11.695957
2135.000000	11.734631
2134.000000	11.786614
2133.000000	11.851039
2132.000000	11.881901
2131.000000	11.908905
2130.000000	11.949701
2129.000000	11.992619
2128.000000	12.029557
2127.000000	12.061383
2126.000000	12.079900
2125.000000	12.115392
2124.000000	12.141817
2123.000000	12.170847
2122.000000	12.183288
2121.000000	12.201034
2120.000000	12.228521
2119.000000	12.224566
2118.000000	12.234500
2117.000000	12.259672
2116.000000	12.272306
2115.000000	12.269509
2114.000000	12.269895
2113.000000	12.268159
2112.000000	12.276743
2111.000000	12.289087
2110.000000	12.285615
2109.000000	12.276357
2108.000000	12.274042
2107.000000	12.274717
2106.000000	12.262469
2105.000000	12.251764
2104.000000	12.261504
2103.000000	12.252824
2102.000000	12.242987
2101.000000	12.245881
2100.000000	12.233053
2099.000000	12.221191
2098.000000	12.221094
2097.000000	12.225917
2096.000000	12.219069
2095.000000	12.209618
2094.000000	12.220034
2093.000000	12.222637
2092.000000	12.222830
2091.000000	12.236236
2090.000000	12.230449
2089.000000	12.220516
2088.000000	12.219841
2087.000000	12.219455
2086.000000	12.221287
2085.000000	12.207496
2084.000000	12.191968
2083.000000	12.181745
2082.000000	12.170847
2081.000000	12.146061
2080.000000	12.112402
2079.000000	12.087037
2078.000000	12.049135
2077.000000	12.006217
2076.000000	11.970436
2075.000000	11.927326
2074.000000	11.883926
2073.000000	11.833100
2072.000000	11.767711
2071.000000	11.698657
2070.000000	11.645227
2069.000000	11.588132
2068.000000	11.521779
2067.000000	11.453786
2066.000000	11.398041
2065.000000	11.331784
2064.000000	11.259741
2063.000000	11.181621
2062.000000	11.129059
2061.000000	11.078908
2060.000000	11.020849
2059.000000	10.975520
2058.000000	10.918715
2057.000000	10.882934
2056.000000	10.850239
2055.000000	10.820052
2054.000000	10.802210
2053.000000	10.797002
2052.000000	10.805489
2051.000000	10.802017
2050.000000	10.809347
2049.000000	10.852843
2048.000000	10.893736
2047.000000	10.925948
2046.000000	10.966937
2045.000000	11.016219
2044.000000	11.090096
2043.000000	11.142658
2042.000000	11.206407
2041.000000	11.263020
2040.000000	11.319922
2039.000000	11.379813
2038.000000	11.440187
2037.000000	11.495643
2036.000000	11.538850
2035.000000	11.580320
2034.000000	11.630954
2033.000000	11.680815
2032.000000	11.732798
2031.000000	11.770797
2030.000000	11.804167
2029.000000	11.809182
2028.000000	11.865602
2027.000000	11.894921
2026.000000	11.911509
2025.000000	11.926844
2024.000000	11.947676
2023.000000	11.979984
2022.000000	11.995319
2021.000000	12.009496
2020.000000	12.020877
2019.000000	12.020973
2018.000000	12.042673
2017.000000	12.057429
2016.000000	12.057140
2015.000000	12.071703
2014.000000	12.071220
2013.000000	12.065434
2012.000000	12.066880
2011.000000	12.064276
2010.000000	12.026470
2009.000000	12.021359
2008.000000	12.024734
2007.000000	11.998887
2006.000000	11.973523
2005.000000	11.943529
2004.000000	11.915078
2003.000000	11.884119
2002.000000	11.857983
2001.000000	11.813040
2000.000000	11.780828
1999.000000	11.734824
1998.000000	11.696535
1997.000000	11.641466
1996.000000	11.614847
1995.000000	11.569422
1994.000000	11.501911
1993.000000	11.468060
1992.000000	11.424756
1991.000000	11.390229
1990.000000	11.312206
1989.000000	11.261477
1988.000000	11.207854
1987.000000	11.173809
1986.000000	11.110735
1985.000000	11.061259
1984.000000	11.002428
1983.000000	10.952470
1982.000000	10.879751
1981.000000	10.852747
1980.000000	10.804139
1979.000000	10.732771
1978.000000	10.683970
1977.000000	10.603729
1976.000000	10.581932
1975.000000	10.522523
1974.000000	10.468225
1973.000000	10.407947
1972.000000	10.367151
1971.000000	10.327127
1970.000000	10.276976
1969.000000	10.239556
1968.000000	10.176771
1967.000000	10.142823
1966.000000	10.078784
1965.000000	10.032876
1964.000000	10.013781
1963.000000	9.950513
1962.000000	9.924666
1961.000000	9.875094
1960.000000	9.799771
1959.000000	9.774985
1958.000000	9.750006
1957.000000	9.678445
1956.000000	9.646908
1955.000000	9.586823
1954.000000	9.538312
1953.000000	9.495298
1952.000000	9.451126
1951.000000	9.421518
1950.000000	9.371753
1949.000000	9.352946
1948.000000	9.328835
1947.000000	9.279552
1946.000000	9.240300
1945.000000	9.203169
1944.000000	9.169028
1943.000000	9.171149
1942.000000	9.150414
1941.000000	9.121095
1940.000000	9.128232
1939.000000	9.103831
1938.000000	9.102867
1937.000000	9.085121
1936.000000	9.051173
1935.000000	9.053102
1934.000000	9.069690
1933.000000	9.088207
1932.000000	9.101903
1931.000000	9.133440
1930.000000	9.172307
1929.000000	9.192078
1928.000000	9.215899
1927.000000	9.214356
1926.000000	9.247147
1925.000000	9.303374
1924.000000	9.371656
1923.000000	9.413320
1922.000000	9.492790
1921.000000	9.547281
1920.000000	9.600904
1919.000000	9.674394
1918.000000	9.742291
1917.000000	9.825908
1916.000000	9.942412
1915.000000	10.080423
1914.000000	10.204933
1913.000000	10.331756
1912.000000	10.445367
1911.000000	10.592445
1910.000000	10.713000
1909.000000	10.872229
1908.000000	11.076111
1907.000000	11.283659
1906.000000	11.508759
1905.000000	11.749001
1904.000000	11.996476
1903.000000	12.220034
1902.000000	12.488341
1901.000000	12.799855
1900.000000	13.111080
1899.000000	13.438218
1898.000000	13.762945
1897.000000	14.103006
1896.000000	14.442007
1895.000000	14.793063
1894.000000	15.167555
1893.000000	15.592584
1892.000000	16.029668
1891.000000	16.456915
1890.000000	16.869695
1889.000000	17.259908
1888.000000	17.700464
1887.000000	18.085372
1886.000000	18.489279
1885.000000	18.883157
1884.000000	19.271344
1883.000000	19.645643
1882.000000	20.016856
1881.000000	20.359618
1880.000000	20.686563
1879.000000	21.008300
1878.000000	21.320393
1877.000000	21.634704
1876.000000	21.930691
1875.000000	22.222819
1874.000000	22.486883
1873.000000	22.753165
1872.000000	23.001701
1871.000000	23.211756
1870.000000	23.388056
1869.000000	23.555868
1868.000000	23.711722
1867.000000	23.822150
1866.000000	23.916858
1865.000000	24.018125
1864.000000	24.138872
1863.000000	24.253641
1862.000000	24.364937
1861.000000	24.475751
1860.000000	24.592641
1859.000000	24.708278
1858.000000	24.782636
1857.000000	24.844842
1856.000000	24.899526
1855.000000	24.951220
1854.000000	25.001178
1853.000000	25.023457
1852.000000	25.054030
1851.000000	25.106206
1850.000000	25.154331
1849.000000	25.220106
1848.000000	25.251161
1847.000000	25.236984
1846.000000	25.202939
1845.000000	25.176321
1844.000000	25.188955
1843.000000	25.210076
1842.000000	25.221939
1841.000000	25.225796
1840.000000	25.212198
1839.000000	25.194452
1838.000000	25.178828
1837.000000	25.161179
1836.000000	25.123951
1835.000000	25.081420
1834.000000	25.032233
1833.000000	25.003107
1832.000000	24.989219
1831.000000	24.983433
1830.000000	24.972438
1829.000000	24.957393
1828.000000	24.930581
1827.000000	24.892872
1826.000000	24.873776
1825.000000	24.858538
1824.000000	24.852462
1823.000000	24.875897
1822.000000	24.922962
1821.000000	24.943312
1820.000000	24.923444
1819.000000	24.887664
1818.000000	24.876573
1817.000000	24.879466
1816.000000	24.871172
1815.000000	24.876669
1814.000000	24.862974
1813.000000	24.855934
1812.000000	24.856609
1811.000000	24.832498
1810.000000	24.782057
1809.000000	24.758429
1808.000000	24.748591
1807.000000	24.724770
1806.000000	24.703456
1805.000000	24.679055
1804.000000	24.656294
1803.000000	24.654269
1802.000000	24.643853
1801.000000	24.619742
1800.000000	24.588880
1799.000000	24.548084
1798.000000	24.523298
1797.000000	24.515872
1796.000000	24.509796
1795.000000	24.495812
1794.000000	24.474883
1793.000000	24.432930
1792.000000	24.414606
1791.000000	24.403515
1790.000000	24.402936
1789.000000	24.388373
1788.000000	24.386637
1787.000000	24.397246
1786.000000	24.385865
1785.000000	24.369277
1784.000000	24.357029
1783.000000	24.371495
1782.000000	24.360019
1781.000000	24.340440
1780.000000	24.323852
1779.000000	24.299645
1778.000000	24.267046
1777.000000	24.237535
1776.000000	24.205708
1775.000000	24.177739
1774.000000	24.141380
1773.000000	24.117173
1772.000000	24.089975
1771.000000	24.052844
1770.000000	24.009637
1769.000000	23.965659
1768.000000	23.921295
1767.000000	23.891879
1766.000000	23.872012
1765.000000	23.834784
1764.000000	23.818582
1763.000000	23.806141
1762.000000	23.796689
1761.000000	23.782415
1760.000000	23.785984
1759.000000	23.787527
1758.000000	23.787334
1757.000000	23.784441
1756.000000	23.788009
1755.000000	23.795532
1754.000000	23.807009
1753.000000	23.792253
1752.000000	23.791385
1751.000000	23.777015
1750.000000	23.775664
1749.000000	23.750203
1748.000000	23.725706
1747.000000	23.685489
1746.000000	23.632445
1745.000000	23.588274
1744.000000	23.532722
1743.000000	23.473216
1742.000000	23.414482
1741.000000	23.328164
1740.000000	23.257471
1739.000000	23.202690
1738.000000	23.126018
1737.000000	23.091876
1736.000000	23.042786
1735.000000	22.981930
1734.000000	22.926475
1733.000000	22.870537
1732.000000	22.807849
1731.000000	22.781134
1730.000000	22.730115
1729.000000	22.703111
1728.000000	22.653345
1727.000000	22.597215
1726.000000	22.580820
1725.000000	22.573683
1724.000000	22.561145
1723.000000	22.575612
1722.000000	22.624026
1721.000000	22.731947
1720.000000	22.860411
1719.000000	23.033721
1718.000000	23.213010
1717.000000	23.386223
1716.000000	23.594157
1715.000000	23.761294
1714.000000	23.945213
1713.000000	24.094508
1712.000000	24.244189
1711.000000	24.368216
1710.000000	24.477584
1709.000000	24.595438
1708.000000	24.696705
1707.000000	24.777235
1706.000000	24.854198
1705.000000	24.911775
1704.000000	24.959322
1703.000000	24.992016
1702.000000	25.024807
1701.000000	25.049786
1700.000000	25.051233
1699.000000	25.080937
1698.000000	25.057598
1697.000000	25.065217
1696.000000	25.040334
1695.000000	25.014680
1694.000000	24.955850
1693.000000	24.895476
1692.000000	24.819863
1691.000000	24.756886
1690.000000	24.696897
1689.000000	24.628326
1688.000000	24.632280
1687.000000	24.647711
1686.000000	24.733064
1685.000000	24.818610
1684.000000	24.950545
1683.000000	25.107267
1682.000000	25.289160
1681.000000	25.454176
1680.000000	25.628643
1679.000000	25.817673
1678.000000	25.958385
1677.000000	26.095143
1676.000000	26.216662
1675.000000	26.335192
1674.000000	26.458351
1673.000000	26.587778
1672.000000	26.711709
1671.000000	26.831492
1670.000000	26.951951
1669.000000	27.078871
1668.000000	27.224791
1667.000000	27.356534
1666.000000	27.452013
1665.000000	27.568518
1664.000000	27.689555
1663.000000	27.791303
1662.000000	27.913980
1661.000000	28.005891
1660.000000	28.080924
1659.000000	28.162420
1658.000000	28.223951
1657.000000	28.288568
1656.000000	28.336983
1655.000000	28.370064
1654.000000	28.388195
1653.000000	28.418286
1652.000000	28.447990
1651.000000	28.453391
1650.000000	28.468051
1649.000000	28.451752
1648.000000	28.434392
1647.000000	28.440371
1646.000000	28.416453
1645.000000	28.402179
1644.000000	28.377200
1643.000000	28.361769
1642.000000	28.349425
1641.000000	28.332354
1640.000000	28.315187
1639.000000	28.289629
1638.000000	28.265518
1637.000000	28.258767
1636.000000	28.229062
1635.000000	28.197718
1634.000000	28.154704
1633.000000	28.130979
1632.000000	28.102624
1631.000000	28.058742
1630.000000	28.017657
1629.000000	27.968085
1628.000000	27.935005
1627.000000	27.904818
1626.000000	27.862093
1625.000000	27.803648
1624.000000	27.758319
1623.000000	27.724275
1622.000000	27.691580
1621.000000	27.648759
1620.000000	27.610278
1619.000000	27.581248
1618.000000	27.551158
1617.000000	27.515184
1616.000000	27.467734
1615.000000	27.424237
1614.000000	27.389228
1613.000000	27.349107
1612.000000	27.302718
1611.000000	27.254592
1610.000000	27.197690
1609.000000	27.157473
1608.000000	27.098739
1607.000000	27.046755
1606.000000	26.983199
1605.000000	26.920028
1604.000000	26.857147
1603.000000	26.796290
1602.000000	26.730998
1601.000000	26.666477
1600.000000	26.602245
1599.000000	26.542546
1598.000000	26.481015
1597.000000	26.431057
1596.000000	26.386500
1595.000000	26.325837
1594.000000	26.283980
1593.000000	26.246945
1592.000000	26.195734
1591.000000	26.156577
1590.000000	26.117035
1589.000000	26.077300
