PE UV       SUBTECH     SPECTRUM    ASCII       PEDS        4.00        
   -1
CICIMAUCR0113-5.Sample.ASC
24/04/25
11:11:16.00
24/04/25
11:11:16.00
Vinicio Soto Monge
C. kalinini
250,000000
1
Lambda 1050
1050L1511233
PerkinElmer UV WinLab 6.3.2.0749 / 2.02.05 Lambda 900 UV/VIS/NIR, Aug  7 2015 09:38:08

0
0
3350/servo 860,8/2
0
0
UV/VIS
1
1
1
DoubleDePol,CommonBeamDepol,RBeamAtt,SBeamAtt,60mm sphere, WB InGaAs Detector
0
0
0
0
Program
Program
3350/servo 860,8/2
3350/0,2 860,8/0,2
3350/0,2 860,8/0,2
0
15.00
 
 
 
0
 
860,8
319,2
860,8
Front
100
on
S:100 R:100
0
0
0
0
 
0
 
 
 
0
 
 
0
0
0
0
0
 
 
 
 
0
0


0
0
#HDR
-1
-1
#GR
nm
%R
1.0
0.0
2500,000000
-1,000000
2251
8
100,911800
4,775100
#DATA
2482.000000	6.022456
2481.000000	5.958001
2480.000000	5.974982
2479.000000	5.995434
2478.000000	5.986510
2477.000000	5.944366
2476.000000	6.048486
2475.000000	5.960232
2474.000000	5.961967
2473.000000	5.939160
2472.000000	5.998657
2471.000000	6.024315
2470.000000	5.990228
2469.000000	5.918832
2468.000000	5.974982
2467.000000	5.970520
2466.000000	5.973866
2465.000000	5.985270
2464.000000	5.961471
2463.000000	5.972007
2462.000000	6.021712
2461.000000	6.088026
2460.000000	6.056047
2459.000000	6.045263
2458.000000	6.069433
2457.000000	6.101661
2456.000000	6.162645
2455.000000	6.121617
2454.000000	6.155084
2453.000000	6.169587
2452.000000	6.201814
2451.000000	6.225861
2450.000000	6.249412
2449.000000	6.275814
2448.000000	6.307545
2447.000000	6.351300
2446.000000	6.374603
2445.000000	6.367910
2444.000000	6.407575
2443.000000	6.453189
2442.000000	6.476492
2441.000000	6.524337
2440.000000	6.544541
2439.000000	6.547764
2438.000000	6.576149
2437.000000	6.620524
2436.000000	6.645314
2435.000000	6.635770
2434.000000	6.651636
2433.000000	6.665271
2432.000000	6.686962
2431.000000	6.697870
2430.000000	6.738898
2429.000000	6.767407
2428.000000	6.773109
2427.000000	6.780174
2426.000000	6.794305
2425.000000	6.810047
2424.000000	6.824425
2423.000000	6.868180
2422.000000	6.867189
2421.000000	6.854298
2420.000000	6.869172
2419.000000	6.875121
2418.000000	6.896441
2417.000000	6.899912
2416.000000	6.892475
2415.000000	6.908589
2414.000000	6.910448
2413.000000	6.929536
2412.000000	6.932511
2411.000000	6.938337
2410.000000	6.956930
2409.000000	6.974283
2408.000000	7.010105
2407.000000	7.048034
2406.000000	7.045679
2405.000000	7.031177
2404.000000	7.046795
2403.000000	7.064396
2402.000000	7.065636
2401.000000	7.095136
2400.000000	7.120299
2399.000000	7.121166
2398.000000	7.151163
2397.000000	7.171119
2396.000000	7.182522
2395.000000	7.205330
2394.000000	7.201735
2393.000000	7.222435
2392.000000	7.258753
2391.000000	7.260736
2390.000000	7.253299
2389.000000	7.262719
2388.000000	7.287882
2387.000000	7.303747
2386.000000	7.293955
2385.000000	7.294699
2384.000000	7.298789
2383.000000	7.283047
2382.000000	7.285279
2381.000000	7.273379
2380.000000	7.286518
2379.000000	7.307714
2378.000000	7.286518
2377.000000	7.280940
2376.000000	7.272636
2375.000000	7.272140
2374.000000	7.260488
2373.000000	7.244746
2372.000000	7.249333
2371.000000	7.250324
2370.000000	7.239292
2369.000000	7.217229
2368.000000	7.185869
2367.000000	7.159095
2366.000000	7.148312
2365.000000	7.134057
2364.000000	7.109639
2363.000000	7.096996
2362.000000	7.076420
2361.000000	7.041217
2360.000000	7.004899
2359.000000	6.999817
2358.000000	6.987918
2357.000000	6.958169
2356.000000	6.960896
2355.000000	6.964243
2354.000000	6.964491
2353.000000	6.966722
2352.000000	6.964987
2351.000000	6.974779
2350.000000	6.978373
2349.000000	6.985067
2348.000000	7.011593
2347.000000	7.042829
2346.000000	7.054108
2345.000000	7.079518
2344.000000	7.102202
2343.000000	7.120299
2342.000000	7.141990
2341.000000	7.170003
2340.000000	7.183142
2339.000000	7.176077
2338.000000	7.167276
2337.000000	7.184010
2336.000000	7.198016
2335.000000	7.202355
2334.000000	7.186985
2333.000000	7.202974
2332.000000	7.183266
2331.000000	7.156740
2330.000000	7.156616
2329.000000	7.151163
2328.000000	7.132446
2327.000000	7.119431
2326.000000	7.074560
2325.000000	7.079394
2324.000000	7.069726
2323.000000	7.020393
2322.000000	6.988166
2321.000000	6.967094
2320.000000	6.936106
2319.000000	6.906853
2318.000000	6.877724
2317.000000	6.842522
2316.000000	6.803973
2315.000000	6.777199
2314.000000	6.741501
2313.000000	6.732825
2312.000000	6.704935
2311.000000	6.700969
2310.000000	6.682376
2309.000000	6.647670
2308.000000	6.640356
2307.000000	6.661180
2306.000000	6.682996
2305.000000	6.682748
2304.000000	6.714480
2303.000000	6.717331
2302.000000	6.747451
2301.000000	6.795296
2300.000000	6.831738
2299.000000	6.879956
2298.000000	6.910324
2297.000000	6.943295
2296.000000	6.975275
2295.000000	6.999693
2294.000000	7.049150
2293.000000	7.060802
2292.000000	7.069726
2291.000000	7.081254
2290.000000	7.107531
2289.000000	7.109639
2288.000000	7.143106
2287.000000	7.151782
2286.000000	7.139263
2285.000000	7.133561
2284.000000	7.112985
2283.000000	7.142734
2282.000000	7.127612
2281.000000	7.107408
2280.000000	7.099227
2279.000000	7.075676
2278.000000	7.071957
2277.000000	7.073445
2276.000000	7.095384
2275.000000	7.068363
2274.000000	7.059438
2273.000000	7.078403
2272.000000	7.080138
2271.000000	7.100218
2270.000000	7.121662
2269.000000	7.152898
2268.000000	7.182770
2267.000000	7.239912
2266.000000	7.284659
2265.000000	7.319985
2264.000000	7.407991
2263.000000	7.482858
2262.000000	7.585490
2261.000000	7.650689
2260.000000	7.755800
2259.000000	7.835873
2258.000000	7.946934
2257.000000	8.029486
2256.000000	8.157653
2255.000000	8.258922
2254.000000	8.431091
2253.000000	8.517361
2252.000000	8.621357
2251.000000	8.704901
2250.000000	8.822903
2249.000000	8.892936
2248.000000	8.976728
2247.000000	9.064362
2246.000000	9.165011
2245.000000	9.266899
2244.000000	9.332842
2243.000000	9.409196
2242.000000	9.471544
2241.000000	9.552113
2240.000000	9.609255
2239.000000	9.668380
2238.000000	9.710771
2237.000000	9.761468
2236.000000	9.795802
2235.000000	9.849350
2234.000000	9.906368
2233.000000	9.949255
2232.000000	9.972930
2231.000000	9.993878
2230.000000	10.025485
2229.000000	10.040236
2228.000000	10.060688
2227.000000	10.065398
2226.000000	10.064282
2225.000000	10.073207
2224.000000	10.061803
2223.000000	10.060440
2222.000000	10.051639
2221.000000	10.082503
2220.000000	10.091304
2219.000000	10.063167
2218.000000	10.090932
2217.000000	10.062175
2216.000000	10.038005
2215.000000	10.027964
2214.000000	10.017181
2213.000000	9.995737
2212.000000	10.003794
2211.000000	9.992886
2210.000000	9.986688
2209.000000	9.967228
2208.000000	9.935248
2207.000000	9.954213
2206.000000	9.971318
2205.000000	9.955081
2204.000000	9.975657
2203.000000	9.938223
2202.000000	9.943305
2201.000000	9.950618
2200.000000	9.944793
2199.000000	9.927315
2198.000000	9.937108
2197.000000	9.935124
2196.000000	9.918391
2195.000000	9.900790
2194.000000	9.923349
2193.000000	9.916780
2192.000000	9.902029
2191.000000	9.891245
2190.000000	9.915044
2189.000000	9.882321
2188.000000	9.869182
2187.000000	9.884180
2186.000000	9.867942
2185.000000	9.856787
2184.000000	9.848606
2183.000000	9.855795
2182.000000	9.828650
2181.000000	9.824311
2180.000000	9.827162
2179.000000	9.796298
2178.000000	9.811172
2177.000000	9.820965
2176.000000	9.807578
2175.000000	9.803859
2174.000000	9.793571
2173.000000	9.805347
2172.000000	9.799025
2171.000000	9.804231
2170.000000	9.812040
2169.000000	9.830633
2168.000000	9.822824
2167.000000	9.826542
2166.000000	9.835095
2165.000000	9.877735
2164.000000	9.861621
2163.000000	9.856787
2162.000000	9.861993
2161.000000	9.883560
2160.000000	9.905376
2159.000000	9.906120
2158.000000	9.935124
2157.000000	9.951610
2156.000000	9.968344
2155.000000	9.994002
2154.000000	10.011727
2153.000000	10.020032
2152.000000	10.033046
2151.000000	10.059200
2150.000000	10.091180
2149.000000	10.105434
2148.000000	10.134563
2147.000000	10.150553
2146.000000	10.160469
2145.000000	10.181913
2144.000000	10.181665
2143.000000	10.205340
2142.000000	10.224800
2141.000000	10.231989
2140.000000	10.250830
2139.000000	10.252194
2138.000000	10.261118
2137.000000	10.302518
2136.000000	10.316401
2135.000000	10.306113
2134.000000	10.311567
2133.000000	10.326317
2132.000000	10.350983
2131.000000	10.353710
2130.000000	10.352223
2129.000000	10.361023
2128.000000	10.374286
2127.000000	10.376765
2126.000000	10.373791
2125.000000	10.366725
2124.000000	10.372303
2123.000000	10.366229
2122.000000	10.358173
2121.000000	10.354454
2120.000000	10.371931
2119.000000	10.387301
2118.000000	10.373419
2117.000000	10.367593
2116.000000	10.370568
2115.000000	10.359536
2114.000000	10.346521
2113.000000	10.327432
2112.000000	10.323714
2111.000000	10.322103
2110.000000	10.325077
2109.000000	10.320987
2108.000000	10.304749
2107.000000	10.311071
2106.000000	10.307104
2105.000000	10.298180
2104.000000	10.292230
2103.000000	10.287892
2102.000000	10.286776
2101.000000	10.269795
2100.000000	10.273142
2099.000000	10.293346
2098.000000	10.292726
2097.000000	10.270291
2096.000000	10.280827
2095.000000	10.302890
2094.000000	10.301650
2093.000000	10.316897
2092.000000	10.308840
2091.000000	10.292602
2090.000000	10.319252
2089.000000	10.333754
2088.000000	10.329540
2087.000000	10.346769
2086.000000	10.354826
2085.000000	10.352471
2084.000000	10.350116
2083.000000	10.356685
2082.000000	10.349248
2081.000000	10.349744
2080.000000	10.369080
2079.000000	10.383459
2078.000000	10.369204
2077.000000	10.341811
2076.000000	10.353214
2075.000000	10.367717
2074.000000	10.355941
2073.000000	10.370940
2072.000000	10.363998
2071.000000	10.335365
2070.000000	10.348009
2069.000000	10.348380
2068.000000	10.343174
2067.000000	10.350735
2066.000000	10.334002
2065.000000	10.331895
2064.000000	10.331523
2063.000000	10.350983
2062.000000	10.354578
2061.000000	10.359536
2060.000000	10.378253
2059.000000	10.357553
2058.000000	10.372675
2057.000000	10.391392
2056.000000	10.438989
2055.000000	10.472828
2054.000000	10.491545
2053.000000	10.539266
2052.000000	10.583889
2051.000000	10.646485
2050.000000	10.691975
2049.000000	10.757918
2048.000000	10.812457
2047.000000	10.885464
2046.000000	10.972479
2045.000000	11.040404
2044.000000	11.101761
2043.000000	11.192989
2042.000000	11.267608
2041.000000	11.343591
2040.000000	11.420689
2039.000000	11.514521
2038.000000	11.579472
2037.000000	11.668221
2036.000000	11.730817
2035.000000	11.802957
2034.000000	11.850555
2033.000000	11.935214
2032.000000	12.006982
2031.000000	12.045779
2030.000000	12.102177
2029.000000	12.154237
2028.000000	12.214726
2027.000000	12.271248
2026.000000	12.310169
2025.000000	12.366567
2024.000000	12.430650
2023.000000	12.456928
2022.000000	12.517416
2021.000000	12.545306
2020.000000	12.591540
2019.000000	12.630337
2018.000000	12.670621
2017.000000	12.708922
2016.000000	12.740282
2015.000000	12.743009
2014.000000	12.777592
2013.000000	12.801514
2012.000000	12.814157
2011.000000	12.856301
2010.000000	12.858904
2009.000000	12.881215
2008.000000	12.889892
2007.000000	12.893115
2006.000000	12.907989
2005.000000	12.898073
2004.000000	12.890512
2003.000000	12.875018
2002.000000	12.873778
2001.000000	12.877125
2000.000000	12.857293
1999.000000	12.846261
1998.000000	12.789615
1997.000000	12.799531
1996.000000	12.787632
1995.000000	12.761230
1994.000000	12.745488
1993.000000	12.708055
1992.000000	12.686363
1991.000000	12.638022
1990.000000	12.642236
1989.000000	12.569600
1988.000000	12.537744
1987.000000	12.512954
1986.000000	12.439946
1985.000000	12.425692
1984.000000	12.385036
1983.000000	12.322068
1982.000000	12.291700
1981.000000	12.257489
1980.000000	12.208528
1979.000000	12.177664
1978.000000	12.118663
1977.000000	12.103541
1976.000000	12.049498
1975.000000	11.998057
1974.000000	11.992356
1973.000000	11.932115
1972.000000	11.895673
1971.000000	11.859479
1970.000000	11.837168
1969.000000	11.798619
1968.000000	11.775316
1967.000000	11.758582
1966.000000	11.706522
1965.000000	11.687930
1964.000000	11.670452
1963.000000	11.629424
1962.000000	11.601411
1961.000000	11.571787
1960.000000	11.539931
1959.000000	11.537824
1958.000000	11.490846
1957.000000	11.441637
1956.000000	11.424036
1955.000000	11.404947
1954.000000	11.357350
1953.000000	11.338509
1952.000000	11.319916
1951.000000	11.308141
1950.000000	11.287069
1949.000000	11.280375
1948.000000	11.253354
1947.000000	11.263518
1946.000000	11.233893
1945.000000	11.222118
1944.000000	11.240339
1943.000000	11.245297
1942.000000	11.240835
1941.000000	11.246660
1940.000000	11.252982
1939.000000	11.278516
1938.000000	11.304546
1937.000000	11.306529
1936.000000	11.328841
1935.000000	11.383751
1934.000000	11.408666
1933.000000	11.429738
1932.000000	11.506836
1931.000000	11.541666
1930.000000	11.620376
1929.000000	11.680740
1928.000000	11.742592
1927.000000	11.819443
1926.000000	11.894186
1925.000000	11.976490
1924.000000	12.058670
1923.000000	12.145932
1922.000000	12.225633
1921.000000	12.361609
1920.000000	12.468951
1919.000000	12.559312
1918.000000	12.651532
1917.000000	12.811554
1916.000000	12.917162
1915.000000	13.062929
1914.000000	13.221340
1913.000000	13.350746
1912.000000	13.496637
1911.000000	13.651577
1910.000000	13.781975
1909.000000	13.951169
1908.000000	14.113298
1907.000000	14.284228
1906.000000	14.472015
1905.000000	14.623237
1904.000000	14.820816
1903.000000	14.997696
1902.000000	15.171600
1901.000000	15.366329
1900.000000	15.578907
1899.000000	15.744383
1898.000000	15.935765
1897.000000	16.133716
1896.000000	16.327825
1895.000000	16.504580
1894.000000	16.699929
1893.000000	16.875693
1892.000000	17.086039
1891.000000	17.296138
1890.000000	17.509211
1889.000000	17.710881
1888.000000	17.930276
1887.000000	18.175825
1886.000000	18.453725
1885.000000	18.797196
1884.000000	19.190620
1883.000000	19.545866
1882.000000	19.913384
1881.000000	20.320814
1880.000000	20.700107
1879.000000	21.073203
1878.000000	21.450885
1877.000000	21.786299
1876.000000	22.090973
1875.000000	22.396391
1874.000000	22.666110
1873.000000	22.904098
1872.000000	23.123121
1871.000000	23.312272
1870.000000	23.446884
1869.000000	23.565506
1868.000000	23.666898
1867.000000	23.730734
1866.000000	23.772382
1865.000000	23.785892
1864.000000	23.780439
1863.000000	23.778703
1862.000000	23.782546
1861.000000	23.777464
1860.000000	23.759119
1859.000000	23.703216
1858.000000	23.660701
1857.000000	23.607030
1856.000000	23.516669
1855.000000	23.432133
1854.000000	23.347846
1853.000000	23.236661
1852.000000	23.130930
1851.000000	23.053832
1850.000000	22.978965
1849.000000	22.866416
1848.000000	22.754364
1847.000000	22.628553
1846.000000	22.511294
1845.000000	22.431593
1844.000000	22.377054
1843.000000	22.353131
1842.000000	22.321524
1841.000000	22.252978
1840.000000	22.179103
1839.000000	22.110557
1838.000000	22.057258
1837.000000	21.980408
1836.000000	21.879139
1835.000000	21.772664
1834.000000	21.661727
1833.000000	21.557607
1832.000000	21.473444
1831.000000	21.387793
1830.000000	21.293961
1829.000000	21.195791
1828.000000	21.096134
1827.000000	21.005525
1826.000000	20.921362
1825.000000	20.851081
1824.000000	20.814639
1823.000000	20.801252
1822.000000	20.776834
1821.000000	20.741755
1820.000000	20.708660
1819.000000	20.679531
1818.000000	20.657220
1817.000000	20.648915
1816.000000	20.662178
1815.000000	20.671103
1814.000000	20.665277
1813.000000	20.633545
1812.000000	20.618795
1811.000000	20.588923
1810.000000	20.540457
1809.000000	20.506494
1808.000000	20.477985
1807.000000	20.450220
1806.000000	20.389980
1805.000000	20.322054
1804.000000	20.289454
1803.000000	20.256235
1802.000000	20.211737
1801.000000	20.162652
1800.000000	20.112451
1799.000000	20.091379
1798.000000	20.050723
1797.000000	19.983541
1796.000000	19.946479
1795.000000	19.913632
1794.000000	19.869133
1793.000000	19.817445
1792.000000	19.759064
1791.000000	19.702294
1790.000000	19.648499
1789.000000	19.604248
1788.000000	19.518597
1787.000000	19.454762
1786.000000	19.366012
1785.000000	19.283584
1784.000000	19.191116
1783.000000	19.107820
1782.000000	19.024896
1781.000000	18.957714
1780.000000	18.862271
1779.000000	18.789140
1778.000000	18.678698
1777.000000	18.577182
1776.000000	18.460543
1775.000000	18.330393
1774.000000	18.234082
1773.000000	18.107899
1772.000000	17.971552
1771.000000	17.835825
1770.000000	17.695139
1769.000000	17.600440
1768.000000	17.482438
1767.000000	17.401621
1766.000000	17.323159
1765.000000	17.266761
1764.000000	17.228956
1763.000000	17.244698
1762.000000	17.270728
1761.000000	17.303327
1760.000000	17.379681
1759.000000	17.460250
1758.000000	17.526193
1757.000000	17.547512
1756.000000	17.572179
1755.000000	17.595358
1754.000000	17.600564
1753.000000	17.582467
1752.000000	17.545405
1751.000000	17.483181
1750.000000	17.421081
1749.000000	17.357122
1748.000000	17.271967
1747.000000	17.146776
1746.000000	17.023815
1745.000000	16.877304
1744.000000	16.730793
1743.000000	16.513381
1742.000000	16.321503
1741.000000	16.078929
1740.000000	15.900934
1739.000000	15.686373
1738.000000	15.531681
1737.000000	15.402027
1736.000000	15.283653
1735.000000	15.243493
1734.000000	15.227255
1733.000000	15.224900
1732.000000	15.290842
1731.000000	15.349100
1730.000000	15.422851
1729.000000	15.535647
1728.000000	15.625017
1727.000000	15.688852
1726.000000	15.739672
1725.000000	15.769793
1724.000000	15.806607
1723.000000	15.846519
1722.000000	15.791484
1721.000000	15.780577
1720.000000	15.793220
1719.000000	15.790121
1718.000000	15.789377
1717.000000	15.820613
1716.000000	15.860898
1715.000000	15.901802
1714.000000	15.926096
1713.000000	15.960679
1712.000000	15.986709
1711.000000	15.982247
1710.000000	15.996625
1709.000000	15.985965
1708.000000	15.924733
1707.000000	15.933533
1706.000000	15.869822
1705.000000	15.823588
1704.000000	15.759629
1703.000000	15.705462
1702.000000	15.594897
1701.000000	15.468342
1700.000000	15.337572
1699.000000	15.233700
1698.000000	15.122763
1697.000000	15.053598
1696.000000	15.047896
1695.000000	15.052483
1694.000000	15.122144
1693.000000	15.252789
1692.000000	15.364470
1691.000000	15.528458
1690.000000	15.610886
1689.000000	15.685629
1688.000000	15.730872
1687.000000	15.734714
1686.000000	15.747110
1685.000000	15.777230
1684.000000	15.925724
1683.000000	16.137930
1682.000000	16.482641
1681.000000	16.967293
1680.000000	17.458763
1679.000000	18.013820
1678.000000	18.512974
1677.000000	19.027003
1676.000000	19.483643
1675.000000	19.859713
1674.000000	20.224875
1673.000000	20.540705
1672.000000	20.822696
1671.000000	21.040108
1670.000000	21.244876
1669.000000	21.438613
1668.000000	21.573349
1667.000000	21.730025
1666.000000	21.863149
1665.000000	21.956113
1664.000000	22.055770
1663.000000	22.142909
1662.000000	22.216536
1661.000000	22.249136
1660.000000	22.328713
1659.000000	22.366270
1658.000000	22.398002
1657.000000	22.436427
1656.000000	22.442501
1655.000000	22.452541
1654.000000	22.455764
1653.000000	22.442501
1652.000000	22.438410
1651.000000	22.402712
1650.000000	22.370237
1649.000000	22.354619
1648.000000	22.311607
1647.000000	22.259919
1646.000000	22.212818
1645.000000	22.154932
1644.000000	22.111425
1643.000000	22.040400
1642.000000	21.999992
1641.000000	21.922522
1640.000000	21.864513
1639.000000	21.806875
1638.000000	21.761880
1637.000000	21.680196
1636.000000	21.589463
1635.000000	21.524884
1634.000000	21.445803
1633.000000	21.387297
1632.000000	21.291978
1631.000000	21.210914
1630.000000	21.137534
1629.000000	21.051140
1628.000000	20.946772
1627.000000	20.882317
1626.000000	20.781668
1625.000000	20.677548
1624.000000	20.613589
1623.000000	20.522112
1622.000000	20.431875
1621.000000	20.342258
1620.000000	20.273341
1619.000000	20.177278
1618.000000	20.103279
1617.000000	20.036345
1616.000000	19.950322
1615.000000	19.868761
1614.000000	19.805670
1613.000000	19.724853
1612.000000	19.650482
1611.000000	19.570533
1610.000000	19.496162
1609.000000	19.422038
1608.000000	19.363905
1607.000000	19.304780
1606.000000	19.222971
1605.000000	19.152071
1604.000000	19.088608
1603.000000	19.030598
1602.000000	18.964532
1601.000000	18.909125
1600.000000	18.859420
1599.000000	18.783190
1598.000000	18.726172
1597.000000	18.674856
1596.000000	18.628870
1595.000000	18.582883
1594.000000	18.539004
1593.000000	18.512107
1592.000000	18.464881
