PE UV       SUBTECH     SPECTRUM    ASCII       PEDS        4.00        
   -1
CICIMAUCR0003-2.Sample.ASC
24/05/03
14:40:28.00
24/05/03
14:40:28.00
Vinicio Soto Monge
C. kalinini
250,000000
1
Lambda 1050
1050L1511233
PerkinElmer UV WinLab 6.3.2.0749 / 2.02.05 Lambda 900 UV/VIS/NIR, Aug  7 2015 09:38:08

0
0
3350/servo 860,8/2
0
0
UV/VIS
1
1
1
DoubleDePol,CommonBeamDepol,RBeamAtt,SBeamAtt,60mm sphere, WB InGaAs Detector
0
0
0
0
Program
Program
3350/servo 860,8/2
3350/0,2 860,8/0,2
3350/0,2 860,8/0,2
0
15.00
 
 
 
0
 
860,8
319,2
860,8
Front
100
on
S:100 R:100
0
0
0
0
 
0
 
 
 
0
 
 
0
0
0
0
0
 
 
 
 
0
0


0
0
#HDR
-1
-1
#GR
nm
%R
1.0
0.0
2500,000000
-1,000000
2251
8
99,737200
5,267900
#DATA
2500.000000	9.438688
2499.000000	9.504941
2498.000000	9.289036
2497.000000	9.350157
2496.000000	9.247512
2495.000000	9.266641
2494.000000	9.146966
2493.000000	9.111040
2492.000000	9.136468
2491.000000	9.167495
2490.000000	9.091794
2489.000000	9.053186
2488.000000	9.068116
2487.000000	9.094944
2486.000000	8.939576
2485.000000	9.081063
2484.000000	8.986000
2483.000000	8.985300
2482.000000	9.066483
2481.000000	9.023442
2480.000000	8.966987
2479.000000	8.984367
2478.000000	8.957189
2477.000000	8.998014
2476.000000	9.045371
2475.000000	8.974919
2474.000000	9.028341
2473.000000	9.043738
2472.000000	9.009795
2471.000000	9.004313
2470.000000	9.035106
2469.000000	9.023442
2468.000000	9.063450
2467.000000	9.074765
2466.000000	9.112557
2465.000000	9.086196
2464.000000	9.131569
2463.000000	9.166679
2462.000000	9.183592
2461.000000	9.227333
2460.000000	9.289853
2459.000000	9.326712
2458.000000	9.424575
2457.000000	9.473681
2456.000000	9.528153
2455.000000	9.627066
2454.000000	9.699500
2453.000000	9.785349
2452.000000	9.869915
2451.000000	9.941766
2450.000000	10.027498
2449.000000	10.142041
2448.000000	10.220308
2447.000000	10.323653
2446.000000	10.406469
2445.000000	10.465140
2444.000000	10.573501
2443.000000	10.669730
2442.000000	10.747764
2441.000000	10.832563
2440.000000	10.891234
2439.000000	11.011842
2438.000000	11.043685
2437.000000	11.141898
2436.000000	11.219465
2435.000000	11.313012
2434.000000	11.354304
2433.000000	11.411692
2432.000000	11.484826
2431.000000	11.558427
2430.000000	11.604618
2429.000000	11.649992
2428.000000	11.711695
2427.000000	11.739806
2426.000000	11.767100
2425.000000	11.837669
2424.000000	11.878377
2423.000000	11.929233
2422.000000	11.940781
2421.000000	11.961543
2420.000000	11.983938
2419.000000	12.015082
2418.000000	12.073286
2417.000000	12.094748
2416.000000	12.131374
2415.000000	12.171966
2414.000000	12.197510
2413.000000	12.215706
2412.000000	12.253965
2411.000000	12.281842
2410.000000	12.314736
2409.000000	12.337947
2408.000000	12.367341
2407.000000	12.407233
2406.000000	12.426829
2405.000000	12.457972
2404.000000	12.486550
2403.000000	12.511861
2402.000000	12.551869
2401.000000	12.573448
2400.000000	12.600159
2399.000000	12.653465
2398.000000	12.740130
2397.000000	12.837759
2396.000000	12.909728
2395.000000	12.944604
2394.000000	12.957318
2393.000000	12.978197
2392.000000	13.006541
2391.000000	13.050865
2390.000000	13.111635
2389.000000	13.146628
2388.000000	13.143712
2387.000000	13.135897
2386.000000	13.159808
2385.000000	13.190719
2384.000000	13.184420
2383.000000	13.182437
2382.000000	13.189552
2381.000000	13.173806
2380.000000	13.169490
2379.000000	13.163308
2378.000000	13.138346
2377.000000	13.146861
2376.000000	13.157009
2375.000000	13.119450
2374.000000	13.097288
2373.000000	13.077809
2372.000000	13.025087
2371.000000	13.007357
2370.000000	12.982279
2369.000000	12.914976
2368.000000	12.856305
2367.000000	12.797751
2366.000000	12.730332
2365.000000	12.659413
2364.000000	12.603308
2363.000000	12.551169
2362.000000	12.465787
2361.000000	12.389970
2360.000000	12.349612
2359.000000	12.284642
2358.000000	12.209758
2357.000000	12.146304
2356.000000	12.111661
2355.000000	12.098131
2354.000000	12.088333
2353.000000	12.084834
2352.000000	12.095215
2351.000000	12.109329
2350.000000	12.160185
2349.000000	12.224338
2348.000000	12.284059
2347.000000	12.335265
2346.000000	12.381338
2345.000000	12.435927
2344.000000	12.507662
2343.000000	12.590944
2342.000000	12.629086
2341.000000	12.649032
2340.000000	12.692073
2339.000000	12.735464
2338.000000	12.754477
2337.000000	12.767657
2336.000000	12.775589
2335.000000	12.757976
2334.000000	12.725083
2333.000000	12.688341
2332.000000	12.652065
2331.000000	12.610657
2330.000000	12.549070
2329.000000	12.482001
2328.000000	12.409682
2327.000000	12.320918
2326.000000	12.252565
2325.000000	12.145254
2324.000000	12.018698
2323.000000	11.917919
2322.000000	11.807109
2321.000000	11.670287
2320.000000	11.536965
2319.000000	11.398394
2318.000000	11.231946
2317.000000	11.095708
2316.000000	10.986997
2315.000000	10.860090
2314.000000	10.714988
2313.000000	10.574784
2312.000000	10.461291
2311.000000	10.369377
2310.000000	10.306973
2309.000000	10.279562
2308.000000	10.236171
2307.000000	10.209927
2306.000000	10.214359
2305.000000	10.243753
2304.000000	10.288660
2303.000000	10.360628
2302.000000	10.461874
2301.000000	10.547256
2300.000000	10.659349
2299.000000	10.773892
2298.000000	10.891001
2297.000000	11.000528
2296.000000	11.078678
2295.000000	11.204185
2294.000000	11.292133
2293.000000	11.378099
2292.000000	11.421373
2291.000000	11.456949
2290.000000	11.488442
2289.000000	11.505239
2288.000000	11.515736
2287.000000	11.478877
2286.000000	11.437819
2285.000000	11.420323
2284.000000	11.397694
2283.000000	11.321877
2282.000000	11.290734
2281.000000	11.215966
2280.000000	11.148663
2279.000000	11.107955
2278.000000	11.047418
2277.000000	11.002627
2276.000000	10.948389
2275.000000	10.910363
2274.000000	10.931942
2273.000000	10.909897
2272.000000	10.926810
2271.000000	10.947805
2270.000000	11.009159
2269.000000	11.072846
2268.000000	11.174675
2267.000000	11.282685
2266.000000	11.419973
2265.000000	11.629113
2264.000000	11.827871
2263.000000	12.030828
2262.000000	12.272511
2261.000000	12.575431
2260.000000	12.861438
2259.000000	13.155376
2258.000000	13.502737
2257.000000	13.819070
2256.000000	14.144502
2255.000000	14.461536
2254.000000	14.790933
2253.000000	15.102135
2252.000000	15.429549
2251.000000	15.714973
2250.000000	15.962371
2249.000000	16.226916
2248.000000	16.463466
2247.000000	16.742241
2246.000000	16.942049
2245.000000	17.129610
2244.000000	17.345631
2243.000000	17.515346
2242.000000	17.682611
2241.000000	17.837161
2240.000000	17.938057
2239.000000	18.104156
2238.000000	18.219748
2237.000000	18.328109
2236.000000	18.406026
2235.000000	18.500156
2234.000000	18.586005
2233.000000	18.671853
2232.000000	18.733090
2231.000000	18.767150
2230.000000	18.792695
2229.000000	18.817073
2228.000000	18.852065
2227.000000	18.851132
2226.000000	18.887875
2225.000000	18.879943
2224.000000	18.879243
2223.000000	18.849966
2222.000000	18.852882
2221.000000	18.820922
2220.000000	18.778931
2219.000000	18.731574
2218.000000	18.712795
2217.000000	18.679902
2216.000000	18.632311
2215.000000	18.597319
2214.000000	18.563026
2213.000000	18.532582
2212.000000	18.538881
2211.000000	18.495257
2210.000000	18.487092
2209.000000	18.441718
2208.000000	18.447200
2207.000000	18.415357
2206.000000	18.406026
2205.000000	18.386080
2204.000000	18.359835
2203.000000	18.338723
2202.000000	18.348171
2201.000000	18.315045
2200.000000	18.318427
2199.000000	18.324609
2198.000000	18.332424
2197.000000	18.313878
2196.000000	18.308279
2195.000000	18.308979
2194.000000	18.291949
2193.000000	18.290200
2192.000000	18.280985
2191.000000	18.277253
2190.000000	18.256490
2189.000000	18.233745
2188.000000	18.238761
2187.000000	18.224997
2186.000000	18.213449
2185.000000	18.215549
2184.000000	18.197586
2183.000000	18.181489
2182.000000	18.158744
2181.000000	18.146847
2180.000000	18.147430
2179.000000	18.134366
2178.000000	18.127834
2177.000000	18.115470
2176.000000	18.118619
2175.000000	18.131333
2174.000000	18.113020
2173.000000	18.129933
2172.000000	18.133433
2171.000000	18.137632
2170.000000	18.135882
2169.000000	18.167609
2168.000000	18.192687
2167.000000	18.215432
2166.000000	18.234328
2165.000000	18.253574
2164.000000	18.292649
2163.000000	18.306296
2162.000000	18.323210
2161.000000	18.370333
2160.000000	18.420956
2159.000000	18.493157
2158.000000	18.530250
2157.000000	18.547629
2156.000000	18.593120
2155.000000	18.671737
2154.000000	18.716177
2153.000000	18.783247
2152.000000	18.839468
2151.000000	18.904904
2150.000000	18.973840
2149.000000	19.032861
2148.000000	19.067737
2147.000000	19.110545
2146.000000	19.175398
2145.000000	19.242000
2144.000000	19.301021
2143.000000	19.337180
2142.000000	19.383021
2141.000000	19.426178
2140.000000	19.483450
2139.000000	19.536172
2138.000000	19.572098
2137.000000	19.625637
2136.000000	19.642783
2135.000000	19.665528
2134.000000	19.705187
2133.000000	19.743562
2132.000000	19.749044
2131.000000	19.772373
2130.000000	19.816230
2129.000000	19.835709
2128.000000	19.832560
2127.000000	19.835593
2126.000000	19.844807
2125.000000	19.852506
2124.000000	19.848190
2123.000000	19.863120
2122.000000	19.852506
2121.000000	19.833493
2120.000000	19.815414
2119.000000	19.807132
2118.000000	19.809231
2117.000000	19.769690
2116.000000	19.747994
2115.000000	19.714868
2114.000000	19.673460
2113.000000	19.665412
2112.000000	19.650831
2111.000000	19.613856
2110.000000	19.570815
2109.000000	19.533139
2108.000000	19.505612
2107.000000	19.483800
2106.000000	19.456272
2105.000000	19.420463
2104.000000	19.382904
2103.000000	19.347912
2102.000000	19.315835
2101.000000	19.299622
2100.000000	19.270694
2099.000000	19.235702
2098.000000	19.205141
2097.000000	19.180996
2096.000000	19.175631
2095.000000	19.163733
2094.000000	19.154285
2093.000000	19.112178
2092.000000	19.074386
2091.000000	19.079401
2090.000000	19.078935
2089.000000	19.068787
2088.000000	19.050124
2087.000000	19.030645
2086.000000	19.000318
2085.000000	18.982821
2084.000000	18.970457
2083.000000	18.947479
2082.000000	18.915985
2081.000000	18.883559
2080.000000	18.846583
2079.000000	18.839818
2078.000000	18.821972
2077.000000	18.778348
2076.000000	18.730991
2075.000000	18.686550
2074.000000	18.665904
2073.000000	18.628579
2072.000000	18.580872
2071.000000	18.544363
2070.000000	18.504705
2069.000000	18.468429
2068.000000	18.429471
2067.000000	18.372433
2066.000000	18.324143
2065.000000	18.296382
2064.000000	18.283435
2063.000000	18.258007
2062.000000	18.221264
2061.000000	18.201552
2060.000000	18.193737
2059.000000	18.199336
2058.000000	18.209600
2057.000000	18.234678
2056.000000	18.288217
2055.000000	18.352370
2054.000000	18.407425
2053.000000	18.475311
2052.000000	18.573407
2051.000000	18.693549
2050.000000	18.832703
2049.000000	18.968708
2048.000000	19.120692
2047.000000	19.287607
2046.000000	19.484849
2045.000000	19.690956
2044.000000	19.852856
2043.000000	20.026653
2042.000000	20.203599
2041.000000	20.402590
2040.000000	20.589685
2039.000000	20.788210
2038.000000	20.935179
2037.000000	21.107226
2036.000000	21.296420
2035.000000	21.444322
2034.000000	21.588725
2033.000000	21.743976
2032.000000	21.896311
2031.000000	22.028816
2030.000000	22.167387
2029.000000	22.267000
2028.000000	22.392623
2027.000000	22.512065
2026.000000	22.624158
2025.000000	22.719222
2024.000000	22.826532
2023.000000	22.932793
2022.000000	23.020159
2021.000000	23.106007
2020.000000	23.199904
2019.000000	23.281554
2018.000000	23.354222
2017.000000	23.419775
2016.000000	23.495009
2015.000000	23.562778
2014.000000	23.601620
2013.000000	23.667290
2012.000000	23.708464
2011.000000	23.749756
2010.000000	23.791630
2009.000000	23.805277
2008.000000	23.803994
2007.000000	23.858816
2006.000000	23.848552
2005.000000	23.839104
2004.000000	23.870364
2003.000000	23.830122
2002.000000	23.827323
2001.000000	23.803761
2000.000000	23.784982
1999.000000	23.743690
1998.000000	23.692484
1997.000000	23.644894
1996.000000	23.616550
1995.000000	23.550064
1994.000000	23.503291
1993.000000	23.449285
1992.000000	23.372885
1991.000000	23.303599
1990.000000	23.235247
1989.000000	23.144616
1988.000000	23.073114
1987.000000	22.971752
1986.000000	22.921363
1985.000000	22.798538
1984.000000	22.695893
1983.000000	22.651686
1982.000000	22.546824
1981.000000	22.457010
1980.000000	22.356581
1979.000000	22.244488
1978.000000	22.166921
1977.000000	22.047129
1976.000000	21.974228
1975.000000	21.879281
1974.000000	21.788067
1973.000000	21.683322
1972.000000	21.608088
1971.000000	21.498561
1970.000000	21.419127
1969.000000	21.292571
1968.000000	21.238332
1967.000000	21.127172
1966.000000	21.051005
1965.000000	20.964106
1964.000000	20.860061
1963.000000	20.790076
1962.000000	20.697812
1961.000000	20.606831
1960.000000	20.494971
1959.000000	20.419270
1958.000000	20.354767
1957.000000	20.295630
1956.000000	20.159741
1955.000000	20.069810
1954.000000	19.998892
1953.000000	19.908844
1952.000000	19.821246
1951.000000	19.745078
1950.000000	19.670194
1949.000000	19.591694
1948.000000	19.543054
1947.000000	19.459188
1946.000000	19.414514
1945.000000	19.358759
1944.000000	19.309420
1943.000000	19.274660
1942.000000	19.253198
1941.000000	19.236751
1940.000000	19.216922
1939.000000	19.220422
1938.000000	19.214706
1937.000000	19.239784
1936.000000	19.266729
1935.000000	19.315835
1934.000000	19.353744
1933.000000	19.433527
1932.000000	19.483916
1931.000000	19.573964
1930.000000	19.678476
1929.000000	19.792202
1928.000000	19.921675
1927.000000	20.074709
1926.000000	20.198933
1925.000000	20.340770
1924.000000	20.500803
1923.000000	20.677283
1922.000000	20.881057
1921.000000	21.100344
1920.000000	21.327680
1919.000000	21.545218
1918.000000	21.777569
1917.000000	22.026017
1916.000000	22.264550
1915.000000	22.504600
1914.000000	22.827116
1913.000000	23.147299
1912.000000	23.441470
1911.000000	23.719545
1910.000000	24.001120
1909.000000	24.276279
1908.000000	24.559486
1907.000000	24.932624
1906.000000	25.302380
1905.000000	25.668637
1904.000000	26.032794
1903.000000	26.391002
1902.000000	26.736146
1901.000000	27.123632
1900.000000	27.539111
1899.000000	27.966372
1898.000000	28.347209
1897.000000	28.715915
1896.000000	29.039947
1895.000000	29.382525
1894.000000	29.722187
1893.000000	30.108856
1892.000000	30.541365
1891.000000	30.908439
1890.000000	31.298257
1889.000000	31.708021
1888.000000	32.081159
1887.000000	32.475877
1886.000000	32.936847
1885.000000	33.452989
1884.000000	34.006922
1883.000000	34.548026
1882.000000	35.129954
1881.000000	35.708732
1880.000000	36.216476
1879.000000	36.739850
1878.000000	37.251092
1877.000000	37.698649
1876.000000	38.132908
1875.000000	38.553869
1874.000000	38.922459
1873.000000	39.286383
1872.000000	39.599334
1871.000000	39.867144
1870.000000	40.103345
1869.000000	40.339545
1868.000000	40.481032
1867.000000	40.591726
1866.000000	40.675591
1865.000000	40.738928
1864.000000	40.798066
1863.000000	40.876799
1862.000000	40.957632
1861.000000	40.995658
1860.000000	41.033100
1859.000000	41.044881
1858.000000	41.043364
1857.000000	41.033216
1856.000000	40.998224
1855.000000	40.966614
1854.000000	40.923339
1853.000000	40.816962
1852.000000	40.755025
1851.000000	40.707318
1850.000000	40.647597
1849.000000	40.606889
1848.000000	40.555800
1847.000000	40.436825
1846.000000	40.322399
1845.000000	40.247748
1844.000000	40.186044
1843.000000	40.163882
1842.000000	40.162249
1841.000000	40.127256
1840.000000	40.061237
1839.000000	40.000933
1838.000000	39.949494
1837.000000	39.884174
1836.000000	39.791677
1835.000000	39.677251
1834.000000	39.558042
1833.000000	39.460063
1832.000000	39.380746
1831.000000	39.304812
1830.000000	39.211148
1829.000000	39.101388
1828.000000	38.994194
1827.000000	38.911728
1826.000000	38.820514
1825.000000	38.739331
1824.000000	38.694190
1823.000000	38.676694
1822.000000	38.661880
1821.000000	38.645667
1820.000000	38.604492
1819.000000	38.553753
1818.000000	38.521560
1817.000000	38.513511
1816.000000	38.522493
1815.000000	38.496948
1814.000000	38.485750
1813.000000	38.466038
1812.000000	38.431395
1811.000000	38.384738
1810.000000	38.334699
1809.000000	38.275678
1808.000000	38.230537
1807.000000	38.180148
1806.000000	38.117861
1805.000000	38.043910
1804.000000	37.987571
1803.000000	37.929950
1802.000000	37.861015
1801.000000	37.791846
1800.000000	37.726060
1799.000000	37.644527
1798.000000	37.570809
1797.000000	37.517620
1796.000000	37.459415
1795.000000	37.375666
1794.000000	37.324227
1793.000000	37.249459
1792.000000	37.175508
1791.000000	37.092459
1790.000000	37.027256
1789.000000	36.933709
1788.000000	36.855559
1787.000000	36.769360
1786.000000	36.681995
1785.000000	36.567802
1784.000000	36.468656
1783.000000	36.353997
1782.000000	36.247969
1781.000000	36.150107
1780.000000	36.020517
1779.000000	35.915189
1778.000000	35.783267
1777.000000	35.628133
1776.000000	35.476031
1775.000000	35.327896
1774.000000	35.159464
1773.000000	34.948575
1772.000000	34.784459
1771.000000	34.609379
1770.000000	34.441415
1769.000000	34.267618
1768.000000	34.094404
1767.000000	33.976479
1766.000000	33.867068
1765.000000	33.763140
1764.000000	33.713917
1763.000000	33.690472
1762.000000	33.720566
1761.000000	33.776437
1760.000000	33.852022
1759.000000	33.929705
1758.000000	34.002373
1757.000000	34.063144
1756.000000	34.118899
1755.000000	34.140011
1754.000000	34.152609
1753.000000	34.130913
1752.000000	34.105835
1751.000000	34.054979
1750.000000	33.988376
1749.000000	33.873250
1748.000000	33.759058
1747.000000	33.619320
1746.000000	33.436425
1745.000000	33.247232
1744.000000	33.030160
1743.000000	32.766666
1742.000000	32.490807
1741.000000	32.174590
1740.000000	31.865721
1739.000000	31.587646
1738.000000	31.313887
1737.000000	31.108830
1736.000000	30.934100
1735.000000	30.835187
1734.000000	30.804744
1733.000000	30.836937
1732.000000	30.907272
1731.000000	31.003385
1730.000000	31.134025
1729.000000	31.282160
1728.000000	31.426913
1727.000000	31.539823
1726.000000	31.662181
1725.000000	31.747563
1724.000000	31.802384
1723.000000	31.852657
1722.000000	31.893482
1721.000000	31.910512
1720.000000	31.934890
1719.000000	32.006975
1718.000000	32.068679
1717.000000	32.144496
1716.000000	32.261838
1715.000000	32.374748
1714.000000	32.444733
1713.000000	32.558926
1712.000000	32.620980
1711.000000	32.657839
1710.000000	32.704845
1709.000000	32.663321
1708.000000	32.665654
1707.000000	32.624012
1706.000000	32.600451
1705.000000	32.550294
1704.000000	32.473194
1703.000000	32.346987
1702.000000	32.205850
1701.000000	32.003242
1700.000000	31.810549
1699.000000	31.612724
1698.000000	31.464005
1697.000000	31.317036
1696.000000	31.276445
1695.000000	31.293708
1694.000000	31.361943
1693.000000	31.530958
1692.000000	31.709771
1691.000000	31.916227
1690.000000	32.088858
1689.000000	32.228362
1688.000000	32.250057
1687.000000	32.301147
1686.000000	32.343371
1685.000000	32.436102
1684.000000	32.584237
1683.000000	32.930548
1682.000000	33.412630
1681.000000	34.039816
1680.000000	34.737569
1679.000000	35.425408
1678.000000	36.117213
1677.000000	36.722237
1676.000000	37.305914
1675.000000	37.784031
1674.000000	38.199044
1673.000000	38.551187
1672.000000	38.852240
1671.000000	39.176156
1670.000000	39.382962
1669.000000	39.626161
1668.000000	39.782695
1667.000000	39.956725
1666.000000	40.093897
1665.000000	40.194092
1664.000000	40.320999
1663.000000	40.423644
1662.000000	40.478699
1661.000000	40.565714
1660.000000	40.621586
1659.000000	40.655762
1658.000000	40.690755
1657.000000	40.712684
1656.000000	40.730996
1655.000000	40.718516
1654.000000	40.739745
1653.000000	40.701136
1652.000000	40.667776
1651.000000	40.650980
1650.000000	40.606073
1649.000000	40.544019
1648.000000	40.501678
1647.000000	40.451288
1646.000000	40.390751
1645.000000	40.330447
1644.000000	40.256029
1643.000000	40.187210
1642.000000	40.104511
1641.000000	40.028227
1640.000000	39.965124
1639.000000	39.894905
1638.000000	39.801008
1637.000000	39.733356
1636.000000	39.627444
1635.000000	39.553377
1634.000000	39.462162
1633.000000	39.361850
1632.000000	39.243692
1631.000000	39.152244
1630.000000	39.056481
1629.000000	38.952203
1628.000000	38.846758
1627.000000	38.754727
1626.000000	38.652432
1625.000000	38.545238
1624.000000	38.440843
1623.000000	38.329333
1622.000000	38.243368
