PE UV       SUBTECH     SPECTRUM    ASCII       PEDS        4.00        
   -1
CICIMAUCR0251-3.Sample.ASC
24/05/27
17:05:10.00
24/05/27
17:05:10.00
Vinicio Soto Monge
C. resplendens, F
250,000000
1
Lambda 1050
1050L1511233
PerkinElmer UV WinLab 6.3.2.0749 / 2.02.05 Lambda 900 UV/VIS/NIR, Aug  7 2015 09:38:08

0
0
3350/servo 860,8/2
0
0
UV/VIS
1
1
1
DoubleDePol,CommonBeamDepol,RBeamAtt,SBeamAtt,60mm sphere, WB InGaAs Detector
0
0
0
0
Program
Program
3350/servo 860,8/2
3350/0,2 860,8/0,2
3350/0,2 860,8/0,2
0
15.00
 
 
 
0
 
860,8
319,2
860,8
Front
100
on
S:100 R:100
0
0
0
0
 
0
 
 
 
0
 
 
0
0
0
0
0
 
 
 
 
0
0


0
0
#HDR
-1
-1
#GR
nm
%R
1.0
0.0
2500,000000
-1,000000
2251
8
89,601500
5,208800
#DATA
2500.000000	5.636005
2499.000000	5.607775
2498.000000	5.626528
2497.000000	5.463494
2496.000000	5.515217
2495.000000	5.484869
2494.000000	5.387775
2493.000000	5.496262
2492.000000	5.517133
2491.000000	5.413283
2490.000000	5.475593
2489.000000	5.440909
2488.000000	5.418022
2487.000000	5.333733
2486.000000	5.394631
2485.000000	5.390598
2484.000000	5.368517
2483.000000	5.303284
2482.000000	5.331716
2481.000000	5.360451
2480.000000	5.298343
2479.000000	5.324961
2478.000000	5.304796
2477.000000	5.251762
2476.000000	5.310543
2475.000000	5.323348
2474.000000	5.338471
2473.000000	5.287555
2472.000000	5.303082
2471.000000	5.287757
2470.000000	5.272129
2469.000000	5.277775
2468.000000	5.299856
2467.000000	5.266483
2466.000000	5.263861
2465.000000	5.268902
2464.000000	5.275758
2463.000000	5.298646
2462.000000	5.310745
2461.000000	5.307821
2460.000000	5.266583
2459.000000	5.303586
2458.000000	5.341597
2457.000000	5.341698
2456.000000	5.328691
2455.000000	5.348251
2454.000000	5.383641
2453.000000	5.397051
2452.000000	5.401386
2451.000000	5.414090
2450.000000	5.405822
2449.000000	5.454420
2448.000000	5.450488
2447.000000	5.482853
2446.000000	5.492733
2445.000000	5.511991
2444.000000	5.520561
2443.000000	5.561698
2442.000000	5.570268
2441.000000	5.585492
2440.000000	5.613723
2439.000000	5.629351
2438.000000	5.629452
2437.000000	5.650323
2436.000000	5.686216
2435.000000	5.680368
2434.000000	5.724026
2433.000000	5.744392
2432.000000	5.735015
2431.000000	5.761230
2430.000000	5.783311
2429.000000	5.806198
2428.000000	5.810634
2427.000000	5.824850
2426.000000	5.845217
2425.000000	5.869717
2424.000000	5.873750
2423.000000	5.874355
2422.000000	5.886051
2421.000000	5.898755
2420.000000	5.941101
2419.000000	5.950579
2418.000000	5.946848
2417.000000	5.949167
2416.000000	5.968526
2415.000000	5.983549
2414.000000	5.996454
2413.000000	6.012586
2412.000000	6.024383
2411.000000	6.030634
2410.000000	6.040212
2409.000000	6.060478
2408.000000	6.072073
2407.000000	6.071468
2406.000000	6.082659
2405.000000	6.105950
2404.000000	6.113915
2403.000000	6.115932
2402.000000	6.121174
2401.000000	6.136096
2400.000000	6.139827
2399.000000	6.153842
2398.000000	6.152329
2397.000000	6.142448
2396.000000	6.167050
2395.000000	6.183484
2394.000000	6.191449
2393.000000	6.201633
2392.000000	6.211816
2391.000000	6.222403
2390.000000	6.217966
2389.000000	6.219277
2388.000000	6.230670
2387.000000	6.250230
2386.000000	6.258699
2385.000000	6.255271
2384.000000	6.250936
2383.000000	6.261523
2382.000000	6.265757
2381.000000	6.258599
2380.000000	6.267068
2379.000000	6.266160
2378.000000	6.257187
2377.000000	6.245895
2376.000000	6.253658
2375.000000	6.257691
2374.000000	6.248516
2373.000000	6.246399
2372.000000	6.244584
2371.000000	6.231880
2370.000000	6.213026
2369.000000	6.204657
2368.000000	6.206472
2367.000000	6.195785
2366.000000	6.175015
2365.000000	6.160496
2364.000000	6.153035
2363.000000	6.125913
2362.000000	6.101312
2361.000000	6.082256
2360.000000	6.068040
2359.000000	6.049085
2358.000000	6.024080
2357.000000	5.999781
2356.000000	5.985666
2355.000000	5.970744
2354.000000	5.951890
2353.000000	5.947050
2352.000000	5.954108
2351.000000	5.956427
2350.000000	5.952999
2349.000000	5.961266
2348.000000	5.979112
2347.000000	5.976793
2346.000000	5.972055
2345.000000	5.983044
2344.000000	5.994942
2343.000000	6.007041
2342.000000	6.021660
2341.000000	6.036683
2340.000000	6.062293
2339.000000	6.076408
2338.000000	6.082256
2337.000000	6.087398
2336.000000	6.083163
2335.000000	6.095767
2334.000000	6.092843
2333.000000	6.088709
2332.000000	6.073988
2331.000000	6.050496
2330.000000	6.019140
2329.000000	6.014905
2328.000000	5.994942
2327.000000	5.967921
2326.000000	5.940396
2325.000000	5.915693
2324.000000	5.890991
2323.000000	5.863970
2322.000000	5.830597
2321.000000	5.798333
2320.000000	5.764255
2319.000000	5.726445
2318.000000	5.687930
2317.000000	5.639938
2316.000000	5.616345
2315.000000	5.590533
2314.000000	5.546776
2313.000000	5.518444
2312.000000	5.480937
2311.000000	5.437481
2310.000000	5.402495
2309.000000	5.389690
2308.000000	5.350066
2307.000000	5.334439
2306.000000	5.331212
2305.000000	5.328389
2304.000000	5.322340
2303.000000	5.328691
2302.000000	5.344017
2301.000000	5.344118
2300.000000	5.363779
2299.000000	5.384347
2298.000000	5.397252
2297.000000	5.427903
2296.000000	5.460470
2295.000000	5.488600
2294.000000	5.502917
2293.000000	5.511487
2292.000000	5.523687
2291.000000	5.525098
2290.000000	5.557362
2289.000000	5.566336
2288.000000	5.558875
2287.000000	5.570772
2286.000000	5.560891
2285.000000	5.565831
2284.000000	5.540726
2283.000000	5.503320
2282.000000	5.500900
2281.000000	5.482953
2280.000000	5.459360
2279.000000	5.441615
2278.000000	5.440204
2277.000000	5.413485
2276.000000	5.385557
2275.000000	5.364383
2274.000000	5.354805
2273.000000	5.361460
2272.000000	5.339177
2271.000000	5.312459
2270.000000	5.296226
2269.000000	5.312257
2268.000000	5.312358
2267.000000	5.333632
2266.000000	5.351276
2265.000000	5.372954
2264.000000	5.405621
2263.000000	5.459663
2262.000000	5.497573
2261.000000	5.557261
2260.000000	5.625923
2259.000000	5.695795
2258.000000	5.754777
2257.000000	5.844612
2256.000000	5.929607
2255.000000	6.030029
2254.000000	6.108975
2253.000000	6.205061
2252.000000	6.299634
2251.000000	6.401266
2250.000000	6.475977
2249.000000	6.562485
2248.000000	6.662805
2247.000000	6.758891
2246.000000	6.824831
2245.000000	6.899643
2244.000000	6.976673
2243.000000	7.035151
2242.000000	7.083547
2241.000000	7.156141
2240.000000	7.199596
2239.000000	7.258982
2238.000000	7.324619
2237.000000	7.362630
2236.000000	7.393987
2235.000000	7.430082
2234.000000	7.470916
2233.000000	7.511851
2232.000000	7.532520
2231.000000	7.570632
2230.000000	7.578799
2229.000000	7.619633
2228.000000	7.632740
2227.000000	7.643125
2226.000000	7.646049
2225.000000	7.637277
2224.000000	7.667222
2223.000000	7.644234
2222.000000	7.648267
2221.000000	7.653106
2220.000000	7.657946
2219.000000	7.651191
2218.000000	7.642318
2217.000000	7.633950
2216.000000	7.604307
2215.000000	7.611466
2214.000000	7.581118
2213.000000	7.581722
2212.000000	7.562364
2211.000000	7.576076
2210.000000	7.544921
2209.000000	7.552786
2208.000000	7.520522
2207.000000	7.528789
2206.000000	7.519009
2205.000000	7.515884
2204.000000	7.492997
2203.000000	7.476562
2202.000000	7.481099
2201.000000	7.488560
2200.000000	7.476461
2199.000000	7.460834
2198.000000	7.438047
2197.000000	7.440366
2196.000000	7.439963
2195.000000	7.435022
2194.000000	7.457305
2193.000000	7.427158
2192.000000	7.432603
2191.000000	7.429074
2190.000000	7.430687
2189.000000	7.407800
2188.000000	7.436131
2187.000000	7.412942
2186.000000	7.416975
2185.000000	7.417277
2184.000000	7.391769
2183.000000	7.400843
2182.000000	7.396306
2181.000000	7.389147
2180.000000	7.393180
2179.000000	7.368780
2178.000000	7.378460
2177.000000	7.388744
2176.000000	7.381888
2175.000000	7.375132
2174.000000	7.399431
2173.000000	7.390962
2172.000000	7.387030
2171.000000	7.399935
2170.000000	7.400036
2169.000000	7.406892
2168.000000	7.417580
2167.000000	7.447021
2166.000000	7.458414
2165.000000	7.428267
2164.000000	7.483015
2163.000000	7.500458
2162.000000	7.493602
2161.000000	7.530806
2160.000000	7.548249
2159.000000	7.559541
2158.000000	7.554903
2157.000000	7.587268
2156.000000	7.606626
2155.000000	7.622052
2154.000000	7.645141
2153.000000	7.658753
2152.000000	7.667424
2151.000000	7.704930
2150.000000	7.713299
2149.000000	7.727213
2148.000000	7.763610
2147.000000	7.765627
2146.000000	7.776012
2145.000000	7.797488
2144.000000	7.828844
2143.000000	7.828542
2142.000000	7.848102
2141.000000	7.868267
2140.000000	7.893876
2139.000000	7.898010
2138.000000	7.897102
2137.000000	7.905773
2136.000000	7.922107
2135.000000	7.927552
2134.000000	7.937029
2133.000000	7.927652
2132.000000	7.938541
2131.000000	7.943683
2130.000000	7.936727
2129.000000	7.934710
2128.000000	7.946103
2127.000000	7.939247
2126.000000	7.936021
2125.000000	7.930677
2124.000000	7.898010
2123.000000	7.883592
2122.000000	7.878954
2121.000000	7.874215
2120.000000	7.867359
2119.000000	7.862721
2118.000000	7.825618
2117.000000	7.820778
2116.000000	7.816039
2115.000000	7.807570
2114.000000	7.763510
2113.000000	7.731548
2112.000000	7.713299
2111.000000	7.686479
2110.000000	7.682648
2109.000000	7.669541
2108.000000	7.637579
2107.000000	7.612676
2106.000000	7.588377
2105.000000	7.579303
2104.000000	7.560045
2103.000000	7.529394
2102.000000	7.506507
2101.000000	7.483116
2100.000000	7.475251
2099.000000	7.457809
2098.000000	7.434115
2097.000000	7.411933
2096.000000	7.397717
2095.000000	7.377250
2094.000000	7.362227
2093.000000	7.357992
2092.000000	7.351035
2091.000000	7.330568
2090.000000	7.318671
2089.000000	7.309395
2088.000000	7.290540
2087.000000	7.264326
2086.000000	7.248900
2085.000000	7.235994
2084.000000	7.215829
2083.000000	7.202117
2082.000000	7.195362
2081.000000	7.168139
2080.000000	7.147369
2079.000000	7.142933
2078.000000	7.119844
2077.000000	7.103914
2076.000000	7.089395
2075.000000	7.073868
2074.000000	7.041705
2073.000000	7.029908
2072.000000	7.023960
2071.000000	6.987058
2070.000000	6.961952
2069.000000	6.941082
2068.000000	6.915170
2067.000000	6.903474
2066.000000	6.878369
2065.000000	6.850239
2064.000000	6.830880
2063.000000	6.813639
2062.000000	6.805674
2061.000000	6.797306
2060.000000	6.764739
2059.000000	6.743969
2058.000000	6.735500
2057.000000	6.736206
2056.000000	6.726022
2055.000000	6.726829
2054.000000	6.732072
2053.000000	6.736206
2052.000000	6.746994
2051.000000	6.758790
2050.000000	6.762319
2049.000000	6.768873
2048.000000	6.804767
2047.000000	6.833602
2046.000000	6.871513
2045.000000	6.896719
2044.000000	6.929285
2043.000000	6.958424
2042.000000	6.980706
2041.000000	7.020834
2040.000000	7.061366
2039.000000	7.095142
2038.000000	7.142126
2037.000000	7.189615
2036.000000	7.201512
2035.000000	7.240330
2034.000000	7.256058
2033.000000	7.281365
2032.000000	7.309092
2031.000000	7.329156
2030.000000	7.357488
2029.000000	7.368075
2028.000000	7.389651
2027.000000	7.404876
2026.000000	7.415765
2025.000000	7.422722
2024.000000	7.446920
2023.000000	7.445004
2022.000000	7.450650
2021.000000	7.472227
2020.000000	7.475957
2019.000000	7.480091
2018.000000	7.499550
2017.000000	7.485536
2016.000000	7.488460
2015.000000	7.485636
2014.000000	7.485233
2013.000000	7.475957
2012.000000	7.467790
2011.000000	7.461943
2010.000000	7.455389
2009.000000	7.455994
2008.000000	7.428166
2007.000000	7.416975
2006.000000	7.401851
2005.000000	7.388643
2004.000000	7.370192
2003.000000	7.333089
2002.000000	7.319578
2001.000000	7.296993
2000.000000	7.280357
1999.000000	7.254748
1998.000000	7.230550
1997.000000	7.213712
1996.000000	7.191934
1995.000000	7.134968
1994.000000	7.103914
1993.000000	7.098469
1992.000000	7.066508
1991.000000	7.031320
1990.000000	6.988469
1989.000000	6.978891
1988.000000	6.932814
1987.000000	6.891879
1986.000000	6.867076
1985.000000	6.827654
1984.000000	6.786719
1983.000000	6.762823
1982.000000	6.721183
1981.000000	6.693557
1980.000000	6.668956
1979.000000	6.646270
1978.000000	6.598177
1977.000000	6.560972
1976.000000	6.532943
1975.000000	6.493621
1974.000000	6.460853
1973.000000	6.454904
1972.000000	6.423246
1971.000000	6.376866
1970.000000	6.347425
1969.000000	6.325143
1968.000000	6.310322
1967.000000	6.282292
1966.000000	6.256078
1965.000000	6.238131
1964.000000	6.203246
1963.000000	6.195180
1962.000000	6.162916
1961.000000	6.145776
1960.000000	6.115528
1959.000000	6.098287
1958.000000	6.084978
1957.000000	6.058260
1956.000000	6.046665
1955.000000	6.028718
1954.000000	5.988388
1953.000000	5.968526
1952.000000	5.953301
1951.000000	5.939186
1950.000000	5.904099
1949.000000	5.896335
1948.000000	5.890487
1947.000000	5.872540
1946.000000	5.879497
1945.000000	5.887967
1944.000000	5.864071
1943.000000	5.827976
1942.000000	5.820918
1941.000000	5.810937
1940.000000	5.826564
1939.000000	5.813961
1938.000000	5.815574
1937.000000	5.826968
1936.000000	5.822531
1935.000000	5.844713
1934.000000	5.841386
1933.000000	5.852476
1932.000000	5.853081
1931.000000	5.871532
1930.000000	5.882522
1929.000000	5.904603
1928.000000	5.926683
1927.000000	5.946243
1926.000000	5.968324
1925.000000	6.003814
1924.000000	6.026702
1923.000000	6.060075
1922.000000	6.106454
1921.000000	6.159992
1920.000000	6.195986
1919.000000	6.237930
1918.000000	6.279369
1917.000000	6.344401
1916.000000	6.381302
1915.000000	6.439478
1914.000000	6.494529
1913.000000	6.579221
1912.000000	6.656857
1911.000000	6.724812
1910.000000	6.791357
1909.000000	6.861531
1908.000000	6.939771
1907.000000	7.036563
1906.000000	7.137085
1905.000000	7.246782
1904.000000	7.357589
1903.000000	7.459220
1902.000000	7.611970
1901.000000	7.728120
1900.000000	7.855260
1899.000000	7.997927
1898.000000	8.179513
1897.000000	8.297175
1896.000000	8.481685
1895.000000	8.636753
1894.000000	8.774883
1893.000000	8.979759
1892.000000	9.167394
1891.000000	9.402417
1890.000000	9.624030
1889.000000	9.880427
1888.000000	10.114643
1887.000000	10.385055
1886.000000	10.659198
1885.000000	10.993936
1884.000000	11.331800
1883.000000	11.724513
1882.000000	12.144045
1881.000000	12.534337
1880.000000	12.967884
1879.000000	13.344364
1878.000000	13.747865
1877.000000	14.176874
1876.000000	14.583299
1875.000000	14.960182
1874.000000	15.345535
1873.000000	15.737541
1872.000000	16.108274
1871.000000	16.432224
1870.000000	16.756275
1869.000000	17.043626
1868.000000	17.342067
1867.000000	17.593625
1866.000000	17.799711
1865.000000	17.957401
1864.000000	18.135155
1863.000000	18.304440
1862.000000	18.439848
1861.000000	18.578078
1860.000000	18.714091
1859.000000	18.840929
1858.000000	18.933183
1857.000000	19.025841
1856.000000	19.097124
1855.000000	19.132514
1854.000000	19.183431
1853.000000	19.231726
1852.000000	19.220332
1851.000000	19.249672
1850.000000	19.235960
1849.000000	19.244127
1848.000000	19.251386
1847.000000	19.244732
1846.000000	19.218013
1845.000000	19.174659
1844.000000	19.146629
1843.000000	19.135740
1842.000000	19.134530
1841.000000	19.143806
1840.000000	19.124347
1839.000000	19.106501
1838.000000	19.071515
1837.000000	19.043990
1836.000000	19.003559
1835.000000	18.975026
1834.000000	18.941854
1833.000000	18.892148
1832.000000	18.843348
1831.000000	18.796667
1830.000000	18.747867
1829.000000	18.694329
1828.000000	18.655915
1827.000000	18.590682
1826.000000	18.527565
1825.000000	18.480278
1824.000000	18.424623
1823.000000	18.377840
1822.000000	18.354550
1821.000000	18.354046
1820.000000	18.342753
1819.000000	18.317547
1818.000000	18.265723
1817.000000	18.238500
1816.000000	18.237391
1815.000000	18.230132
1814.000000	18.231443
1813.000000	18.222973
1812.000000	18.207648
1811.000000	18.184257
1810.000000	18.162176
1809.000000	18.125879
1808.000000	18.100774
1807.000000	18.074358
1806.000000	18.034229
1805.000000	17.983010
1804.000000	17.945302
1803.000000	17.905879
1802.000000	17.847099
1801.000000	17.810197
1800.000000	17.763918
1799.000000	17.701104
1798.000000	17.654221
1797.000000	17.608749
1796.000000	17.570536
1795.000000	17.530509
1794.000000	17.491893
1793.000000	17.449849
1792.000000	17.401957
1791.000000	17.350234
1790.000000	17.285101
1789.000000	17.227530
1788.000000	17.182562
1787.000000	17.132856
1786.000000	17.066311
1785.000000	17.015294
1784.000000	16.959941
1783.000000	16.890070
1782.000000	16.827256
1781.000000	16.761720
1780.000000	16.681766
1779.000000	16.604534
1778.000000	16.540409
1777.000000	16.477495
1776.000000	16.410043
1775.000000	16.322628
1774.000000	16.225836
1773.000000	16.132170
1772.000000	16.042133
1771.000000	15.943426
1770.000000	15.836854
1769.000000	15.734517
1768.000000	15.645488
1767.000000	15.552024
1766.000000	15.481346
1765.000000	15.396854
1764.000000	15.333032
1763.000000	15.288770
1762.000000	15.286350
1761.000000	15.289375
1760.000000	15.313775
1759.000000	15.377698
1758.000000	15.431135
1757.000000	15.489714
1756.000000	15.560997
1755.000000	15.608385
1754.000000	15.646597
1753.000000	15.701950
1752.000000	15.724434
1751.000000	15.731895
1750.000000	15.735021
1749.000000	15.720905
1748.000000	15.705580
1747.000000	15.657688
1746.000000	15.606973
1745.000000	15.529439
1744.000000	15.431941
1743.000000	15.308532
1742.000000	15.169494
1741.000000	15.026928
1740.000000	14.856938
1739.000000	14.671117
1738.000000	14.479651
1737.000000	14.306737
1736.000000	14.148240
1735.000000	14.026141
1734.000000	13.945481
1733.000000	13.872887
1732.000000	13.833868
1731.000000	13.846371
1730.000000	13.884684
1729.000000	13.951329
1728.000000	14.030678
1727.000000	14.123639
1726.000000	14.221338
1725.000000	14.300586
1724.000000	14.342529
1723.000000	14.406251
1722.000000	14.463217
1721.000000	14.488725
1720.000000	14.502236
1719.000000	14.544784
1718.000000	14.568377
1717.000000	14.612841
1716.000000	14.675655
1715.000000	14.730402
1714.000000	14.791805
1713.000000	14.870347
1712.000000	14.920760
1711.000000	14.971979
1710.000000	15.021383
1709.000000	15.046186
1708.000000	15.064435
1707.000000	15.055462
1706.000000	15.035902
1705.000000	15.000411
1704.000000	14.960787
1703.000000	14.927918
1702.000000	14.846048
1701.000000	14.767808
1700.000000	14.661237
1699.000000	14.538331
1698.000000	14.403831
1697.000000	14.262979
1696.000000	14.167296
1695.000000	14.118295
1694.000000	14.074840
1693.000000	14.113859
1692.000000	14.185545
1691.000000	14.285463
1690.000000	14.403932
1689.000000	14.546296
1688.000000	14.640668
1687.000000	14.710137
1686.000000	14.751475
1685.000000	14.791301
1684.000000	14.837982
1683.000000	14.926003
1682.000000	15.066351
1681.000000	15.284132
1680.000000	15.627945
1679.000000	16.046166
1678.000000	16.489896
1677.000000	16.951774
1676.000000	17.389959
1675.000000	17.820078
1674.000000	18.160059
1673.000000	18.498225
1672.000000	18.748371
1671.000000	18.989444
1670.000000	19.206217
1669.000000	19.385282
1668.000000	19.541963
1667.000000	19.685135
1666.000000	19.788682
1665.000000	19.897774
1664.000000	20.003640
1663.000000	20.057077
1662.000000	20.131990
1661.000000	20.206601
1660.000000	20.237755
1659.000000	20.276674
1658.000000	20.309644
1657.000000	20.343722
1656.000000	20.356830
1655.000000	20.374575
1654.000000	20.391110
1653.000000	20.361669
1652.000000	20.365803
1651.000000	20.343017
1650.000000	20.312870
1649.000000	20.285748
1648.000000	20.241688
1647.000000	20.202467
1646.000000	20.173631
1645.000000	20.105171
1644.000000	20.058993
1643.000000	19.988416
1642.000000	19.965327
1641.000000	19.899992
1640.000000	19.852907
1639.000000	19.786060
1638.000000	19.713668
1637.000000	19.650653
1636.000000	19.584108
1635.000000	19.502440
1634.000000	19.447289
1633.000000	19.374796
1632.000000	19.282340
1631.000000	19.221139
1630.000000	19.169214
1629.000000	19.060122
1628.000000	18.980672
1627.000000	18.910800
1626.000000	18.822175
1625.000000	18.750590
1624.000000	18.671039
1623.000000	18.587354
1622.000000	18.511433
1621.000000	18.411516
1620.000000	18.334889
1619.000000	18.264816
1618.000000	18.195650
1617.000000	18.127997
1616.000000	18.051168
1615.000000	17.985128
1614.000000	17.903157
1613.000000	17.828244
1612.000000	17.759986
1611.000000	17.695660
1610.000000	17.618730
1609.000000	17.568520
1608.000000	17.495523
1607.000000	17.425853
1606.000000	17.371004
1605.000000	17.306375
1604.000000	17.232370
1603.000000	17.143644
1602.000000	17.088493
1601.000000	17.036266
1600.000000	16.968814
1599.000000	16.913663
1598.000000	16.830583
1597.000000	16.784103
