PE UV       SUBTECH     SPECTRUM    ASCII       PEDS        4.00        
   -1
CICIMAUCR0225-3.Sample.ASC
24/05/27
16:32:59.00
24/05/27
16:32:59.00
Vinicio Soto Monge
C. resplendens, F
250,000000
1
Lambda 1050
1050L1511233
PerkinElmer UV WinLab 6.3.2.0749 / 2.02.05 Lambda 900 UV/VIS/NIR, Aug  7 2015 09:38:08

0
0
3350/servo 860,8/2
0
0
UV/VIS
1
1
1
DoubleDePol,CommonBeamDepol,RBeamAtt,SBeamAtt,60mm sphere, WB InGaAs Detector
0
0
0
0
Program
Program
3350/servo 860,8/2
3350/0,2 860,8/0,2
3350/0,2 860,8/0,2
0
15.00
 
 
 
0
 
860,8
319,2
860,8
Front
100
on
S:100 R:100
0
0
0
0
 
0
 
 
 
0
 
 
0
0
0
0
0
 
 
 
 
0
0


0
0
#HDR
-1
-1
#GR
nm
%R
1.0
0.0
2500,000000
-1,000000
2251
8
72,869500
5,660100
#DATA
2500.000000	10.146910
2499.000000	10.034610
2498.000000	10.002421
2497.000000	10.061759
2496.000000	9.916756
2495.000000	10.057440
2494.000000	9.976403
2493.000000	9.884876
2492.000000	9.815768
2491.000000	9.842918
2490.000000	9.824098
2489.000000	9.746146
2488.000000	9.749951
2487.000000	9.782243
2486.000000	9.782449
2485.000000	9.812272
2484.000000	9.793864
2483.000000	9.770314
2482.000000	9.749129
2481.000000	9.727533
2480.000000	9.661099
2479.000000	9.735348
2478.000000	9.707068
2477.000000	9.671691
2476.000000	9.718174
2475.000000	9.727121
2474.000000	9.711181
2473.000000	9.777924
2472.000000	9.775456
2471.000000	9.782243
2470.000000	9.739256
2469.000000	9.753345
2468.000000	9.735143
2467.000000	9.764760
2466.000000	9.758796
2465.000000	9.833251
2464.000000	9.816900
2463.000000	9.869759
2462.000000	9.899685
2461.000000	9.895469
2460.000000	9.963034
2459.000000	10.002832
2458.000000	10.060628
2457.000000	10.135906
2456.000000	10.172311
2455.000000	10.187428
2454.000000	10.296335
2453.000000	10.368733
2452.000000	10.428380
2451.000000	10.520112
2450.000000	10.581507
2449.000000	10.654317
2448.000000	10.755099
2447.000000	10.834593
2446.000000	10.901439
2445.000000	10.976614
2444.000000	11.072871
2443.000000	11.156376
2442.000000	11.248417
2441.000000	11.330174
2440.000000	11.418821
2439.000000	11.456975
2438.000000	11.535955
2437.000000	11.620077
2436.000000	11.689082
2435.000000	11.772793
2434.000000	11.823698
2433.000000	11.906175
2432.000000	11.977134
2431.000000	12.034518
2430.000000	12.083572
2429.000000	12.129541
2428.000000	12.179418
2427.000000	12.223124
2426.000000	12.281434
2425.000000	12.339435
2424.000000	12.383656
2423.000000	12.415639
2422.000000	12.465310
2421.000000	12.513644
2420.000000	12.546039
2419.000000	12.578741
2418.000000	12.620186
2417.000000	12.656076
2416.000000	12.688471
2415.000000	12.716340
2414.000000	12.752025
2413.000000	12.785036
2412.000000	12.807352
2411.000000	12.830697
2410.000000	12.864222
2409.000000	12.903610
2408.000000	12.937341
2407.000000	12.959862
2406.000000	12.984338
2405.000000	13.016527
2404.000000	13.035346
2403.000000	13.078436
2402.000000	13.126256
2401.000000	13.165952
2400.000000	13.198552
2399.000000	13.238453
2398.000000	13.271567
2397.000000	13.298614
2396.000000	13.317845
2395.000000	13.353941
2394.000000	13.389215
2393.000000	13.425209
2392.000000	13.456677
2391.000000	13.473748
2390.000000	13.499047
2389.000000	13.518998
2388.000000	13.517866
2387.000000	13.536892
2386.000000	13.571548
2385.000000	13.570726
2384.000000	13.561573
2383.000000	13.563013
2382.000000	13.568463
2381.000000	13.568463
2380.000000	13.568874
2379.000000	13.567846
2378.000000	13.549232
2377.000000	13.544090
2376.000000	13.545016
2375.000000	13.513444
2374.000000	13.483827
2373.000000	13.474263
2372.000000	13.460791
2371.000000	13.434053
2370.000000	13.399499
2369.000000	13.365048
2368.000000	13.330597
2367.000000	13.283188
2366.000000	13.244521
2365.000000	13.199786
2364.000000	13.137054
2363.000000	13.081624
2362.000000	13.014778
2361.000000	12.945979
2360.000000	12.892194
2359.000000	12.845197
2358.000000	12.784111
2357.000000	12.715929
2356.000000	12.667080
2355.000000	12.632938
2354.000000	12.600029
2353.000000	12.560025
2352.000000	12.530510
2351.000000	12.530818
2350.000000	12.528042
2349.000000	12.538737
2348.000000	12.568560
2347.000000	12.590362
2346.000000	12.622139
2345.000000	12.667183
2344.000000	12.699371
2343.000000	12.741433
2342.000000	12.797480
2341.000000	12.838513
2340.000000	12.860006
2339.000000	12.893017
2338.000000	12.926954
2337.000000	12.949887
2336.000000	12.964490
2335.000000	12.972512
2334.000000	12.961816
2333.000000	12.939706
2332.000000	12.918418
2331.000000	12.888492
2330.000000	12.847974
2329.000000	12.812391
2328.000000	12.756653
2327.000000	12.698857
2326.000000	12.636228
2325.000000	12.566606
2324.000000	12.480942
2323.000000	12.401961
2322.000000	12.300048
2321.000000	12.191244
2320.000000	12.078019
2319.000000	11.953995
2318.000000	11.832645
2317.000000	11.713661
2316.000000	11.570200
2315.000000	11.426431
2314.000000	11.281120
2313.000000	11.167277
2312.000000	11.054463
2311.000000	10.954504
2310.000000	10.844877
2309.000000	10.757156
2308.000000	10.692367
2307.000000	10.636423
2306.000000	10.617809
2305.000000	10.591791
2304.000000	10.589014
2303.000000	10.640331
2302.000000	10.680335
2301.000000	10.737102
2300.000000	10.811969
2299.000000	10.892389
2298.000000	10.992863
2297.000000	11.096730
2296.000000	11.193501
2295.000000	11.291610
2294.000000	11.383753
2293.000000	11.475691
2292.000000	11.542845
2291.000000	11.590048
2290.000000	11.659773
2289.000000	11.689596
2288.000000	11.700086
2287.000000	11.736491
2286.000000	11.728572
2285.000000	11.707799
2284.000000	11.696898
2283.000000	11.673142
2282.000000	11.629641
2281.000000	11.570200
2280.000000	11.528448
2279.000000	11.463762
2278.000000	11.422318
2277.000000	11.408537
2276.000000	11.357427
2275.000000	11.302819
2274.000000	11.291918
2273.000000	11.259524
2272.000000	11.250783
2271.000000	11.231140
2270.000000	11.266620
2269.000000	11.307344
2268.000000	11.359278
2267.000000	11.430751
2266.000000	11.544799
2265.000000	11.672833
2264.000000	11.786162
2263.000000	11.934970
2262.000000	12.127690
2261.000000	12.346428
2260.000000	12.554163
2259.000000	12.768479
2258.000000	13.002849
2257.000000	13.261386
2256.000000	13.528150
2255.000000	13.775786
2254.000000	14.028976
2253.000000	14.289158
2252.000000	14.533195
2251.000000	14.750699
2250.000000	14.992576
2249.000000	15.197020
2248.000000	15.412365
2247.000000	15.595727
2246.000000	15.770553
2245.000000	15.932215
2244.000000	16.077116
2243.000000	16.221296
2242.000000	16.352004
2241.000000	16.458237
2240.000000	16.597686
2239.000000	16.690755
2238.000000	16.794211
2237.000000	16.859720
2236.000000	16.918543
2235.000000	17.022411
2234.000000	17.079075
2233.000000	17.128335
2232.000000	17.174407
2231.000000	17.218833
2230.000000	17.239195
2229.000000	17.256472
2228.000000	17.299973
2227.000000	17.298122
2226.000000	17.308714
2225.000000	17.308406
2224.000000	17.297505
2223.000000	17.296785
2222.000000	17.274160
2221.000000	17.257398
2220.000000	17.237755
2219.000000	17.188804
2218.000000	17.149417
2217.000000	17.154045
2216.000000	17.099334
2215.000000	17.082263
2214.000000	17.022205
2213.000000	16.990017
2212.000000	16.965747
2211.000000	16.935820
2210.000000	16.898798
2209.000000	16.888309
2208.000000	16.856326
2207.000000	16.824652
2206.000000	16.810974
2205.000000	16.792463
2204.000000	16.777757
2203.000000	16.733948
2202.000000	16.741969
2201.000000	16.730862
2200.000000	16.722944
2199.000000	16.701039
2198.000000	16.673684
2197.000000	16.655276
2196.000000	16.651368
2195.000000	16.648180
2194.000000	16.641084
2193.000000	16.639953
2192.000000	16.604268
2191.000000	16.595732
2190.000000	16.574444
2189.000000	16.569508
2188.000000	16.565189
2187.000000	16.535366
2186.000000	16.528681
2185.000000	16.509039
2184.000000	16.511507
2183.000000	16.482301
2182.000000	16.465127
2181.000000	16.456283
2180.000000	16.437155
2179.000000	16.424711
2178.000000	16.406714
2177.000000	16.396739
2176.000000	16.393859
2175.000000	16.388100
2174.000000	16.380285
2173.000000	16.390466
2172.000000	16.401675
2171.000000	16.413913
2170.000000	16.416587
2169.000000	16.436640
2168.000000	16.442708
2167.000000	16.446513
2166.000000	16.469343
2165.000000	16.511096
2164.000000	16.538657
2163.000000	16.552951
2162.000000	16.574547
2161.000000	16.619488
2160.000000	16.659081
2159.000000	16.690344
2158.000000	16.740529
2157.000000	16.762948
2156.000000	16.821258
2155.000000	16.867741
2154.000000	16.917001
2153.000000	16.960090
2152.000000	17.012333
2151.000000	17.077944
2150.000000	17.125661
2149.000000	17.172864
2148.000000	17.224592
2147.000000	17.274777
2146.000000	17.333704
2145.000000	17.361779
2144.000000	17.412376
2143.000000	17.472125
2142.000000	17.509559
2141.000000	17.553985
2140.000000	17.594812
2139.000000	17.636565
2138.000000	17.686442
2137.000000	17.727886
2136.000000	17.771798
2135.000000	17.795759
2134.000000	17.832062
2133.000000	17.870832
2132.000000	17.901169
2131.000000	17.921737
2130.000000	17.935517
2129.000000	17.956599
2128.000000	17.980150
2127.000000	17.990331
2126.000000	17.987040
2125.000000	18.008739
2124.000000	18.024679
2123.000000	18.030952
2122.000000	18.018611
2121.000000	18.009253
2120.000000	18.017172
2119.000000	18.007505
2118.000000	17.997632
2117.000000	17.991668
2116.000000	17.964415
2115.000000	17.943230
2114.000000	17.947035
2113.000000	17.949401
2112.000000	17.926056
2111.000000	17.893868
2110.000000	17.877208
2109.000000	17.863016
2108.000000	17.839363
2107.000000	17.808306
2106.000000	17.794011
2105.000000	17.789692
2104.000000	17.772106
2103.000000	17.746911
2102.000000	17.712768
2101.000000	17.680271
2100.000000	17.674204
2099.000000	17.651374
2098.000000	17.627515
2097.000000	17.616923
2096.000000	17.603245
2095.000000	17.586585
2094.000000	17.564166
2093.000000	17.536400
2092.000000	17.527144
2091.000000	17.523956
2090.000000	17.505651
2089.000000	17.489402
2088.000000	17.483438
2087.000000	17.464001
2086.000000	17.442919
2085.000000	17.431298
2084.000000	17.404560
2083.000000	17.389854
2082.000000	17.369698
2081.000000	17.334218
2080.000000	17.313959
2079.000000	17.277760
2078.000000	17.237550
2077.000000	17.201762
2076.000000	17.171013
2075.000000	17.135945
2074.000000	17.082469
2073.000000	17.038454
2072.000000	16.995878
2071.000000	16.954948
2070.000000	16.908465
2069.000000	16.852110
2068.000000	16.794417
2067.000000	16.748962
2066.000000	16.697028
2065.000000	16.646740
2064.000000	16.588842
2063.000000	16.545033
2062.000000	16.507805
2061.000000	16.452478
2060.000000	16.412782
2059.000000	16.363111
2058.000000	16.329174
2057.000000	16.307783
2056.000000	16.294106
2055.000000	16.281456
2054.000000	16.288655
2053.000000	16.306652
2052.000000	16.319713
2051.000000	16.355500
2050.000000	16.399413
2049.000000	16.441988
2048.000000	16.496595
2047.000000	16.569303
2046.000000	16.663092
2045.000000	16.762228
2044.000000	16.860234
2043.000000	16.955977
2042.000000	17.076298
2041.000000	17.193021
2040.000000	17.285678
2039.000000	17.386461
2038.000000	17.483540
2037.000000	17.579489
2036.000000	17.684899
2035.000000	17.791543
2034.000000	17.860548
2033.000000	17.948167
2032.000000	18.018817
2031.000000	18.086691
2030.000000	18.165671
2029.000000	18.236218
2028.000000	18.296585
2027.000000	18.345639
2026.000000	18.398190
2025.000000	18.437166
2024.000000	18.482209
2023.000000	18.524990
2022.000000	18.564994
2021.000000	18.600885
2020.000000	18.629783
2019.000000	18.664440
2018.000000	18.677500
2017.000000	18.694571
2016.000000	18.709072
2015.000000	18.726040
2014.000000	18.763576
2013.000000	18.764193
2012.000000	18.762548
2011.000000	18.762034
2010.000000	18.769438
2009.000000	18.777048
2008.000000	18.742494
2007.000000	18.745580
2006.000000	18.746505
2005.000000	18.716990
2004.000000	18.687270
2003.000000	18.655493
2002.000000	18.627418
2001.000000	18.616620
2000.000000	18.592761
1999.000000	18.538668
1998.000000	18.487557
1997.000000	18.455985
1996.000000	18.409399
1995.000000	18.355923
1994.000000	18.306663
1993.000000	18.231899
1992.000000	18.158884
1991.000000	18.095432
1990.000000	18.034449
1989.000000	17.961947
1988.000000	17.897981
1987.000000	17.844197
1986.000000	17.739095
1985.000000	17.666902
1984.000000	17.585145
1983.000000	17.511513
1982.000000	17.442199
1981.000000	17.363733
1980.000000	17.261100
1979.000000	17.190861
1978.000000	17.133168
1977.000000	17.019120
1976.000000	16.954023
1975.000000	16.866096
1974.000000	16.776009
1973.000000	16.705667
1972.000000	16.624013
1971.000000	16.548221
1970.000000	16.461322
1969.000000	16.395710
1968.000000	16.314673
1967.000000	16.240115
1966.000000	16.170802
1965.000000	16.075984
1964.000000	16.006054
1963.000000	15.950932
1962.000000	15.877094
1961.000000	15.775592
1960.000000	15.698565
1959.000000	15.626270
1958.000000	15.557573
1957.000000	15.497927
1956.000000	15.436635
1955.000000	15.368967
1954.000000	15.300579
1953.000000	15.237950
1952.000000	15.157016
1951.000000	15.093564
1950.000000	15.026513
1949.000000	14.984761
1948.000000	14.928096
1947.000000	14.871432
1946.000000	14.812403
1945.000000	14.750802
1944.000000	14.705553
1943.000000	14.676038
1942.000000	14.653414
1941.000000	14.627190
1940.000000	14.622253
1939.000000	14.589859
1938.000000	14.564458
1937.000000	14.591093
1936.000000	14.573919
1935.000000	14.595310
1934.000000	14.607239
1933.000000	14.642924
1932.000000	14.692287
1931.000000	14.700411
1930.000000	14.758824
1929.000000	14.827520
1928.000000	14.914419
1927.000000	14.972523
1926.000000	15.095929
1925.000000	15.178098
1924.000000	15.309012
1923.000000	15.396219
1922.000000	15.484558
1921.000000	15.626887
1920.000000	15.790606
1919.000000	15.984458
1918.000000	16.098609
1917.000000	16.276520
1916.000000	16.450935
1915.000000	16.593984
1914.000000	16.761508
1913.000000	16.986109
1912.000000	17.210400
1911.000000	17.433047
1910.000000	17.646129
1909.000000	17.847590
1908.000000	18.041750
1907.000000	18.262031
1906.000000	18.516763
1905.000000	18.785070
1904.000000	19.095232
1903.000000	19.332481
1902.000000	19.620636
1901.000000	19.891308
1900.000000	20.179977
1899.000000	20.475536
1898.000000	20.819018
1897.000000	21.127740
1896.000000	21.425047
1895.000000	21.706620
1894.000000	21.966597
1893.000000	22.298972
1892.000000	22.605638
1891.000000	22.984497
1890.000000	23.346901
1889.000000	23.683081
1888.000000	24.009903
1887.000000	24.400588
1886.000000	24.757954
1885.000000	25.165813
1884.000000	25.562668
1883.000000	26.004670
1882.000000	26.437416
1881.000000	26.862141
1880.000000	27.289951
1879.000000	27.709533
1878.000000	28.093534
1877.000000	28.497691
1876.000000	28.858038
1875.000000	29.206456
1874.000000	29.532970
1873.000000	29.847554
1872.000000	30.150106
1871.000000	30.410392
1870.000000	30.659262
1869.000000	30.849411
1868.000000	31.068869
1867.000000	31.220557
1866.000000	31.348900
1865.000000	31.451533
1864.000000	31.566198
1863.000000	31.654331
1862.000000	31.768894
1861.000000	31.873275
1860.000000	31.960894
1859.000000	32.045016
1858.000000	32.084198
1857.000000	32.129755
1856.000000	32.180558
1855.000000	32.203491
1854.000000	32.222722
1853.000000	32.234445
1852.000000	32.204828
1851.000000	32.197938
1850.000000	32.206679
1849.000000	32.214700
1848.000000	32.225498
1847.000000	32.195675
1846.000000	32.122762
1845.000000	32.055300
1844.000000	32.052215
1843.000000	32.038229
1842.000000	32.056534
1841.000000	32.061676
1840.000000	32.027636
1839.000000	32.003572
1838.000000	31.975497
1837.000000	31.942589
1836.000000	31.885307
1835.000000	31.849416
1834.000000	31.786582
1833.000000	31.724981
1832.000000	31.676853
1831.000000	31.653714
1830.000000	31.612270
1829.000000	31.556120
1828.000000	31.504392
1827.000000	31.433022
1826.000000	31.381808
1825.000000	31.338616
1824.000000	31.265600
1823.000000	31.246472
1822.000000	31.262103
1821.000000	31.255625
1820.000000	31.221688
1819.000000	31.190733
1818.000000	31.143119
1817.000000	31.121523
1816.000000	31.125328
1815.000000	31.133143
1814.000000	31.114632
1813.000000	31.085735
1812.000000	31.072057
1811.000000	31.057454
1810.000000	31.041823
1809.000000	31.005212
1808.000000	30.982382
1807.000000	30.956672
1806.000000	30.919136
1805.000000	30.887770
1804.000000	30.843652
1803.000000	30.805190
1802.000000	30.782051
1801.000000	30.756753
1800.000000	30.706671
1799.000000	30.651137
1798.000000	30.607945
1797.000000	30.577711
1796.000000	30.550561
1795.000000	30.514465
1794.000000	30.476826
1793.000000	30.445563
1792.000000	30.406278
1791.000000	30.361543
1790.000000	30.332748
1789.000000	30.300045
1788.000000	30.247392
1787.000000	30.204611
1786.000000	30.175302
1785.000000	30.132521
1784.000000	30.073594
1783.000000	30.011479
1782.000000	29.948439
1781.000000	29.902059
1780.000000	29.843338
1779.000000	29.766106
1778.000000	29.707796
1777.000000	29.628713
1776.000000	29.563925
1775.000000	29.496976
1774.000000	29.415631
1773.000000	29.329040
1772.000000	29.229801
1771.000000	29.129019
1770.000000	29.025563
1769.000000	28.924472
1768.000000	28.818240
1767.000000	28.715298
1766.000000	28.622743
1765.000000	28.528954
1764.000000	28.468587
1763.000000	28.430948
1762.000000	28.415728
1761.000000	28.426115
1760.000000	28.445037
1759.000000	28.482265
1758.000000	28.537181
1757.000000	28.583047
1756.000000	28.642179
1755.000000	28.690514
1754.000000	28.710670
1753.000000	28.728975
1752.000000	28.755714
1751.000000	28.745532
1750.000000	28.749029
1749.000000	28.738334
1748.000000	28.703677
1747.000000	28.654314
1746.000000	28.597342
1745.000000	28.516922
1744.000000	28.420356
1743.000000	28.294687
1742.000000	28.182489
1741.000000	28.035327
1740.000000	27.842915
1739.000000	27.667986
1738.000000	27.488018
1737.000000	27.292316
1736.000000	27.132710
1735.000000	26.989558
1734.000000	26.878801
1733.000000	26.787994
1732.000000	26.741202
1731.000000	26.743156
1730.000000	26.781309
1729.000000	26.825633
1728.000000	26.879520
1727.000000	26.958809
1726.000000	27.045502
1725.000000	27.113582
1724.000000	27.177959
1723.000000	27.221048
1722.000000	27.285220
1721.000000	27.314118
1720.000000	27.353916
1719.000000	27.399063
1718.000000	27.445340
1717.000000	27.513214
1716.000000	27.585510
1715.000000	27.659451
1714.000000	27.737403
1713.000000	27.815149
1712.000000	27.892689
1711.000000	27.935882
1710.000000	27.991929
1709.000000	28.021135
1708.000000	28.024837
1707.000000	28.065870
1706.000000	28.064122
1705.000000	28.055586
1704.000000	28.021032
1703.000000	27.979691
1702.000000	27.944006
1701.000000	27.879937
1700.000000	27.794375
1699.000000	27.688348
1698.000000	27.595691
1697.000000	27.497582
1696.000000	27.408215
1695.000000	27.350625
1694.000000	27.360498
1693.000000	27.385899
1692.000000	27.459223
1691.000000	27.559697
1690.000000	27.661919
1689.000000	27.800854
1688.000000	27.901431
1687.000000	27.966836
1686.000000	27.995014
1685.000000	28.054146
1684.000000	28.107520
1683.000000	28.206348
1682.000000	28.375107
1681.000000	28.605260
1680.000000	28.900099
1679.000000	29.273816
1678.000000	29.650001
1677.000000	30.039657
1676.000000	30.418310
1675.000000	30.752537
1674.000000	31.037709
1673.000000	31.304165
1672.000000	31.524240
1671.000000	31.718297
1670.000000	31.879240
1669.000000	32.025271
1668.000000	32.173462
1667.000000	32.247917
1666.000000	32.363405
1665.000000	32.442797
1664.000000	32.515401
1663.000000	32.599524
1662.000000	32.667603
1661.000000	32.719742
1660.000000	32.762318
1659.000000	32.819907
1658.000000	32.851685
1657.000000	32.877291
1656.000000	32.899710
1655.000000	32.924494
1654.000000	32.941669
1653.000000	32.943005
1652.000000	32.939817
1651.000000	32.932413
1650.000000	32.922849
1649.000000	32.904030
1648.000000	32.866390
1647.000000	32.862894
1646.000000	32.833996
1645.000000	32.804687
1644.000000	32.757690
1643.000000	32.723547
1642.000000	32.682412
1641.000000	32.660816
1640.000000	32.630272
1639.000000	32.577825
1638.000000	32.522086
1637.000000	32.482287
1636.000000	32.451333
1635.000000	32.397959
1634.000000	32.331525
1633.000000	32.296046
1632.000000	32.258921
1631.000000	32.185597
1630.000000	32.111656
1629.000000	32.072988
1628.000000	32.005629
1627.000000	31.942794
1626.000000	31.878828
1625.000000	31.816611
1624.000000	31.757376
1623.000000	31.684977
