PE UV       SUBTECH     SPECTRUM    ASCII       PEDS        4.00        
   -1
CICIMAUCR0212-1.ASC
24/06/06
16:00:32.00
24/06/06
16:00:32.00
Vinicio Soto Monge
C. resplendens. Sex F. Dorsal
250,000000
1
Lambda 1050
1050L1511233
PerkinElmer UV WinLab 6.3.2.0749 / 2.02.05 Lambda 900 UV/VIS/NIR, Aug  7 2015 09:38:08

0
0
3350/servo 860,8/2
0
0
UV/VIS
1
1
1
DoubleDePol,CommonBeamDepol,RBeamAtt,SBeamAtt,60mm sphere, WB InGaAs Detector
0
0
0
0
Program
Program
3350/servo 860,8/2
3350/0,2 860,8/0,2
3350/0,2 860,8/0,2
0
15.00
 
 
 
0
 
860,8
319,2
860,8
Front
100
on
S:100 R:100
0
0
0
0
 
0
 
 
 
0
 
 
0
0
0
0
0
 
 
 
 
0
0


0
0
#HDR
-1
-1
#GR
nm
%R
1.0
0.0
2500,000000
-1,000000
2251
8
91,632400
5,150400
#DATA
2500.000000	6.903044
2499.000000	7.041834
2498.000000	6.947532
2497.000000	6.979488
2496.000000	6.849261
2495.000000	6.835790
2494.000000	6.848739
2493.000000	6.890303
2492.000000	6.842056
2491.000000	6.809786
2490.000000	6.751409
2489.000000	6.838923
2488.000000	6.708592
2487.000000	6.730418
2486.000000	6.731254
2485.000000	6.680082
2484.000000	6.677993
2483.000000	6.749320
2482.000000	6.762165
2481.000000	6.782530
2480.000000	6.755377
2479.000000	6.705981
2478.000000	6.712560
2477.000000	6.778352
2476.000000	6.774071
2475.000000	6.718200
2474.000000	6.722168
2473.000000	6.732089
2472.000000	6.740966
2471.000000	6.752871
2470.000000	6.705877
2469.000000	6.704101
2468.000000	6.703161
2467.000000	6.696478
2466.000000	6.674234
2465.000000	6.680082
2464.000000	6.735326
2463.000000	6.709114
2462.000000	6.763419
2461.000000	6.715798
2460.000000	6.742741
2459.000000	6.771251
2458.000000	6.774697
2457.000000	6.838401
2456.000000	6.848217
2455.000000	6.886439
2454.000000	6.910041
2453.000000	6.926332
2452.000000	6.962779
2451.000000	7.024602
2450.000000	7.053739
2449.000000	7.049562
2448.000000	7.112952
2447.000000	7.136971
2446.000000	7.181668
2445.000000	7.201405
2444.000000	7.237225
2443.000000	7.264169
2442.000000	7.317951
2441.000000	7.358157
2440.000000	7.379461
2439.000000	7.404525
2438.000000	7.426456
2437.000000	7.455592
2436.000000	7.491934
2435.000000	7.552192
2434.000000	7.562113
2433.000000	7.598768
2432.000000	7.622996
2431.000000	7.624563
2430.000000	7.656728
2429.000000	7.687953
2428.000000	7.723460
2427.000000	7.727219
2426.000000	7.742257
2425.000000	7.774527
2424.000000	7.790087
2423.000000	7.805961
2422.000000	7.822461
2421.000000	7.838335
2420.000000	7.824341
2419.000000	7.856506
2418.000000	7.884598
2417.000000	7.898070
2416.000000	7.900785
2415.000000	7.924909
2414.000000	7.949972
2413.000000	7.971172
2412.000000	7.981928
2411.000000	7.994356
2410.000000	8.007619
2409.000000	8.029131
2408.000000	8.043125
2407.000000	8.048451
2406.000000	8.066100
2405.000000	8.090642
2404.000000	8.104322
2403.000000	8.126357
2402.000000	8.137009
2401.000000	8.154241
2400.000000	8.178051
2399.000000	8.186719
2398.000000	8.220555
2397.000000	8.240815
2396.000000	8.272353
2395.000000	8.293762
2394.000000	8.308486
2393.000000	8.325509
2392.000000	8.343158
2391.000000	8.367177
2390.000000	8.382424
2389.000000	8.393807
2388.000000	8.409994
2387.000000	8.421586
2386.000000	8.435998
2385.000000	8.441950
2384.000000	8.447903
2383.000000	8.471296
2382.000000	8.478710
2381.000000	8.475055
2380.000000	8.464612
2379.000000	8.456988
2378.000000	8.458242
2377.000000	8.456048
2376.000000	8.443934
2375.000000	8.446858
2374.000000	8.456153
2373.000000	8.449678
2372.000000	8.439131
2371.000000	8.423152
2370.000000	8.406861
2369.000000	8.390883
2368.000000	8.354959
2367.000000	8.335534
2366.000000	8.313917
2365.000000	8.275277
2364.000000	8.240188
2363.000000	8.209590
2362.000000	8.183795
2361.000000	8.142440
2360.000000	8.105784
2359.000000	8.071009
2358.000000	8.024432
2357.000000	7.987881
2356.000000	7.978064
2355.000000	7.954672
2354.000000	7.930548
2353.000000	7.921984
2352.000000	7.913839
2351.000000	7.898905
2350.000000	7.910079
2349.000000	7.945377
2348.000000	7.965741
2347.000000	7.992371
2346.000000	8.025163
2345.000000	8.055344
2344.000000	8.101607
2343.000000	8.139307
2342.000000	8.173143
2341.000000	8.209590
2340.000000	8.261074
2339.000000	8.294388
2338.000000	8.321018
2337.000000	8.338772
2336.000000	8.353705
2335.000000	8.364253
2334.000000	8.357152
2333.000000	8.361642
2332.000000	8.354645
2331.000000	8.326762
2330.000000	8.294179
2329.000000	8.270995
2328.000000	8.237264
2327.000000	8.205412
2326.000000	8.160611
2325.000000	8.112259
2324.000000	8.056388
2323.000000	7.990074
2322.000000	7.923447
2321.000000	7.849196
2320.000000	7.794891
2319.000000	7.726593
2318.000000	7.650775
2317.000000	7.573913
2316.000000	7.485669
2315.000000	7.435750
2314.000000	7.356800
2313.000000	7.278685
2312.000000	7.214564
2311.000000	7.180415
2310.000000	7.107834
2309.000000	7.055723
2308.000000	7.011131
2307.000000	6.972700
2306.000000	6.974893
2305.000000	6.966434
2304.000000	6.978548
2303.000000	7.002150
2302.000000	7.043087
2301.000000	7.080473
2300.000000	7.119218
2299.000000	7.169867
2298.000000	7.241925
2297.000000	7.308866
2296.000000	7.366407
2295.000000	7.428858
2294.000000	7.471779
2293.000000	7.543315
2292.000000	7.598873
2291.000000	7.631142
2290.000000	7.668424
2289.000000	7.692966
2288.000000	7.714583
2287.000000	7.739647
2286.000000	7.713330
2285.000000	7.699232
2284.000000	7.671035
2283.000000	7.649209
2282.000000	7.641794
2281.000000	7.601797
2280.000000	7.544359
2279.000000	7.521384
2278.000000	7.486608
2277.000000	7.444418
2276.000000	7.404525
2275.000000	7.344477
2274.000000	7.317116
2273.000000	7.307612
2272.000000	7.277745
2271.000000	7.274403
2270.000000	7.268033
2269.000000	7.291843
2268.000000	7.302078
2267.000000	7.343955
2266.000000	7.383639
2265.000000	7.449744
2264.000000	7.524413
2263.000000	7.619132
2262.000000	7.725131
2261.000000	7.835411
2260.000000	7.954880
2259.000000	8.110902
2258.000000	8.286347
2257.000000	8.448321
2256.000000	8.606952
2255.000000	8.782607
2254.000000	8.984160
2253.000000	9.156055
2252.000000	9.332022
2251.000000	9.498800
2250.000000	9.656387
2249.000000	9.808022
2248.000000	9.982632
2247.000000	10.113067
2246.000000	10.262509
2245.000000	10.387409
2244.000000	10.477325
2243.000000	10.599197
2242.000000	10.706135
2241.000000	10.817251
2240.000000	10.895261
2239.000000	10.978911
2238.000000	11.057861
2237.000000	11.130964
2236.000000	11.200828
2235.000000	11.277586
2234.000000	11.344004
2233.000000	11.396116
2232.000000	11.435173
2231.000000	11.478721
2230.000000	11.530519
2229.000000	11.548064
2228.000000	11.575321
2227.000000	11.598087
2226.000000	11.623777
2225.000000	11.636727
2224.000000	11.661790
2223.000000	11.673278
2222.000000	11.681528
2221.000000	11.671189
2220.000000	11.665028
2219.000000	11.657822
2218.000000	11.652078
2217.000000	11.623986
2216.000000	11.643724
2215.000000	11.638920
2214.000000	11.610514
2213.000000	11.580647
2212.000000	11.578558
2211.000000	11.574694
2210.000000	11.537725
2209.000000	11.559447
2208.000000	11.523105
2207.000000	11.527491
2206.000000	11.503158
2205.000000	11.497415
2204.000000	11.491358
2203.000000	11.472455
2202.000000	11.463996
2201.000000	11.474022
2200.000000	11.446139
2199.000000	11.451674
2198.000000	11.434964
2197.000000	11.436322
2196.000000	11.426401
2195.000000	11.400711
2194.000000	11.397265
2193.000000	11.390477
2192.000000	11.374081
2191.000000	11.382957
2190.000000	11.368337
2189.000000	11.357163
2188.000000	11.355074
2187.000000	11.348182
2186.000000	11.306931
2185.000000	11.301501
2184.000000	11.295235
2183.000000	11.291266
2182.000000	11.274035
2181.000000	11.262025
2180.000000	11.258997
2179.000000	11.242079
2178.000000	11.227981
2177.000000	11.218477
2176.000000	11.212107
2175.000000	11.205215
2174.000000	11.201559
2173.000000	11.199680
2172.000000	11.201977
2171.000000	11.191221
2170.000000	11.199471
2169.000000	11.208556
2168.000000	11.219000
2167.000000	11.212525
2166.000000	11.216806
2165.000000	11.226728
2164.000000	11.244481
2163.000000	11.244899
2162.000000	11.258892
2161.000000	11.252418
2160.000000	11.285627
2159.000000	11.297532
2158.000000	11.299516
2157.000000	11.321552
2156.000000	11.361236
2155.000000	11.360818
2154.000000	11.370008
2153.000000	11.402591
2152.000000	11.413974
2151.000000	11.453553
2150.000000	11.463683
2149.000000	11.498877
2148.000000	11.501905
2147.000000	11.507127
2146.000000	11.519554
2145.000000	11.521330
2144.000000	11.541694
2143.000000	11.563520
2142.000000	11.572397
2141.000000	11.593492
2140.000000	11.592552
2139.000000	11.591508
2138.000000	11.594014
2137.000000	11.618347
2136.000000	11.615005
2135.000000	11.624090
2134.000000	11.633907
2133.000000	11.609783
2132.000000	11.626283
2131.000000	11.621375
2130.000000	11.624613
2129.000000	11.614274
2128.000000	11.616989
2127.000000	11.608843
2126.000000	11.605919
2125.000000	11.589628
2124.000000	11.559865
2123.000000	11.543156
2122.000000	11.532817
2121.000000	11.534383
2120.000000	11.510677
2119.000000	11.468174
2118.000000	11.452613
2117.000000	11.420031
2116.000000	11.401024
2115.000000	11.377423
2114.000000	11.344004
2113.000000	11.314659
2112.000000	11.290640
2111.000000	11.277064
2110.000000	11.256073
2109.000000	11.233307
2108.000000	11.212525
2107.000000	11.170439
2106.000000	11.155505
2105.000000	11.143391
2104.000000	11.099843
2103.000000	11.061830
2102.000000	11.050969
2101.000000	11.031336
2100.000000	10.994158
2099.000000	10.963142
2098.000000	10.948835
2097.000000	10.920534
2096.000000	10.888995
2095.000000	10.861530
2094.000000	10.833855
2093.000000	10.821115
2092.000000	10.791560
2091.000000	10.765975
2090.000000	10.746864
2089.000000	10.720129
2088.000000	10.718040
2087.000000	10.700914
2086.000000	10.671986
2085.000000	10.645774
2084.000000	10.625618
2083.000000	10.606925
2082.000000	10.574342
2081.000000	10.557320
2080.000000	10.540820
2079.000000	10.513354
2078.000000	10.495183
2077.000000	10.469806
2076.000000	10.436388
2075.000000	10.421872
2074.000000	10.397957
2073.000000	10.359213
2072.000000	10.337700
2071.000000	10.331538
2070.000000	10.318693
2069.000000	10.285588
2068.000000	10.259481
2067.000000	10.251335
2066.000000	10.234626
2065.000000	10.206743
2064.000000	10.201103
2063.000000	10.197344
2062.000000	10.163612
2061.000000	10.144919
2060.000000	10.157346
2059.000000	10.146799
2058.000000	10.126017
2057.000000	10.121839
2056.000000	10.124241
2055.000000	10.121422
2054.000000	10.127061
2053.000000	10.151916
2052.000000	10.175413
2051.000000	10.190451
2050.000000	10.219692
2049.000000	10.252797
2048.000000	10.279427
2047.000000	10.300209
2046.000000	10.346472
2045.000000	10.404954
2044.000000	10.435866
2043.000000	10.477952
2042.000000	10.523588
2041.000000	10.567972
2040.000000	10.600868
2039.000000	10.640239
2038.000000	10.682951
2037.000000	10.717309
2036.000000	10.742269
2035.000000	10.777775
2034.000000	10.807434
2033.000000	10.842523
2032.000000	10.885236
2031.000000	10.914372
2030.000000	10.911552
2029.000000	10.923458
2028.000000	10.944031
2027.000000	10.951445
2026.000000	10.954161
2025.000000	10.971183
2024.000000	10.967006
2023.000000	10.965961
2022.000000	10.974212
2021.000000	10.968990
2020.000000	10.980582
2019.000000	10.984759
2018.000000	10.962515
2017.000000	10.962515
2016.000000	10.967423
2015.000000	10.947373
2014.000000	10.924815
2013.000000	10.916670
2012.000000	10.913537
2011.000000	10.876568
2010.000000	10.866438
2009.000000	10.848476
2008.000000	10.816937
2007.000000	10.784459
2006.000000	10.772240
2005.000000	10.733079
2004.000000	10.691515
2003.000000	10.657679
2002.000000	10.628856
2001.000000	10.602539
2000.000000	10.548548
1999.000000	10.525364
1998.000000	10.455186
1997.000000	10.410384
1996.000000	10.366941
1995.000000	10.321826
1994.000000	10.281620
1993.000000	10.221259
1992.000000	10.178859
1991.000000	10.130403
1990.000000	10.064193
1989.000000	10.025658
1988.000000	9.953809
1987.000000	9.914229
1986.000000	9.829535
1985.000000	9.780556
1984.000000	9.726148
1983.000000	9.668815
1982.000000	9.632368
1981.000000	9.565218
1980.000000	9.486163
1979.000000	9.438647
1978.000000	9.382567
1977.000000	9.345180
1976.000000	9.289101
1975.000000	9.227381
1974.000000	9.162425
1973.000000	9.102377
1972.000000	9.076686
1971.000000	9.026246
1970.000000	8.965780
1969.000000	8.904165
1968.000000	8.861557
1967.000000	8.829392
1966.000000	8.754410
1965.000000	8.692064
1964.000000	8.648412
1963.000000	8.607997
1962.000000	8.583246
1961.000000	8.538654
1960.000000	8.503252
1959.000000	8.458659
1958.000000	8.379709
1957.000000	8.358718
1956.000000	8.342844
1955.000000	8.301385
1954.000000	8.247707
1953.000000	8.204368
1952.000000	8.172725
1951.000000	8.145573
1950.000000	8.111528
1949.000000	8.074350
1948.000000	8.057746
1947.000000	8.011378
1946.000000	7.985583
1945.000000	7.956343
1944.000000	7.950181
1943.000000	7.913421
1942.000000	7.919687
1941.000000	7.892744
1940.000000	7.892430
1939.000000	7.879063
1938.000000	7.855670
1937.000000	7.877497
1936.000000	7.886373
1935.000000	7.902873
1934.000000	7.904440
1933.000000	7.904962
1932.000000	7.938902
1931.000000	7.931070
1930.000000	7.974618
1929.000000	8.040828
1928.000000	8.035502
1927.000000	8.100041
1926.000000	8.173769
1925.000000	8.212722
1924.000000	8.280081
1923.000000	8.341591
1922.000000	8.383573
1921.000000	8.470669
1920.000000	8.571863
1919.000000	8.664494
1918.000000	8.760258
1917.000000	8.852994
1916.000000	8.920979
1915.000000	9.013610
1914.000000	9.100706
1913.000000	9.253698
1912.000000	9.404602
1911.000000	9.544019
1910.000000	9.663071
1909.000000	9.771993
1908.000000	9.888852
1907.000000	10.001430
1906.000000	10.127479
1905.000000	10.311696
1904.000000	10.525886
1903.000000	10.694857
1902.000000	10.854219
1901.000000	11.023503
1900.000000	11.197069
1899.000000	11.417315
1898.000000	11.623986
1897.000000	11.847679
1896.000000	12.066254
1895.000000	12.263213
1894.000000	12.460902
1893.000000	12.643971
1892.000000	12.890848
1891.000000	13.184092
1890.000000	13.508144
1889.000000	13.806610
1888.000000	14.091813
1887.000000	14.424324
1886.000000	14.746078
1885.000000	15.139577
1884.000000	15.538088
1883.000000	16.014193
1882.000000	16.527684
1881.000000	17.036788
1880.000000	17.553517
1879.000000	18.025444
1878.000000	18.496640
1877.000000	19.012846
1876.000000	19.500647
1875.000000	19.949495
1874.000000	20.443039
1873.000000	20.922381
1872.000000	21.371020
1871.000000	21.789060
1870.000000	22.212531
1869.000000	22.608432
1868.000000	23.010598
1867.000000	23.300605
1866.000000	23.566071
1865.000000	23.763134
1864.000000	23.953304
1863.000000	24.127183
1862.000000	24.255321
1861.000000	24.413535
1860.000000	24.591069
1859.000000	24.730798
1858.000000	24.870841
1857.000000	24.987805
1856.000000	25.068009
1855.000000	25.117509
1854.000000	25.156045
1853.000000	25.231758
1852.000000	25.242618
1851.000000	25.252017
1850.000000	25.254315
1849.000000	25.215571
1848.000000	25.213482
1847.000000	25.216511
1846.000000	25.244394
1845.000000	25.222150
1844.000000	25.173902
1843.000000	25.110512
1842.000000	25.071350
1841.000000	25.074483
1840.000000	25.097458
1839.000000	25.098398
1838.000000	25.059550
1837.000000	25.021328
1836.000000	25.008796
1835.000000	24.994802
1834.000000	24.939244
1833.000000	24.870737
1832.000000	24.788131
1831.000000	24.722966
1830.000000	24.668453
1829.000000	24.603705
1828.000000	24.538644
1827.000000	24.454994
1826.000000	24.377715
1825.000000	24.318711
1824.000000	24.250517
1823.000000	24.180965
1822.000000	24.123423
1821.000000	24.088334
1820.000000	24.073192
1819.000000	24.058780
1818.000000	24.020976
1817.000000	23.967298
1816.000000	23.935133
1815.000000	23.925630
1814.000000	23.914038
1813.000000	23.904012
1812.000000	23.891794
1811.000000	23.862657
1810.000000	23.844173
1809.000000	23.818587
1808.000000	23.768669
1807.000000	23.707367
1806.000000	23.672487
1805.000000	23.633847
1804.000000	23.582362
1803.000000	23.533175
1802.000000	23.476886
1801.000000	23.422791
1800.000000	23.370679
1799.000000	23.310318
1798.000000	23.259459
1797.000000	23.211630
1796.000000	23.148553
1795.000000	23.095501
1794.000000	23.043808
1793.000000	22.981880
1792.000000	22.925069
1791.000000	22.870242
1790.000000	22.820115
1789.000000	22.757978
1788.000000	22.693648
1787.000000	22.637046
1786.000000	22.560184
1785.000000	22.492095
1784.000000	22.428391
1783.000000	22.351216
1782.000000	22.268193
1781.000000	22.180470
1780.000000	22.108412
1779.000000	22.034893
1778.000000	21.958866
1777.000000	21.877305
1776.000000	21.808171
1775.000000	21.733920
1774.000000	21.623014
1773.000000	21.513360
1772.000000	21.407362
1771.000000	21.301677
1770.000000	21.182625
1769.000000	21.070883
1768.000000	20.963005
1767.000000	20.847399
1766.000000	20.761974
1765.000000	20.686156
1764.000000	20.604491
1763.000000	20.556557
1762.000000	20.550604
1761.000000	20.558227
1760.000000	20.589870
1759.000000	20.647517
1758.000000	20.708400
1757.000000	20.787664
1756.000000	20.883532
1755.000000	20.971882
1754.000000	21.039867
1753.000000	21.092918
1752.000000	21.119235
1751.000000	21.117355
1750.000000	21.132915
1749.000000	21.132080
1748.000000	21.088323
1747.000000	21.060544
1746.000000	21.011044
1745.000000	20.938046
1744.000000	20.835494
1743.000000	20.705163
1742.000000	20.573161
1741.000000	20.398865
1740.000000	20.206292
1739.000000	20.011945
1738.000000	19.796607
1737.000000	19.584923
1736.000000	19.391516
1735.000000	19.232362
1734.000000	19.101822
1733.000000	19.030286
1732.000000	18.992378
1731.000000	19.028407
1730.000000	19.084591
1729.000000	19.170016
1728.000000	19.286249
1727.000000	19.403630
1726.000000	19.552967
1725.000000	19.670349
1724.000000	19.762457
1723.000000	19.859057
1722.000000	19.906364
1721.000000	19.944064
1720.000000	19.962340
1719.000000	19.988970
1718.000000	19.981973
1717.000000	19.990536
1716.000000	19.995236
1715.000000	20.026565
1714.000000	20.066041
1713.000000	20.135279
1712.000000	20.191672
1711.000000	20.217049
1710.000000	20.263312
1709.000000	20.260597
1708.000000	20.268116
1707.000000	20.242739
1706.000000	20.200758
1705.000000	20.146349
1704.000000	20.071575
1703.000000	19.991894
1702.000000	19.938007
1701.000000	19.816866
1700.000000	19.672855
1699.000000	19.535318
1698.000000	19.368019
1697.000000	19.208134
1696.000000	19.054723
1695.000000	18.965434
1694.000000	18.931494
1693.000000	18.940997
1692.000000	19.036866
1691.000000	19.218368
1690.000000	19.374807
1689.000000	19.530514
1688.000000	19.680792
1687.000000	19.808094
1686.000000	19.858326
1685.000000	19.889551
1684.000000	19.949181
1683.000000	19.998160
1682.000000	20.137263
1681.000000	20.369833
1680.000000	20.725736
1679.000000	21.181581
1678.000000	21.710214
1677.000000	22.269029
1676.000000	22.802779
1675.000000	23.326922
1674.000000	23.766476
1673.000000	24.146712
1672.000000	24.478178
1671.000000	24.768498
1670.000000	25.003052
1669.000000	25.201055
1668.000000	25.381304
1667.000000	25.531059
1666.000000	25.628181
1665.000000	25.739818
1664.000000	25.835164
1663.000000	25.889155
1662.000000	25.958080
1661.000000	26.026170
1660.000000	26.064810
1659.000000	26.088933
1658.000000	26.088620
1657.000000	26.116399
1656.000000	26.149504
1655.000000	26.134883
1654.000000	26.125798
1653.000000	26.105851
1652.000000	26.075879
1651.000000	26.058231
1650.000000	26.026379
1649.000000	25.989201
1648.000000	25.944191
1647.000000	25.897197
1646.000000	25.839864
1645.000000	25.804775
1644.000000	25.738252
1643.000000	25.667342
1642.000000	25.607190
1641.000000	25.558002
1640.000000	25.475292
1639.000000	25.396864
1638.000000	25.325120
1637.000000	25.249302
1636.000000	25.181108
1635.000000	25.100800
1634.000000	25.032188
1633.000000	24.940915
1632.000000	24.858205
1631.000000	24.778837
1630.000000	24.700618
1629.000000	24.593471
1628.000000	24.520473
1627.000000	24.415101
1626.000000	24.343879
1625.000000	24.245713
1624.000000	24.162376
1623.000000	24.076847
1622.000000	23.981292
1621.000000	23.884483
1620.000000	23.785169
1619.000000	23.715931
1618.000000	23.653480
1617.000000	23.559387
1616.000000	23.481481
1615.000000	23.403784
1614.000000	23.324103
1613.000000	23.251627
1612.000000	23.174347
1611.000000	23.095501
1610.000000	23.009867
