PE UV       SUBTECH     SPECTRUM    ASCII       PEDS        4.00        
   -1
CICIMAUCR0205-1.Sample.ASC
24/05/31
12:07:00.00
24/05/31
12:07:00.00
Vinicio Soto Monge
C. cupreomarginata. Sex F. Dorsal
250,000000
1
Lambda 1050
1050L1511233
PerkinElmer UV WinLab 6.3.2.0749 / 2.02.05 Lambda 900 UV/VIS/NIR, Aug  7 2015 09:38:08

0
0
3350/servo 860,8/2
0
0
UV/VIS
1
1
1
DoubleDePol,CommonBeamDepol,RBeamAtt,SBeamAtt,60mm sphere, WB InGaAs Detector
0
0
0
0
Program
Program
3350/servo 860,8/2
3350/0,2 860,8/0,2
3350/0,2 860,8/0,2
0
15.00
 
 
 
0
 
860,8
319,2
860,8
Front
100
on
S:100 R:100
0
0
0
0
 
0
 
 
 
0
 
 
0
0
0
0
0
 
 
 
 
0
0


0
0
#HDR
-1
-1
#GR
nm
%R
1.0
0.0
2500,000000
-1,000000
2251
8
67,318600
5,349800
#DATA
2500.000000	6.736524
2499.000000	6.652214
2498.000000	6.795416
2497.000000	6.593218
2496.000000	6.657131
2495.000000	6.694369
2494.000000	6.622926
2493.000000	6.568741
2492.000000	6.655666
2491.000000	6.669579
2490.000000	6.633909
2489.000000	6.544160
2488.000000	6.537988
2487.000000	6.573762
2486.000000	6.572403
2485.000000	6.564139
2484.000000	6.487151
2483.000000	6.538825
2482.000000	6.558490
2481.000000	6.496670
2480.000000	6.479201
2479.000000	6.513511
2478.000000	6.556921
2477.000000	6.515603
2476.000000	6.502109
2475.000000	6.491231
2474.000000	6.484118
2473.000000	6.525854
2472.000000	6.453260
2471.000000	6.473867
2470.000000	6.517591
2469.000000	6.513093
2468.000000	6.527842
2467.000000	6.511314
2466.000000	6.490603
2465.000000	6.527214
2464.000000	6.515812
2463.000000	6.553888
2462.000000	6.544160
2461.000000	6.612465
2460.000000	6.596252
2459.000000	6.601587
2458.000000	6.671148
2457.000000	6.667591
2456.000000	6.704411
2455.000000	6.735583
2454.000000	6.750855
2453.000000	6.817173
2452.000000	6.853575
2451.000000	6.868428
2450.000000	6.896462
2449.000000	6.933282
2448.000000	6.982132
2447.000000	7.000123
2446.000000	7.064349
2445.000000	7.098345
2444.000000	7.140605
2443.000000	7.195626
2442.000000	7.231714
2441.000000	7.260270
2440.000000	7.289768
2439.000000	7.336212
2438.000000	7.384120
2437.000000	7.430145
2436.000000	7.444581
2435.000000	7.467489
2434.000000	7.515710
2433.000000	7.560585
2432.000000	7.597405
2431.000000	7.624916
2430.000000	7.657133
2429.000000	7.659539
2428.000000	7.673661
2427.000000	7.701903
2426.000000	7.749707
2425.000000	7.790502
2424.000000	7.794058
2423.000000	7.820941
2422.000000	7.835586
2421.000000	7.851276
2420.000000	7.879728
2419.000000	7.917385
2418.000000	7.923348
2417.000000	7.933180
2416.000000	7.963097
2415.000000	7.979415
2414.000000	7.992490
2413.000000	8.022302
2412.000000	8.037365
2411.000000	8.049080
2410.000000	8.071256
2409.000000	8.081402
2408.000000	8.093222
2407.000000	8.110691
2406.000000	8.139771
2405.000000	8.149080
2404.000000	8.173453
2403.000000	8.191968
2402.000000	8.212993
2401.000000	8.228055
2400.000000	8.251696
2399.000000	8.267805
2398.000000	8.285796
2397.000000	8.302428
2396.000000	8.326487
2395.000000	8.346152
2394.000000	8.361947
2393.000000	8.377637
2392.000000	8.398872
2391.000000	8.416654
2390.000000	8.416027
2389.000000	8.425441
2388.000000	8.448140
2387.000000	8.452638
2386.000000	8.455776
2385.000000	8.456299
2384.000000	8.460064
2383.000000	8.469060
2382.000000	8.466654
2381.000000	8.464772
2380.000000	8.456717
2379.000000	8.450441
2378.000000	8.449081
2377.000000	8.436947
2376.000000	8.422512
2375.000000	8.438307
2374.000000	8.426696
2373.000000	8.402638
2372.000000	8.381926
2371.000000	8.365399
2370.000000	8.347407
2369.000000	8.325859
2368.000000	8.282344
2367.000000	8.259436
2366.000000	8.245106
2365.000000	8.214248
2364.000000	8.167909
2363.000000	8.119478
2362.000000	8.075649
2361.000000	8.027846
2360.000000	7.998452
2359.000000	7.975858
2358.000000	7.933076
2357.000000	7.884331
2356.000000	7.864456
2355.000000	7.856506
2354.000000	7.824184
2353.000000	7.795418
2352.000000	7.789456
2351.000000	7.800648
2350.000000	7.798452
2349.000000	7.810377
2348.000000	7.829310
2347.000000	7.836946
2346.000000	7.874080
2345.000000	7.907030
2344.000000	7.922720
2343.000000	7.947825
2342.000000	7.982448
2341.000000	8.006298
2340.000000	8.022825
2339.000000	8.030461
2338.000000	8.038306
2337.000000	8.055775
2336.000000	8.055879
2335.000000	8.059227
2334.000000	8.053787
2333.000000	8.034017
2332.000000	8.000335
2331.000000	7.971360
2330.000000	7.950021
2329.000000	7.927741
2328.000000	7.882657
2327.000000	7.830565
2326.000000	7.794791
2325.000000	7.750021
2324.000000	7.693117
2323.000000	7.621045
2322.000000	7.564351
2321.000000	7.509853
2320.000000	7.438200
2319.000000	7.375752
2318.000000	7.286003
2317.000000	7.213304
2316.000000	7.155040
2315.000000	7.090396
2314.000000	7.027006
2313.000000	6.955249
2312.000000	6.873659
2311.000000	6.816127
2310.000000	6.774809
2309.000000	6.735897
2308.000000	6.700436
2307.000000	6.660583
2306.000000	6.658281
2305.000000	6.653574
2304.000000	6.655980
2303.000000	6.679307
2302.000000	6.684014
2301.000000	6.737675
2300.000000	6.774914
2299.000000	6.833491
2298.000000	6.864140
2297.000000	6.913094
2296.000000	6.965604
2295.000000	7.006609
2294.000000	7.072613
2293.000000	7.113827
2292.000000	7.161944
2291.000000	7.191337
2290.000000	7.192488
2289.000000	7.222718
2288.000000	7.236630
2287.000000	7.239873
2286.000000	7.238618
2285.000000	7.230982
2284.000000	7.204413
2283.000000	7.189141
2282.000000	7.154203
2281.000000	7.115919
2280.000000	7.097090
2279.000000	7.052843
2278.000000	7.022195
2277.000000	6.998554
2276.000000	6.951797
2275.000000	6.924705
2274.000000	6.909537
2273.000000	6.905562
2272.000000	6.871357
2271.000000	6.872508
2270.000000	6.889663
2269.000000	6.908073
2268.000000	6.916650
2267.000000	6.958178
2266.000000	7.015500
2265.000000	7.082864
2264.000000	7.149601
2263.000000	7.249915
2262.000000	7.351798
2261.000000	7.437049
2260.000000	7.563932
2259.000000	7.732761
2258.000000	7.862573
2257.000000	8.014561
2256.000000	8.175754
2255.000000	8.346361
2254.000000	8.482659
2253.000000	8.670525
2252.000000	8.840191
2251.000000	8.994062
2250.000000	9.169167
2249.000000	9.312368
2248.000000	9.422619
2247.000000	9.564879
2246.000000	9.689356
2245.000000	9.775654
2244.000000	9.905361
2243.000000	10.028793
2242.000000	10.106094
2241.000000	10.197831
2240.000000	10.278793
2239.000000	10.350237
2238.000000	10.464359
2237.000000	10.494903
2236.000000	10.573773
2235.000000	10.626493
2234.000000	10.683188
2233.000000	10.727016
2232.000000	10.785489
2231.000000	10.806305
2230.000000	10.833606
2229.000000	10.867602
2228.000000	10.899192
2227.000000	10.911954
2226.000000	10.945218
2225.000000	10.928481
2224.000000	10.932351
2223.000000	10.943649
2222.000000	10.944172
2221.000000	10.949402
2220.000000	10.952226
2219.000000	10.952540
2218.000000	10.939046
2217.000000	10.911431
2216.000000	10.897519
2215.000000	10.902121
2214.000000	10.884653
2213.000000	10.855991
2212.000000	10.873042
2211.000000	10.853690
2210.000000	10.820426
2209.000000	10.836431
2208.000000	10.824611
2207.000000	10.796054
2206.000000	10.763836
2205.000000	10.769589
2204.000000	10.770531
2203.000000	10.765092
2202.000000	10.753376
2201.000000	10.755050
2200.000000	10.741974
2199.000000	10.729108
2198.000000	10.728794
2197.000000	10.716242
2196.000000	10.721368
2195.000000	10.711849
2194.000000	10.708292
2193.000000	10.694903
2192.000000	10.687372
2191.000000	10.702121
2190.000000	10.688941
2189.000000	10.679526
2188.000000	10.690614
2187.000000	10.681932
2186.000000	10.677434
2185.000000	10.667393
2184.000000	10.646158
2183.000000	10.635384
2182.000000	10.630468
2181.000000	10.616765
2180.000000	10.623878
2179.000000	10.616451
2178.000000	10.603689
2177.000000	10.606305
2176.000000	10.618961
2175.000000	10.647309
2174.000000	10.651388
2173.000000	10.631828
2172.000000	10.623564
2171.000000	10.643752
2170.000000	10.688104
2169.000000	10.686849
2168.000000	10.697623
2167.000000	10.705259
2166.000000	10.731409
2165.000000	10.736430
2164.000000	10.775656
2163.000000	10.768230
2162.000000	10.808920
2161.000000	10.840406
2160.000000	10.851703
2159.000000	10.859548
2158.000000	10.884653
2157.000000	10.918021
2156.000000	10.952958
2155.000000	10.976075
2154.000000	10.987372
2153.000000	11.014569
2152.000000	11.049088
2151.000000	11.073251
2150.000000	11.121159
2149.000000	11.133816
2148.000000	11.168754
2147.000000	11.212059
2146.000000	11.223147
2145.000000	11.225030
2144.000000	11.254110
2143.000000	11.288419
2142.000000	11.297624
2141.000000	11.322520
2140.000000	11.330993
2139.000000	11.346369
2138.000000	11.356411
2137.000000	11.353587
2136.000000	11.358712
2135.000000	11.366244
2134.000000	11.392499
2133.000000	11.384758
2132.000000	11.375449
2131.000000	11.375658
2130.000000	11.368231
2129.000000	11.368650
2128.000000	11.361014
2127.000000	11.348461
2126.000000	11.326076
2125.000000	11.329214
2124.000000	11.307143
2123.000000	11.296474
2122.000000	11.268859
2121.000000	11.231829
2120.000000	11.201285
2119.000000	11.183503
2118.000000	11.165302
2117.000000	11.129109
2116.000000	11.105887
2115.000000	11.070532
2114.000000	11.039883
2113.000000	11.029527
2112.000000	10.980887
2111.000000	10.938000
2110.000000	10.908816
2109.000000	10.885699
2108.000000	10.858920
2107.000000	10.825134
2106.000000	10.784234
2105.000000	10.750656
2104.000000	10.726598
2103.000000	10.707978
2102.000000	10.689255
2101.000000	10.647727
2100.000000	10.614673
2099.000000	10.587371
2098.000000	10.560279
2097.000000	10.525028
2096.000000	10.483501
2095.000000	10.469589
2094.000000	10.446785
2093.000000	10.427225
2092.000000	10.408082
2091.000000	10.376701
2090.000000	10.349818
2089.000000	10.327224
2088.000000	10.309128
2087.000000	10.297726
2086.000000	10.264986
2085.000000	10.229002
2084.000000	10.211011
2083.000000	10.188626
2082.000000	10.163835
2081.000000	10.133291
2080.000000	10.101596
2079.000000	10.068751
2078.000000	10.042182
2077.000000	10.022726
2076.000000	9.996575
2075.000000	9.966240
2074.000000	9.923457
2073.000000	9.894273
2072.000000	9.874294
2071.000000	9.840089
2070.000000	9.808394
2069.000000	9.787369
2068.000000	9.751804
2067.000000	9.713101
2066.000000	9.676909
2065.000000	9.639879
2064.000000	9.621469
2063.000000	9.610068
2062.000000	9.576908
2061.000000	9.554419
2060.000000	9.529942
2059.000000	9.506720
2058.000000	9.488728
2057.000000	9.463624
2056.000000	9.468331
2055.000000	9.495737
2054.000000	9.496783
2053.000000	9.491866
2052.000000	9.493854
2051.000000	9.507452
2050.000000	9.554105
2049.000000	9.600967
2048.000000	9.634649
2047.000000	9.676072
2046.000000	9.726490
2045.000000	9.777118
2044.000000	9.822725
2043.000000	9.866554
2042.000000	9.928478
2041.000000	9.978688
2040.000000	10.024399
2039.000000	10.076073
2038.000000	10.132768
2037.000000	10.165508
2036.000000	10.213103
2035.000000	10.268647
2034.000000	10.301283
2033.000000	10.323877
2032.000000	10.367601
2031.000000	10.390614
2030.000000	10.431513
2029.000000	10.446681
2028.000000	10.465509
2027.000000	10.497308
2026.000000	10.513208
2025.000000	10.534129
2024.000000	10.547413
2023.000000	10.551074
2022.000000	10.554003
2021.000000	10.570426
2020.000000	10.572936
2019.000000	10.587999
2018.000000	10.599610
2017.000000	10.597099
2016.000000	10.589359
2015.000000	10.591660
2014.000000	10.581514
2013.000000	10.569798
2012.000000	10.555363
2011.000000	10.545949
2010.000000	10.522413
2009.000000	10.523250
2008.000000	10.500656
2007.000000	10.466346
2006.000000	10.451492
2005.000000	10.425969
2004.000000	10.386325
2003.000000	10.362998
2002.000000	10.336325
2001.000000	10.278375
2000.000000	10.262684
1999.000000	10.215927
1998.000000	10.175341
1997.000000	10.128374
1996.000000	10.085069
1995.000000	10.050968
1994.000000	9.998353
1993.000000	9.947516
1992.000000	9.907453
1991.000000	9.850654
1990.000000	9.782244
1989.000000	9.730361
1988.000000	9.690402
1987.000000	9.637683
1986.000000	9.606616
1985.000000	9.502431
1984.000000	9.456092
1983.000000	9.406197
1982.000000	9.356720
1981.000000	9.295318
1980.000000	9.228267
1979.000000	9.171468
1978.000000	9.124606
1977.000000	9.078058
1976.000000	9.012995
1975.000000	8.961007
1974.000000	8.912472
1973.000000	8.866446
1972.000000	8.795003
1971.000000	8.738622
1970.000000	8.706718
1969.000000	8.655044
1968.000000	8.613412
1967.000000	8.571780
1966.000000	8.513830
1965.000000	8.476696
1964.000000	8.440399
1963.000000	8.390085
1962.000000	8.348453
1961.000000	8.284646
1960.000000	8.249185
1959.000000	8.232344
1958.000000	8.178997
1957.000000	8.142177
1956.000000	8.094792
1955.000000	8.061528
1954.000000	8.029206
1953.000000	7.981716
1952.000000	7.934122
1951.000000	7.890398
1950.000000	7.870732
1949.000000	7.854205
1948.000000	7.812887
1947.000000	7.784749
1946.000000	7.781506
1945.000000	7.728786
1944.000000	7.708703
1943.000000	7.714247
1942.000000	7.708284
1941.000000	7.701067
1940.000000	7.685481
1939.000000	7.668117
1938.000000	7.683493
1937.000000	7.690397
1936.000000	7.679832
1935.000000	7.709330
1934.000000	7.702008
1933.000000	7.739037
1932.000000	7.764665
1931.000000	7.785795
1930.000000	7.837887
1929.000000	7.864352
1928.000000	7.912364
1927.000000	7.970314
1926.000000	8.019478
1925.000000	8.083494
1924.000000	8.137992
1923.000000	8.217386
1922.000000	8.288202
1921.000000	8.382449
1920.000000	8.445838
1919.000000	8.530253
1918.000000	8.632241
1917.000000	8.745212
1916.000000	8.817701
1915.000000	8.925547
1914.000000	9.052116
1913.000000	9.193330
1912.000000	9.339146
1911.000000	9.434962
1910.000000	9.567390
1909.000000	9.703373
1908.000000	9.808290
1907.000000	9.977328
1906.000000	10.161638
1905.000000	10.337998
1904.000000	10.529108
1903.000000	10.710489
1902.000000	10.872623
1901.000000	11.070427
1900.000000	11.270428
1899.000000	11.488838
1898.000000	11.707249
1897.000000	11.953588
1896.000000	12.159970
1895.000000	12.348778
1894.000000	12.581937
1893.000000	12.811436
1892.000000	13.077127
1891.000000	13.382776
1890.000000	13.668342
1889.000000	13.975665
1888.000000	14.289160
1887.000000	14.566566
1886.000000	14.909873
1885.000000	15.281422
1884.000000	15.715942
1883.000000	16.181738
1882.000000	16.630275
1881.000000	17.096489
1880.000000	17.538959
1879.000000	17.963123
1878.000000	18.435405
1877.000000	18.881536
1876.000000	19.294403
1875.000000	19.706329
1874.000000	20.099740
1873.000000	20.500682
1872.000000	20.865955
1871.000000	21.212818
1870.000000	21.517317
1869.000000	21.805811
1868.000000	22.065436
1867.000000	22.261043
1866.000000	22.441273
1865.000000	22.574642
1864.000000	22.717216
1863.000000	22.844203
1862.000000	22.978095
1861.000000	23.123702
1860.000000	23.248807
1859.000000	23.329246
1858.000000	23.402050
1857.000000	23.471192
1856.000000	23.526737
1855.000000	23.551632
1854.000000	23.588766
1853.000000	23.587615
1852.000000	23.580084
1851.000000	23.584477
1850.000000	23.581235
1849.000000	23.572971
1848.000000	23.556235
1847.000000	23.536151
1846.000000	23.488034
1845.000000	23.435105
1844.000000	23.403096
1843.000000	23.383535
1842.000000	23.385209
1841.000000	23.400690
1840.000000	23.368996
1839.000000	23.343995
1838.000000	23.306548
1837.000000	23.276945
1836.000000	23.233117
1835.000000	23.165962
1834.000000	23.100271
1833.000000	23.045878
1832.000000	23.000166
1831.000000	22.938973
1830.000000	22.877572
1829.000000	22.820563
1828.000000	22.738868
1827.000000	22.665542
1826.000000	22.603512
1825.000000	22.536880
1824.000000	22.475165
1823.000000	22.436043
1822.000000	22.416692
1821.000000	22.403930
1820.000000	22.367319
1819.000000	22.320039
1818.000000	22.285311
1817.000000	22.264285
1816.000000	22.252256
1815.000000	22.231440
1814.000000	22.211147
1813.000000	22.196712
1812.000000	22.186670
1811.000000	22.163030
1810.000000	22.118574
1809.000000	22.073072
1808.000000	22.038239
1807.000000	22.005917
1806.000000	21.957904
1805.000000	21.898699
1804.000000	21.854661
1803.000000	21.815016
1802.000000	21.770456
1801.000000	21.722861
1800.000000	21.655288
1799.000000	21.592422
1798.000000	21.540434
1797.000000	21.495350
1796.000000	21.449325
1795.000000	21.392003
1794.000000	21.342316
1793.000000	21.295141
1792.000000	21.237191
1791.000000	21.172232
1790.000000	21.119199
1789.000000	21.056960
1788.000000	20.994303
1787.000000	20.935725
1786.000000	20.869930
1785.000000	20.799010
1784.000000	20.734260
1783.000000	20.680181
1782.000000	20.597649
1781.000000	20.508214
1780.000000	20.437816
1779.000000	20.375787
1778.000000	20.295347
1777.000000	20.205180
1776.000000	20.123171
1775.000000	20.034991
1774.000000	19.931225
1773.000000	19.822333
1772.000000	19.720659
1771.000000	19.605596
1770.000000	19.486245
1769.000000	19.383943
1768.000000	19.290428
1767.000000	19.195030
1766.000000	19.101725
1765.000000	19.026725
1764.000000	18.969402
1763.000000	18.935929
1762.000000	18.926306
1761.000000	18.959360
1760.000000	18.992833
1759.000000	19.040114
1758.000000	19.107373
1757.000000	19.180281
1756.000000	19.244298
1755.000000	19.303085
1754.000000	19.351098
1753.000000	19.382374
1752.000000	19.403399
1751.000000	19.406537
1750.000000	19.389592
1749.000000	19.365638
1748.000000	19.330700
1747.000000	19.287604
1746.000000	19.213127
1745.000000	19.118670
1744.000000	18.999319
1743.000000	18.873481
1742.000000	18.705803
1741.000000	18.523899
1740.000000	18.322852
1739.000000	18.134672
1738.000000	17.952245
1737.000000	17.771596
1736.000000	17.604336
1735.000000	17.466155
1734.000000	17.383833
1733.000000	17.336343
1732.000000	17.331009
1731.000000	17.362076
1730.000000	17.442306
1729.000000	17.532264
1728.000000	17.631637
1727.000000	17.732370
1726.000000	17.823897
1725.000000	17.907475
1724.000000	17.978605
1723.000000	18.026408
1722.000000	18.066366
1721.000000	18.114484
1720.000000	18.137705
1719.000000	18.170237
1718.000000	18.212706
1717.000000	18.267517
1716.000000	18.296179
1715.000000	18.366262
1714.000000	18.450154
1713.000000	18.524004
1712.000000	18.575050
1711.000000	18.604443
1710.000000	18.657895
1709.000000	18.679129
1708.000000	18.668460
1707.000000	18.657163
1706.000000	18.643983
1705.000000	18.610928
1704.000000	18.545970
1703.000000	18.487811
1702.000000	18.414589
1701.000000	18.316681
1700.000000	18.161764
1699.000000	18.026408
1698.000000	17.902454
1697.000000	17.756219
1696.000000	17.658625
1695.000000	17.624524
1694.000000	17.618457
1693.000000	17.663018
1692.000000	17.777140
1691.000000	17.927245
1690.000000	18.061555
1689.000000	18.190844
1688.000000	18.306430
1687.000000	18.368773
1686.000000	18.392936
1685.000000	18.420551
1684.000000	18.484254
1683.000000	18.588648
1682.000000	18.792519
1681.000000	19.082269
1680.000000	19.489278
1679.000000	19.935514
1678.000000	20.416373
1677.000000	20.935516
1676.000000	21.340224
1675.000000	21.764807
1674.000000	22.118574
1673.000000	22.430604
1672.000000	22.686776
1671.000000	22.932802
1670.000000	23.141589
1669.000000	23.311255
1668.000000	23.469937
1667.000000	23.604247
1666.000000	23.699959
1665.000000	23.798808
1664.000000	23.892323
1663.000000	23.939813
1662.000000	24.020880
1661.000000	24.080504
1660.000000	24.124437
1659.000000	24.170567
1658.000000	24.210420
1657.000000	24.226111
1656.000000	24.232910
1655.000000	24.264186
1654.000000	24.233119
1653.000000	24.247241
1652.000000	24.207073
1651.000000	24.213140
1650.000000	24.167533
1649.000000	24.163245
1648.000000	24.114500
1647.000000	24.081236
1646.000000	24.028307
1645.000000	23.983851
1644.000000	23.921403
1643.000000	23.871194
1642.000000	23.816486
1641.000000	23.764499
1640.000000	23.702678
1639.000000	23.677365
1638.000000	23.578829
1637.000000	23.536046
1636.000000	23.474644
1635.000000	23.403410
1634.000000	23.334686
1633.000000	23.261778
1632.000000	23.182803
1631.000000	23.125689
1630.000000	23.049957
1629.000000	22.994831
1628.000000	22.884475
1627.000000	22.791274
1626.000000	22.723178
1625.000000	22.656546
1624.000000	22.576211
1623.000000	22.498491
1622.000000	22.416587
1621.000000	22.345980
1620.000000	22.267005
1619.000000	22.198700
1618.000000	22.114180
1617.000000	22.032799
1616.000000	21.977046
1615.000000	21.904243
1614.000000	21.824222
1613.000000	21.760100
1612.000000	21.663970
1611.000000	21.613970
1610.000000	21.538761
1609.000000	21.478928
1608.000000	21.417317
