PE UV       SUBTECH     SPECTRUM    ASCII       PEDS        4.00        
   -1
CICIMAUCR0251-2.Sample.ASC
24/05/27
16:17:18.00
24/05/27
16:17:18.00
Vinicio Soto Monge
C. resplendens, F
250,000000
1
Lambda 1050
1050L1511233
PerkinElmer UV WinLab 6.3.2.0749 / 2.02.05 Lambda 900 UV/VIS/NIR, Aug  7 2015 09:38:08

0
0
3350/servo 860,8/2
0
0
UV/VIS
1
1
1
DoubleDePol,CommonBeamDepol,RBeamAtt,SBeamAtt,60mm sphere, WB InGaAs Detector
0
0
0
0
Program
Program
3350/servo 860,8/2
3350/0,2 860,8/0,2
3350/0,2 860,8/0,2
0
15.00
 
 
 
0
 
860,8
319,2
860,8
Front
100
on
S:100 R:100
0
0
0
0
 
0
 
 
 
0
 
 
0
0
0
0
0
 
 
 
 
0
0


0
0
#HDR
-1
-1
#GR
nm
%R
1.0
0.0
2500,000000
-1,000000
2251
8
92,106900
5,126500
#DATA
2500.000000	5.538352
2499.000000	5.612616
2498.000000	5.626476
2497.000000	5.697430
2496.000000	5.535043
2495.000000	5.698154
2494.000000	5.571554
2493.000000	5.593171
2492.000000	5.488602
2491.000000	5.448057
2490.000000	5.568658
2489.000000	5.605687
2488.000000	5.499255
2487.000000	5.511047
2486.000000	5.447333
2485.000000	5.524286
2484.000000	5.424060
2483.000000	5.429853
2482.000000	5.528320
2481.000000	5.399754
2480.000000	5.474535
2479.000000	5.451263
2478.000000	5.363346
2477.000000	5.413924
2476.000000	5.354865
2475.000000	5.366759
2474.000000	5.400478
2473.000000	5.427577
2472.000000	5.430784
2471.000000	5.357657
2470.000000	5.343280
2469.000000	5.346280
2468.000000	5.320215
2467.000000	5.356726
2466.000000	5.340177
2465.000000	5.302425
2464.000000	5.358588
2463.000000	5.332523
2462.000000	5.386929
2461.000000	5.388583
2460.000000	5.394065
2459.000000	5.356209
2458.000000	5.349176
2457.000000	5.376792
2456.000000	5.369345
2455.000000	5.376068
2454.000000	5.408132
2453.000000	5.405236
2452.000000	5.427887
2451.000000	5.471949
2450.000000	5.468640
2449.000000	5.439472
2448.000000	5.486223
2447.000000	5.516322
2446.000000	5.537318
2445.000000	5.545593
2444.000000	5.569485
2443.000000	5.587896
2442.000000	5.587276
2441.000000	5.616857
2440.000000	5.625856
2439.000000	5.654713
2438.000000	5.656885
2437.000000	5.687191
2436.000000	5.695879
2435.000000	5.698465
2434.000000	5.722461
2433.000000	5.763213
2432.000000	5.781520
2431.000000	5.785451
2430.000000	5.806137
2429.000000	5.812446
2428.000000	5.819169
2427.000000	5.838925
2426.000000	5.853716
2425.000000	5.861680
2424.000000	5.875436
2423.000000	5.876781
2422.000000	5.893847
2421.000000	5.898605
2420.000000	5.902535
2419.000000	5.939564
2418.000000	5.948045
2417.000000	5.948976
2416.000000	5.970387
2415.000000	5.988694
2414.000000	5.995003
2413.000000	5.994900
2412.000000	6.014242
2411.000000	6.023240
2410.000000	6.041858
2409.000000	6.056235
2408.000000	6.064406
2407.000000	6.082507
2406.000000	6.086954
2405.000000	6.095229
2404.000000	6.114881
2403.000000	6.119432
2402.000000	6.134222
2401.000000	6.152116
2400.000000	6.161011
2399.000000	6.167734
2398.000000	6.174044
2397.000000	6.177767
2396.000000	6.197109
2395.000000	6.210038
2394.000000	6.220898
2393.000000	6.220278
2392.000000	6.235482
2391.000000	6.263098
2390.000000	6.271373
2389.000000	6.274889
2388.000000	6.288853
2387.000000	6.303230
2386.000000	6.313056
2385.000000	6.300127
2384.000000	6.303540
2383.000000	6.318020
2382.000000	6.315435
2381.000000	6.320813
2380.000000	6.332397
2379.000000	6.332191
2378.000000	6.322675
2377.000000	6.324847
2376.000000	6.318020
2375.000000	6.316986
2374.000000	6.322571
2373.000000	6.320503
2372.000000	6.317090
2371.000000	6.318641
2370.000000	6.299610
2369.000000	6.273338
2368.000000	6.269511
2367.000000	6.264753
2366.000000	6.237551
2365.000000	6.216968
2364.000000	6.211279
2363.000000	6.201970
2362.000000	6.182215
2361.000000	6.173630
2360.000000	6.162356
2359.000000	6.128740
2358.000000	6.101952
2357.000000	6.089540
2356.000000	6.081369
2355.000000	6.069267
2354.000000	6.057786
2353.000000	6.065957
2352.000000	6.070508
2351.000000	6.064303
2350.000000	6.062751
2349.000000	6.077025
2348.000000	6.079714
2347.000000	6.076714
2346.000000	6.098125
2345.000000	6.124396
2344.000000	6.144359
2343.000000	6.159356
2342.000000	6.178388
2341.000000	6.202280
2340.000000	6.196902
2339.000000	6.213451
2338.000000	6.246859
2337.000000	6.237137
2336.000000	6.231448
2335.000000	6.236413
2334.000000	6.230310
2333.000000	6.240654
2332.000000	6.233620
2331.000000	6.220071
2330.000000	6.205280
2329.000000	6.186662
2328.000000	6.156564
2327.000000	6.129361
2326.000000	6.119121
2325.000000	6.089643
2324.000000	6.060682
2323.000000	6.040720
2322.000000	6.010208
2321.000000	5.984867
2320.000000	5.947114
2319.000000	5.893020
2318.000000	5.860749
2317.000000	5.834064
2316.000000	5.793518
2315.000000	5.734562
2314.000000	5.723288
2313.000000	5.703533
2312.000000	5.667125
2311.000000	5.651093
2310.000000	5.620684
2309.000000	5.581070
2308.000000	5.566796
2307.000000	5.553350
2306.000000	5.550557
2305.000000	5.548385
2304.000000	5.556660
2303.000000	5.549730
2302.000000	5.558005
2301.000000	5.580966
2300.000000	5.602790
2299.000000	5.637233
2298.000000	5.647576
2297.000000	5.659471
2296.000000	5.694741
2295.000000	5.707153
2294.000000	5.746974
2293.000000	5.766936
2292.000000	5.780796
2291.000000	5.786899
2290.000000	5.790209
2289.000000	5.797139
2288.000000	5.790829
2287.000000	5.795690
2286.000000	5.785347
2285.000000	5.782968
2284.000000	5.775211
2283.000000	5.744078
2282.000000	5.713152
2281.000000	5.704360
2280.000000	5.683674
2279.000000	5.658747
2278.000000	5.628648
2277.000000	5.630924
2276.000000	5.590585
2275.000000	5.580966
2274.000000	5.556660
2273.000000	5.552005
2272.000000	5.542800
2271.000000	5.524493
2270.000000	5.529768
2269.000000	5.531319
2268.000000	5.521286
2267.000000	5.542593
2266.000000	5.559866
2265.000000	5.600618
2264.000000	5.630096
2263.000000	5.655334
2262.000000	5.696913
2261.000000	5.756904
2260.000000	5.845234
2259.000000	5.881953
2258.000000	5.955079
2257.000000	6.062234
2256.000000	6.156977
2255.000000	6.223174
2254.000000	6.330949
2253.000000	6.411730
2252.000000	6.521264
2251.000000	6.594493
2250.000000	6.710027
2249.000000	6.793082
2248.000000	6.887205
2247.000000	6.986086
2246.000000	7.046283
2245.000000	7.117444
2244.000000	7.190570
2243.000000	7.261834
2242.000000	7.314895
2241.000000	7.375816
2240.000000	7.437979
2239.000000	7.471077
2238.000000	7.540066
2237.000000	7.579887
2236.000000	7.609055
2235.000000	7.653323
2234.000000	7.685697
2233.000000	7.706694
2232.000000	7.738137
2231.000000	7.790163
2230.000000	7.798024
2229.000000	7.818917
2228.000000	7.842500
2227.000000	7.841362
2226.000000	7.846741
2225.000000	7.867530
2224.000000	7.852222
2223.000000	7.862979
2222.000000	7.866496
2221.000000	7.871771
2220.000000	7.841569
2219.000000	7.841052
2218.000000	7.846844
2217.000000	7.819228
2216.000000	7.805782
2215.000000	7.804644
2214.000000	7.794714
2213.000000	7.762651
2212.000000	7.770511
2211.000000	7.726863
2210.000000	7.753962
2209.000000	7.715382
2208.000000	7.701626
2207.000000	7.723036
2206.000000	7.713314
2205.000000	7.695524
2204.000000	7.673286
2203.000000	7.678250
2202.000000	7.685801
2201.000000	7.680836
2200.000000	7.659633
2199.000000	7.638015
2198.000000	7.651668
2197.000000	7.640291
2196.000000	7.628086
2195.000000	7.640912
2194.000000	7.635223
2193.000000	7.626328
2192.000000	7.634913
2191.000000	7.614537
2190.000000	7.606159
2189.000000	7.608848
2188.000000	7.600987
2187.000000	7.599539
2186.000000	7.598401
2185.000000	7.603262
2184.000000	7.592609
2183.000000	7.583921
2182.000000	7.574715
2181.000000	7.573474
2180.000000	7.575026
2179.000000	7.569751
2178.000000	7.555787
2177.000000	7.575439
2176.000000	7.567061
2175.000000	7.567579
2174.000000	7.573578
2173.000000	7.565717
2172.000000	7.571923
2171.000000	7.578025
2170.000000	7.594574
2169.000000	7.621156
2168.000000	7.621156
2167.000000	7.634706
2166.000000	7.632223
2165.000000	7.658495
2164.000000	7.648876
2163.000000	7.666149
2162.000000	7.674941
2161.000000	7.690455
2160.000000	7.720140
2159.000000	7.741137
2158.000000	7.760582
2157.000000	7.768546
2156.000000	7.785612
2155.000000	7.817573
2154.000000	7.832157
2153.000000	7.861531
2152.000000	7.882114
2151.000000	7.905904
2150.000000	7.933520
2149.000000	7.938381
2148.000000	7.965273
2147.000000	7.976341
2146.000000	8.002509
2145.000000	8.022161
2144.000000	8.020506
2143.000000	8.040882
2142.000000	8.063223
2141.000000	8.075014
2140.000000	8.092701
2139.000000	8.112767
2138.000000	8.107388
2137.000000	8.128282
2136.000000	8.136866
2135.000000	8.146279
2134.000000	8.139866
2133.000000	8.154657
2132.000000	8.175446
2131.000000	8.179377
2130.000000	8.174102
2129.000000	8.181549
2128.000000	8.173895
2127.000000	8.177101
2126.000000	8.170895
2125.000000	8.162518
2124.000000	8.165103
2123.000000	8.178963
2122.000000	8.155691
2121.000000	8.136453
2120.000000	8.127351
2119.000000	8.120835
2118.000000	8.110595
2117.000000	8.090839
2116.000000	8.074807
2115.000000	8.060844
2114.000000	8.039744
2113.000000	8.008197
2112.000000	8.004784
2111.000000	7.995062
2110.000000	7.976030
2109.000000	7.961550
2108.000000	7.933313
2107.000000	7.904662
2106.000000	7.887182
2105.000000	7.874977
2104.000000	7.856670
2103.000000	7.850361
2102.000000	7.820883
2101.000000	7.796163
2100.000000	7.787578
2099.000000	7.767926
2098.000000	7.759031
2097.000000	7.736379
2096.000000	7.726656
2095.000000	7.718899
2094.000000	7.690662
2093.000000	7.677733
2092.000000	7.663977
2091.000000	7.641739
2090.000000	7.627672
2089.000000	7.619708
2088.000000	7.601194
2087.000000	7.591264
2086.000000	7.593747
2085.000000	7.575336
2084.000000	7.554650
2083.000000	7.540997
2082.000000	7.522275
2081.000000	7.500658
2080.000000	7.487626
2079.000000	7.474904
2078.000000	7.454217
2077.000000	7.436841
2076.000000	7.412017
2075.000000	7.395675
2074.000000	7.387814
2073.000000	7.356474
2072.000000	7.329272
2071.000000	7.314792
2070.000000	7.305276
2069.000000	7.275074
2068.000000	7.241045
2067.000000	7.221806
2066.000000	7.199569
2065.000000	7.184261
2064.000000	7.170194
2063.000000	7.157679
2062.000000	7.134924
2061.000000	7.114031
2060.000000	7.093137
2059.000000	7.084966
2058.000000	7.071210
2057.000000	7.066142
2056.000000	7.061798
2055.000000	7.055799
2054.000000	7.045145
2053.000000	7.060453
2052.000000	7.071313
2051.000000	7.070279
2050.000000	7.077830
2049.000000	7.097688
2048.000000	7.109273
2047.000000	7.140716
2046.000000	7.169884
2045.000000	7.190570
2044.000000	7.225737
2043.000000	7.255318
2042.000000	7.298760
2041.000000	7.321928
2040.000000	7.355130
2039.000000	7.381919
2038.000000	7.429497
2037.000000	7.461044
2036.000000	7.481110
2035.000000	7.485867
2034.000000	7.518138
2033.000000	7.540583
2032.000000	7.565924
2031.000000	7.586920
2030.000000	7.593436
2029.000000	7.606055
2028.000000	7.628396
2027.000000	7.634809
2026.000000	7.646807
2025.000000	7.654978
2024.000000	7.669872
2023.000000	7.668011
2022.000000	7.684870
2021.000000	7.702350
2020.000000	7.691800
2019.000000	7.686318
2018.000000	7.693558
2017.000000	7.699557
2016.000000	7.702971
2015.000000	7.690145
2014.000000	7.680733
2013.000000	7.681457
2012.000000	7.660253
2011.000000	7.656633
2010.000000	7.641532
2009.000000	7.614226
2008.000000	7.598918
2007.000000	7.588265
2006.000000	7.584541
2005.000000	7.566751
2004.000000	7.550616
2003.000000	7.522689
2002.000000	7.508002
2001.000000	7.482144
2000.000000	7.466319
1999.000000	7.431152
1998.000000	7.391021
1997.000000	7.359577
1996.000000	7.350682
1995.000000	7.336616
1994.000000	7.299794
1993.000000	7.255318
1992.000000	7.232563
1991.000000	7.199362
1990.000000	7.159437
1989.000000	7.138647
1988.000000	7.095206
1987.000000	7.063039
1986.000000	7.039663
1985.000000	7.002842
1984.000000	6.972433
1983.000000	6.926199
1982.000000	6.893101
1981.000000	6.871380
1980.000000	6.843453
1979.000000	6.812631
1978.000000	6.789255
1977.000000	6.754812
1976.000000	6.714371
1975.000000	6.681479
1974.000000	6.658104
1973.000000	6.645589
1972.000000	6.605457
1971.000000	6.562636
1970.000000	6.569877
1969.000000	6.535641
1968.000000	6.523539
1967.000000	6.484752
1966.000000	6.475443
1965.000000	6.460136
1964.000000	6.412867
1963.000000	6.411626
1962.000000	6.374908
1961.000000	6.376770
1960.000000	6.353601
1959.000000	6.346774
1958.000000	6.311608
1957.000000	6.295369
1956.000000	6.288129
1955.000000	6.273648
1954.000000	6.244687
1953.000000	6.247790
1952.000000	6.237033
1951.000000	6.233517
1950.000000	6.193075
1949.000000	6.205590
1948.000000	6.180870
1947.000000	6.154288
1946.000000	6.176836
1945.000000	6.158529
1944.000000	6.143014
1943.000000	6.166596
1942.000000	6.128844
1941.000000	6.116536
1940.000000	6.135153
1939.000000	6.139808
1938.000000	6.147565
1937.000000	6.138256
1936.000000	6.158115
1935.000000	6.155012
1934.000000	6.191213
1933.000000	6.200108
1932.000000	6.184180
1931.000000	6.203625
1930.000000	6.227828
1929.000000	6.226897
1928.000000	6.298886
1927.000000	6.318124
1926.000000	6.341913
1925.000000	6.393629
1924.000000	6.394663
1923.000000	6.424348
1922.000000	6.469858
1921.000000	6.505956
1920.000000	6.564188
1919.000000	6.625419
1918.000000	6.666171
1917.000000	6.721714
1916.000000	6.768879
1915.000000	6.825146
1914.000000	6.892273
1913.000000	6.962917
1912.000000	7.051558
1911.000000	7.121478
1910.000000	7.210015
1909.000000	7.278797
1908.000000	7.341580
1907.000000	7.422154
1906.000000	7.524861
1905.000000	7.643808
1904.000000	7.762547
1903.000000	7.868875
1902.000000	7.996303
1901.000000	8.109250
1900.000000	8.255089
1899.000000	8.396790
1898.000000	8.549352
1897.000000	8.699328
1896.000000	8.849614
1895.000000	9.004451
1894.000000	9.154324
1893.000000	9.335019
1892.000000	9.517266
1891.000000	9.728990
1890.000000	9.982915
1889.000000	10.221222
1888.000000	10.436773
1887.000000	10.694421
1886.000000	10.962723
1885.000000	11.300945
1884.000000	11.630892
1883.000000	12.011624
1882.000000	12.394011
1881.000000	12.827907
1880.000000	13.233359
1879.000000	13.649775
1878.000000	14.059157
1877.000000	14.468333
1876.000000	14.885680
1875.000000	15.287305
1874.000000	15.661004
1873.000000	16.035530
1872.000000	16.406332
1871.000000	16.753449
1870.000000	17.088568
1869.000000	17.393588
1868.000000	17.678956
1867.000000	17.921089
1866.000000	18.131573
1865.000000	18.307200
1864.000000	18.473725
1863.000000	18.606634
1862.000000	18.756403
1861.000000	18.904931
1860.000000	19.038772
1859.000000	19.176646
1858.000000	19.274079
1857.000000	19.325381
1856.000000	19.407506
1855.000000	19.475874
1854.000000	19.493768
1853.000000	19.511765
1852.000000	19.509800
1851.000000	19.533692
1850.000000	19.547863
1849.000000	19.558930
1848.000000	19.569376
1847.000000	19.532451
1846.000000	19.495630
1845.000000	19.456636
1844.000000	19.424779
1843.000000	19.388992
1842.000000	19.386095
1841.000000	19.403679
1840.000000	19.393232
1839.000000	19.380303
1838.000000	19.347205
1837.000000	19.321037
1836.000000	19.295800
1835.000000	19.235913
1834.000000	19.188334
1833.000000	19.136308
1832.000000	19.086764
1831.000000	19.038565
1830.000000	18.980850
1829.000000	18.922204
1828.000000	18.879591
1827.000000	18.810291
1826.000000	18.736338
1825.000000	18.675003
1824.000000	18.615323
1823.000000	18.589051
1822.000000	18.571054
1821.000000	18.555539
1820.000000	18.536818
1819.000000	18.514890
1818.000000	18.486654
1817.000000	18.461003
1816.000000	18.449315
1815.000000	18.457589
1814.000000	18.450970
1813.000000	18.438454
1812.000000	18.431318
1811.000000	18.418182
1810.000000	18.401322
1809.000000	18.374223
1808.000000	18.335747
1807.000000	18.297374
1806.000000	18.269447
1805.000000	18.236763
1804.000000	18.191460
1803.000000	18.152776
1802.000000	18.104060
1801.000000	18.073030
1800.000000	18.048414
1799.000000	17.990595
1798.000000	17.937742
1797.000000	17.894611
1796.000000	17.859754
1795.000000	17.829449
1794.000000	17.790765
1793.000000	17.748979
1792.000000	17.707399
1791.000000	17.654442
1790.000000	17.591763
1789.000000	17.548218
1788.000000	17.513465
1787.000000	17.467438
1786.000000	17.413447
1785.000000	17.358938
1784.000000	17.305464
1783.000000	17.250335
1782.000000	17.178036
1781.000000	17.106668
1780.000000	17.049988
1779.000000	16.994238
1778.000000	16.929076
1777.000000	16.844676
1776.000000	16.776101
1775.000000	16.704629
1774.000000	16.611644
1773.000000	16.522590
1772.000000	16.424226
1771.000000	16.332275
1770.000000	16.239807
1769.000000	16.124171
1768.000000	16.035116
1767.000000	15.951854
1766.000000	15.856903
1765.000000	15.778605
1764.000000	15.732372
1763.000000	15.708479
1762.000000	15.692343
1761.000000	15.690895
1760.000000	15.737853
1759.000000	15.789569
1758.000000	15.849973
1757.000000	15.915549
1756.000000	15.969954
1755.000000	16.017843
1754.000000	16.074110
1753.000000	16.115896
1752.000000	16.122206
1751.000000	16.140203
1750.000000	16.141237
1749.000000	16.118792
1748.000000	16.106070
1747.000000	16.049700
1746.000000	15.971609
1745.000000	15.898690
1744.000000	15.820288
1743.000000	15.685000
1742.000000	15.550849
1741.000000	15.376877
1740.000000	15.193596
1739.000000	15.028622
1738.000000	14.829930
1737.000000	14.636203
1736.000000	14.472781
1735.000000	14.339043
1734.000000	14.234371
1733.000000	14.188240
1732.000000	14.151522
1731.000000	14.159176
1730.000000	14.202824
1729.000000	14.270468
1728.000000	14.345249
1727.000000	14.413825
1726.000000	14.497914
1725.000000	14.576833
1724.000000	14.623791
1723.000000	14.687401
1722.000000	14.740979
1721.000000	14.758666
1720.000000	14.763837
1719.000000	14.788558
1718.000000	14.813588
1717.000000	14.846479
1716.000000	14.881336
1715.000000	14.929121
1714.000000	14.991697
1713.000000	15.050550
1712.000000	15.115815
1711.000000	15.159257
1710.000000	15.181701
1709.000000	15.197526
1708.000000	15.209628
1707.000000	15.187390
1706.000000	15.154602
1705.000000	15.118401
1704.000000	15.064203
1703.000000	15.018176
1702.000000	14.946187
1701.000000	14.856926
1700.000000	14.730636
1699.000000	14.615413
1698.000000	14.487468
1697.000000	14.355903
1696.000000	14.262090
1695.000000	14.203134
1694.000000	14.153280
1693.000000	14.188343
1692.000000	14.267055
1691.000000	14.372555
1690.000000	14.508154
1689.000000	14.628342
1688.000000	14.730222
1687.000000	14.808313
1686.000000	14.898195
1685.000000	14.901608
1684.000000	14.929328
1683.000000	15.019624
1682.000000	15.174875
1681.000000	15.415353
1680.000000	15.758229
1679.000000	16.170922
1678.000000	16.647845
1677.000000	17.134698
1676.000000	17.577799
1675.000000	18.009316
1674.000000	18.374741
1673.000000	18.703343
1672.000000	19.001536
1671.000000	19.255048
1670.000000	19.452292
1669.000000	19.668361
1668.000000	19.819784
1667.000000	19.960141
1666.000000	20.067710
1665.000000	20.186967
1664.000000	20.265678
1663.000000	20.376143
1662.000000	20.443374
1661.000000	20.494883
1660.000000	20.558907
1659.000000	20.590661
1658.000000	20.658926
1657.000000	20.661718
1656.000000	20.695334
1655.000000	20.708159
1654.000000	20.692851
1653.000000	20.719950
1652.000000	20.693368
1651.000000	20.675682
1650.000000	20.676819
1649.000000	20.638032
1648.000000	20.602659
1647.000000	20.561286
1646.000000	20.520017
1645.000000	20.481127
1644.000000	20.439030
1643.000000	20.358870
1642.000000	20.324531
1641.000000	20.277677
1640.000000	20.218514
1639.000000	20.138561
1638.000000	20.088707
1637.000000	20.029027
1636.000000	19.936559
1635.000000	19.873672
1634.000000	19.825059
1633.000000	19.747589
1632.000000	19.666188
1631.000000	19.593062
1630.000000	19.518798
1629.000000	19.409264
1628.000000	19.335931
1627.000000	19.259081
1626.000000	19.167958
1625.000000	19.097211
1624.000000	19.006087
1623.000000	18.941236
1622.000000	18.840080
1621.000000	18.747301
1620.000000	18.681829
1619.000000	18.597843
1618.000000	18.515511
1617.000000	18.430490
1616.000000	18.367293
1615.000000	18.284031
1614.000000	18.189288
1613.000000	18.120092
1612.000000	18.037760
1611.000000	17.946120
1610.000000	17.884992
1609.000000	17.806177
1608.000000	17.751565
1607.000000	17.674301
1606.000000	17.596107
1605.000000	17.528566
1604.000000	17.446855
1603.000000	17.371040
1602.000000	17.295017
1601.000000	17.215582
1600.000000	17.155178
1599.000000	17.085465
1598.000000	17.008305
1597.000000	16.935592
