PE UV       SUBTECH     SPECTRUM    ASCII       PEDS        4.00        
   -1
CICIMAUCR0225-1.Sample.ASC
24/05/27
14:30:23.00
24/05/27
14:30:23.00
Vinicio Soto Monge
C. resplendens, F
250,000000
1
Lambda 1050
1050L1511233
PerkinElmer UV WinLab 6.3.2.0749 / 2.02.05 Lambda 900 UV/VIS/NIR, Aug  7 2015 09:38:08

0
0
3350/servo 860,8/2
0
0
UV/VIS
1
1
1
DoubleDePol,CommonBeamDepol,RBeamAtt,SBeamAtt,60mm sphere, WB InGaAs Detector
0
0
0
0
Program
Program
3350/servo 860,8/2
3350/0,2 860,8/0,2
3350/0,2 860,8/0,2
0
15.00
 
 
 
0
 
860,8
319,2
860,8
Front
100
on
S:100 R:100
0
0
0
0
 
0
 
 
 
0
 
 
0
0
0
0
0
 
 
 
 
0
0


0
0
#HDR
-1
-1
#GR
nm
%R
1.0
0.0
2500,000000
-1,000000
2251
8
70,476400
5,457100
#DATA
2500.000000	8.833564
2499.000000	8.978633
2498.000000	8.744746
2497.000000	8.919210
2496.000000	8.762404
2495.000000	8.741257
2494.000000	8.789261
2493.000000	8.840860
2492.000000	8.708479
2491.000000	8.674538
2490.000000	8.619238
2489.000000	8.696637
2488.000000	8.666713
2487.000000	8.626217
2486.000000	8.699597
2485.000000	8.659312
2484.000000	8.622093
2483.000000	8.651276
2482.000000	8.593650
2481.000000	8.615009
2480.000000	8.577367
2479.000000	8.591536
2478.000000	8.592804
2477.000000	8.654977
2476.000000	8.682045
2475.000000	8.603695
2474.000000	8.644615
2473.000000	8.613317
2472.000000	8.658466
2471.000000	8.631504
2470.000000	8.663224
2469.000000	8.638376
2468.000000	8.654448
2467.000000	8.671577
2466.000000	8.685217
2465.000000	8.706681
2464.000000	8.680459
2463.000000	8.762087
2462.000000	8.792750
2461.000000	8.811888
2460.000000	8.874484
2459.000000	8.934647
2458.000000	8.953680
2457.000000	8.998511
2456.000000	9.069460
2455.000000	9.117147
2454.000000	9.193699
2453.000000	9.277019
2452.000000	9.334221
2451.000000	9.397451
2450.000000	9.484895
2449.000000	9.544529
2448.000000	9.610403
2447.000000	9.664751
2446.000000	9.762556
2445.000000	9.838157
2444.000000	9.911431
2443.000000	10.010611
2442.000000	10.075004
2441.000000	10.128612
2440.000000	10.211509
2439.000000	10.261522
2438.000000	10.347379
2437.000000	10.434505
2436.000000	10.498052
2435.000000	10.576085
2434.000000	10.619436
2433.000000	10.660884
2432.000000	10.726546
2431.000000	10.821074
2430.000000	10.846873
2429.000000	10.890542
2428.000000	10.942669
2427.000000	11.001776
2426.000000	11.051471
2425.000000	11.097043
2424.000000	11.147056
2423.000000	11.180151
2422.000000	11.200664
2421.000000	11.237354
2420.000000	11.288636
2419.000000	11.337168
2418.000000	11.368572
2417.000000	11.392257
2416.000000	11.413509
2415.000000	11.450623
2414.000000	11.500107
2413.000000	11.523474
2412.000000	11.560165
2411.000000	11.587127
2410.000000	11.606477
2409.000000	11.637563
2408.000000	11.661565
2407.000000	11.694872
2406.000000	11.732196
2405.000000	11.754718
2404.000000	11.785593
2403.000000	11.821966
2402.000000	11.858021
2401.000000	11.901796
2400.000000	11.943561
2399.000000	11.982155
2398.000000	12.005311
2397.000000	12.047499
2396.000000	12.077634
2395.000000	12.108086
2394.000000	12.143507
2393.000000	12.177448
2392.000000	12.205574
2391.000000	12.234863
2390.000000	12.246388
2389.000000	12.270284
2388.000000	12.293017
2387.000000	12.314058
2386.000000	12.333197
2385.000000	12.339541
2384.000000	12.351912
2383.000000	12.356776
2382.000000	12.361428
2381.000000	12.358890
2380.000000	12.345779
2379.000000	12.340175
2378.000000	12.341127
2377.000000	12.334360
2376.000000	12.322094
2375.000000	12.306023
2374.000000	12.298938
2373.000000	12.274196
2372.000000	12.253789
2371.000000	12.230739
2370.000000	12.195000
2369.000000	12.161165
2368.000000	12.121514
2367.000000	12.078480
2366.000000	12.018739
2365.000000	11.964286
2364.000000	11.909938
2363.000000	11.844382
2362.000000	11.791831
2361.000000	11.744144
2360.000000	11.680280
2359.000000	11.607428
2358.000000	11.534365
2357.000000	11.484987
2356.000000	11.460350
2355.000000	11.421334
2354.000000	11.382952
2353.000000	11.363285
2352.000000	11.352183
2351.000000	11.358210
2350.000000	11.368572
2349.000000	11.376079
2348.000000	11.387604
2347.000000	11.423660
2346.000000	11.477268
2345.000000	11.509729
2344.000000	11.554878
2343.000000	11.612927
2342.000000	11.654375
2341.000000	11.688316
2340.000000	11.722997
2339.000000	11.747951
2338.000000	11.780412
2337.000000	11.797752
2336.000000	11.805894
2335.000000	11.811498
2334.000000	11.792888
2333.000000	11.763705
2332.000000	11.740655
2331.000000	11.704388
2330.000000	11.665583
2329.000000	11.602670
2328.000000	11.546525
2327.000000	11.496935
2326.000000	11.414990
2325.000000	11.337909
2324.000000	11.264105
2323.000000	11.170741
2322.000000	11.068600
2321.000000	10.973967
2320.000000	10.864742
2319.000000	10.741984
2318.000000	10.628001
2317.000000	10.491390
2316.000000	10.368314
2315.000000	10.249045
2314.000000	10.124700
2313.000000	10.008497
2312.000000	9.901915
2311.000000	9.789518
2310.000000	9.707362
2309.000000	9.624571
2308.000000	9.558381
2307.000000	9.517990
2306.000000	9.484577
2305.000000	9.468506
2304.000000	9.502024
2303.000000	9.531524
2302.000000	9.546856
2301.000000	9.608288
2300.000000	9.691607
2299.000000	9.772601
2298.000000	9.873895
2297.000000	9.957849
2296.000000	10.058087
2295.000000	10.165725
2294.000000	10.265751
2293.000000	10.341140
2292.000000	10.414415
2291.000000	10.459670
2290.000000	10.521525
2289.000000	10.561599
2288.000000	10.567309
2287.000000	10.582217
2286.000000	10.573970
2285.000000	10.562127
2284.000000	10.510846
2283.000000	10.474896
2282.000000	10.454066
2281.000000	10.389884
2280.000000	10.332999
2279.000000	10.277382
2278.000000	10.218910
2277.000000	10.158429
2276.000000	10.092556
2275.000000	10.045610
2274.000000	10.008285
2273.000000	9.989253
2272.000000	9.972652
2271.000000	9.976987
2270.000000	9.971806
2269.000000	9.997500
2268.000000	10.041592
2267.000000	10.119625
2266.000000	10.195754
2265.000000	10.305930
2264.000000	10.438946
2263.000000	10.607277
2262.000000	10.781740
2261.000000	10.961173
2260.000000	11.180363
2259.000000	11.427255
2258.000000	11.696881
2257.000000	11.939015
2256.000000	12.207583
2255.000000	12.475728
2254.000000	12.751063
2253.000000	13.023226
2252.000000	13.284393
2251.000000	13.525575
2250.000000	13.750898
2249.000000	13.998953
2248.000000	14.199110
2247.000000	14.392395
2246.000000	14.572568
2245.000000	14.748618
2244.000000	14.908701
2243.000000	15.039179
2242.000000	15.179913
2241.000000	15.287551
2240.000000	15.410310
2239.000000	15.540788
2238.000000	15.628337
2237.000000	15.710282
2236.000000	15.796456
2235.000000	15.870577
2234.000000	15.947235
2233.000000	15.987732
2232.000000	16.042714
2231.000000	16.095899
2230.000000	16.127514
2229.000000	16.159763
2228.000000	16.169597
2227.000000	16.191167
2226.000000	16.210516
2225.000000	16.209882
2224.000000	16.222464
2223.000000	16.192964
2222.000000	16.183342
2221.000000	16.169702
2220.000000	16.145912
2219.000000	16.105309
2218.000000	16.087229
2217.000000	16.044829
2216.000000	16.035736
2215.000000	15.995239
2214.000000	15.954213
2213.000000	15.952627
2212.000000	15.915091
2211.000000	15.879247
2210.000000	15.829234
2209.000000	15.836107
2208.000000	15.816123
2207.000000	15.785037
2206.000000	15.760400
2205.000000	15.757757
2204.000000	15.712079
2203.000000	15.708801
2202.000000	15.686174
2201.000000	15.673909
2200.000000	15.628971
2199.000000	15.644091
2198.000000	15.650224
2197.000000	15.605815
2196.000000	15.598942
2195.000000	15.605392
2194.000000	15.575363
2193.000000	15.563415
2192.000000	15.561935
2191.000000	15.567645
2190.000000	15.552630
2189.000000	15.518689
2188.000000	15.528522
2187.000000	15.518160
2186.000000	15.514988
2185.000000	15.476924
2184.000000	15.470368
2183.000000	15.442877
2182.000000	15.436638
2181.000000	15.417500
2180.000000	15.385780
2179.000000	15.386625
2178.000000	15.388952
2177.000000	15.379224
2176.000000	15.384722
2175.000000	15.360086
2174.000000	15.374043
2173.000000	15.371082
2172.000000	15.360826
2171.000000	15.366007
2170.000000	15.393075
2169.000000	15.397516
2168.000000	15.411579
2167.000000	15.425536
2166.000000	15.437590
2165.000000	15.452499
2164.000000	15.490881
2163.000000	15.502829
2162.000000	15.523659
2161.000000	15.552736
2160.000000	15.559397
2159.000000	15.608987
2158.000000	15.635844
2157.000000	15.680570
2156.000000	15.701717
2155.000000	15.742743
2154.000000	15.791275
2153.000000	15.825322
2152.000000	15.873537
2151.000000	15.915091
2150.000000	15.951993
2149.000000	15.986780
2148.000000	16.051173
2147.000000	16.088815
2146.000000	16.137242
2145.000000	16.163993
2144.000000	16.186197
2143.000000	16.227328
2142.000000	16.279879
2141.000000	16.316040
2140.000000	16.333910
2139.000000	16.377684
2138.000000	16.404224
2137.000000	16.427908
2136.000000	16.462167
2135.000000	16.486909
2134.000000	16.498328
2133.000000	16.513766
2132.000000	16.532269
2131.000000	16.543054
2130.000000	16.549821
2129.000000	16.554579
2128.000000	16.556588
2127.000000	16.568854
2126.000000	16.570863
2125.000000	16.544958
2124.000000	16.543794
2123.000000	16.546438
2122.000000	16.517678
2121.000000	16.503403
2120.000000	16.479507
2119.000000	16.472634
2118.000000	16.455400
2117.000000	16.440702
2116.000000	16.422410
2115.000000	16.386883
2114.000000	16.355268
2113.000000	16.334861
2112.000000	16.311705
2111.000000	16.289924
2110.000000	16.260529
2109.000000	16.221407
2108.000000	16.191695
2107.000000	16.167482
2106.000000	16.135867
2105.000000	16.098754
2104.000000	16.062275
2103.000000	16.026537
2102.000000	16.006870
2101.000000	15.973034
2100.000000	15.933384
2099.000000	15.901029
2098.000000	15.873009
2097.000000	15.858840
2096.000000	15.836741
2095.000000	15.805761
2094.000000	15.779856
2093.000000	15.756488
2092.000000	15.737350
2091.000000	15.710916
2090.000000	15.695796
2089.000000	15.680147
2088.000000	15.659740
2087.000000	15.643668
2086.000000	15.613851
2085.000000	15.577584
2084.000000	15.550198
2083.000000	15.528417
2082.000000	15.506741
2081.000000	15.465398
2080.000000	15.431457
2079.000000	15.402169
2078.000000	15.359557
2077.000000	15.318532
2076.000000	15.289455
2075.000000	15.245892
2074.000000	15.208778
2073.000000	15.159400
2072.000000	15.114780
2071.000000	15.083482
2070.000000	15.030191
2069.000000	14.979438
2068.000000	14.938836
2067.000000	14.891255
2066.000000	14.846106
2065.000000	14.799794
2064.000000	14.758663
2063.000000	14.723241
2062.000000	14.687503
2061.000000	14.643305
2060.000000	14.609893
2059.000000	14.595618
2058.000000	14.580498
2057.000000	14.568021
2056.000000	14.563898
2055.000000	14.570771
2054.000000	14.590755
2053.000000	14.614016
2052.000000	14.651870
2051.000000	14.698393
2050.000000	14.745869
2049.000000	14.817769
2048.000000	14.899185
2047.000000	14.970979
2046.000000	15.046686
2045.000000	15.141954
2044.000000	15.242508
2043.000000	15.323184
2042.000000	15.430717
2041.000000	15.544066
2040.000000	15.630557
2039.000000	15.724556
2038.000000	15.814854
2037.000000	15.899231
2036.000000	15.969968
2035.000000	16.045886
2034.000000	16.129840
2033.000000	16.216226
2032.000000	16.269622
2031.000000	16.330737
2030.000000	16.391112
2029.000000	16.416277
2028.000000	16.474432
2027.000000	16.524022
2026.000000	16.566739
2025.000000	16.612523
2024.000000	16.648578
2023.000000	16.679136
2022.000000	16.714557
2021.000000	16.731158
2020.000000	16.744586
2019.000000	16.768377
2018.000000	16.793013
2017.000000	16.803164
2016.000000	16.837422
2015.000000	16.843977
2014.000000	16.831395
2013.000000	16.837739
2012.000000	16.858463
2011.000000	16.831289
2010.000000	16.820927
2009.000000	16.815323
2008.000000	16.790052
2007.000000	16.754948
2006.000000	16.745326
2005.000000	16.723650
2004.000000	16.694679
2003.000000	16.650376
2002.000000	16.612628
2001.000000	16.561875
2000.000000	16.510171
1999.000000	16.467242
1998.000000	16.408559
1997.000000	16.343954
1996.000000	16.294999
1995.000000	16.225848
1994.000000	16.171817
1993.000000	16.101397
1992.000000	16.040282
1991.000000	15.961403
1990.000000	15.884217
1989.000000	15.821515
1988.000000	15.749192
1987.000000	15.644409
1986.000000	15.587100
1985.000000	15.491198
1984.000000	15.393181
1983.000000	15.318743
1982.000000	15.244623
1981.000000	15.154325
1980.000000	15.067939
1979.000000	14.988108
1978.000000	14.882796
1977.000000	14.792392
1976.000000	14.707909
1975.000000	14.624590
1974.000000	14.544020
1973.000000	14.465775
1972.000000	14.380975
1971.000000	14.302414
1970.000000	14.217931
1969.000000	14.126893
1968.000000	14.035115
1967.000000	13.972519
1966.000000	13.906963
1965.000000	13.841619
1964.000000	13.757136
1963.000000	13.673605
1962.000000	13.588700
1961.000000	13.524412
1960.000000	13.435700
1959.000000	13.354495
1958.000000	13.281115
1957.000000	13.212070
1956.000000	13.147254
1955.000000	13.073979
1954.000000	12.984316
1953.000000	12.932399
1952.000000	12.855741
1951.000000	12.782678
1950.000000	12.715959
1949.000000	12.656641
1948.000000	12.604620
1947.000000	12.567295
1946.000000	12.507977
1945.000000	12.440095
1944.000000	12.415247
1943.000000	12.396849
1942.000000	12.344405
1941.000000	12.338906
1940.000000	12.308983
1939.000000	12.289422
1938.000000	12.279060
1937.000000	12.280752
1936.000000	12.266372
1935.000000	12.294815
1934.000000	12.291748
1933.000000	12.349268
1932.000000	12.391986
1931.000000	12.410806
1930.000000	12.491483
1929.000000	12.562643
1928.000000	12.608849
1927.000000	12.716911
1926.000000	12.771999
1925.000000	12.848974
1924.000000	12.968350
1923.000000	13.091849
1922.000000	13.209321
1921.000000	13.352592
1920.000000	13.481061
1919.000000	13.609107
1918.000000	13.762423
1917.000000	13.909501
1916.000000	14.100776
1915.000000	14.280315
1914.000000	14.472860
1913.000000	14.677775
1912.000000	14.872751
1911.000000	15.070899
1910.000000	15.261540
1909.000000	15.470579
1908.000000	15.705418
1907.000000	15.926299
1906.000000	16.214428
1905.000000	16.489341
1904.000000	16.748498
1903.000000	17.002052
1902.000000	17.273898
1901.000000	17.534853
1900.000000	17.855549
1899.000000	18.187241
1898.000000	18.481080
1897.000000	18.756732
1896.000000	19.107668
1895.000000	19.396643
1894.000000	19.697038
1893.000000	20.029153
1892.000000	20.365392
1891.000000	20.748365
1890.000000	21.141913
1889.000000	21.479420
1888.000000	21.856050
1887.000000	22.269476
1886.000000	22.648115
1885.000000	23.095693
1884.000000	23.564524
1883.000000	24.048052
1882.000000	24.525554
1881.000000	25.013311
1880.000000	25.490178
1879.000000	25.903604
1878.000000	26.373915
1877.000000	26.783112
1876.000000	27.183955
1875.000000	27.585432
1874.000000	27.949902
1873.000000	28.308980
1872.000000	28.638981
1871.000000	28.950477
1870.000000	29.231099
1869.000000	29.474608
1868.000000	29.712407
1867.000000	29.875874
1866.000000	30.013119
1865.000000	30.126784
1864.000000	30.238124
1863.000000	30.310975
1862.000000	30.402542
1861.000000	30.517371
1860.000000	30.642562
1859.000000	30.724930
1858.000000	30.803914
1857.000000	30.872642
1856.000000	30.898653
1855.000000	30.911447
1854.000000	30.953318
1853.000000	30.968333
1852.000000	30.932700
1851.000000	30.942533
1850.000000	30.955222
1849.000000	30.948666
1848.000000	30.939150
1847.000000	30.944965
1846.000000	30.933969
1845.000000	30.870633
1844.000000	30.830348
1843.000000	30.790380
1842.000000	30.794504
1841.000000	30.819986
1840.000000	30.788900
1839.000000	30.777375
1838.000000	30.762889
1837.000000	30.726304
1836.000000	30.688451
1835.000000	30.661383
1834.000000	30.598470
1833.000000	30.521601
1832.000000	30.462494
1831.000000	30.402860
1830.000000	30.367861
1829.000000	30.333814
1828.000000	30.269210
1827.000000	30.205240
1826.000000	30.139473
1825.000000	30.084913
1824.000000	30.035852
1823.000000	29.997364
1822.000000	29.989222
1821.000000	29.984570
1820.000000	29.960780
1819.000000	29.946505
1818.000000	29.916688
1817.000000	29.867415
1816.000000	29.852084
1815.000000	29.859379
1814.000000	29.842779
1813.000000	29.819306
1812.000000	29.811587
1811.000000	29.801013
1810.000000	29.767072
1809.000000	29.726681
1808.000000	29.697604
1807.000000	29.664720
1806.000000	29.626127
1805.000000	29.578229
1804.000000	29.536569
1803.000000	29.506751
1802.000000	29.475242
1801.000000	29.443839
1800.000000	29.382512
1799.000000	29.324041
1798.000000	29.278363
1797.000000	29.236809
1796.000000	29.202762
1795.000000	29.168398
1794.000000	29.120077
1793.000000	29.070487
1792.000000	29.031471
1791.000000	28.989176
1790.000000	28.934088
1789.000000	28.889468
1788.000000	28.851297
1787.000000	28.802342
1786.000000	28.763008
1785.000000	28.714370
1784.000000	28.650823
1783.000000	28.581989
1782.000000	28.520663
1781.000000	28.459759
1780.000000	28.393886
1779.000000	28.336789
1778.000000	28.273664
1777.000000	28.201764
1776.000000	28.118022
1775.000000	28.034174
1774.000000	27.947259
1773.000000	27.867957
1772.000000	27.763597
1771.000000	27.657544
1770.000000	27.561642
1769.000000	27.461405
1768.000000	27.365503
1767.000000	27.266640
1766.000000	27.178879
1765.000000	27.123263
1764.000000	27.066906
1763.000000	27.026092
1762.000000	27.020699
1761.000000	27.033599
1760.000000	27.063416
1759.000000	27.095348
1758.000000	27.160164
1757.000000	27.220222
1756.000000	27.263785
1755.000000	27.313481
1754.000000	27.363176
1753.000000	27.382103
1752.000000	27.384429
1751.000000	27.382526
1750.000000	27.372270
1749.000000	27.355669
1748.000000	27.316336
1747.000000	27.250039
1746.000000	27.173804
1745.000000	27.093022
1744.000000	26.983586
1743.000000	26.848456
1742.000000	26.721891
1741.000000	26.544361
1740.000000	26.364822
1739.000000	26.169000
1738.000000	25.977830
1737.000000	25.806962
1736.000000	25.639265
1735.000000	25.508999
1734.000000	25.418913
1733.000000	25.382434
1732.000000	25.384337
1731.000000	25.399140
1730.000000	25.437839
1729.000000	25.515555
1728.000000	25.606593
1727.000000	25.699112
1726.000000	25.773338
1725.000000	25.839000
1724.000000	25.909208
1723.000000	25.947061
1722.000000	26.006590
1721.000000	26.049202
1720.000000	26.073944
1719.000000	26.109048
1718.000000	26.141826
1717.000000	26.212774
1716.000000	26.273572
1715.000000	26.333947
1714.000000	26.418959
1713.000000	26.486841
1712.000000	26.538757
1711.000000	26.592470
1710.000000	26.644069
1709.000000	26.669023
1708.000000	26.669763
1707.000000	26.666062
1706.000000	26.646607
1705.000000	26.577773
1704.000000	26.547216
1703.000000	26.504393
1702.000000	26.416209
1701.000000	26.312060
1700.000000	26.201038
1699.000000	26.062630
1698.000000	25.927923
1697.000000	25.813623
1696.000000	25.727026
1695.000000	25.683886
1694.000000	25.660201
1693.000000	25.679868
1692.000000	25.762341
1691.000000	25.876641
1690.000000	26.020865
1689.000000	26.137279
1688.000000	26.231384
1687.000000	26.293768
1686.000000	26.347376
1685.000000	26.382480
1684.000000	26.436088
1683.000000	26.547533
1682.000000	26.740923
1681.000000	27.004522
1680.000000	27.394263
1679.000000	27.789185
1678.000000	28.204091
1677.000000	28.616988
1676.000000	29.039189
1675.000000	29.409792
1674.000000	29.707226
1673.000000	29.980552
1672.000000	30.201751
1671.000000	30.417134
1670.000000	30.623001
1669.000000	30.773885
1668.000000	30.893684
1667.000000	30.992335
1666.000000	31.111499
1665.000000	31.190272
1664.000000	31.251175
1663.000000	31.372771
1662.000000	31.417286
1661.000000	31.469730
1660.000000	31.518897
1659.000000	31.564681
1658.000000	31.600842
1657.000000	31.615011
1656.000000	31.631083
1655.000000	31.651173
1654.000000	31.655719
1653.000000	31.666716
1652.000000	31.640599
1651.000000	31.639753
1650.000000	31.634149
1649.000000	31.613636
1648.000000	31.597459
1647.000000	31.551041
1646.000000	31.514457
1645.000000	31.477343
1644.000000	31.436424
1643.000000	31.401848
1642.000000	31.350567
1641.000000	31.320855
1640.000000	31.268304
1639.000000	31.223155
1638.000000	31.182130
1637.000000	31.123870
1636.000000	31.057256
1635.000000	31.036638
1634.000000	30.954376
1633.000000	30.898125
1632.000000	30.832780
1631.000000	30.784670
1630.000000	30.719220
1629.000000	30.649012
1628.000000	30.581235
1627.000000	30.517265
1626.000000	30.438915
1625.000000	30.376003
1624.000000	30.313936
1623.000000	30.230828
1622.000000	30.169396
1621.000000	30.124141
