PE UV       SUBTECH     SPECTRUM    ASCII       PEDS        4.00        
   -1
CICIMAUCR0209-2.ASC
24/06/06
16:15:30.00
24/06/06
16:15:30.00
Vinicio Soto Monge
C. cupreomarginata. Sex F. Dorsal
250,000000
1
Lambda 1050
1050L1511233
PerkinElmer UV WinLab 6.3.2.0749 / 2.02.05 Lambda 900 UV/VIS/NIR, Aug  7 2015 09:38:08

0
0
3350/servo 860,8/2
0
0
UV/VIS
1
1
1
DoubleDePol,CommonBeamDepol,RBeamAtt,SBeamAtt,60mm sphere, WB InGaAs Detector
0
0
0
0
Program
Program
3350/servo 860,8/2
3350/0,2 860,8/0,2
3350/0,2 860,8/0,2
0
15.00
 
 
 
0
 
860,8
319,2
860,8
Front
100
on
S:100 R:100
0
0
0
0
 
0
 
 
 
0
 
 
0
0
0
0
0
 
 
 
 
0
0


0
0
#HDR
-1
-1
#GR
nm
%R
1.0
0.0
2500,000000
-1,000000
2251
8
72,113000
5,118300
#DATA
2500.000000	8.735686
2499.000000	8.711201
2498.000000	8.730468
2497.000000	8.703474
2496.000000	8.638348
2495.000000	8.669556
2494.000000	8.635037
2493.000000	8.586368
2492.000000	8.556464
2491.000000	8.634033
2490.000000	8.611856
2489.000000	8.598912
2488.000000	8.485217
2487.000000	8.559575
2486.000000	8.549841
2485.000000	8.538602
2484.000000	8.463743
2483.000000	8.549540
2482.000000	8.588275
2481.000000	8.569409
2480.000000	8.568907
2479.000000	8.569008
2478.000000	8.548135
2477.000000	8.538101
2476.000000	8.550042
2475.000000	8.555662
2474.000000	8.553253
2473.000000	8.576634
2472.000000	8.629618
2471.000000	8.599614
2470.000000	8.619282
2469.000000	8.601119
2468.000000	8.641760
2467.000000	8.651695
2466.000000	8.720935
2465.000000	8.686515
2464.000000	8.738696
2463.000000	8.750939
2462.000000	8.766794
2461.000000	8.804324
2460.000000	8.881391
2459.000000	8.877778
2458.000000	8.954344
2457.000000	9.011040
2456.000000	9.032013
2455.000000	9.082187
2454.000000	9.132461
2453.000000	9.191566
2452.000000	9.279471
2451.000000	9.360251
2450.000000	9.436315
2449.000000	9.508063
2448.000000	9.555528
2447.000000	9.633498
2446.000000	9.722407
2445.000000	9.787633
2444.000000	9.854364
2443.000000	9.948791
2442.000000	10.026561
2441.000000	10.098009
2440.000000	10.171263
2439.000000	10.252344
2438.000000	10.338442
2437.000000	10.411195
2436.000000	10.446617
2435.000000	10.535225
2434.000000	10.605669
2433.000000	10.681532
2432.000000	10.723678
2431.000000	10.795025
2430.000000	10.850417
2429.000000	10.915242
2428.000000	10.965115
2427.000000	11.026227
2426.000000	11.096872
2425.000000	11.158485
2424.000000	11.211268
2423.000000	11.249200
2422.000000	11.304692
2421.000000	11.352658
2420.000000	11.389586
2419.000000	11.441466
2418.000000	11.482609
2417.000000	11.515021
2416.000000	11.556064
2415.000000	11.597407
2414.000000	11.632428
2413.000000	11.680294
2412.000000	11.709395
2411.000000	11.747527
2410.000000	11.780341
2409.000000	11.808138
2408.000000	11.846972
2407.000000	11.874066
2406.000000	11.893433
2405.000000	11.923738
2404.000000	11.970400
2403.000000	11.993279
2402.000000	12.012245
2401.000000	12.054993
2400.000000	12.080381
2399.000000	12.118915
2398.000000	12.139286
2397.000000	12.155341
2396.000000	12.169189
2395.000000	12.193674
2394.000000	12.223076
2393.000000	12.234114
2392.000000	12.266828
2391.000000	12.280776
2390.000000	12.295929
2389.000000	12.317604
2388.000000	12.336269
2387.000000	12.341487
2386.000000	12.350418
2385.000000	12.366674
2384.000000	12.360854
2383.000000	12.365470
2382.000000	12.378013
2381.000000	12.374501
2380.000000	12.380723
2379.000000	12.386342
2378.000000	12.377411
2377.000000	12.363764
2376.000000	12.347006
2375.000000	12.339078
2374.000000	12.325832
2373.000000	12.290911
2372.000000	12.267831
2371.000000	12.270139
2370.000000	12.253983
2369.000000	12.232208
2368.000000	12.203809
2367.000000	12.157248
2366.000000	12.135272
2365.000000	12.115403
2364.000000	12.073357
2363.000000	12.042249
2362.000000	11.998799
2361.000000	11.946919
2360.000000	11.897447
2359.000000	11.855000
2358.000000	11.820079
2357.000000	11.781646
2356.000000	11.732074
2355.000000	11.682502
2354.000000	11.662031
2353.000000	11.630923
2352.000000	11.587272
2351.000000	11.577939
2350.000000	11.588576
2349.000000	11.592590
2348.000000	11.592791
2347.000000	11.607743
2346.000000	11.620587
2345.000000	11.632529
2344.000000	11.658720
2343.000000	11.698859
2342.000000	11.735586
2341.000000	11.746424
2340.000000	11.767095
2339.000000	11.812954
2338.000000	11.841854
2337.000000	11.852090
2336.000000	11.853696
2335.000000	11.870554
2334.000000	11.878381
2333.000000	11.869350
2332.000000	11.863630
2331.000000	11.849180
2330.000000	11.820781
2329.000000	11.802317
2328.000000	11.784255
2327.000000	11.736991
2326.000000	11.680696
2325.000000	11.631626
2324.000000	11.572521
2323.000000	11.512312
2322.000000	11.452103
2321.000000	11.367008
2320.000000	11.288737
2319.000000	11.203140
2318.000000	11.113028
2317.000000	11.012278
2316.000000	10.911529
2315.000000	10.820112
2314.000000	10.728394
2313.000000	10.623631
2312.000000	10.509535
2311.000000	10.406277
2310.000000	10.337640
2309.000000	10.255856
2308.000000	10.196149
2307.000000	10.142463
2306.000000	10.104431
2305.000000	10.084662
2304.000000	10.060479
2303.000000	10.060579
2302.000000	10.087773
2301.000000	10.107642
2300.000000	10.149387
2299.000000	10.208893
2298.000000	10.266493
2297.000000	10.339044
2296.000000	10.429257
2295.000000	10.499501
2294.000000	10.583793
2293.000000	10.655943
2292.000000	10.722775
2291.000000	10.787098
2290.000000	10.851822
2289.000000	10.890155
2288.000000	10.924474
2287.000000	10.960298
2286.000000	10.983780
2285.000000	10.977056
2284.000000	10.975250
2283.000000	10.971537
2282.000000	10.956284
2281.000000	10.933405
2280.000000	10.907917
2279.000000	10.891761
2278.000000	10.859348
2277.000000	10.839780
2276.000000	10.783586
2275.000000	10.752879
2274.000000	10.728896
2273.000000	10.703207
2272.000000	10.668286
2271.000000	10.664974
2270.000000	10.681532
2269.000000	10.702605
2268.000000	10.727591
2267.000000	10.761509
2266.000000	10.834964
2265.000000	10.921865
2264.000000	11.008666
2263.000000	11.145841
2262.000000	11.261643
2261.000000	11.421597
2260.000000	11.576434
2259.000000	11.781846
2258.000000	11.971303
2257.000000	12.209328
2256.000000	12.420159
2255.000000	12.667718
2254.000000	12.881960
2253.000000	13.114266
2252.000000	13.344966
2251.000000	13.564326
2250.000000	13.784389
2249.000000	13.960500
2248.000000	14.173337
2247.000000	14.369417
2246.000000	14.543421
2245.000000	14.716320
2244.000000	14.848679
2243.000000	14.986356
2242.000000	15.130857
2241.000000	15.226589
2240.000000	15.336871
2239.000000	15.454078
2238.000000	15.525425
2237.000000	15.610119
2236.000000	15.693106
2235.000000	15.738464
2234.000000	15.800579
2233.000000	15.865504
2232.000000	15.902031
2231.000000	15.956620
2230.000000	15.949495
2229.000000	15.970267
2228.000000	16.019438
2227.000000	15.996859
2226.000000	15.998064
2225.000000	16.016427
2224.000000	15.993949
2223.000000	15.964648
2222.000000	15.968361
2221.000000	15.921799
2220.000000	15.885072
2219.000000	15.843227
2218.000000	15.828476
2217.000000	15.788437
2216.000000	15.737259
2215.000000	15.724013
2214.000000	15.668822
2213.000000	15.630690
2212.000000	15.594163
2211.000000	15.567170
2210.000000	15.533553
2209.000000	15.457690
2208.000000	15.432603
2207.000000	15.414440
2206.000000	15.395675
2205.000000	15.360252
2204.000000	15.321117
2203.000000	15.297635
2202.000000	15.299442
2201.000000	15.279874
2200.000000	15.239233
2199.000000	15.217357
2198.000000	15.208928
2197.000000	15.195883
2196.000000	15.155844
2195.000000	15.151629
2194.000000	15.148619
2193.000000	15.131058
2192.000000	15.102459
2191.000000	15.087105
2190.000000	15.092424
2189.000000	15.063022
2188.000000	15.035426
2187.000000	15.039440
2186.000000	15.025994
2185.000000	14.992678
2184.000000	14.983346
2183.000000	14.961169
2182.000000	14.948023
2181.000000	14.951736
2180.000000	14.927954
2179.000000	14.906479
2178.000000	14.902867
2177.000000	14.891527
2176.000000	14.879084
2175.000000	14.879586
2174.000000	14.886610
2173.000000	14.872160
2172.000000	14.884804
2171.000000	14.874870
2170.000000	14.880890
2169.000000	14.911497
2168.000000	14.938591
2167.000000	14.958259
2166.000000	14.973411
2165.000000	14.990671
2164.000000	15.030509
2163.000000	15.049174
2162.000000	15.086604
2161.000000	15.122428
2160.000000	15.135272
2159.000000	15.171197
2158.000000	15.220869
2157.000000	15.273150
2156.000000	15.320615
2155.000000	15.367277
2154.000000	15.408821
2153.000000	15.465618
2152.000000	15.502144
2151.000000	15.550813
2150.000000	15.612126
2149.000000	15.668320
2148.000000	15.729131
2147.000000	15.775091
2146.000000	15.825566
2145.000000	15.884269
2144.000000	15.936952
2143.000000	15.981105
2142.000000	16.041514
2141.000000	16.088176
2140.000000	16.110654
2139.000000	16.153703
2138.000000	16.202372
2137.000000	16.227258
2136.000000	16.264387
2135.000000	16.301716
2134.000000	16.336738
2133.000000	16.364936
2132.000000	16.380991
2131.000000	16.392732
2130.000000	16.417618
2129.000000	16.436584
2128.000000	16.449428
2127.000000	16.471104
2126.000000	16.478128
2125.000000	16.481038
2124.000000	16.471003
2123.000000	16.471806
2122.000000	16.485253
2121.000000	16.465584
2120.000000	16.442504
2119.000000	16.423238
2118.000000	16.425245
2117.000000	16.408788
2116.000000	16.373164
2115.000000	16.358814
2114.000000	16.341755
2113.000000	16.318073
2112.000000	16.292685
2111.000000	16.271512
2110.000000	16.246525
2109.000000	16.220234
2108.000000	16.199462
2107.000000	16.158420
2106.000000	16.132229
2105.000000	16.108848
2104.000000	16.069812
2103.000000	16.048338
2102.000000	16.030476
2101.000000	15.998064
2100.000000	15.953710
2099.000000	15.935948
2098.000000	15.913270
2097.000000	15.879151
2096.000000	15.852659
2095.000000	15.832189
2094.000000	15.805195
2093.000000	15.783219
2092.000000	15.768367
2091.000000	15.750004
2090.000000	15.732242
2089.000000	15.710868
2088.000000	15.683975
2087.000000	15.663403
2086.000000	15.648753
2085.000000	15.619652
2084.000000	15.578810
2083.000000	15.548605
2082.000000	15.525726
2081.000000	15.495923
2080.000000	15.452673
2079.000000	15.409724
2078.000000	15.366374
2077.000000	15.317805
2076.000000	15.271946
2075.000000	15.217959
2074.000000	15.166782
2073.000000	15.119518
2072.000000	15.046966
2071.000000	14.983346
2070.000000	14.918421
2069.000000	14.838945
2068.000000	14.773418
2067.000000	14.716019
2066.000000	14.644170
2065.000000	14.569210
2064.000000	14.498364
2063.000000	14.417384
2062.000000	14.345735
2061.000000	14.282616
2060.000000	14.204847
2059.000000	14.141126
2058.000000	14.094364
2057.000000	14.048103
2056.000000	13.996826
2055.000000	13.959897
2054.000000	13.923772
2053.000000	13.915243
2052.000000	13.894370
2051.000000	13.885841
2050.000000	13.907315
2049.000000	13.943641
2048.000000	13.986389
2047.000000	14.042183
2046.000000	14.105803
2045.000000	14.169926
2044.000000	14.235453
2043.000000	14.310312
2042.000000	14.403536
2041.000000	14.494752
2040.000000	14.573525
2039.000000	14.661931
2038.000000	14.747729
2037.000000	14.822187
2036.000000	14.891728
2035.000000	14.959965
2034.000000	15.024890
2033.000000	15.093026
2032.000000	15.142196
2031.000000	15.194879
2030.000000	15.247863
2029.000000	15.278368
2028.000000	15.304760
2027.000000	15.354934
2026.000000	15.383834
2025.000000	15.400291
2024.000000	15.431600
2023.000000	15.459898
2022.000000	15.463310
2021.000000	15.489300
2020.000000	15.497328
2019.000000	15.515089
2018.000000	15.502546
2017.000000	15.497829
2016.000000	15.505054
2015.000000	15.503348
2014.000000	15.492712
2013.000000	15.488196
2012.000000	15.479566
2011.000000	15.468728
2010.000000	15.436517
2009.000000	15.425880
2008.000000	15.409322
2007.000000	15.372696
2006.000000	15.346705
2005.000000	15.308473
2004.000000	15.275458
2003.000000	15.252679
2002.000000	15.197488
2001.000000	15.145809
2000.000000	15.107376
1999.000000	15.054994
1998.000000	15.003215
1997.000000	14.948425
1996.000000	14.893936
1995.000000	14.840651
1994.000000	14.774823
1993.000000	14.699562
1992.000000	14.636644
1991.000000	14.548739
1990.000000	14.473277
1989.000000	14.429225
1988.000000	14.354164
1987.000000	14.257630
1986.000000	14.188891
1985.000000	14.121157
1984.000000	14.029338
1983.000000	13.927284
1982.000000	13.868481
1981.000000	13.782282
1980.000000	13.716152
1979.000000	13.602860
1978.000000	13.542751
1977.000000	13.439794
1976.000000	13.355101
1975.000000	13.289273
1974.000000	13.204077
1973.000000	13.133332
1972.000000	13.057168
1971.000000	12.997059
1970.000000	12.924709
1969.000000	12.854365
1968.000000	12.767965
1967.000000	12.700531
1966.000000	12.598377
1965.000000	12.548304
1964.000000	12.491406
1963.000000	12.423471
1962.000000	12.337974
1961.000000	12.288202
1960.000000	12.221069
1959.000000	12.152933
1958.000000	12.081786
1957.000000	12.005221
1956.000000	11.956853
1955.000000	11.890523
1954.000000	11.824695
1953.000000	11.773518
1952.000000	11.694343
1951.000000	11.645474
1950.000000	11.589680
1949.000000	11.535292
1948.000000	11.489433
1947.000000	11.461737
1946.000000	11.414673
1945.000000	11.353261
1944.000000	11.349046
1943.000000	11.283619
1942.000000	11.271778
1941.000000	11.255421
1940.000000	11.234449
1939.000000	11.235954
1938.000000	11.213075
1937.000000	11.213175
1936.000000	11.202237
1935.000000	11.211569
1934.000000	11.205548
1933.000000	11.246390
1932.000000	11.275993
1931.000000	11.319443
1930.000000	11.339613
1929.000000	11.411462
1928.000000	11.457622
1927.000000	11.536195
1926.000000	11.609047
1925.000000	11.664740
1924.000000	11.741507
1923.000000	11.831218
1922.000000	11.941099
1921.000000	12.055595
1920.000000	12.153836
1919.000000	12.257194
1918.000000	12.386442
1917.000000	12.522916
1916.000000	12.666513
1915.000000	12.816734
1914.000000	12.972374
1913.000000	13.152599
1912.000000	13.303823
1911.000000	13.515758
1910.000000	13.666681
1909.000000	13.851421
1908.000000	14.044792
1907.000000	14.266360
1906.000000	14.487025
1905.000000	14.735386
1904.000000	14.996190
1903.000000	15.226489
1902.000000	15.482777
1901.000000	15.769973
1900.000000	16.024054
1899.000000	16.326904
1898.000000	16.636878
1897.000000	16.976857
1896.000000	17.261544
1895.000000	17.587474
1894.000000	17.893435
1893.000000	18.235822
1892.000000	18.599984
1891.000000	18.988331
1890.000000	19.421131
1889.000000	19.817505
1888.000000	20.188993
1887.000000	20.651497
1886.000000	21.071051
1885.000000	21.531648
1884.000000	21.986224
1883.000000	22.491175
1882.000000	22.990907
1881.000000	23.479300
1880.000000	23.959264
1879.000000	24.444346
1878.000000	24.919995
1877.000000	25.399056
1876.000000	25.844801
1875.000000	26.286834
1874.000000	26.712108
1873.000000	27.124638
1872.000000	27.494822
1871.000000	27.846039
1870.000000	28.191437
1869.000000	28.464784
1868.000000	28.744153
1867.000000	28.985590
1866.000000	29.185985
1865.000000	29.352060
1864.000000	29.524860
1863.000000	29.688527
1862.000000	29.874070
1861.000000	30.036634
1860.000000	30.180633
1859.000000	30.333664
1858.000000	30.432306
1857.000000	30.525729
1856.000000	30.617447
1855.000000	30.676552
1854.000000	30.741678
1853.000000	30.785731
1852.000000	30.781516
1851.000000	30.806904
1850.000000	30.864705
1849.000000	30.928225
1848.000000	30.980205
1847.000000	30.959834
1846.000000	30.904543
1845.000000	30.834099
1844.000000	30.808610
1843.000000	30.812524
1842.000000	30.862096
1841.000000	30.882968
1840.000000	30.865106
1839.000000	30.831791
1838.000000	30.794160
1837.000000	30.764658
1836.000000	30.720103
1835.000000	30.667019
1834.000000	30.604603
1833.000000	30.550315
1832.000000	30.511179
1831.000000	30.481175
1830.000000	30.449365
1829.000000	30.398488
1828.000000	30.349519
1827.000000	30.277971
1826.000000	30.189865
1825.000000	30.133269
1824.000000	30.078278
1823.000000	30.052589
1822.000000	30.069347
1821.000000	30.091825
1820.000000	30.068946
1819.000000	29.982546
1818.000000	29.908590
1817.000000	29.884406
1816.000000	29.857111
1815.000000	29.857111
1814.000000	29.854904
1813.000000	29.837042
1812.000000	29.822190
1811.000000	29.790179
1810.000000	29.749237
1809.000000	29.694949
1808.000000	29.669260
1807.000000	29.649492
1806.000000	29.601224
1805.000000	29.542822
1804.000000	29.493350
1803.000000	29.456924
1802.000000	29.424211
1801.000000	29.382065
1800.000000	29.322257
1799.000000	29.257432
1798.000000	29.206456
1797.000000	29.161399
1796.000000	29.115942
1795.000000	29.075602
1794.000000	29.027435
1793.000000	28.979168
1792.000000	28.935817
1791.000000	28.889958
1790.000000	28.842293
1789.000000	28.806569
1788.000000	28.761814
1787.000000	28.704214
1786.000000	28.658857
1785.000000	28.611092
1784.000000	28.562022
1783.000000	28.498100
1782.000000	28.422538
1781.000000	28.362831
1780.000000	28.301117
1779.000000	28.243116
1778.000000	28.178492
1777.000000	28.095002
1776.000000	28.010008
1775.000000	27.932439
1774.000000	27.856576
1773.000000	27.760844
1772.000000	27.680064
1771.000000	27.595170
1770.000000	27.483683
1769.000000	27.387650
1768.000000	27.285897
1767.000000	27.172404
1766.000000	27.078579
1765.000000	26.998601
1764.000000	26.935784
1763.000000	26.892835
1762.000000	26.861526
1761.000000	26.861125
1760.000000	26.894641
1759.000000	26.920531
1758.000000	26.967895
1757.000000	27.035228
1756.000000	27.100956
1755.000000	27.154341
1754.000000	27.202006
1753.000000	27.263319
1752.000000	27.291918
1751.000000	27.322023
1750.000000	27.335871
1749.000000	27.336172
1748.000000	27.319514
1747.000000	27.293022
1746.000000	27.268336
1745.000000	27.202308
1744.000000	27.104569
1743.000000	27.013453
1742.000000	26.910596
1741.000000	26.766296
1740.000000	26.591289
1739.000000	26.421400
1738.000000	26.236760
1737.000000	26.042888
1736.000000	25.859452
1735.000000	25.706522
1734.000000	25.582893
1733.000000	25.493283
1732.000000	25.422036
1731.000000	25.401966
1730.000000	25.406783
1729.000000	25.446320
1728.000000	25.499504
1727.000000	25.584298
1726.000000	25.664075
1725.000000	25.737931
1724.000000	25.812188
1723.000000	25.885141
1722.000000	25.955786
1721.000000	26.008268
1720.000000	26.091356
1719.000000	26.163908
1718.000000	26.244788
1717.000000	26.348949
1716.000000	26.468564
1715.000000	26.566202
1714.000000	26.684111
1713.000000	26.776732
1712.000000	26.892534
1711.000000	26.990473
1710.000000	27.068042
1709.000000	27.128753
1708.000000	27.178124
1707.000000	27.221976
1706.000000	27.227796
1705.000000	27.253385
1704.000000	27.237730
1703.000000	27.236426
1702.000000	27.192072
1701.000000	27.131061
1700.000000	27.061319
1699.000000	26.977328
1698.000000	26.888118
1697.000000	26.764189
1696.000000	26.684512
1695.000000	26.635743
1694.000000	26.589383
1693.000000	26.598815
1692.000000	26.647083
1691.000000	26.729669
1690.000000	26.823494
1689.000000	26.933074
1688.000000	27.037336
1687.000000	27.136379
1686.000000	27.209733
1685.000000	27.249270
1684.000000	27.333161
1683.000000	27.436218
1682.000000	27.606007
1681.000000	27.832593
1680.000000	28.115774
1679.000000	28.472511
1678.000000	28.871494
1677.000000	29.272485
1676.000000	29.687524
1675.000000	30.058209
1674.000000	30.393672
1673.000000	30.700335
1672.000000	30.965053
1671.000000	31.216625
1670.000000	31.416819
1669.000000	31.589819
1668.000000	31.777068
1667.000000	31.887450
1666.000000	32.009875
1665.000000	32.134407
1664.000000	32.247398
1663.000000	32.342428
1662.000000	32.422706
1661.000000	32.509005
1660.000000	32.564498
1659.000000	32.630025
1658.000000	32.671268
1657.000000	32.713013
1656.000000	32.762785
1655.000000	32.775028
1654.000000	32.796301
1653.000000	32.785965
1652.000000	32.782754
1651.000000	32.772017
1650.000000	32.756062
1649.000000	32.768405
1648.000000	32.730573
1647.000000	32.716123
1646.000000	32.662337
1645.000000	32.643170
1644.000000	32.606142
1643.000000	32.578647
1642.000000	32.527168
1641.000000	32.479403
1640.000000	32.428025
1639.000000	32.387785
1638.000000	32.344134
1637.000000	32.292455
1636.000000	32.224318
1635.000000	32.171134
1634.000000	32.120358
1633.000000	32.076807
1632.000000	31.997030
1631.000000	31.920063
1630.000000	31.863166
1629.000000	31.815902
1628.000000	31.721174
1627.000000	31.653439
1626.000000	31.577576
1625.000000	31.494889
1624.000000	31.430566
1623.000000	31.358115
1622.000000	31.283757
