PE UV       SUBTECH     SPECTRUM    ASCII       PEDS        4.00        
   -1
CICIMAUCR0002-1.Sample.ASC
24/05/03
09:51:02.00
24/05/03
09:51:02.00
Vinicio Soto Monge
C. kalinini
250,000000
1
Lambda 1050
1050L1511233
PerkinElmer UV WinLab 6.3.2.0749 / 2.02.05 Lambda 900 UV/VIS/NIR, Aug  7 2015 09:38:08

0
0
3350/servo 860,8/2
0
0
UV/VIS
1
1
1
DoubleDePol,CommonBeamDepol,RBeamAtt,SBeamAtt,60mm sphere, WB InGaAs Detector
0
0
0
0
Program
Program
3350/servo 860,8/2
3350/0,2 860,8/0,2
3350/0,2 860,8/0,2
0
15.00
 
 
 
0
 
860,8
319,2
860,8
Front
100
on
S:100 R:100
0
0
0
0
 
0
 
 
 
0
 
 
0
0
0
0
0
 
 
 
 
0
0


0
0
#HDR
-1
-1
#GR
nm
%R
1.0
0.0
2500,000000
-1,000000
2251
8
99,963300
5,163900
#DATA
2500.000000	5.347784
2499.000000	5.404126
2498.000000	5.410063
2497.000000	5.389035
2496.000000	5.393965
2495.000000	5.386620
2494.000000	5.397788
2493.000000	5.368913
2492.000000	5.287719
2491.000000	5.322330
2490.000000	5.351004
2489.000000	5.309753
2488.000000	5.328869
2487.000000	5.330479
2486.000000	5.264378
2485.000000	5.262868
2484.000000	5.341949
2483.000000	5.212261
2482.000000	5.217795
2481.000000	5.253512
2480.000000	5.213670
2479.000000	5.232886
2478.000000	5.257335
2477.000000	5.311363
2476.000000	5.267295
2475.000000	5.262164
2474.000000	5.222523
2473.000000	5.252505
2472.000000	5.278262
2471.000000	5.222423
2470.000000	5.216889
2469.000000	5.218398
2468.000000	5.195459
2467.000000	5.237414
2466.000000	5.219807
2465.000000	5.214474
2464.000000	5.216889
2463.000000	5.231578
2462.000000	5.222825
2461.000000	5.243652
2460.000000	5.249185
2459.000000	5.269911
2458.000000	5.313174
2457.000000	5.272326
2456.000000	5.316192
2455.000000	5.319613
2454.000000	5.321525
2453.000000	5.347985
2452.000000	5.346677
2451.000000	5.350400
2450.000000	5.356236
2449.000000	5.363379
2448.000000	5.385614
2447.000000	5.401108
2446.000000	5.426362
2445.000000	5.446987
2444.000000	5.439642
2443.000000	5.475963
2442.000000	5.460167
2441.000000	5.485521
2440.000000	5.500914
2439.000000	5.535424
2438.000000	5.546391
2437.000000	5.557558
2436.000000	5.553031
2435.000000	5.580498
2434.000000	5.572851
2433.000000	5.580498
2432.000000	5.596495
2431.000000	5.609574
2430.000000	5.629093
2429.000000	5.631206
2428.000000	5.655352
2427.000000	5.646297
2426.000000	5.642172
2425.000000	5.665615
2424.000000	5.679197
2423.000000	5.679600
2422.000000	5.682115
2421.000000	5.686441
2420.000000	5.710689
2419.000000	5.708173
2418.000000	5.691271
2417.000000	5.717933
2416.000000	5.739665
2415.000000	5.722259
2414.000000	5.720750
2413.000000	5.740369
2412.000000	5.738759
2411.000000	5.749826
2410.000000	5.747814
2409.000000	5.760290
2408.000000	5.757171
2407.000000	5.756467
2406.000000	5.770753
2405.000000	5.777595
2404.000000	5.765723
2403.000000	5.789870
2402.000000	5.805867
2401.000000	5.803452
2400.000000	5.814821
2399.000000	5.836855
2398.000000	5.860197
2397.000000	5.856977
2396.000000	5.846815
2395.000000	5.847218
2394.000000	5.858788
2393.000000	5.870660
2392.000000	5.879011
2391.000000	5.881728
2390.000000	5.878609
2389.000000	5.888670
2388.000000	5.890280
2387.000000	5.890280
2386.000000	5.887261
2385.000000	5.878810
2384.000000	5.868246
2383.000000	5.883036
2382.000000	5.884645
2381.000000	5.882432
2380.000000	5.881728
2379.000000	5.860901
2378.000000	5.852248
2377.000000	5.852550
2376.000000	5.845809
2375.000000	5.832730
2374.000000	5.830718
2373.000000	5.832529
2372.000000	5.821562
2371.000000	5.812105
2370.000000	5.794397
2369.000000	5.778400
2368.000000	5.773168
2367.000000	5.755461
2366.000000	5.732622
2365.000000	5.705256
2364.000000	5.682618
2363.000000	5.661289
2362.000000	5.651328
2361.000000	5.634928
2360.000000	5.617020
2359.000000	5.604745
2358.000000	5.588949
2357.000000	5.580800
2356.000000	5.564802
2355.000000	5.557558
2354.000000	5.560275
2353.000000	5.558263
2352.000000	5.572751
2351.000000	5.572751
2350.000000	5.577983
2349.000000	5.583013
2348.000000	5.585830
2347.000000	5.590861
2346.000000	5.608568
2345.000000	5.632614
2344.000000	5.641669
2343.000000	5.642977
2342.000000	5.663703
2341.000000	5.687347
2340.000000	5.695194
2339.000000	5.684228
2338.000000	5.689661
2337.000000	5.706765
2336.000000	5.709079
2335.000000	5.706564
2334.000000	5.693987
2333.000000	5.684328
2332.000000	5.678694
2331.000000	5.667929
2330.000000	5.666218
2329.000000	5.648511
2328.000000	5.629495
2327.000000	5.616014
2326.000000	5.589553
2325.000000	5.566110
2324.000000	5.549711
2323.000000	5.522546
2322.000000	5.496085
2321.000000	5.478076
2320.000000	5.456847
2319.000000	5.422639
2318.000000	5.384507
2317.000000	5.359455
2316.000000	5.342251
2315.000000	5.308445
2314.000000	5.286210
2313.000000	5.286814
2312.000000	5.263774
2311.000000	5.247877
2310.000000	5.240935
2309.000000	5.250393
2308.000000	5.240633
2307.000000	5.230773
2306.000000	5.239627
2305.000000	5.253310
2304.000000	5.253009
2303.000000	5.278664
2302.000000	5.312268
2301.000000	5.311061
2300.000000	5.341546
2299.000000	5.357845
2298.000000	5.378974
2297.000000	5.401913
2296.000000	5.437328
2295.000000	5.444773
2294.000000	5.464393
2293.000000	5.474856
2292.000000	5.497494
2291.000000	5.500613
2290.000000	5.534418
2289.000000	5.518320
2288.000000	5.535122
2287.000000	5.540354
2286.000000	5.549107
2285.000000	5.545888
2284.000000	5.551723
2283.000000	5.552025
2282.000000	5.569431
2281.000000	5.548705
2280.000000	5.571543
2279.000000	5.566513
2278.000000	5.570437
2277.000000	5.583416
2276.000000	5.591666
2275.000000	5.578586
2274.000000	5.595086
2273.000000	5.609172
2272.000000	5.594483
2271.000000	5.625873
2270.000000	5.675173
2269.000000	5.671651
2268.000000	5.704350
2267.000000	5.719341
2266.000000	5.751839
2265.000000	5.790976
2264.000000	5.842992
2263.000000	5.894807
2262.000000	5.908490
2261.000000	5.962518
2260.000000	6.046629
2259.000000	6.099752
2258.000000	6.165350
2257.000000	6.233464
2256.000000	6.296849
2255.000000	6.370195
2254.000000	6.440421
2253.000000	6.521313
2252.000000	6.597073
2251.000000	6.663677
2250.000000	6.714788
2249.000000	6.788435
2248.000000	6.860976
2247.000000	6.923154
2246.000000	6.972855
2245.000000	7.006359
2244.000000	7.088256
2243.000000	7.127092
2242.000000	7.159590
2241.000000	7.196011
2240.000000	7.253963
2239.000000	7.290887
2238.000000	7.343909
2237.000000	7.360510
2236.000000	7.420474
2235.000000	7.434459
2234.000000	7.469673
2233.000000	7.489594
2232.000000	7.512735
2231.000000	7.557909
2230.000000	7.564047
2229.000000	7.553583
2228.000000	7.603889
2227.000000	7.616465
2226.000000	7.620691
2225.000000	7.610328
2224.000000	7.620188
2223.000000	7.612541
2222.000000	7.620892
2221.000000	7.633971
2220.000000	7.630148
2219.000000	7.646648
2218.000000	7.632563
2217.000000	7.618880
2216.000000	7.625621
2215.000000	7.626928
2214.000000	7.621294
2213.000000	7.607812
2212.000000	7.616666
2211.000000	7.609925
2210.000000	7.594733
2209.000000	7.615358
2208.000000	7.621093
2207.000000	7.589904
2206.000000	7.585678
2205.000000	7.606504
2204.000000	7.591111
2203.000000	7.610328
2202.000000	7.592117
2201.000000	7.583464
2200.000000	7.585577
2199.000000	7.596141
2198.000000	7.583766
2197.000000	7.575114
2196.000000	7.580144
2195.000000	7.568473
2194.000000	7.565958
2193.000000	7.577528
2192.000000	7.557809
2191.000000	7.550565
2190.000000	7.547949
2189.000000	7.549055
2188.000000	7.543622
2187.000000	7.536882
2186.000000	7.522897
2185.000000	7.530442
2184.000000	7.549156
2183.000000	7.537083
2182.000000	7.498046
2181.000000	7.505893
2180.000000	7.511930
2179.000000	7.504887
2178.000000	7.512735
2177.000000	7.497543
2176.000000	7.498448
2175.000000	7.490701
2174.000000	7.501567
2173.000000	7.512232
2172.000000	7.516156
2171.000000	7.531046
2170.000000	7.533058
2169.000000	7.545232
2168.000000	7.562537
2167.000000	7.557909
2166.000000	7.565556
2165.000000	7.572699
2164.000000	7.583766
2163.000000	7.588495
2162.000000	7.609825
2161.000000	7.626928
2160.000000	7.626224
2159.000000	7.633770
2158.000000	7.645441
2157.000000	7.649868
2156.000000	7.668984
2155.000000	7.690917
2154.000000	7.699771
2153.000000	7.699972
2152.000000	7.714863
2151.000000	7.739613
2150.000000	7.743134
2149.000000	7.752491
2148.000000	7.784888
2147.000000	7.781266
2146.000000	7.797666
2145.000000	7.788309
2144.000000	7.789617
2143.000000	7.807324
2142.000000	7.825434
2141.000000	7.828251
2140.000000	7.826642
2139.000000	7.849380
2138.000000	7.854410
2137.000000	7.855919
2136.000000	7.862258
2135.000000	7.865679
2134.000000	7.859441
2133.000000	7.870307
2132.000000	7.877148
2131.000000	7.888316
2130.000000	7.862560
2129.000000	7.855014
2128.000000	7.864371
2127.000000	7.866182
2126.000000	7.854612
2125.000000	7.848877
2124.000000	7.848675
2123.000000	7.859944
2122.000000	7.848374
2121.000000	7.824730
2120.000000	7.814568
2119.000000	7.821812
2118.000000	7.810644
2117.000000	7.802998
2116.000000	7.792736
2115.000000	7.775833
2114.000000	7.772211
2113.000000	7.771305
2112.000000	7.762854
2111.000000	7.752692
2110.000000	7.737299
2109.000000	7.729854
2108.000000	7.720597
2107.000000	7.708625
2106.000000	7.696451
2105.000000	7.689006
2104.000000	7.690716
2103.000000	7.682164
2102.000000	7.671700
2101.000000	7.661841
2100.000000	7.637996
2099.000000	7.632563
2098.000000	7.640410
2097.000000	7.634374
2096.000000	7.628639
2095.000000	7.626325
2094.000000	7.627029
2093.000000	7.611937
2092.000000	7.606203
2091.000000	7.611535
2090.000000	7.596544
2089.000000	7.588193
2088.000000	7.593324
2087.000000	7.595538
2086.000000	7.594330
2085.000000	7.586986
2084.000000	7.590708
2083.000000	7.593224
2082.000000	7.583263
2081.000000	7.582056
2080.000000	7.579138
2079.000000	7.569983
2078.000000	7.562537
2077.000000	7.542315
2076.000000	7.537586
2075.000000	7.542616
2074.000000	7.540906
2073.000000	7.535674
2072.000000	7.517061
2071.000000	7.492411
2070.000000	7.485369
2069.000000	7.479835
2068.000000	7.472692
2067.000000	7.478125
2066.000000	7.461826
2065.000000	7.428221
2064.000000	7.410816
2063.000000	7.404880
2062.000000	7.399245
2061.000000	7.411621
2060.000000	7.391297
2059.000000	7.369263
2058.000000	7.359102
2057.000000	7.358599
2056.000000	7.366446
2055.000000	7.375702
2054.000000	7.389989
2053.000000	7.408099
2052.000000	7.416752
2051.000000	7.447841
2050.000000	7.480841
2049.000000	7.523903
2048.000000	7.569580
2047.000000	7.610428
2046.000000	7.668481
2045.000000	7.734482
2044.000000	7.791629
2043.000000	7.843444
2042.000000	7.917192
2041.000000	7.990537
2040.000000	8.070020
2039.000000	8.146786
2038.000000	8.207656
2037.000000	8.263294
2036.000000	8.323862
2035.000000	8.383424
2034.000000	8.455763
2033.000000	8.529209
2032.000000	8.570359
2031.000000	8.620464
2030.000000	8.690086
2029.000000	8.740593
2028.000000	8.775203
2027.000000	8.808003
2026.000000	8.864647
2025.000000	8.915154
2024.000000	8.966566
2023.000000	8.999969
2022.000000	9.053595
2021.000000	9.090217
2020.000000	9.139315
2019.000000	9.159739
2018.000000	9.202600
2017.000000	9.226545
2016.000000	9.257131
2015.000000	9.316592
2014.000000	9.341845
2013.000000	9.346474
2012.000000	9.392453
2011.000000	9.417706
2010.000000	9.427667
2009.000000	9.457045
2008.000000	9.484814
2007.000000	9.496183
2006.000000	9.509061
2005.000000	9.526165
2004.000000	9.535119
2003.000000	9.523449
2002.000000	9.537635
2001.000000	9.535220
2000.000000	9.528580
1999.000000	9.520128
1998.000000	9.539848
1997.000000	9.517513
1996.000000	9.496887
1995.000000	9.473646
1994.000000	9.495378
1993.000000	9.446884
1992.000000	9.435112
1991.000000	9.404526
1990.000000	9.389233
1989.000000	9.363074
1988.000000	9.335809
1987.000000	9.296369
1986.000000	9.296168
1985.000000	9.237713
1984.000000	9.205417
1983.000000	9.189822
1982.000000	9.133077
1981.000000	9.098266
1980.000000	9.071604
1979.000000	9.033774
1978.000000	9.007515
1977.000000	8.988902
1976.000000	8.927126
1975.000000	8.897144
1974.000000	8.876620
1973.000000	8.825207
1972.000000	8.793615
1971.000000	8.765947
1970.000000	8.746529
1969.000000	8.698437
1968.000000	8.664531
1967.000000	8.663626
1966.000000	8.616942
1965.000000	8.590582
1964.000000	8.548527
1963.000000	8.530316
1962.000000	8.489770
1961.000000	8.464416
1960.000000	8.441979
1959.000000	8.402540
1958.000000	8.361189
1957.000000	8.347002
1956.000000	8.313901
1955.000000	8.280398
1954.000000	8.274663
1953.000000	8.236632
1952.000000	8.200714
1951.000000	8.183811
1950.000000	8.157854
1949.000000	8.136121
1948.000000	8.120627
1947.000000	8.095374
1946.000000	8.070624
1945.000000	8.066096
1944.000000	8.066398
1943.000000	8.064989
1942.000000	8.064185
1941.000000	8.053419
1940.000000	8.083502
1939.000000	8.086822
1938.000000	8.098493
1937.000000	8.088935
1936.000000	8.093161
1935.000000	8.121633
1934.000000	8.143366
1933.000000	8.153125
1932.000000	8.200010
1931.000000	8.219931
1930.000000	8.270437
1929.000000	8.312895
1928.000000	8.368231
1927.000000	8.417631
1926.000000	8.453147
1925.000000	8.502547
1924.000000	8.555368
1923.000000	8.646119
1922.000000	8.736669
1921.000000	8.837582
1920.000000	8.924209
1919.000000	8.970389
1918.000000	9.014356
1917.000000	9.104906
1916.000000	9.180465
1915.000000	9.291641
1914.000000	9.411670
1913.000000	9.558059
1912.000000	9.649112
1911.000000	9.722055
1910.000000	9.799626
1909.000000	9.897118
1908.000000	10.019160
1907.000000	10.166253
1906.000000	10.331658
1905.000000	10.469998
1904.000000	10.578155
1903.000000	10.705428
1902.000000	10.821634
1901.000000	10.987140
1900.000000	11.144998
1899.000000	11.283037
1898.000000	11.404978
1897.000000	11.524604
1896.000000	11.615557
1895.000000	11.731159
1894.000000	11.853200
1893.000000	12.019410
1892.000000	12.192562
1891.000000	12.353137
1890.000000	12.494596
1889.000000	12.655675
1888.000000	12.818765
1887.000000	12.998155
1886.000000	13.214167
1885.000000	13.490848
1884.000000	13.780306
1883.000000	14.068557
1882.000000	14.357412
1881.000000	14.640632
1880.000000	14.890550
1879.000000	15.184737
1878.000000	15.466650
1877.000000	15.695439
1876.000000	15.937208
1875.000000	16.153522
1874.000000	16.370339
1873.000000	16.549125
1872.000000	16.700444
1871.000000	16.843714
1870.000000	16.962838
1869.000000	17.051376
1868.000000	17.100876
1867.000000	17.120898
1866.000000	17.149371
1865.000000	17.150478
1864.000000	17.156414
1863.000000	17.171405
1862.000000	17.180963
1861.000000	17.163960
1860.000000	17.142127
1859.000000	17.119993
1858.000000	17.098361
1857.000000	17.054595
1856.000000	17.000265
1855.000000	16.950765
1854.000000	16.873495
1853.000000	16.793006
1852.000000	16.732539
1851.000000	16.685151
1850.000000	16.641687
1849.000000	16.571964
1848.000000	16.480609
1847.000000	16.386135
1846.000000	16.318122
1845.000000	16.275966
1844.000000	16.232300
1843.000000	16.210971
1842.000000	16.195980
1841.000000	16.159055
1840.000000	16.112976
1839.000000	16.060557
1838.000000	16.017797
1837.000000	15.961053
1836.000000	15.891329
1835.000000	15.827341
1834.000000	15.762144
1833.000000	15.690308
1832.000000	15.626923
1831.000000	15.562029
1830.000000	15.488482
1829.000000	15.407088
1828.000000	15.330422
1827.000000	15.267540
1826.000000	15.193692
1825.000000	15.114309
1824.000000	15.054949
1823.000000	15.046497
1822.000000	15.046497
1821.000000	15.018930
1820.000000	14.993475
1819.000000	14.975063
1818.000000	14.971240
1817.000000	14.970033
1816.000000	14.970234
1815.000000	14.966914
1814.000000	14.959268
1813.000000	14.935523
1812.000000	14.899203
1811.000000	14.869019
1810.000000	14.835013
1809.000000	14.790341
1808.000000	14.758347
1807.000000	14.725347
1806.000000	14.678864
1805.000000	14.640230
1804.000000	14.601796
1803.000000	14.571412
1802.000000	14.529457
1801.000000	14.499676
1800.000000	14.434480
1799.000000	14.393531
1798.000000	14.370994
1797.000000	14.334171
1796.000000	14.297447
1795.000000	14.246739
1794.000000	14.209614
1793.000000	14.159711
1792.000000	14.119064
1791.000000	14.072682
1790.000000	14.017346
1789.000000	13.968147
1788.000000	13.906171
1787.000000	13.832423
1786.000000	13.779803
1785.000000	13.725372
1784.000000	13.660780
1783.000000	13.568822
1782.000000	13.500909
1781.000000	13.429878
1780.000000	13.356331
1779.000000	13.287110
1778.000000	13.191630
1777.000000	13.097760
1776.000000	12.997551
1775.000000	12.890501
1774.000000	12.785866
1773.000000	12.658291
1772.000000	12.544399
1771.000000	12.435638
1770.000000	12.313496
1769.000000	12.211778
1768.000000	12.137427
1767.000000	12.025044
1766.000000	11.957936
1765.000000	11.930369
1764.000000	11.923326
1763.000000	11.937814
1762.000000	11.975946
1761.000000	12.015989
1760.000000	12.074444
1759.000000	12.125152
1758.000000	12.187229
1757.000000	12.230895
1756.000000	12.279288
1755.000000	12.289551
1754.000000	12.295587
1753.000000	12.285828
1752.000000	12.280093
1751.000000	12.244276
1750.000000	12.204937
1749.000000	12.138835
1748.000000	12.101408
1747.000000	12.023032
1746.000000	11.911152
1745.000000	11.810742
1744.000000	11.668780
1743.000000	11.527421
1742.000000	11.348937
1741.000000	11.180615
1740.000000	10.995591
1739.000000	10.836323
1738.000000	10.698184
1737.000000	10.566686
1736.000000	10.493944
1735.000000	10.438004
1734.000000	10.433476
1733.000000	10.458227
1732.000000	10.493541
1731.000000	10.572320
1730.000000	10.657638
1729.000000	10.752514
1728.000000	10.841958
1727.000000	10.926169
1726.000000	10.972652
1725.000000	11.034125
1724.000000	11.071049
1723.000000	11.105559
1722.000000	11.120952
1721.000000	11.155965
1720.000000	11.185343
1719.000000	11.218243
1718.000000	11.246817
1717.000000	11.302958
1716.000000	11.343001
1715.000000	11.405581
1714.000000	11.444115
1713.000000	11.496031
1712.000000	11.542714
1711.000000	11.557504
1710.000000	11.596541
1709.000000	11.596239
1708.000000	11.619279
1707.000000	11.591913
1706.000000	11.617971
1705.000000	11.597648
1704.000000	11.559013
1703.000000	11.521083
1702.000000	11.475908
1701.000000	11.402965
1700.000000	11.323684
1699.000000	11.265028
1698.000000	11.189770
1697.000000	11.186953
1696.000000	11.182225
1695.000000	11.221865
1694.000000	11.309799
1693.000000	11.424597
1692.000000	11.547041
1691.000000	11.632560
1690.000000	11.713552
1689.000000	11.784785
1688.000000	11.789413
1687.000000	11.772410
1686.000000	11.791023
1685.000000	11.844145
1684.000000	11.963470
1683.000000	12.163284
1682.000000	12.477090
1681.000000	12.839189
1680.000000	13.219902
1679.000000	13.611179
1678.000000	13.992294
1677.000000	14.322500
1676.000000	14.647373
1675.000000	14.918419
1674.000000	15.151636
1673.000000	15.359901
1672.000000	15.525205
1671.000000	15.688900
1670.000000	15.818487
1669.000000	15.916784
1668.000000	16.031984
1667.000000	16.123439
1666.000000	16.166299
1665.000000	16.233910
1664.000000	16.292365
1663.000000	16.331503
1662.000000	16.379696
1661.000000	16.422958
1660.000000	16.451029
1659.000000	16.471051
1658.000000	16.473365
1657.000000	16.472459
1656.000000	16.476484
1655.000000	16.480508
1654.000000	16.469139
1653.000000	16.453343
1652.000000	16.411489
1651.000000	16.400120
1650.000000	16.366717
1649.000000	16.339753
1648.000000	16.306652
1647.000000	16.263691
1646.000000	16.219925
1645.000000	16.176662
1644.000000	16.122433
1643.000000	16.081987
1642.000000	16.022224
1641.000000	15.978962
1640.000000	15.937409
1639.000000	15.866881
1638.000000	15.815167
1637.000000	15.772105
1636.000000	15.713751
1635.000000	15.662841
1634.000000	15.600563
1633.000000	15.536474
1632.000000	15.481037
1631.000000	15.429021
1630.000000	15.359801
1629.000000	15.311306
1628.000000	15.241180
1627.000000	15.177091
1626.000000	15.111392
1625.000000	15.053138
1624.000000	15.013497
1623.000000	14.952627
1622.000000	14.887632
1621.000000	14.821330
1620.000000	14.778067
1619.000000	14.731182
1618.000000	14.676651
1617.000000	14.616586
1616.000000	14.566381
1615.000000	14.516075
1614.000000	14.474825
1613.000000	14.438202
1612.000000	14.384275
1611.000000	14.336485
1610.000000	14.313143
1609.000000	14.275917
1608.000000	14.232453
1607.000000	14.203275
1606.000000	14.163232
1605.000000	14.116347
1604.000000	14.071877
1603.000000	14.036764
1602.000000	13.986760
1601.000000	13.962412
1600.000000	13.929512
1599.000000	13.891783
1598.000000	13.857072
1597.000000	13.829706
