PE UV       SUBTECH     SPECTRUM    ASCII       PEDS        4.00        
   -1
CICIMAUCR0003-3.Sample.ASC
24/05/03
16:05:21.00
24/05/03
16:05:21.00
Vinicio Soto Monge
C. kalinini
250,000000
1
Lambda 1050
1050L1511233
PerkinElmer UV WinLab 6.3.2.0749 / 2.02.05 Lambda 900 UV/VIS/NIR, Aug  7 2015 09:38:08

0
0
3350/servo 860,8/2
0
0
UV/VIS
1
1
1
DoubleDePol,CommonBeamDepol,RBeamAtt,SBeamAtt,60mm sphere, WB InGaAs Detector
0
0
0
0
Program
Program
3350/servo 860,8/2
3350/0,2 860,8/0,2
3350/0,2 860,8/0,2
0
15.00
 
 
 
0
 
860,8
319,2
860,8
Front
100
on
S:100 R:100
0
0
0
0
 
0
 
 
 
0
 
 
0
0
0
0
0
 
 
 
 
0
0


0
0
#HDR
-1
-1
#GR
nm
%R
1.0
0.0
2500,000000
-1,000000
2251
8
101,669700
5,424300
#DATA
2500.000000	9.616116
2499.000000	9.476827
2498.000000	9.414356
2497.000000	9.302067
2496.000000	9.405319
2495.000000	9.423281
2494.000000	9.243098
2493.000000	9.334037
2492.000000	9.213501
2491.000000	9.219375
2490.000000	9.190003
2489.000000	9.227170
2488.000000	9.183790
2487.000000	9.094998
2486.000000	9.260269
2485.000000	9.252248
2484.000000	9.097596
2483.000000	9.091609
2482.000000	9.119060
2481.000000	9.151933
2480.000000	9.133407
2479.000000	9.120302
2478.000000	9.195652
2477.000000	9.138603
2476.000000	9.179271
2475.000000	9.127758
2474.000000	9.132955
2473.000000	9.130808
2472.000000	9.186840
2471.000000	9.164812
2470.000000	9.181531
2469.000000	9.149561
2468.000000	9.202204
2467.000000	9.199606
2466.000000	9.217906
2465.000000	9.262076
2464.000000	9.289640
2463.000000	9.348045
2462.000000	9.404754
2461.000000	9.461238
2460.000000	9.490383
2459.000000	9.538394
2458.000000	9.604480
2457.000000	9.688076
2456.000000	9.760488
2455.000000	9.831432
2454.000000	9.933893
2453.000000	10.005740
2452.000000	10.098373
2451.000000	10.223767
2450.000000	10.278556
2449.000000	10.363847
2448.000000	10.472860
2447.000000	10.564702
2446.000000	10.655528
2445.000000	10.749404
2444.000000	10.880446
2443.000000	10.957829
2442.000000	11.033969
2441.000000	11.114740
2440.000000	11.221494
2439.000000	11.290969
2438.000000	11.380326
2437.000000	11.470587
2436.000000	11.546727
2435.000000	11.616880
2434.000000	11.685112
2433.000000	11.774243
2432.000000	11.847785
2431.000000	11.904043
2430.000000	11.962334
2429.000000	12.011814
2428.000000	12.094619
2427.000000	12.151215
2426.000000	12.203519
2425.000000	12.234924
2424.000000	12.276496
2423.000000	12.310951
2422.000000	12.340323
2421.000000	12.369920
2420.000000	12.421207
2419.000000	12.447303
2418.000000	12.504125
2417.000000	12.515648
2416.000000	12.547166
2415.000000	12.584106
2414.000000	12.606248
2413.000000	12.652903
2412.000000	12.689166
2411.000000	12.702609
2410.000000	12.724976
2409.000000	12.765306
2408.000000	12.785188
2407.000000	12.813430
2406.000000	12.852742
2405.000000	12.873415
2404.000000	12.904707
2403.000000	12.926849
2402.000000	12.970228
2401.000000	13.002537
2400.000000	13.030666
2399.000000	13.076418
2398.000000	13.156398
2397.000000	13.234685
2396.000000	13.284051
2395.000000	13.303369
2394.000000	13.315682
2393.000000	13.329012
2392.000000	13.359514
2391.000000	13.398600
2390.000000	13.419273
2389.000000	13.437687
2388.000000	13.459716
2387.000000	13.490895
2386.000000	13.516312
2385.000000	13.505128
2384.000000	13.477113
2383.000000	13.495074
2382.000000	13.518007
2381.000000	13.501514
2380.000000	13.486602
2379.000000	13.469657
2378.000000	13.450791
2377.000000	13.429666
2376.000000	13.416788
2375.000000	13.388207
2374.000000	13.360756
2373.000000	13.343133
2372.000000	13.285859
2371.000000	13.243722
2370.000000	13.210962
2369.000000	13.150750
2368.000000	13.101722
2367.000000	13.056648
2366.000000	12.984236
2365.000000	12.897138
2364.000000	12.831053
2363.000000	12.756607
2362.000000	12.675948
2361.000000	12.616528
2360.000000	12.536886
2359.000000	12.448658
2358.000000	12.394999
2357.000000	12.348908
2356.000000	12.300784
2355.000000	12.283952
2354.000000	12.268927
2353.000000	12.249836
2352.000000	12.238200
2351.000000	12.254580
2350.000000	12.301462
2349.000000	12.323942
2348.000000	12.367096
2347.000000	12.422224
2346.000000	12.461649
2345.000000	12.523781
2344.000000	12.577780
2343.000000	12.631100
2342.000000	12.681484
2341.000000	12.740227
2340.000000	12.778071
2339.000000	12.790384
2338.000000	12.791288
2337.000000	12.806991
2336.000000	12.806539
2335.000000	12.792757
2334.000000	12.753783
2333.000000	12.713905
2332.000000	12.696396
2331.000000	12.657761
2330.000000	12.585462
2329.000000	12.495879
2328.000000	12.444365
2327.000000	12.345406
2326.000000	12.258421
2325.000000	12.161834
2324.000000	12.040959
2323.000000	11.943468
2322.000000	11.834003
2321.000000	11.695844
2320.000000	11.562656
2319.000000	11.429919
2318.000000	11.287241
2317.000000	11.156877
2316.000000	11.024366
2315.000000	10.871183
2314.000000	10.720145
2313.000000	10.613391
2312.000000	10.522340
2311.000000	10.413778
2310.000000	10.317982
2309.000000	10.275732
2308.000000	10.245796
2307.000000	10.226930
2306.000000	10.203772
2305.000000	10.227721
2304.000000	10.290418
2303.000000	10.373223
2302.000000	10.443602
2301.000000	10.554535
2300.000000	10.652252
2299.000000	10.794139
2298.000000	10.871070
2297.000000	10.959636
2296.000000	11.073620
2295.000000	11.177889
2294.000000	11.294471
2293.000000	11.357055
2292.000000	11.423028
2291.000000	11.463244
2290.000000	11.503235
2289.000000	11.532719
2288.000000	11.528314
2287.000000	11.489453
2286.000000	11.494084
2285.000000	11.471943
2284.000000	11.414894
2283.000000	11.338867
2282.000000	11.288145
2281.000000	11.239908
2280.000000	11.175065
2279.000000	11.124117
2278.000000	11.060516
2277.000000	11.033065
2276.000000	10.989460
2275.000000	10.940997
2274.000000	10.955795
2273.000000	10.930378
2272.000000	10.936817
2271.000000	10.968222
2270.000000	11.026965
2269.000000	11.086047
2268.000000	11.200031
2267.000000	11.305203
2266.000000	11.461776
2265.000000	11.618010
2264.000000	11.806552
2263.000000	12.037231
2262.000000	12.280450
2261.000000	12.608055
2260.000000	12.891716
2259.000000	13.172666
2258.000000	13.488974
2257.000000	13.851486
2256.000000	14.157628
2255.000000	14.482635
2254.000000	14.789115
2253.000000	15.137167
2252.000000	15.459237
2251.000000	15.749902
2250.000000	16.006338
2249.000000	16.244247
2248.000000	16.532878
2247.000000	16.764574
2246.000000	16.964639
2245.000000	17.157023
2244.000000	17.329298
2243.000000	17.547889
2242.000000	17.700508
2241.000000	17.829743
2240.000000	17.965981
2239.000000	18.100413
2238.000000	18.241622
2237.000000	18.352894
2236.000000	18.434231
2235.000000	18.502124
2234.000000	18.580072
2233.000000	18.665136
2232.000000	18.720151
2231.000000	18.766242
2230.000000	18.822838
2229.000000	18.816060
2228.000000	18.851984
2227.000000	18.867348
2226.000000	18.879661
2225.000000	18.875368
2224.000000	18.869720
2223.000000	18.825889
2222.000000	18.802165
2221.000000	18.790304
2220.000000	18.751330
2219.000000	18.719812
2218.000000	18.701850
2217.000000	18.639041
2216.000000	18.612041
2215.000000	18.575892
2214.000000	18.533077
2213.000000	18.513647
2212.000000	18.472527
2211.000000	18.462360
2210.000000	18.416721
2209.000000	18.398646
2208.000000	18.357300
2207.000000	18.321490
2206.000000	18.298105
2205.000000	18.291666
2204.000000	18.284775
2203.000000	18.253144
2202.000000	18.251676
2201.000000	18.277658
2200.000000	18.245350
2199.000000	18.222643
2198.000000	18.230099
2197.000000	18.228969
2196.000000	18.217786
2195.000000	18.198807
2194.000000	18.191351
2193.000000	18.183782
2192.000000	18.172260
2191.000000	18.173841
2190.000000	18.156331
2189.000000	18.153281
2188.000000	18.133399
2187.000000	18.118713
2186.000000	18.119052
2185.000000	18.108546
2184.000000	18.076689
2183.000000	18.077028
2182.000000	18.060987
2181.000000	18.016930
2180.000000	18.022352
2179.000000	17.995918
2178.000000	17.995466
2177.000000	17.996144
2176.000000	18.009248
2175.000000	17.996370
2174.000000	17.977956
2173.000000	17.977617
2172.000000	17.984508
2171.000000	18.006763
2170.000000	18.025628
2169.000000	18.027888
2168.000000	18.041670
2167.000000	18.079175
2166.000000	18.102559
2165.000000	18.117358
2164.000000	18.137014
2163.000000	18.181975
2162.000000	18.211008
2161.000000	18.229195
2160.000000	18.271897
2159.000000	18.312452
2158.000000	18.356735
2157.000000	18.410056
2156.000000	18.459762
2155.000000	18.508789
2154.000000	18.571712
2153.000000	18.600067
2152.000000	18.677111
2151.000000	18.731561
2150.000000	18.784317
2149.000000	18.852323
2148.000000	18.916375
2147.000000	18.965403
2146.000000	19.018611
2145.000000	19.064137
2144.000000	19.121976
2143.000000	19.151686
2142.000000	19.206475
2141.000000	19.267478
2140.000000	19.328254
2139.000000	19.362031
2138.000000	19.412867
2137.000000	19.455116
2136.000000	19.497592
2135.000000	19.517587
2134.000000	19.558369
2133.000000	19.593163
2132.000000	19.603894
2131.000000	19.607396
2130.000000	19.638575
2129.000000	19.683762
2128.000000	19.682068
2127.000000	19.684440
2126.000000	19.690766
2125.000000	19.679357
2124.000000	19.684892
2123.000000	19.688507
2122.000000	19.669867
2121.000000	19.663767
2120.000000	19.655746
2119.000000	19.629086
2118.000000	19.609769
2117.000000	19.572377
2116.000000	19.549444
2115.000000	19.529675
2114.000000	19.508663
2113.000000	19.488555
2112.000000	19.450711
2111.000000	19.416256
2110.000000	19.391968
2109.000000	19.350735
2108.000000	19.323510
2107.000000	19.289280
2106.000000	19.250985
2105.000000	19.222517
2104.000000	19.182075
2103.000000	19.156770
2102.000000	19.142310
2101.000000	19.118474
2100.000000	19.076902
2099.000000	19.037815
2098.000000	19.013188
2097.000000	19.000649
2096.000000	18.981783
2095.000000	18.949023
2094.000000	18.924622
2093.000000	18.909710
2092.000000	18.879209
2091.000000	18.883728
2090.000000	18.895476
2089.000000	18.869720
2088.000000	18.833909
2087.000000	18.806797
2086.000000	18.803860
2085.000000	18.786350
2084.000000	18.761949
2083.000000	18.732352
2082.000000	18.724670
2081.000000	18.694056
2080.000000	18.671575
2079.000000	18.651128
2078.000000	18.608539
2077.000000	18.585833
2076.000000	18.531496
2075.000000	18.481225
2074.000000	18.455130
2073.000000	18.406328
2072.000000	18.367241
2071.000000	18.337757
2070.000000	18.301268
2069.000000	18.254274
2068.000000	18.213041
2067.000000	18.169097
2066.000000	18.113630
2065.000000	18.092392
2064.000000	18.073413
2063.000000	18.037038
2062.000000	18.040088
2061.000000	18.029921
2060.000000	18.013880
2059.000000	18.002696
2058.000000	18.001905
2057.000000	18.026532
2056.000000	18.083919
2055.000000	18.145712
2054.000000	18.204342
2053.000000	18.286922
2052.000000	18.378764
2051.000000	18.481903
2050.000000	18.613962
2049.000000	18.761271
2048.000000	18.930270
2047.000000	19.080517
2046.000000	19.247821
2045.000000	19.422017
2044.000000	19.621743
2043.000000	19.783061
2042.000000	19.974088
2041.000000	20.193584
2040.000000	20.361227
2039.000000	20.531695
2038.000000	20.678326
2037.000000	20.847213
2036.000000	21.043211
2035.000000	21.186115
2034.000000	21.333763
2033.000000	21.462094
2032.000000	21.597316
2031.000000	21.736830
2030.000000	21.858496
2029.000000	21.991684
2028.000000	22.092112
2027.000000	22.213100
2026.000000	22.307202
2025.000000	22.416893
2024.000000	22.511560
2023.000000	22.596624
2022.000000	22.686094
2021.000000	22.776920
2020.000000	22.874185
2019.000000	22.918129
2018.000000	23.010649
2017.000000	23.047477
2016.000000	23.113563
2015.000000	23.180778
2014.000000	23.223706
2013.000000	23.272508
2012.000000	23.295779
2011.000000	23.351472
2010.000000	23.373049
2009.000000	23.373952
2008.000000	23.395190
2007.000000	23.416654
2006.000000	23.399935
2005.000000	23.405809
2004.000000	23.400500
2003.000000	23.388299
2002.000000	23.350003
2001.000000	23.324699
2000.000000	23.280754
1999.000000	23.252061
1998.000000	23.215572
1997.000000	23.167900
1996.000000	23.115935
1995.000000	23.056288
1994.000000	22.988621
1993.000000	22.924342
1992.000000	22.841537
1991.000000	22.772175
1990.000000	22.688919
1989.000000	22.625657
1988.000000	22.534266
1987.000000	22.427625
1986.000000	22.339850
1985.000000	22.250605
1984.000000	22.152437
1983.000000	22.049411
1982.000000	21.964685
1981.000000	21.863579
1980.000000	21.779193
1979.000000	21.646795
1978.000000	21.567153
1977.000000	21.473390
1976.000000	21.350143
1975.000000	21.251749
1974.000000	21.139007
1973.000000	21.065578
1972.000000	20.978255
1971.000000	20.857267
1970.000000	20.760906
1969.000000	20.672339
1968.000000	20.606253
1967.000000	20.484926
1966.000000	20.405849
1965.000000	20.340554
1964.000000	20.228152
1963.000000	20.112925
1962.000000	20.018823
1961.000000	19.923479
1960.000000	19.834687
1959.000000	19.749170
1958.000000	19.657215
1957.000000	19.567180
1956.000000	19.470367
1955.000000	19.368696
1954.000000	19.276628
1953.000000	19.206250
1952.000000	19.119604
1951.000000	19.017142
1950.000000	18.962579
1949.000000	18.879887
1948.000000	18.796630
1947.000000	18.759125
1946.000000	18.687391
1945.000000	18.639831
1944.000000	18.570131
1943.000000	18.546746
1942.000000	18.530479
1941.000000	18.521216
1940.000000	18.499413
1939.000000	18.497832
1938.000000	18.488794
1937.000000	18.524153
1936.000000	18.553863
1935.000000	18.559512
1934.000000	18.637007
1933.000000	18.690441
1932.000000	18.785333
1931.000000	18.851080
1930.000000	18.950830
1929.000000	19.071254
1928.000000	19.188401
1927.000000	19.305548
1926.000000	19.457489
1925.000000	19.619032
1924.000000	19.780123
1923.000000	19.974540
1922.000000	20.171781
1921.000000	20.384386
1920.000000	20.606366
1919.000000	20.843146
1918.000000	21.052474
1917.000000	21.295354
1916.000000	21.530891
1915.000000	21.770946
1914.000000	22.065791
1913.000000	22.417910
1912.000000	22.713771
1911.000000	22.980261
1910.000000	23.270813
1909.000000	23.557185
1908.000000	23.860615
1907.000000	24.214881
1906.000000	24.599422
1905.000000	24.962047
1904.000000	25.348960
1903.000000	25.695995
1902.000000	26.067771
1901.000000	26.435592
1900.000000	26.833915
1899.000000	27.223313
1898.000000	27.638807
1897.000000	27.994880
1896.000000	28.302829
1895.000000	28.662517
1894.000000	29.014410
1893.000000	29.409683
1892.000000	29.831502
1891.000000	30.219658
1890.000000	30.593919
1889.000000	30.971568
1888.000000	31.367180
1887.000000	31.788322
1886.000000	32.240869
1885.000000	32.745268
1884.000000	33.307168
1883.000000	33.861724
1882.000000	34.406565
1881.000000	34.925763
1880.000000	35.407004
1879.000000	35.929704
1878.000000	36.425969
1877.000000	36.880436
1876.000000	37.300675
1875.000000	37.697529
1874.000000	38.084781
1873.000000	38.430122
1872.000000	38.727000
1871.000000	38.999251
1870.000000	39.237386
1869.000000	39.444907
1868.000000	39.593120
1867.000000	39.681348
1866.000000	39.743819
1865.000000	39.824816
1864.000000	39.887852
1863.000000	39.949984
1862.000000	40.021492
1861.000000	40.070972
1860.000000	40.112883
1859.000000	40.141238
1858.000000	40.124406
1857.000000	40.105088
1856.000000	40.072554
1855.000000	40.037534
1854.000000	40.004660
1853.000000	39.923098
1852.000000	39.865710
1851.000000	39.840067
1850.000000	39.800189
1849.000000	39.736363
1848.000000	39.656269
1847.000000	39.564540
1846.000000	39.465806
1845.000000	39.380855
1844.000000	39.322677
1843.000000	39.299970
1842.000000	39.284268
1841.000000	39.236821
1840.000000	39.163958
1839.000000	39.102051
1838.000000	39.030882
1837.000000	38.961972
1836.000000	38.890577
1835.000000	38.779304
1834.000000	38.679893
1833.000000	38.585565
1832.000000	38.491576
1831.000000	38.408093
1830.000000	38.305745
1829.000000	38.206334
1828.000000	38.093592
1827.000000	38.000168
1826.000000	37.928095
1825.000000	37.847211
1824.000000	37.787451
1823.000000	37.778188
1822.000000	37.772426
1821.000000	37.729499
1820.000000	37.674710
1819.000000	37.613481
1818.000000	37.592356
1817.000000	37.590662
1816.000000	37.578348
1815.000000	37.558240
1814.000000	37.548073
1813.000000	37.534743
1812.000000	37.487636
1811.000000	37.433637
1810.000000	37.374104
1809.000000	37.325641
1808.000000	37.292315
1807.000000	37.245773
1806.000000	37.176863
1805.000000	37.096656
1804.000000	37.032039
1803.000000	36.985270
1802.000000	36.934548
1801.000000	36.857617
1800.000000	36.770406
1799.000000	36.699689
1798.000000	36.651565
1797.000000	36.606039
1796.000000	36.539840
1795.000000	36.482340
1794.000000	36.418965
1793.000000	36.337290
1792.000000	36.280467
1791.000000	36.211218
1790.000000	36.132593
1789.000000	36.063457
1788.000000	35.991723
1787.000000	35.912194
1786.000000	35.827016
1785.000000	35.726927
1784.000000	35.627516
1783.000000	35.545050
1782.000000	35.438522
1781.000000	35.339336
1780.000000	35.242072
1779.000000	35.132380
1778.000000	35.023706
1777.000000	34.883174
1776.000000	34.743095
1775.000000	34.585393
1774.000000	34.417071
1773.000000	34.248072
1772.000000	34.092177
1771.000000	33.920806
1770.000000	33.760392
1769.000000	33.609242
1768.000000	33.467355
1767.000000	33.342639
1766.000000	33.232835
1765.000000	33.160197
1764.000000	33.124838
1763.000000	33.100211
1762.000000	33.142461
1761.000000	33.185389
1760.000000	33.251023
1759.000000	33.326259
1758.000000	33.420022
1757.000000	33.471196
1756.000000	33.539993
1755.000000	33.559085
1754.000000	33.577950
1753.000000	33.589586
1752.000000	33.561344
1751.000000	33.493338
1750.000000	33.438661
1749.000000	33.354388
1748.000000	33.236450
1747.000000	33.113090
1746.000000	32.953806
1745.000000	32.770912
1744.000000	32.546898
1743.000000	32.322657
1742.000000	32.038545
1741.000000	31.770021
1740.000000	31.466139
1739.000000	31.172989
1738.000000	30.916440
1737.000000	30.716036
1736.000000	30.572003
1735.000000	30.480613
1734.000000	30.457680
1733.000000	30.455986
1732.000000	30.522975
1731.000000	30.612445
1730.000000	30.754106
1729.000000	30.883115
1728.000000	31.026019
1727.000000	31.134919
1726.000000	31.240092
1725.000000	31.323010
1724.000000	31.371812
1723.000000	31.424906
1722.000000	31.449985
1721.000000	31.454956
1720.000000	31.514602
1719.000000	31.567245
1718.000000	31.640109
1717.000000	31.709358
1716.000000	31.816903
1715.000000	31.902193
1714.000000	31.985450
1713.000000	32.078987
1712.000000	32.135584
1711.000000	32.183821
1710.000000	32.217485
1709.000000	32.193310
1708.000000	32.191615
1707.000000	32.161227
1706.000000	32.123044
1705.000000	32.048034
1704.000000	31.976300
1703.000000	31.838593
1702.000000	31.701789
1701.000000	31.517427
1700.000000	31.338147
1699.000000	31.145764
1698.000000	30.973037
1697.000000	30.841204
1696.000000	30.784947
1695.000000	30.781557
1694.000000	30.814657
1693.000000	30.965242
1692.000000	31.161918
1691.000000	31.345377
1690.000000	31.498674
1689.000000	31.626892
1688.000000	31.683827
1687.000000	31.690944
1686.000000	31.751947
1685.000000	31.824246
1684.000000	31.986467
1683.000000	32.311587
1682.000000	32.743461
1681.000000	33.347045
1680.000000	34.025753
1679.000000	34.671474
1678.000000	35.333801
1677.000000	35.903043
1676.000000	36.421450
1675.000000	36.905854
1674.000000	37.303612
1673.000000	37.650986
1672.000000	37.968537
1671.000000	38.237852
1670.000000	38.464238
1669.000000	38.665659
1668.000000	38.870243
1667.000000	39.019133
1666.000000	39.131536
1665.000000	39.272067
1664.000000	39.369445
1663.000000	39.445020
1662.000000	39.548498
1661.000000	39.618651
1660.000000	39.676151
1659.000000	39.737041
1658.000000	39.765170
1657.000000	39.782341
1656.000000	39.806967
1655.000000	39.818151
1654.000000	39.834306
1653.000000	39.819507
1652.000000	39.807419
1651.000000	39.765170
1650.000000	39.741672
1649.000000	39.725857
1648.000000	39.663499
1647.000000	39.598204
1646.000000	39.544770
1645.000000	39.497663
1644.000000	39.435644
1643.000000	39.391248
1642.000000	39.325840
1641.000000	39.250716
1640.000000	39.190392
1639.000000	39.130406
1638.000000	39.055622
1637.000000	38.961068
1636.000000	38.886284
1635.000000	38.809353
1634.000000	38.748351
1633.000000	38.645212
1632.000000	38.563084
1631.000000	38.481070
1630.000000	38.368103
1629.000000	38.292302
1628.000000	38.201702
1627.000000	38.104437
1626.000000	38.022875
1625.000000	37.923125
1624.000000	37.850374
1623.000000	37.756159
1622.000000	37.659798
