PE UV       SUBTECH     SPECTRUM    ASCII       PEDS        4.00        
   -1
CICIMAUCR0210-2.ASC
24/06/06
16:29:53.00
24/06/06
16:29:53.00
Vinicio Soto Monge
C. resplendens. Sex F. Dorsal
250,000000
1
Lambda 1050
1050L1511233
PerkinElmer UV WinLab 6.3.2.0749 / 2.02.05 Lambda 900 UV/VIS/NIR, Aug  7 2015 09:38:08

0
0
3350/servo 860,8/2
0
0
UV/VIS
1
1
1
DoubleDePol,CommonBeamDepol,RBeamAtt,SBeamAtt,60mm sphere, WB InGaAs Detector
0
0
0
0
Program
Program
3350/servo 860,8/2
3350/0,2 860,8/0,2
3350/0,2 860,8/0,2
0
15.00
 
 
 
0
 
860,8
319,2
860,8
Front
100
on
S:100 R:100
0
0
0
0
 
0
 
 
 
0
 
 
0
0
0
0
0
 
 
 
 
0
0


0
0
#HDR
-1
-1
#GR
nm
%R
1.0
0.0
2500,000000
-1,000000
2251
8
92,391500
5,437200
#DATA
2500.000000	6.465684
2499.000000	6.432455
2498.000000	6.358908
2497.000000	6.553411
2496.000000	6.429704
2495.000000	6.432349
2494.000000	6.304833
2493.000000	6.355628
2492.000000	6.364834
2491.000000	6.362400
2490.000000	6.267054
2489.000000	6.365893
2488.000000	6.363141
2487.000000	6.265572
2486.000000	6.344516
2485.000000	6.264514
2484.000000	6.338908
2483.000000	6.274038
2482.000000	6.256895
2481.000000	6.256366
2480.000000	6.220809
2479.000000	6.220492
2478.000000	6.298483
2477.000000	6.285150
2476.000000	6.228746
2475.000000	6.275202
2474.000000	6.253614
2473.000000	6.272874
2472.000000	6.267689
2471.000000	6.281446
2470.000000	6.254778
2469.000000	6.266525
2468.000000	6.240386
2467.000000	6.303457
2466.000000	6.289065
2465.000000	6.300811
2464.000000	6.346739
2463.000000	6.297531
2462.000000	6.346950
2461.000000	6.346950
2460.000000	6.400814
2459.000000	6.397216
2458.000000	6.406211
2457.000000	6.438487
2456.000000	6.459969
2455.000000	6.500500
2454.000000	6.495526
2453.000000	6.536056
2452.000000	6.541453
2451.000000	6.600502
2450.000000	6.618492
2449.000000	6.666218
2448.000000	6.721564
2447.000000	6.740189
2446.000000	6.763999
2445.000000	6.790666
2444.000000	6.819027
2443.000000	6.876806
2442.000000	6.919241
2441.000000	6.938607
2440.000000	6.979772
2439.000000	7.015752
2438.000000	7.052896
2437.000000	7.096918
2436.000000	7.102315
2435.000000	7.124327
2434.000000	7.181894
2433.000000	7.212160
2432.000000	7.231843
2431.000000	7.233853
2430.000000	7.277770
2429.000000	7.302638
2428.000000	7.331422
2427.000000	7.354068
2426.000000	7.379466
2425.000000	7.388673
2424.000000	7.402218
2423.000000	7.429520
2422.000000	7.453225
2421.000000	7.489522
2420.000000	7.497564
2419.000000	7.524444
2418.000000	7.536931
2417.000000	7.534920
2416.000000	7.567090
2415.000000	7.593440
2414.000000	7.596615
2413.000000	7.611748
2412.000000	7.632171
2411.000000	7.636722
2410.000000	7.657781
2409.000000	7.667834
2408.000000	7.665188
2407.000000	7.700216
2406.000000	7.721380
2405.000000	7.734079
2404.000000	7.759371
2403.000000	7.767942
2402.000000	7.783816
2401.000000	7.798525
2400.000000	7.815457
2399.000000	7.858844
2398.000000	7.925936
2397.000000	7.965832
2396.000000	8.016203
2395.000000	8.037897
2394.000000	8.052924
2393.000000	8.049961
2392.000000	8.065517
2391.000000	8.091126
2390.000000	8.124672
2389.000000	8.155043
2388.000000	8.157371
2387.000000	8.157583
2386.000000	8.176843
2385.000000	8.191023
2384.000000	8.200230
2383.000000	8.211659
2382.000000	8.222770
2381.000000	8.211235
2380.000000	8.219172
2379.000000	8.247427
2378.000000	8.244358
2377.000000	8.240972
2376.000000	8.243723
2375.000000	8.234411
2374.000000	8.226685
2373.000000	8.230918
2372.000000	8.230389
2371.000000	8.222982
2370.000000	8.225521
2369.000000	8.214198
2368.000000	8.192822
2367.000000	8.188801
2366.000000	8.162662
2365.000000	8.128058
2364.000000	8.103084
2363.000000	8.070173
2362.000000	8.042553
2361.000000	8.035992
2360.000000	8.020965
2359.000000	7.987419
2358.000000	7.957260
2357.000000	7.915883
2356.000000	7.886782
2355.000000	7.881808
2354.000000	7.863818
2353.000000	7.852495
2352.000000	7.851331
2351.000000	7.859374
2350.000000	7.863712
2349.000000	7.874400
2348.000000	7.898740
2347.000000	7.920963
2346.000000	7.940646
2345.000000	7.966467
2344.000000	8.000542
2343.000000	8.031124
2342.000000	8.064353
2341.000000	8.088904
2340.000000	8.103825
2339.000000	8.133455
2338.000000	8.164991
2337.000000	8.173880
2336.000000	8.197478
2335.000000	8.215468
2334.000000	8.202134
2333.000000	8.191023
2332.000000	8.194939
2331.000000	8.166578
2330.000000	8.140651
2329.000000	8.128376
2328.000000	8.111762
2327.000000	8.073454
2326.000000	8.027209
2325.000000	7.994933
2324.000000	7.961493
2323.000000	7.922867
2322.000000	7.870591
2321.000000	7.814505
2320.000000	7.769847
2319.000000	7.721274
2318.000000	7.656299
2317.000000	7.591112
2316.000000	7.526031
2315.000000	7.466135
2314.000000	7.415234
2313.000000	7.361159
2312.000000	7.311951
2311.000000	7.247716
2310.000000	7.191313
2309.000000	7.172264
2308.000000	7.144433
2307.000000	7.117236
2306.000000	7.099352
2305.000000	7.093003
2304.000000	7.109300
2303.000000	7.127925
2302.000000	7.154169
2301.000000	7.177556
2300.000000	7.229303
2299.000000	7.262320
2298.000000	7.314596
2297.000000	7.374704
2296.000000	7.441478
2295.000000	7.470050
2294.000000	7.506348
2293.000000	7.558307
2292.000000	7.632066
2291.000000	7.665294
2290.000000	7.693972
2289.000000	7.708470
2288.000000	7.740005
2287.000000	7.751752
2286.000000	7.730587
2285.000000	7.715348
2284.000000	7.716512
2283.000000	7.709634
2282.000000	7.674183
2281.000000	7.651431
2280.000000	7.611218
2279.000000	7.584763
2278.000000	7.579577
2277.000000	7.546561
2276.000000	7.489522
2275.000000	7.468040
2274.000000	7.437563
2273.000000	7.428991
2272.000000	7.413753
2271.000000	7.403699
2270.000000	7.411213
2269.000000	7.398302
2268.000000	7.432166
2267.000000	7.464759
2266.000000	7.498411
2265.000000	7.555026
2264.000000	7.631007
2263.000000	7.709740
2262.000000	7.817468
2261.000000	7.912814
2260.000000	8.046786
2259.000000	8.155255
2258.000000	8.294730
2257.000000	8.452406
2256.000000	8.609342
2255.000000	8.778659
2254.000000	8.935383
2253.000000	9.083746
2252.000000	9.236767
2251.000000	9.400792
2250.000000	9.548310
2249.000000	9.697097
2248.000000	9.838794
2247.000000	9.981338
2246.000000	10.106526
2245.000000	10.202931
2244.000000	10.322300
2243.000000	10.432144
2242.000000	10.527808
2241.000000	10.602413
2240.000000	10.699665
2239.000000	10.748132
2238.000000	10.826123
2237.000000	10.912369
2236.000000	10.987609
2235.000000	11.028457
2234.000000	11.098512
2233.000000	11.138936
2232.000000	11.186239
2231.000000	11.254707
2230.000000	11.253331
2229.000000	11.296930
2228.000000	11.307724
2227.000000	11.343492
2226.000000	11.359472
2225.000000	11.358413
2224.000000	11.376615
2223.000000	11.395451
2222.000000	11.399367
2221.000000	11.357038
2220.000000	11.387197
2219.000000	11.383176
2218.000000	11.344021
2217.000000	11.348572
2216.000000	11.326032
2215.000000	11.328042
2214.000000	11.295025
2213.000000	11.295766
2212.000000	11.274496
2211.000000	11.258834
2210.000000	11.219891
2209.000000	11.220738
2208.000000	11.225394
2207.000000	11.184546
2206.000000	11.186028
2205.000000	11.175234
2204.000000	11.163064
2203.000000	11.151423
2202.000000	11.148143
2201.000000	11.121158
2200.000000	11.115973
2199.000000	11.122640
2198.000000	11.100311
2197.000000	11.081051
2196.000000	11.077030
2195.000000	11.093327
2194.000000	11.067188
2193.000000	11.051209
2192.000000	11.042002
2191.000000	11.032902
2190.000000	11.045177
2189.000000	11.022637
2188.000000	11.005282
2187.000000	10.994276
2186.000000	10.978403
2185.000000	10.965598
2184.000000	10.962106
2183.000000	10.946762
2182.000000	10.950042
2181.000000	10.942105
2180.000000	10.935756
2179.000000	10.905385
2178.000000	10.888030
2177.000000	10.880834
2176.000000	10.882950
2175.000000	10.887607
2174.000000	10.874061
2173.000000	10.854272
2172.000000	10.855965
2171.000000	10.862632
2170.000000	10.861997
2169.000000	10.876389
2168.000000	10.865066
2167.000000	10.871310
2166.000000	10.881046
2165.000000	10.889935
2164.000000	10.903268
2163.000000	10.912263
2162.000000	10.922211
2161.000000	10.930042
2160.000000	10.923057
2159.000000	10.943058
2158.000000	10.965598
2157.000000	10.993006
2156.000000	11.017663
2155.000000	11.035653
2154.000000	11.058934
2153.000000	11.082321
2152.000000	11.110258
2151.000000	11.127402
2150.000000	11.133222
2149.000000	11.147402
2148.000000	11.172271
2147.000000	11.188991
2146.000000	11.207298
2145.000000	11.209732
2144.000000	11.256823
2143.000000	11.266771
2142.000000	11.284972
2141.000000	11.295025
2140.000000	11.321058
2139.000000	11.336825
2138.000000	11.338307
2137.000000	11.338624
2136.000000	11.377250
2135.000000	11.372699
2134.000000	11.357038
2133.000000	11.356403
2132.000000	11.375133
2131.000000	11.387621
2130.000000	11.377991
2129.000000	11.384023
2128.000000	11.375133
2127.000000	11.365504
2126.000000	11.365609
2125.000000	11.363493
2124.000000	11.364339
2123.000000	11.354392
2122.000000	11.340106
2121.000000	11.318201
2120.000000	11.303809
2119.000000	11.297777
2118.000000	11.266876
2117.000000	11.248040
2116.000000	11.245077
2115.000000	11.227087
2114.000000	11.199467
2113.000000	11.172906
2112.000000	11.143275
2111.000000	11.129201
2110.000000	11.097771
2109.000000	11.063379
2108.000000	11.047823
2107.000000	11.028245
2106.000000	11.009197
2105.000000	10.974064
2104.000000	10.955016
2103.000000	10.938825
2102.000000	10.919036
2101.000000	10.892474
2100.000000	10.866230
2099.000000	10.852579
2098.000000	10.822102
2097.000000	10.789509
2096.000000	10.783159
2095.000000	10.759984
2094.000000	10.727179
2093.000000	10.709824
2092.000000	10.692998
2091.000000	10.682627
2090.000000	10.667177
2089.000000	10.648658
2088.000000	10.632785
2087.000000	10.608445
2086.000000	10.590244
2085.000000	10.578286
2084.000000	10.552571
2083.000000	10.530877
2082.000000	10.508019
2081.000000	10.498283
2080.000000	10.490241
2079.000000	10.456166
2078.000000	10.426006
2077.000000	10.414472
2076.000000	10.405371
2075.000000	10.369708
2074.000000	10.344523
2073.000000	10.328649
2072.000000	10.300289
2071.000000	10.278171
2070.000000	10.241133
2069.000000	10.213937
2068.000000	10.202508
2067.000000	10.171925
2066.000000	10.139967
2065.000000	10.118167
2064.000000	10.093299
2063.000000	10.085573
2062.000000	10.066843
2061.000000	10.045678
2060.000000	10.027159
2059.000000	10.005995
2058.000000	10.004936
2057.000000	9.998904
2056.000000	9.994671
2055.000000	9.990650
2054.000000	9.992555
2053.000000	10.009593
2052.000000	10.028429
2051.000000	10.045043
2050.000000	10.064091
2049.000000	10.093510
2048.000000	10.134887
2047.000000	10.166846
2046.000000	10.209069
2045.000000	10.258488
2044.000000	10.294574
2043.000000	10.348226
2042.000000	10.371402
2041.000000	10.418916
2040.000000	10.469288
2039.000000	10.514898
2038.000000	10.545904
2037.000000	10.585376
2036.000000	10.647494
2035.000000	10.680828
2034.000000	10.685908
2033.000000	10.716173
2032.000000	10.744640
2031.000000	10.751624
2030.000000	10.776704
2029.000000	10.809721
2028.000000	10.823901
2027.000000	10.823372
2026.000000	10.844642
2025.000000	10.860410
2024.000000	10.873109
2023.000000	10.860833
2022.000000	10.855754
2021.000000	10.865278
2020.000000	10.856283
2019.000000	10.862844
2018.000000	10.870886
2017.000000	10.852685
2016.000000	10.852579
2015.000000	10.850780
2014.000000	10.853320
2013.000000	10.818292
2012.000000	10.806123
2011.000000	10.797551
2010.000000	10.788874
2009.000000	10.769296
2008.000000	10.719665
2007.000000	10.691728
2006.000000	10.675855
2005.000000	10.647071
2004.000000	10.609821
2003.000000	10.579344
2002.000000	10.550666
2001.000000	10.506220
2000.000000	10.460081
1999.000000	10.424525
1998.000000	10.393942
1997.000000	10.349814
1996.000000	10.297960
1995.000000	10.262298
1994.000000	10.231080
1993.000000	10.178486
1992.000000	10.128538
1991.000000	10.083034
1990.000000	10.031075
1989.000000	9.976682
1988.000000	9.931072
1987.000000	9.871176
1986.000000	9.817841
1985.000000	9.761967
1984.000000	9.717309
1983.000000	9.657731
1982.000000	9.611063
1981.000000	9.535399
1980.000000	9.487673
1979.000000	9.441111
1978.000000	9.402380
1977.000000	9.345553
1976.000000	9.302694
1975.000000	9.240894
1974.000000	9.181210
1973.000000	9.121420
1972.000000	9.075810
1971.000000	9.034645
1970.000000	8.996760
1969.000000	8.909668
1968.000000	8.881836
1967.000000	8.837920
1966.000000	8.782468
1965.000000	8.761198
1964.000000	8.702678
1963.000000	8.647544
1962.000000	8.614739
1961.000000	8.539710
1960.000000	8.510080
1959.000000	8.468703
1958.000000	8.426903
1957.000000	8.409654
1956.000000	8.346900
1955.000000	8.320233
1954.000000	8.257480
1953.000000	8.222876
1952.000000	8.198325
1951.000000	8.151869
1950.000000	8.118746
1949.000000	8.068797
1948.000000	8.040437
1947.000000	8.036416
1946.000000	7.986679
1945.000000	7.959588
1944.000000	7.951228
1943.000000	7.921280
1942.000000	7.899904
1941.000000	7.868474
1940.000000	7.857998
1939.000000	7.868792
1938.000000	7.850167
1937.000000	7.838950
1936.000000	7.847627
1935.000000	7.878845
1934.000000	7.855776
1933.000000	7.884665
1932.000000	7.879268
1931.000000	7.899375
1930.000000	7.931333
1929.000000	7.953662
1928.000000	7.979483
1927.000000	8.032394
1926.000000	8.072184
1925.000000	8.116735
1924.000000	8.172927
1923.000000	8.223828
1922.000000	8.279809
1921.000000	8.361187
1920.000000	8.437485
1919.000000	8.534101
1918.000000	8.621194
1917.000000	8.692730
1916.000000	8.776013
1915.000000	8.849243
1914.000000	8.925858
1913.000000	9.044274
1912.000000	9.188829
1911.000000	9.335288
1910.000000	9.432434
1909.000000	9.549156
1908.000000	9.667784
1907.000000	9.754347
1906.000000	9.897526
1905.000000	10.070229
1904.000000	10.265579
1903.000000	10.430557
1902.000000	10.601355
1901.000000	10.778820
1900.000000	10.936074
1899.000000	11.135338
1898.000000	11.372805
1897.000000	11.612600
1896.000000	11.828903
1895.000000	12.027956
1894.000000	12.211030
1893.000000	12.420983
1892.000000	12.694535
1891.000000	12.999941
1890.000000	13.301113
1889.000000	13.605990
1888.000000	13.939756
1887.000000	14.280188
1886.000000	14.586334
1885.000000	14.977139
1884.000000	15.393764
1883.000000	15.867852
1882.000000	16.380988
1881.000000	16.851477
1880.000000	17.360592
1879.000000	17.808118
1878.000000	18.244955
1877.000000	18.756187
1876.000000	19.234401
1875.000000	19.687853
1874.000000	20.114637
1873.000000	20.584492
1872.000000	21.020695
1871.000000	21.453088
1870.000000	21.849501
1869.000000	22.217236
1868.000000	22.590791
1867.000000	22.912070
1866.000000	23.175676
1865.000000	23.363617
1864.000000	23.561718
1863.000000	23.727331
1862.000000	23.849980
1861.000000	24.032948
1860.000000	24.214329
1859.000000	24.374863
1858.000000	24.505977
1857.000000	24.634764
1856.000000	24.705031
1855.000000	24.767784
1854.000000	24.828103
1853.000000	24.908105
1852.000000	24.939111
1851.000000	24.956995
1850.000000	24.963133
1849.000000	24.950540
1848.000000	24.954985
1847.000000	24.999219
1846.000000	25.050225
1845.000000	25.037527
1844.000000	24.982816
1843.000000	24.924190
1842.000000	24.888528
1841.000000	24.916148
1840.000000	24.921968
1839.000000	24.939005
1838.000000	24.907999
1837.000000	24.884189
1836.000000	24.881755
1835.000000	24.863130
1834.000000	24.831807
1833.000000	24.766831
1832.000000	24.681115
1831.000000	24.611906
1830.000000	24.568096
1829.000000	24.527248
1828.000000	24.469998
1827.000000	24.386715
1826.000000	24.323538
1825.000000	24.284596
1824.000000	24.218668
1823.000000	24.151682
1822.000000	24.097289
1821.000000	24.057076
1820.000000	24.045012
1819.000000	24.029879
1818.000000	23.980037
1817.000000	23.939612
1816.000000	23.913474
1815.000000	23.894532
1814.000000	23.875801
1813.000000	23.859610
1812.000000	23.859928
1811.000000	23.827652
1810.000000	23.805111
1809.000000	23.777068
1808.000000	23.724051
1807.000000	23.668494
1806.000000	23.633784
1805.000000	23.601402
1804.000000	23.547855
1803.000000	23.492192
1802.000000	23.438328
1801.000000	23.383618
1800.000000	23.336421
1799.000000	23.282874
1798.000000	23.224672
1797.000000	23.174723
1796.000000	23.114192
1795.000000	23.051122
1794.000000	23.013978
1793.000000	22.963500
1792.000000	22.913129
1791.000000	22.856302
1790.000000	22.802120
1789.000000	22.755981
1788.000000	22.692805
1787.000000	22.636295
1786.000000	22.578093
1785.000000	22.506556
1784.000000	22.436819
1783.000000	22.367187
1782.000000	22.286339
1781.000000	22.209088
1780.000000	22.161996
1779.000000	22.103688
1778.000000	22.015008
1777.000000	21.938921
1776.000000	21.873099
1775.000000	21.793309
1774.000000	21.703253
1773.000000	21.617008
1772.000000	21.512772
1771.000000	21.407795
1770.000000	21.313190
1769.000000	21.207684
1768.000000	21.111914
1767.000000	21.031806
1766.000000	20.921221
1765.000000	20.838361
1764.000000	20.787672
1763.000000	20.740793
1762.000000	20.713914
1761.000000	20.721744
1760.000000	20.754761
1759.000000	20.805874
1758.000000	20.884924
1757.000000	20.953179
1756.000000	21.033393
1755.000000	21.105988
1754.000000	21.162921
1753.000000	21.210435
1752.000000	21.261865
1751.000000	21.279961
1750.000000	21.294141
1749.000000	21.288533
1748.000000	21.260384
1747.000000	21.228637
1746.000000	21.198372
1745.000000	21.121015
1744.000000	21.058473
1743.000000	20.950111
1742.000000	20.829366
1741.000000	20.675923
1740.000000	20.498881
1739.000000	20.317183
1738.000000	20.121516
1737.000000	19.937595
1736.000000	19.760448
1735.000000	19.611555
1734.000000	19.495784
1733.000000	19.419486
1732.000000	19.389538
1731.000000	19.405623
1730.000000	19.463402
1729.000000	19.533457
1728.000000	19.629439
1727.000000	19.737061
1726.000000	19.860450
1725.000000	19.971036
1724.000000	20.050297
1723.000000	20.137707
1722.000000	20.198449
1721.000000	20.233053
1720.000000	20.259721
1719.000000	20.280674
1718.000000	20.318241
1717.000000	20.345967
1716.000000	20.389037
1715.000000	20.424382
1714.000000	20.463007
1713.000000	20.540046
1712.000000	20.589995
1711.000000	20.642377
1710.000000	20.682590
1709.000000	20.708199
1708.000000	20.703120
1707.000000	20.701003
1706.000000	20.666399
1705.000000	20.625657
1704.000000	20.590418
1703.000000	20.509887
1702.000000	20.431683
1701.000000	20.336866
1700.000000	20.220778
1699.000000	20.087335
1698.000000	19.934844
1697.000000	19.788067
1696.000000	19.651873
1695.000000	19.571553
1694.000000	19.510070
1693.000000	19.547003
1692.000000	19.601501
1691.000000	19.727748
1690.000000	19.868493
1689.000000	20.025217
1688.000000	20.161200
1687.000000	20.255382
1686.000000	20.345226
1685.000000	20.380994
1684.000000	20.418456
1683.000000	20.504701
1682.000000	20.611477
1681.000000	20.837832
1680.000000	21.150963
1679.000000	21.543778
1678.000000	22.001992
1677.000000	22.513329
1676.000000	22.994189
1675.000000	23.443196
1674.000000	23.865007
1673.000000	24.230732
1672.000000	24.500792
1671.000000	24.781435
1670.000000	25.006309
1669.000000	25.194568
1668.000000	25.357747
1667.000000	25.479761
1666.000000	25.586431
1665.000000	25.710456
1664.000000	25.778500
1663.000000	25.852893
1662.000000	25.926229
1661.000000	25.938610
1660.000000	25.997554
1659.000000	26.058508
1658.000000	26.058296
1657.000000	26.068032
1656.000000	26.096075
1655.000000	26.103906
1654.000000	26.103694
1653.000000	26.081154
1652.000000	26.060624
1651.000000	26.025914
1650.000000	25.993321
1649.000000	25.961997
1648.000000	25.926335
1647.000000	25.904853
1646.000000	25.842099
1645.000000	25.789929
1644.000000	25.729398
1643.000000	25.709821
1642.000000	25.640930
1641.000000	25.572886
1640.000000	25.522831
1639.000000	25.440183
1638.000000	25.364943
1637.000000	25.325260
1636.000000	25.267692
1635.000000	25.178271
1634.000000	25.125042
1633.000000	25.044194
1632.000000	24.953609
1631.000000	24.884824
1630.000000	24.809055
1629.000000	24.731592
1628.000000	24.657410
1627.000000	24.566085
1626.000000	24.472220
1625.000000	24.405869
1624.000000	24.315708
1623.000000	24.242478
1622.000000	24.170412
1621.000000	24.086812
1620.000000	23.985222
1619.000000	23.938131
1618.000000	23.850298
1617.000000	23.768073
1616.000000	23.710400
1615.000000	23.650715
1614.000000	23.580766
1613.000000	23.503939
1612.000000	23.435895
1611.000000	23.380443
1610.000000	23.281816
1609.000000	23.237794
