PE UV       SUBTECH     SPECTRUM    ASCII       PEDS        4.00        
   -1
CICIMAUCR0004-2.Sample.ASC
24/05/03
14:52:45.00
24/05/03
14:52:45.00
Vinicio Soto Monge
C. kalinini
250,000000
1
Lambda 1050
1050L1511233
PerkinElmer UV WinLab 6.3.2.0749 / 2.02.05 Lambda 900 UV/VIS/NIR, Aug  7 2015 09:38:08

0
0
3350/servo 860,8/2
0
0
UV/VIS
1
1
1
DoubleDePol,CommonBeamDepol,RBeamAtt,SBeamAtt,60mm sphere, WB InGaAs Detector
0
0
0
0
Program
Program
3350/servo 860,8/2
3350/0,2 860,8/0,2
3350/0,2 860,8/0,2
0
15.00
 
 
 
0
 
860,8
319,2
860,8
Front
100
on
S:100 R:100
0
0
0
0
 
0
 
 
 
0
 
 
0
0
0
0
0
 
 
 
 
0
0


0
0
#HDR
-1
-1
#GR
nm
%R
1.0
0.0
2500,000000
-1,000000
2251
8
96,189800
5,469500
#DATA
2500.000000	9.336954
2499.000000	9.303254
2498.000000	9.342843
2497.000000	9.353313
2496.000000	9.273153
2495.000000	9.145660
2494.000000	9.249377
2493.000000	9.171835
2492.000000	9.165400
2491.000000	9.111415
2490.000000	8.998973
2489.000000	9.055030
2488.000000	9.078369
2487.000000	9.133009
2486.000000	9.166818
2485.000000	9.009334
2484.000000	9.031255
2483.000000	8.943352
2482.000000	9.001699
2481.000000	9.003444
2480.000000	8.995810
2479.000000	9.040525
2478.000000	9.031364
2477.000000	9.000827
2476.000000	8.997337
2475.000000	8.978796
2474.000000	8.997228
2473.000000	9.012169
2472.000000	9.056666
2471.000000	9.056012
2470.000000	9.050777
2469.000000	9.065173
2468.000000	9.070081
2467.000000	9.144679
2466.000000	9.122866
2465.000000	9.172271
2464.000000	9.192884
2463.000000	9.217750
2462.000000	9.257012
2461.000000	9.323975
2460.000000	9.365528
2459.000000	9.457248
2458.000000	9.520504
2457.000000	9.581578
2456.000000	9.662611
2455.000000	9.732301
2454.000000	9.797410
2453.000000	9.905163
2452.000000	10.008226
2451.000000	10.100928
2450.000000	10.211080
2449.000000	10.267028
2448.000000	10.350351
2447.000000	10.463775
2446.000000	10.542299
2445.000000	10.640781
2444.000000	10.716033
2443.000000	10.829348
2442.000000	10.902310
2441.000000	11.000574
2440.000000	11.089350
2439.000000	11.169946
2438.000000	11.259377
2437.000000	11.333211
2436.000000	11.418497
2435.000000	11.495713
2434.000000	11.572383
2433.000000	11.654506
2432.000000	11.724305
2431.000000	11.751352
2430.000000	11.821588
2429.000000	11.903820
2428.000000	11.957042
2427.000000	12.024442
2426.000000	12.043854
2425.000000	12.095768
2424.000000	12.130885
2423.000000	12.178436
2422.000000	12.210827
2421.000000	12.256415
2420.000000	12.286843
2419.000000	12.316726
2418.000000	12.342464
2417.000000	12.373329
2416.000000	12.405502
2415.000000	12.442037
2414.000000	12.457742
2413.000000	12.488606
2412.000000	12.526232
2411.000000	12.570729
2410.000000	12.600503
2409.000000	12.612936
2408.000000	12.633767
2407.000000	12.647290
2406.000000	12.675101
2405.000000	12.702257
2404.000000	12.727123
2403.000000	12.764095
2402.000000	12.783508
2401.000000	12.802812
2400.000000	12.836512
2399.000000	12.875883
2398.000000	12.919289
2397.000000	12.977964
2396.000000	13.017663
2395.000000	13.023225
2394.000000	13.040674
2393.000000	13.061941
2392.000000	13.091388
2391.000000	13.105348
2390.000000	13.139484
2389.000000	13.156716
2388.000000	13.144610
2387.000000	13.143192
2386.000000	13.161514
2385.000000	13.161405
2384.000000	13.160533
2383.000000	13.155407
2382.000000	13.130214
2381.000000	13.105348
2380.000000	13.092479
2379.000000	13.089534
2378.000000	13.066522
2377.000000	13.034349
2376.000000	13.004139
2375.000000	12.970548
2374.000000	12.949826
2373.000000	12.913073
2372.000000	12.852435
2371.000000	12.817644
2370.000000	12.781763
2369.000000	12.719162
2368.000000	12.655797
2367.000000	12.598431
2366.000000	12.529613
2365.000000	12.457742
2364.000000	12.391760
2363.000000	12.333412
2362.000000	12.264594
2361.000000	12.186616
2360.000000	12.124014
2359.000000	12.056506
2358.000000	11.998158
2357.000000	11.965112
2356.000000	11.921924
2355.000000	11.885497
2354.000000	11.870665
2353.000000	11.860850
2352.000000	11.846344
2351.000000	11.849071
2350.000000	11.883753
2349.000000	11.930758
2348.000000	11.961077
2347.000000	11.989324
2346.000000	12.036220
2345.000000	12.072101
2344.000000	12.100784
2343.000000	12.151062
2342.000000	12.178109
2341.000000	12.208210
2340.000000	12.220861
2339.000000	12.227950
2338.000000	12.250526
2337.000000	12.240383
2336.000000	12.200903
2335.000000	12.182144
2334.000000	12.161423
2333.000000	12.118452
2332.000000	12.056069
2331.000000	12.006228
2330.000000	11.949844
2329.000000	11.900221
2328.000000	11.830749
2327.000000	11.748407
2326.000000	11.652652
2325.000000	11.559622
2324.000000	11.474773
2323.000000	11.361567
2322.000000	11.266139
2321.000000	11.144099
2320.000000	11.014425
2319.000000	10.895766
2318.000000	10.788668
2317.000000	10.645580
2316.000000	10.512307
2315.000000	10.402809
2314.000000	10.294621
2313.000000	10.201155
2312.000000	10.120886
2311.000000	10.023603
2310.000000	9.951296
2309.000000	9.867646
2308.000000	9.838963
2307.000000	9.834600
2306.000000	9.854886
2305.000000	9.854995
2304.000000	9.898946
2303.000000	9.968418
2302.000000	10.053050
2301.000000	10.142371
2300.000000	10.203445
2299.000000	10.301710
2298.000000	10.390377
2297.000000	10.478280
2296.000000	10.576762
2295.000000	10.666083
2294.000000	10.745807
2293.000000	10.807318
2292.000000	10.851488
2291.000000	10.883224
2290.000000	10.908636
2289.000000	10.935901
2288.000000	10.930121
2287.000000	10.922923
2286.000000	10.910926
2285.000000	10.874936
2284.000000	10.840254
2283.000000	10.800120
2282.000000	10.751151
2281.000000	10.730102
2280.000000	10.683206
2279.000000	10.636310
2278.000000	10.610898
2277.000000	10.557131
2276.000000	10.534010
2275.000000	10.533138
2274.000000	10.493658
2273.000000	10.504018
2272.000000	10.511871
2271.000000	10.546661
2270.000000	10.579271
2269.000000	10.663466
2268.000000	10.757150
2267.000000	10.860431
2266.000000	10.999266
2265.000000	11.149443
2264.000000	11.338773
2263.000000	11.533448
2262.000000	11.763894
2261.000000	12.012772
2260.000000	12.286625
2259.000000	12.541392
2258.000000	12.842074
2257.000000	13.122361
2256.000000	13.467104
2255.000000	13.732014
2254.000000	14.012083
2253.000000	14.291607
2252.000000	14.581492
2251.000000	14.823063
2250.000000	15.091354
2249.000000	15.324745
2248.000000	15.551483
2247.000000	15.792072
2246.000000	15.975295
2245.000000	16.137033
2244.000000	16.310222
2243.000000	16.513076
2242.000000	16.633916
2241.000000	16.759119
2240.000000	16.930236
2239.000000	17.021520
2238.000000	17.116294
2237.000000	17.241606
2236.000000	17.310751
2235.000000	17.376842
2234.000000	17.445659
2233.000000	17.516549
2232.000000	17.541415
2231.000000	17.591365
2230.000000	17.624738
2229.000000	17.620266
2228.000000	17.635644
2227.000000	17.639461
2226.000000	17.632481
2225.000000	17.613723
2224.000000	17.597691
2223.000000	17.581986
2222.000000	17.555811
2221.000000	17.508806
2220.000000	17.476306
2219.000000	17.407597
2218.000000	17.377496
2217.000000	17.343033
2216.000000	17.297663
2215.000000	17.266144
2214.000000	17.177260
2213.000000	17.159810
2212.000000	17.139961
2211.000000	17.084448
2210.000000	17.049003
2209.000000	17.017376
2208.000000	16.991419
2207.000000	16.971570
2206.000000	16.939070
2205.000000	16.945177
2204.000000	16.910605
2203.000000	16.899917
2202.000000	16.843750
2201.000000	16.844404
2200.000000	16.835461
2199.000000	16.831753
2198.000000	16.818448
2197.000000	16.803616
2196.000000	16.782567
2195.000000	16.806124
2194.000000	16.798926
2193.000000	16.779186
2192.000000	16.763045
2191.000000	16.764790
2190.000000	16.746904
2189.000000	16.740469
2188.000000	16.745268
2187.000000	16.714185
2186.000000	16.694009
2185.000000	16.678631
2184.000000	16.669361
2183.000000	16.653220
2182.000000	16.641005
2181.000000	16.641332
2180.000000	16.616685
2179.000000	16.623119
2178.000000	16.595963
2177.000000	16.587347
2176.000000	16.596726
2175.000000	16.587674
2174.000000	16.592473
2173.000000	16.599126
2172.000000	16.610032
2171.000000	16.617012
2170.000000	16.636970
2169.000000	16.664453
2168.000000	16.685720
2167.000000	16.695318
2166.000000	16.744177
2165.000000	16.753011
2164.000000	16.785948
2163.000000	16.815940
2162.000000	16.855856
2161.000000	16.888901
2160.000000	16.938306
2159.000000	16.980186
2158.000000	17.025010
2157.000000	17.096009
2156.000000	17.151957
2155.000000	17.215540
2154.000000	17.274978
2153.000000	17.344341
2152.000000	17.411196
2151.000000	17.491574
2150.000000	17.546650
2149.000000	17.604998
2148.000000	17.657129
2147.000000	17.730745
2146.000000	17.793019
2145.000000	17.857147
2144.000000	17.911787
2143.000000	17.978424
2142.000000	18.048441
2141.000000	18.093265
2140.000000	18.150740
2139.000000	18.211269
2138.000000	18.252276
2137.000000	18.302990
2136.000000	18.345742
2135.000000	18.378024
2134.000000	18.435718
2133.000000	18.479887
2132.000000	18.502136
2131.000000	18.527329
2130.000000	18.556885
2129.000000	18.575534
2128.000000	18.600182
2127.000000	18.608362
2126.000000	18.619813
2125.000000	18.636063
2124.000000	18.638571
2123.000000	18.628865
2122.000000	18.629738
2121.000000	18.625484
2120.000000	18.620249
2119.000000	18.620140
2118.000000	18.607925
2117.000000	18.584368
2116.000000	18.558739
2115.000000	18.541616
2114.000000	18.513587
2113.000000	18.489048
2112.000000	18.476834
2111.000000	18.458075
2110.000000	18.432446
2109.000000	18.399509
2108.000000	18.370935
2107.000000	18.333418
2106.000000	18.306262
2105.000000	18.284450
2104.000000	18.260674
2103.000000	18.236681
2102.000000	18.219231
2101.000000	18.197419
2100.000000	18.178769
2099.000000	18.145833
2098.000000	18.113114
2097.000000	18.104717
2096.000000	18.070580
2095.000000	18.060001
2094.000000	18.069599
2093.000000	18.045387
2092.000000	18.035354
2091.000000	18.042115
2090.000000	18.041134
2089.000000	18.023357
2088.000000	18.003726
2087.000000	18.005798
2086.000000	18.003835
2085.000000	17.988893
2084.000000	17.977006
2083.000000	17.970462
2082.000000	17.953667
2081.000000	17.912987
2080.000000	17.866309
2079.000000	17.843079
2078.000000	17.813523
2077.000000	17.781023
2076.000000	17.749504
2075.000000	17.723656
2074.000000	17.682104
2073.000000	17.645023
2072.000000	17.604016
2071.000000	17.547413
2070.000000	17.501608
2069.000000	17.457220
2068.000000	17.397236
2067.000000	17.343469
2066.000000	17.291338
2065.000000	17.268435
2064.000000	17.228955
2063.000000	17.190456
2062.000000	17.151085
2061.000000	17.127855
2060.000000	17.117385
2059.000000	17.106370
2058.000000	17.126328
2057.000000	17.146613
2056.000000	17.204852
2055.000000	17.247386
2054.000000	17.309442
2053.000000	17.396582
2052.000000	17.499863
2051.000000	17.625174
2050.000000	17.750158
2049.000000	17.900445
2048.000000	18.065891
2047.000000	18.263401
2046.000000	18.447060
2045.000000	18.629738
2044.000000	18.857457
2043.000000	19.072090
2042.000000	19.278979
2041.000000	19.493285
2040.000000	19.693739
2039.000000	19.895175
2038.000000	20.094649
2037.000000	20.292268
2036.000000	20.477672
2035.000000	20.637774
2034.000000	20.820778
2033.000000	21.016653
2032.000000	21.182098
2031.000000	21.321043
2030.000000	21.468821
2029.000000	21.616926
2028.000000	21.760559
2027.000000	21.896559
2026.000000	22.015436
2025.000000	22.135294
2024.000000	22.282527
2023.000000	22.369994
2022.000000	22.477528
2021.000000	22.590298
2020.000000	22.716263
2019.000000	22.814310
2018.000000	22.902649
2017.000000	22.985209
2016.000000	23.083582
2015.000000	23.145856
2014.000000	23.233432
2013.000000	23.289817
2012.000000	23.358743
2011.000000	23.425489
2010.000000	23.487654
2009.000000	23.526043
2008.000000	23.549601
2007.000000	23.570649
2006.000000	23.613074
2005.000000	23.629106
2004.000000	23.638376
2003.000000	23.625943
2002.000000	23.626925
2001.000000	23.623435
2000.000000	23.622126
1999.000000	23.617110
1998.000000	23.597479
1997.000000	23.535205
1996.000000	23.536513
1995.000000	23.487763
1994.000000	23.451336
1993.000000	23.390916
1992.000000	23.342711
1991.000000	23.291671
1990.000000	23.231360
1989.000000	23.151418
1988.000000	23.068859
1987.000000	23.009529
1986.000000	22.920099
1985.000000	22.845283
1984.000000	22.762178
1983.000000	22.681473
1982.000000	22.602840
1981.000000	22.529551
1980.000000	22.424525
1979.000000	22.357016
1978.000000	22.264314
1977.000000	22.170848
1976.000000	22.079673
1975.000000	21.986753
1974.000000	21.932113
1973.000000	21.850644
1972.000000	21.769721
1971.000000	21.684217
1970.000000	21.607328
1969.000000	21.547672
1968.000000	21.444500
1967.000000	21.357796
1966.000000	21.292141
1965.000000	21.231176
1964.000000	21.144254
1963.000000	21.057551
1962.000000	20.983825
1961.000000	20.916316
1960.000000	20.816961
1959.000000	20.745308
1958.000000	20.664821
1957.000000	20.573318
1956.000000	20.497521
1955.000000	20.419215
1954.000000	20.353778
1953.000000	20.269801
1952.000000	20.184515
1951.000000	20.113298
1950.000000	20.046553
1949.000000	20.006200
1948.000000	19.959413
1947.000000	19.897902
1946.000000	19.833338
1945.000000	19.806945
1944.000000	19.751215
1943.000000	19.747397
1942.000000	19.732456
1941.000000	19.734310
1940.000000	19.715661
1939.000000	19.730166
1938.000000	19.754377
1937.000000	19.768119
1936.000000	19.811307
1935.000000	19.854278
1934.000000	19.919060
1933.000000	19.989841
1932.000000	20.101956
1931.000000	20.185933
1930.000000	20.286924
1929.000000	20.428049
1928.000000	20.547907
1927.000000	20.685979
1926.000000	20.852297
1925.000000	21.023087
1924.000000	21.176754
1923.000000	21.352888
1922.000000	21.562831
1921.000000	21.821525
1920.000000	22.031904
1919.000000	22.235958
1918.000000	22.475783
1917.000000	22.697178
1916.000000	22.937549
1915.000000	23.230924
1914.000000	23.509902
1913.000000	23.811675
1912.000000	24.137877
1911.000000	24.421218
1910.000000	24.722009
1909.000000	24.998152
1908.000000	25.306360
1907.000000	25.689056
1906.000000	26.051030
1905.000000	26.435253
1904.000000	26.773125
1903.000000	27.120812
1902.000000	27.454976
1901.000000	27.854358
1900.000000	28.252323
1899.000000	28.642435
1898.000000	28.982815
1897.000000	29.348716
1896.000000	29.658013
1895.000000	29.968184
1894.000000	30.293623
1893.000000	30.627568
1892.000000	31.013536
1891.000000	31.379109
1890.000000	31.699204
1889.000000	32.038276
1888.000000	32.391198
1887.000000	32.725471
1886.000000	33.114710
1885.000000	33.536669
1884.000000	34.003342
1883.000000	34.446894
1882.000000	34.863508
1881.000000	35.323747
1880.000000	35.706333
1879.000000	36.074961
1878.000000	36.468563
1877.000000	36.819849
1876.000000	37.134709
1875.000000	37.450441
1874.000000	37.753523
1873.000000	38.010144
1872.000000	38.230339
1871.000000	38.415961
1870.000000	38.577153
1869.000000	38.713589
1868.000000	38.790913
1867.000000	38.851552
1866.000000	38.865075
1865.000000	38.864966
1864.000000	38.852533
1863.000000	38.865184
1862.000000	38.902265
1861.000000	38.923314
1860.000000	38.925386
1859.000000	38.926040
1858.000000	38.906191
1857.000000	38.854823
1856.000000	38.794731
1855.000000	38.738237
1854.000000	38.666365
1853.000000	38.580098
1852.000000	38.497975
1851.000000	38.418578
1850.000000	38.353142
1849.000000	38.298393
1848.000000	38.250188
1847.000000	38.145816
1846.000000	38.025521
1845.000000	37.934564
1844.000000	37.837500
1843.000000	37.785805
1842.000000	37.773154
1841.000000	37.757122
1840.000000	37.710334
1839.000000	37.631919
1838.000000	37.543907
1837.000000	37.470618
1836.000000	37.387731
1835.000000	37.281724
1834.000000	37.163610
1833.000000	37.063383
1832.000000	36.963810
1831.000000	36.862383
1830.000000	36.788658
1829.000000	36.698246
1828.000000	36.588203
1827.000000	36.503790
1826.000000	36.433336
1825.000000	36.356448
1824.000000	36.306280
1823.000000	36.277596
1822.000000	36.267781
1821.000000	36.277705
1820.000000	36.256657
1819.000000	36.202126
1818.000000	36.162864
1817.000000	36.140506
1816.000000	36.148032
1815.000000	36.136253
1814.000000	36.099717
1813.000000	36.072234
1812.000000	36.043006
1811.000000	35.995019
1810.000000	35.949322
1809.000000	35.888357
1808.000000	35.847350
1807.000000	35.810923
1806.000000	35.732726
1805.000000	35.665654
1804.000000	35.609923
1803.000000	35.547649
1802.000000	35.497481
1801.000000	35.431826
1800.000000	35.363445
1799.000000	35.319493
1798.000000	35.250675
1797.000000	35.180440
1796.000000	35.128963
1795.000000	35.077595
1794.000000	35.019793
1793.000000	34.943777
1792.000000	34.883793
1791.000000	34.819447
1790.000000	34.741468
1789.000000	34.677777
1788.000000	34.620519
1787.000000	34.536760
1786.000000	34.462708
1785.000000	34.371314
1784.000000	34.278503
1783.000000	34.188528
1782.000000	34.099098
1781.000000	34.011958
1780.000000	33.912603
1779.000000	33.798852
1778.000000	33.659908
1777.000000	33.528380
1776.000000	33.399469
1775.000000	33.248529
1774.000000	33.097370
1773.000000	32.932142
1772.000000	32.779020
1771.000000	32.600596
1770.000000	32.448237
1769.000000	32.312129
1768.000000	32.161733
1767.000000	32.040675
1766.000000	31.949718
1765.000000	31.884608
1764.000000	31.849163
1763.000000	31.841311
1762.000000	31.879155
1761.000000	31.937830
1760.000000	32.005884
1759.000000	32.075247
1758.000000	32.134468
1757.000000	32.195215
1756.000000	32.254762
1755.000000	32.273521
1754.000000	32.268831
1753.000000	32.258034
1752.000000	32.224225
1751.000000	32.173184
1750.000000	32.106439
1749.000000	32.012210
1748.000000	31.907511
1747.000000	31.751990
1746.000000	31.591779
1745.000000	31.388816
1744.000000	31.182363
1743.000000	30.937411
1742.000000	30.662904
1741.000000	30.374328
1740.000000	30.085097
1739.000000	29.809063
1738.000000	29.580253
1737.000000	29.376963
1736.000000	29.255905
1735.000000	29.164293
1734.000000	29.116742
1733.000000	29.122959
1732.000000	29.179562
1731.000000	29.250561
1730.000000	29.369001
1729.000000	29.483843
1728.000000	29.604355
1727.000000	29.699566
1726.000000	29.759877
1725.000000	29.851706
1724.000000	29.884207
1723.000000	29.912999
1722.000000	29.952697
1721.000000	29.989887
1720.000000	30.049434
1719.000000	30.118252
1718.000000	30.211063
1717.000000	30.308237
1716.000000	30.433003
1715.000000	30.543373
1714.000000	30.651780
1713.000000	30.730740
1712.000000	30.795632
1711.000000	30.861832
1710.000000	30.873283
1709.000000	30.899785
1708.000000	30.911127
1707.000000	30.897059
1706.000000	30.848526
1705.000000	30.812536
1704.000000	30.730631
1703.000000	30.620588
1702.000000	30.486007
1701.000000	30.324160
1700.000000	30.139955
1699.000000	29.952370
1698.000000	29.810917
1697.000000	29.710036
1696.000000	29.653215
1695.000000	29.678299
1694.000000	29.737955
1693.000000	29.846908
1692.000000	29.990214
1691.000000	30.133957
1690.000000	30.255015
1689.000000	30.332557
1688.000000	30.370620
1687.000000	30.403011
1686.000000	30.418607
1685.000000	30.504329
1684.000000	30.711000
1683.000000	31.036112
1682.000000	31.497005
1681.000000	32.048637
1680.000000	32.704095
1679.000000	33.309385
1678.000000	33.927326
1677.000000	34.447875
1676.000000	34.933307
1675.000000	35.355265
1674.000000	35.748322
1673.000000	36.055657
1672.000000	36.345760
1671.000000	36.602163
1670.000000	36.829992
1669.000000	37.027393
1668.000000	37.231555
1667.000000	37.376716
1666.000000	37.520022
1665.000000	37.623413
1664.000000	37.763011
1663.000000	37.866510
1662.000000	37.945580
1661.000000	38.037518
1660.000000	38.107317
1659.000000	38.169700
1658.000000	38.212125
1657.000000	38.244844
1656.000000	38.251278
1655.000000	38.254550
1654.000000	38.275054
1653.000000	38.254659
1652.000000	38.259785
1651.000000	38.251060
1650.000000	38.209072
1649.000000	38.173736
1648.000000	38.126185
1647.000000	38.095103
1646.000000	38.042644
1645.000000	37.987895
1644.000000	37.943835
1643.000000	37.897374
1642.000000	37.835100
1641.000000	37.775444
1640.000000	37.709898
1639.000000	37.658748
1638.000000	37.603891
1637.000000	37.514351
1636.000000	37.438336
1635.000000	37.382387
1634.000000	37.311497
1633.000000	37.232428
1632.000000	37.164156
1631.000000	37.071235
1630.000000	36.985404
1629.000000	36.909061
1628.000000	36.807634
1627.000000	36.718422
1626.000000	36.635208
1625.000000	36.553412
1624.000000	36.467036
1623.000000	36.382950
1622.000000	36.295482
