PE UV       SUBTECH     SPECTRUM    ASCII       PEDS        4.00        
   -1
CICIMAUCR0071-3.Sample.ASC
24/04/18
16:44:28.00
24/04/18
16:44:28.00
Vinicio Soto Monge
C. resplendens
250,000000
1
Lambda 1050
1050L1511233
PerkinElmer UV WinLab 6.3.2.0749 / 2.02.05 Lambda 900 UV/VIS/NIR, Aug  7 2015 09:38:08

0
0
3350/servo 860,8/2
0
0
UV/VIS
1
1
1
DoubleDePol,CommonBeamDepol,RBeamAtt,SBeamAtt,60mm sphere, WB InGaAs Detector
0
0
0
0
Program
Program
3350/servo 860,8/2
3350/0,2 860,8/0,2
3350/0,2 860,8/0,2
0
15.00
 
 
 
0
 
860,8
319,2
860,8
Front
100
on
S:100 R:100
0
0
0
0
 
0
 
 
 
0
 
 
0
0
0
0
0
 
 
 
 
0
0


0
0
#HDR
-1
-1
#GR
nm
%R
1.0
0.0
2500,000000
-1,000000
2251
8
72,832800
4,915400
#DATA
2482.000000	13.653086
2481.000000	13.595362
2480.000000	13.555216
2479.000000	13.616954
2478.000000	13.574964
2477.000000	13.639198
2476.000000	13.639523
2475.000000	13.693124
2474.000000	13.692798
2473.000000	13.715367
2472.000000	13.716018
2471.000000	13.763976
2470.000000	13.793055
2469.000000	13.847524
2468.000000	13.826149
2467.000000	13.884849
2466.000000	13.903837
2465.000000	13.912626
2464.000000	13.980983
2463.000000	14.012449
2462.000000	14.049232
2461.000000	14.028725
2460.000000	14.080047
2459.000000	14.135817
2458.000000	14.230215
2457.000000	14.293039
2456.000000	14.355320
2455.000000	14.381795
2454.000000	14.432140
2453.000000	14.509177
2452.000000	14.610954
2451.000000	14.687448
2450.000000	14.739313
2449.000000	14.829588
2448.000000	14.913569
2447.000000	14.970534
2446.000000	15.066342
2445.000000	15.152277
2444.000000	15.239731
2443.000000	15.322410
2442.000000	15.422016
2441.000000	15.477461
2440.000000	15.560249
2439.000000	15.640216
2438.000000	15.728321
2437.000000	15.819138
2436.000000	15.906592
2435.000000	15.980917
2434.000000	16.074447
2433.000000	16.145625
2432.000000	16.228413
2431.000000	16.299700
2430.000000	16.356122
2429.000000	16.428385
2428.000000	16.516815
2427.000000	16.577034
2426.000000	16.629659
2425.000000	16.702898
2424.000000	16.761165
2423.000000	16.821818
2422.000000	16.880952
2421.000000	16.939761
2420.000000	17.002042
2419.000000	17.093619
2418.000000	17.172392
2417.000000	17.217313
2416.000000	17.261040
2415.000000	17.312687
2414.000000	17.351748
2413.000000	17.386144
2412.000000	17.441915
2411.000000	17.480325
2410.000000	17.502894
2409.000000	17.545752
2408.000000	17.597834
2407.000000	17.620945
2406.000000	17.642537
2405.000000	17.658379
2404.000000	17.693642
2403.000000	17.725108
2402.000000	17.722070
2401.000000	17.736935
2400.000000	17.770463
2399.000000	17.794551
2398.000000	17.826885
2397.000000	17.828946
2396.000000	17.831225
2395.000000	17.851949
2394.000000	17.871154
2393.000000	17.872999
2392.000000	17.901426
2391.000000	17.936148
2390.000000	17.926925
2389.000000	17.933109
2388.000000	17.943634
2387.000000	17.947540
2386.000000	17.963599
2385.000000	17.960235
2384.000000	17.975534
2383.000000	17.984866
2382.000000	17.979006
2381.000000	17.970218
2380.000000	17.960561
2379.000000	17.963273
2378.000000	17.950904
2377.000000	17.938318
2376.000000	17.931373
2375.000000	17.922910
2374.000000	17.909564
2373.000000	17.913145
2372.000000	17.918895
2371.000000	17.907177
2370.000000	17.909998
2369.000000	17.918895
2368.000000	17.920849
2367.000000	17.923236
2366.000000	17.920523
2365.000000	17.913253
2364.000000	17.918244
2363.000000	17.914555
2362.000000	17.915857
2361.000000	17.920198
2360.000000	17.899039
2359.000000	17.902620
2358.000000	17.908045
2357.000000	17.889708
2356.000000	17.864644
2355.000000	17.835348
2354.000000	17.822979
2353.000000	17.810067
2352.000000	17.785328
2351.000000	17.773501
2350.000000	17.766231
2349.000000	17.749847
2348.000000	17.734982
2347.000000	17.737044
2346.000000	17.750390
2345.000000	17.747677
2344.000000	17.737261
2343.000000	17.731293
2342.000000	17.718598
2341.000000	17.712522
2340.000000	17.719792
2339.000000	17.764929
2338.000000	17.778601
2337.000000	17.751475
2336.000000	17.779035
2335.000000	17.795310
2334.000000	17.780011
2333.000000	17.789776
2332.000000	17.811152
2331.000000	17.824823
2330.000000	17.851949
2329.000000	17.866054
2328.000000	17.880485
2327.000000	17.922259
2326.000000	17.952206
2325.000000	17.951121
2324.000000	17.969567
2323.000000	17.980308
2322.000000	17.976945
2321.000000	17.972822
2320.000000	17.965118
2319.000000	17.957957
2318.000000	17.942875
2317.000000	17.935388
2316.000000	17.892095
2315.000000	17.866163
2314.000000	17.837843
2313.000000	17.800952
2312.000000	17.759287
2311.000000	17.732161
2310.000000	17.713499
2309.000000	17.703516
2308.000000	17.660549
2307.000000	17.646227
2306.000000	17.657836
2305.000000	17.628432
2304.000000	17.631579
2303.000000	17.624743
2302.000000	17.627130
2301.000000	17.648614
2300.000000	17.653605
2299.000000	17.661417
2298.000000	17.683226
2297.000000	17.701455
2296.000000	17.723806
2295.000000	17.734440
2294.000000	17.771765
2293.000000	17.796721
2292.000000	17.834046
2291.000000	17.875169
2290.000000	17.918027
2289.000000	17.923670
2288.000000	17.965877
2287.000000	18.004071
2286.000000	18.034343
2285.000000	18.088812
2284.000000	18.108451
2283.000000	18.168345
2282.000000	18.226177
2281.000000	18.252218
2280.000000	18.286939
2279.000000	18.321117
2278.000000	18.375803
2277.000000	18.403797
2276.000000	18.423979
2275.000000	18.453709
2274.000000	18.480943
2273.000000	18.504488
2272.000000	18.546913
2271.000000	18.614293
2270.000000	18.644240
2269.000000	18.654331
2268.000000	18.703809
2267.000000	18.769345
2266.000000	18.834772
2265.000000	18.887613
2264.000000	18.956622
2263.000000	19.054166
2262.000000	19.125236
2261.000000	19.237754
2260.000000	19.337034
2259.000000	19.458016
2258.000000	19.615888
2257.000000	19.737412
2256.000000	19.874668
2255.000000	20.018652
2254.000000	20.186290
2253.000000	20.319532
2252.000000	20.466988
2251.000000	20.605330
2250.000000	20.723924
2249.000000	20.921292
2248.000000	21.040863
2247.000000	21.134718
2246.000000	21.261992
2245.000000	21.399249
2244.000000	21.493430
2243.000000	21.600848
2242.000000	21.680056
2241.000000	21.747219
2240.000000	21.807764
2239.000000	21.912362
2238.000000	21.950772
2237.000000	21.999815
2236.000000	21.997103
2235.000000	22.028894
2234.000000	22.080325
2233.000000	22.079240
2232.000000	22.076744
2231.000000	22.073055
2230.000000	22.033126
2229.000000	22.040287
2228.000000	22.021950
2227.000000	21.978549
2226.000000	21.943611
2225.000000	21.888816
2224.000000	21.858435
2223.000000	21.793659
2222.000000	21.740601
2221.000000	21.669748
2220.000000	21.598136
2219.000000	21.559617
2218.000000	21.469342
2217.000000	21.401094
2216.000000	21.316895
2215.000000	21.258629
2214.000000	21.209260
2213.000000	21.119093
2212.000000	21.074390
2211.000000	20.991711
2210.000000	20.937459
2209.000000	20.884726
2208.000000	20.829932
2207.000000	20.772425
2206.000000	20.722948
2205.000000	20.699186
2204.000000	20.636037
2203.000000	20.599905
2202.000000	20.557589
2201.000000	20.529595
2200.000000	20.494223
2199.000000	20.457440
2198.000000	20.375086
2197.000000	20.366406
2196.000000	20.341233
2195.000000	20.294902
2194.000000	20.260832
2193.000000	20.235551
2192.000000	20.220686
2191.000000	20.185314
2190.000000	20.174029
2189.000000	20.122165
2188.000000	20.100030
2187.000000	20.067913
2186.000000	20.040787
2185.000000	20.036338
2184.000000	19.999230
2183.000000	19.958108
2182.000000	19.953550
2181.000000	19.921976
2180.000000	19.893548
2179.000000	19.873800
2178.000000	19.831159
2177.000000	19.830399
2176.000000	19.814883
2175.000000	19.798065
2174.000000	19.776473
2173.000000	19.778426
2172.000000	19.755749
2171.000000	19.780162
2170.000000	19.773001
2169.000000	19.784828
2168.000000	19.795136
2167.000000	19.812930
2166.000000	19.816185
2165.000000	19.854270
2164.000000	19.885736
2163.000000	19.924906
2162.000000	19.956589
2161.000000	19.992937
2160.000000	20.043825
2159.000000	20.104696
2158.000000	20.169906
2157.000000	20.248788
2156.000000	20.323221
2155.000000	20.403514
2154.000000	20.471003
2153.000000	20.558891
2152.000000	20.670324
2151.000000	20.758645
2150.000000	20.861941
2149.000000	20.948960
2148.000000	21.043575
2147.000000	21.132982
2146.000000	21.219893
2145.000000	21.312229
2144.000000	21.406519
2143.000000	21.504172
2142.000000	21.606708
2141.000000	21.695355
2140.000000	21.782049
2139.000000	21.877098
2138.000000	21.964986
2137.000000	22.042674
2136.000000	22.127524
2135.000000	22.208250
2134.000000	22.293425
2133.000000	22.372416
2132.000000	22.437301
2131.000000	22.511734
2130.000000	22.596150
2129.000000	22.650293
2128.000000	22.714418
2127.000000	22.784295
2126.000000	22.830734
2125.000000	22.893340
2124.000000	22.958442
2123.000000	22.998046
2122.000000	23.042098
2121.000000	23.106007
2120.000000	23.132482
2119.000000	23.154182
2118.000000	23.185323
2117.000000	23.220370
2116.000000	23.241528
2115.000000	23.240768
2114.000000	23.266917
2113.000000	23.298275
2112.000000	23.313791
2111.000000	23.318674
2110.000000	23.337228
2109.000000	23.352310
2108.000000	23.347644
2107.000000	23.350031
2106.000000	23.350248
2105.000000	23.357409
2104.000000	23.368043
2103.000000	23.383884
2102.000000	23.375963
2101.000000	23.380520
2100.000000	23.399834
2099.000000	23.391262
2098.000000	23.395602
2097.000000	23.416218
2096.000000	23.428370
2095.000000	23.443778
2094.000000	23.450722
2093.000000	23.464502
2092.000000	23.487722
2091.000000	23.522877
2090.000000	23.543493
2089.000000	23.567689
2088.000000	23.593187
2087.000000	23.604037
2086.000000	23.631597
2085.000000	23.629970
2084.000000	23.615213
2083.000000	23.611307
2082.000000	23.604688
2081.000000	23.596442
2080.000000	23.560962
2079.000000	23.528845
2078.000000	23.475678
2077.000000	23.442910
2076.000000	23.404283
2075.000000	23.344389
2074.000000	23.275815
2073.000000	23.216463
2072.000000	23.144200
2071.000000	23.052623
2070.000000	22.950522
2069.000000	22.867300
2068.000000	22.780388
2067.000000	22.690439
2066.000000	22.586927
2065.000000	22.483957
2064.000000	22.382507
2063.000000	22.284311
2062.000000	22.195121
2061.000000	22.099421
2060.000000	22.017610
2059.000000	21.952942
2058.000000	21.886972
2057.000000	21.823931
2056.000000	21.774237
2055.000000	21.758395
2054.000000	21.763929
2053.000000	21.763278
2052.000000	21.794744
2051.000000	21.825776
2050.000000	21.895652
2049.000000	21.989399
2048.000000	22.080542
2047.000000	22.195664
2046.000000	22.298091
2045.000000	22.427861
2044.000000	22.564141
2043.000000	22.716697
2042.000000	22.849397
2041.000000	22.965387
2040.000000	23.091034
2039.000000	23.238381
2038.000000	23.384644
2037.000000	23.508229
2036.000000	23.630729
2035.000000	23.747587
2034.000000	23.859020
2033.000000	23.964377
2032.000000	24.056496
2031.000000	24.144059
2030.000000	24.253755
2029.000000	24.343488
2028.000000	24.411085
2027.000000	24.472715
2026.000000	24.546715
2025.000000	24.636230
2024.000000	24.695907
2023.000000	24.762202
2022.000000	24.815911
2021.000000	24.858119
2020.000000	24.891755
2019.000000	24.943620
2018.000000	24.966623
2017.000000	24.984960
2016.000000	25.027493
2015.000000	25.049845
2014.000000	25.074692
2013.000000	25.072305
2012.000000	25.065252
2011.000000	25.062974
2010.000000	25.056463
2009.000000	25.066554
2008.000000	25.029989
2007.000000	25.025540
2006.000000	24.985285
2005.000000	24.941124
2004.000000	24.907488
2003.000000	24.871031
2002.000000	24.826762
2001.000000	24.767844
2000.000000	24.694605
1999.000000	24.638942
1998.000000	24.559301
1997.000000	24.505158
1996.000000	24.432461
1995.000000	24.356942
1994.000000	24.281641
1993.000000	24.190064
1992.000000	24.093388
1991.000000	24.014289
1990.000000	23.933888
1989.000000	23.846868
1988.000000	23.732071
1987.000000	23.638107
1986.000000	23.542841
1985.000000	23.451699
1984.000000	23.369887
1983.000000	23.238273
1982.000000	23.120655
1981.000000	23.046222
1980.000000	22.962783
1979.000000	22.857100
1978.000000	22.762160
1977.000000	22.665483
1976.000000	22.579874
1975.000000	22.485151
1974.000000	22.385870
1973.000000	22.287783
1972.000000	22.228974
1971.000000	22.108319
1970.000000	22.017067
1969.000000	21.937209
1968.000000	21.867875
1967.000000	21.759046
1966.000000	21.654232
1965.000000	21.558315
1964.000000	21.485835
1963.000000	21.380804
1962.000000	21.305502
1961.000000	21.216638
1960.000000	21.125170
1959.000000	21.031531
1958.000000	20.946573
1957.000000	20.855105
1956.000000	20.767109
1955.000000	20.660558
1954.000000	20.591876
1953.000000	20.507894
1952.000000	20.406118
1951.000000	20.327670
1950.000000	20.246944
1949.000000	20.174897
1948.000000	20.094171
1947.000000	20.019737
1946.000000	19.958650
1945.000000	19.909390
1944.000000	19.832678
1943.000000	19.805118
1942.000000	19.725259
1941.000000	19.685439
1940.000000	19.655383
1939.000000	19.658964
1938.000000	19.643014
1937.000000	19.628474
1936.000000	19.630210
1935.000000	19.644316
1934.000000	19.629885
1933.000000	19.678386
1932.000000	19.685656
1931.000000	19.712998
1930.000000	19.751626
1929.000000	19.829423
1928.000000	19.923821
1927.000000	20.013770
1926.000000	20.130085
1925.000000	20.238263
1924.000000	20.330166
1923.000000	20.401669
1922.000000	20.582870
1921.000000	20.769496
1920.000000	21.001693
1919.000000	21.218374
1918.000000	21.396754
1917.000000	21.549201
1916.000000	21.688953
1915.000000	21.877098
1914.000000	22.168646
1913.000000	22.529420
1912.000000	22.886396
1911.000000	23.190097
1910.000000	23.478933
1909.000000	23.691057
1908.000000	23.959169
1907.000000	24.312673
1906.000000	24.761551
1905.000000	25.325986
1904.000000	25.849514
1903.000000	26.264323
1902.000000	26.699638
1901.000000	27.163056
1900.000000	27.711323
1899.000000	28.380789
1898.000000	28.968986
1897.000000	29.553602
1896.000000	30.015284
1895.000000	30.418916
1894.000000	30.899478
1893.000000	31.434291
1892.000000	32.052217
1891.000000	32.715390
1890.000000	33.295340
1889.000000	33.804221
1888.000000	34.331981
1887.000000	34.763608
1886.000000	35.203806
1885.000000	35.668309
1884.000000	36.175236
1883.000000	36.660680
1882.000000	37.046844
1881.000000	37.393621
1880.000000	37.688750
1879.000000	37.959791
1878.000000	38.280310
1877.000000	38.580105
1876.000000	38.859718
1875.000000	39.118824
1874.000000	39.378473
1873.000000	39.670021
1872.000000	39.956904
1871.000000	40.209391
1870.000000	40.472837
1869.000000	40.705252
1868.000000	40.885042
1867.000000	41.013401
1866.000000	41.053547
1865.000000	41.109752
1864.000000	41.168995
1863.000000	41.181473
1862.000000	41.248419
1861.000000	41.353668
1860.000000	41.477144
1859.000000	41.595305
1858.000000	41.694043
1857.000000	41.766197
1856.000000	41.794625
1855.000000	41.824030
1854.000000	41.904756
1853.000000	41.948917
1852.000000	41.959116
1851.000000	41.958248
1850.000000	41.923636
1849.000000	41.917668
1848.000000	42.018468
1847.000000	42.168202
1846.000000	42.189252
1845.000000	42.086174
1844.000000	41.955753
1843.000000	41.870578
1842.000000	41.907794
1841.000000	41.990365
1840.000000	42.001324
1839.000000	41.962588
1838.000000	41.903454
1837.000000	41.909205
1836.000000	41.933184
1835.000000	41.927867
1834.000000	41.865478
1833.000000	41.756107
1832.000000	41.682867
1831.000000	41.650099
1830.000000	41.663445
1829.000000	41.661926
1828.000000	41.612231
1827.000000	41.575014
1826.000000	41.585539
1825.000000	41.575448
1824.000000	41.515880
1823.000000	41.458265
1822.000000	41.484848
1821.000000	41.565141
1820.000000	41.628181
1819.000000	41.631979
1818.000000	41.584888
1817.000000	41.536062
1816.000000	41.530854
1815.000000	41.543766
1814.000000	41.539100
1813.000000	41.521088
1812.000000	41.488103
1811.000000	41.476385
1810.000000	41.440253
1809.000000	41.394573
1808.000000	41.358225
1807.000000	41.333377
1806.000000	41.333486
1805.000000	41.310266
1804.000000	41.277932
1803.000000	41.251349
1802.000000	41.243537
1801.000000	41.231493
1800.000000	41.210552
1799.000000	41.178760
1798.000000	41.146969
1797.000000	41.118866
1796.000000	41.112465
1795.000000	41.087834
1794.000000	41.068304
1793.000000	41.064615
1792.000000	41.047146
1791.000000	41.016439
1790.000000	41.002768
1789.000000	41.012099
1788.000000	41.011882
1787.000000	41.002551
1786.000000	41.018718
1785.000000	41.019911
1784.000000	41.021756
1783.000000	41.005263
1782.000000	41.011231
1781.000000	41.001357
1780.000000	40.977378
1779.000000	40.920956
1778.000000	40.890141
1777.000000	40.866813
1776.000000	40.823954
1775.000000	40.782180
1774.000000	40.737477
1773.000000	40.685721
1772.000000	40.646985
1771.000000	40.595880
1770.000000	40.558338
1769.000000	40.510054
1768.000000	40.444192
1767.000000	40.396994
1766.000000	40.353592
1765.000000	40.336340
1764.000000	40.300751
1763.000000	40.276121
1762.000000	40.254312
1761.000000	40.259303
1760.000000	40.268200
1759.000000	40.282848
1758.000000	40.280244
1757.000000	40.293590
1756.000000	40.296845
1755.000000	40.315725
1754.000000	40.319305
1753.000000	40.336449
1752.000000	40.339921
1751.000000	40.336557
1750.000000	40.326792
1749.000000	40.309757
1748.000000	40.276555
1747.000000	40.219808
1746.000000	40.190403
1745.000000	40.124433
1744.000000	40.062695
1743.000000	39.989780
1742.000000	39.901242
1741.000000	39.812811
1740.000000	39.726226
1739.000000	39.635300
1738.000000	39.538298
1737.000000	39.465058
1736.000000	39.384874
1735.000000	39.291344
1734.000000	39.214090
1733.000000	39.139440
1732.000000	39.061751
1731.000000	38.988403
1730.000000	38.928835
1729.000000	38.868832
1728.000000	38.827492
1727.000000	38.748502
1726.000000	38.727452
1725.000000	38.695986
1724.000000	38.696420
1723.000000	38.721268
1722.000000	38.796026
1721.000000	38.899647
1720.000000	39.038748
1719.000000	39.210075
1718.000000	39.421982
1717.000000	39.647127
1716.000000	39.861638
1715.000000	40.080164
1714.000000	40.295543
1713.000000	40.479673
1712.000000	40.663912
1711.000000	40.828511
1710.000000	40.964032
1709.000000	41.077744
1708.000000	41.209901
1707.000000	41.303322
1706.000000	41.410415
1705.000000	41.497869
1704.000000	41.560150
1703.000000	41.610387
1702.000000	41.661492
1701.000000	41.706521
1700.000000	41.734948
1699.000000	41.768910
1698.000000	41.792347
1697.000000	41.807320
1696.000000	41.800159
1695.000000	41.758819
1694.000000	41.691656
1693.000000	41.640768
1692.000000	41.556677
1691.000000	41.479098
1690.000000	41.406183
1689.000000	41.375911
1688.000000	41.375477
1687.000000	41.410957
1686.000000	41.498845
1685.000000	41.651509
1684.000000	41.810467
1683.000000	41.976368
1682.000000	42.193375
1681.000000	42.406150
1680.000000	42.633465
1679.000000	42.816944
1678.000000	43.025162
1677.000000	43.197899
1676.000000	43.334396
1675.000000	43.501275
1674.000000	43.631804
1673.000000	43.810184
1672.000000	43.960135
1671.000000	44.116272
1670.000000	44.268393
1669.000000	44.455779
1668.000000	44.613434
1667.000000	44.801145
1666.000000	44.939595
1665.000000	45.097684
1664.000000	45.247636
1663.000000	45.379034
1662.000000	45.537991
1661.000000	45.686532
1660.000000	45.798182
1659.000000	45.896378
1658.000000	46.007377
1657.000000	46.083546
1656.000000	46.179788
1655.000000	46.247929
1654.000000	46.308582
1653.000000	46.332670
1652.000000	46.387355
1651.000000	46.413505
1650.000000	46.441065
1649.000000	46.452132
1648.000000	46.460704
1647.000000	46.467539
1646.000000	46.471011
1645.000000	46.476003
1644.000000	46.482513
1643.000000	46.480994
1642.000000	46.466780
1641.000000	46.500958
1640.000000	46.495967
1639.000000	46.483381
1638.000000	46.475026
1637.000000	46.469926
1636.000000	46.461246
1635.000000	46.443777
1634.000000	46.414156
1633.000000	46.396795
1632.000000	46.369669
1631.000000	46.361206
1630.000000	46.343412
1629.000000	46.298383
1628.000000	46.243371
1627.000000	46.228289
1626.000000	46.192917
1625.000000	46.154833
1624.000000	46.133783
1623.000000	46.093854
1622.000000	46.069441
1621.000000	46.026907
1620.000000	45.991101
1619.000000	45.967447
1618.000000	45.940756
1617.000000	45.902128
1616.000000	45.872941
1615.000000	45.836158
1614.000000	45.809575
1613.000000	45.778977
1612.000000	45.735901
1611.000000	45.701072
1610.000000	45.658321
1609.000000	45.622298
1608.000000	45.563489
1607.000000	45.507502
1606.000000	45.452924
