PE UV       SUBTECH     SPECTRUM    ASCII       PEDS        4.00        
   -1
CICIMAUCR0012-3.Sample.ASC
24/04/12
09:39:08.00
24/04/12
09:39:08.00
Vinicio Soto Monge
C. cupreomarginata
250,000000
1
Lambda 1050
1050L1511233
PerkinElmer UV WinLab 6.3.2.0749 / 2.02.05 Lambda 900 UV/VIS/NIR, Aug  7 2015 09:38:08

0
0
3350/servo 860,8/2
0
0
UV/VIS
1
1
1
DoubleDePol,CommonBeamDepol,RBeamAtt,SBeamAtt,60mm sphere, WB InGaAs Detector
0
0
0
0
Program
Program
3350/servo 860,8/2
3350/0,2 860,8/0,2
3350/0,2 860,8/0,2
0
15.00
 
 
 
0
 
860,8
319,2
860,8
Front
100
on
S:100 R:100
0
0
0
0
 
0
 
 
 
0
 
 
0
0
0
0
0
 
 
 
 
0
0


0
0
#HDR
-1
-1
#GR
nm
%R
1.0
0.0
2500,000000
-1,000000
2251
8
59,329800
5,000400
#DATA
2482.000000	7.149594
2481.000000	7.153652
2480.000000	7.108895
2479.000000	7.095647
2478.000000	7.060677
2477.000000	7.058051
2476.000000	7.088366
2475.000000	7.072373
2474.000000	7.048025
2473.000000	7.083234
2472.000000	7.120830
2471.000000	7.036209
2470.000000	7.097318
2469.000000	7.095528
2468.000000	7.061751
2467.000000	7.077267
2466.000000	7.067480
2465.000000	7.076670
2464.000000	7.116772
2463.000000	7.141359
2462.000000	7.155443
2461.000000	7.149236
2460.000000	7.153652
2459.000000	7.172033
2458.000000	7.211419
2457.000000	7.199484
2456.000000	7.212374
2455.000000	7.259757
2454.000000	7.293295
2453.000000	7.322656
2452.000000	7.382929
2451.000000	7.398206
2450.000000	7.422316
2449.000000	7.449648
2448.000000	7.504669
2447.000000	7.506221
2446.000000	7.551814
2445.000000	7.601822
2444.000000	7.656009
2443.000000	7.667825
2442.000000	7.716282
2441.000000	7.744927
2440.000000	7.787297
2439.000000	7.827519
2438.000000	7.835635
2437.000000	7.879676
2436.000000	7.908321
2435.000000	7.928491
2434.000000	7.958688
2433.000000	7.999864
2432.000000	8.036028
2431.000000	8.036625
2430.000000	8.072192
2429.000000	8.098808
2428.000000	8.164333
2427.000000	8.218280
2426.000000	8.291085
2425.000000	8.336917
2424.000000	8.380958
2423.000000	8.402800
2422.000000	8.411632
2421.000000	8.446483
2420.000000	8.445647
2419.000000	8.487779
2418.000000	8.532775
2417.000000	8.535759
2416.000000	8.556645
2415.000000	8.579919
2414.000000	8.624438
2413.000000	8.662631
2412.000000	8.679221
2411.000000	8.689008
2410.000000	8.696288
2409.000000	8.721591
2408.000000	8.757994
2407.000000	8.769452
2406.000000	8.780671
2405.000000	8.832350
2404.000000	8.849657
2403.000000	8.876869
2402.000000	8.910407
2401.000000	8.950152
2400.000000	8.980706
2399.000000	8.989658
2398.000000	8.995864
2397.000000	9.006844
2396.000000	9.050886
2395.000000	9.063060
2394.000000	9.105907
2393.000000	9.142907
2392.000000	9.128584
2391.000000	9.151023
2390.000000	9.192080
2389.000000	9.204612
2388.000000	9.209506
2387.000000	9.204970
2386.000000	9.207118
2385.000000	9.213444
2384.000000	9.234808
2383.000000	9.235882
2382.000000	9.243044
2381.000000	9.235166
2380.000000	9.236718
2379.000000	9.235763
2378.000000	9.224663
2377.000000	9.219054
2376.000000	9.219412
2375.000000	9.205089
2374.000000	9.184919
2373.000000	9.177996
2372.000000	9.168448
2371.000000	9.163555
2370.000000	9.146248
2369.000000	9.113426
2368.000000	9.088720
2367.000000	9.078695
2366.000000	9.034057
2365.000000	8.988106
2364.000000	8.966384
2363.000000	8.943707
2362.000000	8.897517
2361.000000	8.853476
2360.000000	8.831634
2359.000000	8.800961
2358.000000	8.770884
2357.000000	8.743910
2356.000000	8.737823
2355.000000	8.738897
2354.000000	8.725530
2353.000000	8.703449
2352.000000	8.720517
2351.000000	8.744865
2350.000000	8.760142
2349.000000	8.783893
2348.000000	8.819341
2347.000000	8.846195
2346.000000	8.867440
2345.000000	8.914585
2344.000000	8.949316
2343.000000	8.977484
2342.000000	9.019376
2341.000000	9.038354
2340.000000	9.048379
2339.000000	9.075353
2338.000000	9.080724
2337.000000	9.083588
2336.000000	9.075711
2335.000000	9.083469
2334.000000	9.084782
2333.000000	9.047186
2332.000000	9.028567
2331.000000	9.015676
2330.000000	8.990135
2329.000000	8.968055
2328.000000	8.929504
2327.000000	8.881046
2326.000000	8.860040
2325.000000	8.813970
2324.000000	8.772555
2323.000000	8.739375
2322.000000	8.694259
2321.000000	8.650099
2320.000000	8.599970
2319.000000	8.544352
2318.000000	8.486824
2317.000000	8.450302
2316.000000	8.406499
2315.000000	8.339423
2314.000000	8.285476
2313.000000	8.260770
2312.000000	8.215893
2311.000000	8.188919
2310.000000	8.174836
2309.000000	8.152517
2308.000000	8.116353
2307.000000	8.118859
2306.000000	8.133539
2305.000000	8.151084
2304.000000	8.168510
2303.000000	8.205867
2302.000000	8.235944
2301.000000	8.266618
2300.000000	8.336081
2299.000000	8.382510
2298.000000	8.401845
2297.000000	8.456031
2296.000000	8.506995
2295.000000	8.564761
2294.000000	8.594003
2293.000000	8.617396
2292.000000	8.617993
2291.000000	8.654037
2290.000000	8.677908
2289.000000	8.685427
2288.000000	8.661557
2287.000000	8.649621
2286.000000	8.642699
2285.000000	8.640789
2284.000000	8.622647
2283.000000	8.610235
2282.000000	8.572161
2281.000000	8.568819
2280.000000	8.553662
2279.000000	8.529075
2278.000000	8.511769
2277.000000	8.500669
2276.000000	8.492195
2275.000000	8.480140
2274.000000	8.477395
2273.000000	8.475724
2272.000000	8.469518
2271.000000	8.469398
2270.000000	8.493030
2269.000000	8.523704
2268.000000	8.566074
2267.000000	8.623960
2266.000000	8.675163
2265.000000	8.757755
2264.000000	8.858489
2263.000000	8.935710
2262.000000	9.034773
2261.000000	9.173580
2260.000000	9.288159
2259.000000	9.422431
2258.000000	9.596209
2257.000000	9.750055
2256.000000	9.883730
2255.000000	10.084243
2254.000000	10.246682
2253.000000	10.386205
2252.000000	10.553061
2251.000000	10.736029
2250.000000	10.862781
2249.000000	10.995024
2248.000000	11.157702
2247.000000	11.289587
2246.000000	11.440807
2245.000000	11.549538
2244.000000	11.652539
2243.000000	11.767834
2242.000000	11.865823
2241.000000	11.982789
2240.000000	12.076003
2239.000000	12.177095
2238.000000	12.268519
2237.000000	12.347173
2236.000000	12.428094
2235.000000	12.496841
2234.000000	12.547328
2233.000000	12.582059
2232.000000	12.647584
2231.000000	12.725163
2230.000000	12.760014
2229.000000	12.806204
2228.000000	12.834610
2227.000000	12.842726
2226.000000	12.858361
2225.000000	12.851797
2224.000000	12.889393
2223.000000	12.911235
2222.000000	12.913980
2221.000000	12.889035
2220.000000	12.909802
2219.000000	12.897151
2218.000000	12.902999
2217.000000	12.879725
2216.000000	12.867193
2215.000000	12.831865
2214.000000	12.840816
2213.000000	12.829239
2212.000000	12.821720
2211.000000	12.789972
2210.000000	12.801072
2209.000000	12.799878
2208.000000	12.759656
2207.000000	12.755956
2206.000000	12.761685
2205.000000	12.729460
2204.000000	12.738889
2203.000000	12.748199
2202.000000	12.705948
2201.000000	12.698906
2200.000000	12.691028
2199.000000	12.688164
2198.000000	12.681361
2197.000000	12.691267
2196.000000	12.696877
2195.000000	12.670858
2194.000000	12.655819
2193.000000	12.649613
2192.000000	12.634933
2191.000000	12.638871
2190.000000	12.636007
2189.000000	12.593756
2188.000000	12.588146
2187.000000	12.571676
2186.000000	12.582179
2185.000000	12.562485
2184.000000	12.528947
2183.000000	12.535154
2182.000000	12.512238
2181.000000	12.481326
2180.000000	12.493738
2179.000000	12.466406
2178.000000	12.454949
2177.000000	12.447310
2176.000000	12.451607
2175.000000	12.454590
2174.000000	12.459126
2173.000000	12.434778
2172.000000	12.443491
2171.000000	12.467361
2170.000000	12.476790
2169.000000	12.445400
2168.000000	12.464019
2167.000000	12.460558
2166.000000	12.473210
2165.000000	12.491112
2164.000000	12.506032
2163.000000	12.513073
2162.000000	12.538018
2161.000000	12.541837
2160.000000	12.555921
2159.000000	12.562247
2158.000000	12.573466
2157.000000	12.609391
2156.000000	12.657371
2155.000000	12.675274
2154.000000	12.695325
2153.000000	12.726238
2152.000000	12.735428
2151.000000	12.747840
2150.000000	12.775769
2149.000000	12.820168
2148.000000	12.839862
2147.000000	12.835804
2146.000000	12.849171
2145.000000	12.878174
2144.000000	12.915054
2143.000000	12.917441
2142.000000	12.921976
2141.000000	12.947040
2140.000000	12.977475
2139.000000	12.985830
2138.000000	13.003972
2137.000000	13.014117
2136.000000	13.019965
2135.000000	13.024262
2134.000000	13.032855
2133.000000	13.035242
2132.000000	13.034645
2131.000000	13.038345
2130.000000	13.029036
2129.000000	13.042523
2128.000000	13.070809
2127.000000	13.041090
2126.000000	13.021039
2125.000000	13.014117
2124.000000	12.987740
2123.000000	12.981175
2122.000000	12.977953
2121.000000	12.958379
2120.000000	12.917918
2119.000000	12.898464
2118.000000	12.891303
2117.000000	12.882948
2116.000000	12.872325
2115.000000	12.835923
2114.000000	12.815275
2113.000000	12.800356
2112.000000	12.782214
2111.000000	12.755240
2110.000000	12.730176
2109.000000	12.705351
2108.000000	12.678735
2107.000000	12.675035
2106.000000	12.665129
2105.000000	12.636007
2104.000000	12.621446
2103.000000	12.600320
2102.000000	12.575495
2101.000000	12.576927
2100.000000	12.554369
2099.000000	12.518802
2098.000000	12.500899
2097.000000	12.494574
2096.000000	12.505793
2095.000000	12.499348
2094.000000	12.490396
2093.000000	12.488009
2092.000000	12.480729
2091.000000	12.488129
2090.000000	12.493738
2089.000000	12.479058
2088.000000	12.471539
2087.000000	12.473329
2086.000000	12.479655
2085.000000	12.466764
2084.000000	12.436449
2083.000000	12.436449
2082.000000	12.450055
2081.000000	12.429288
2080.000000	12.421172
2079.000000	12.425707
2078.000000	12.410430
2077.000000	12.398017
2076.000000	12.413056
2075.000000	12.390259
2074.000000	12.374624
2073.000000	12.368776
2072.000000	12.362211
2071.000000	12.358750
2070.000000	12.351589
2069.000000	12.344905
2068.000000	12.344547
2067.000000	12.323780
2066.000000	12.324138
2065.000000	12.308145
2064.000000	12.305638
2063.000000	12.324257
2062.000000	12.313038
2061.000000	12.307070
2060.000000	12.337625
2059.000000	12.350395
2058.000000	12.362092
2057.000000	12.385605
2056.000000	12.436568
2055.000000	12.483355
2054.000000	12.514148
2053.000000	12.572630
2052.000000	12.634455
2051.000000	12.693296
2050.000000	12.777679
2049.000000	12.868029
2048.000000	12.964943
2047.000000	13.073793
2046.000000	13.185149
2045.000000	13.286719
2044.000000	13.401297
2043.000000	13.518860
2042.000000	13.625919
2041.000000	13.760788
2040.000000	13.897089
2039.000000	14.010236
2038.000000	14.114550
2037.000000	14.226742
2036.000000	14.369488
2035.000000	14.472847
2034.000000	14.569523
2033.000000	14.660709
2032.000000	14.755475
2031.000000	14.830070
2030.000000	14.935340
2029.000000	15.026287
2028.000000	15.128214
2027.000000	15.204122
2026.000000	15.262486
2025.000000	15.350688
2024.000000	15.415258
2023.000000	15.481737
2022.000000	15.561584
2021.000000	15.619351
2020.000000	15.702182
2019.000000	15.766752
2018.000000	15.811032
2017.000000	15.858057
2016.000000	15.915585
2015.000000	15.968816
2014.000000	16.036609
2013.000000	16.079934
2012.000000	16.104043
2011.000000	16.131852
2010.000000	16.147368
2009.000000	16.165510
2008.000000	16.208954
2007.000000	16.203822
2006.000000	16.200241
2005.000000	16.220293
2004.000000	16.225425
2003.000000	16.209551
2002.000000	16.208238
2001.000000	16.158468
2000.000000	16.153216
1999.000000	16.142475
1998.000000	16.105595
1997.000000	16.092346
1996.000000	16.054153
1995.000000	16.012141
1994.000000	15.974903
1993.000000	15.929549
1992.000000	15.883718
1991.000000	15.838483
1990.000000	15.799335
1989.000000	15.729156
1988.000000	15.687859
1987.000000	15.638805
1986.000000	15.566000
1985.000000	15.507040
1984.000000	15.453928
1983.000000	15.388523
1982.000000	15.337081
1981.000000	15.272989
1980.000000	15.220474
1979.000000	15.118427
1978.000000	15.067344
1977.000000	14.989884
1976.000000	14.955749
1975.000000	14.872321
1974.000000	14.829832
1973.000000	14.769797
1972.000000	14.704034
1971.000000	14.640419
1970.000000	14.610103
1969.000000	14.541953
1968.000000	14.478338
1967.000000	14.455899
1966.000000	14.405055
1965.000000	14.327714
1964.000000	14.253238
1963.000000	14.235455
1962.000000	14.173152
1961.000000	14.115505
1960.000000	14.093186
1959.000000	14.015129
1958.000000	13.956646
1957.000000	13.898760
1956.000000	13.882886
1955.000000	13.817720
1954.000000	13.766756
1953.000000	13.692041
1952.000000	13.660412
1951.000000	13.614700
1950.000000	13.586772
1949.000000	13.567675
1948.000000	13.522560
1947.000000	13.484128
1946.000000	13.436626
1945.000000	13.438655
1944.000000	13.420871
1943.000000	13.391391
1942.000000	13.408339
1941.000000	13.396404
1940.000000	13.418604
1939.000000	13.396643
1938.000000	13.404878
1937.000000	13.404401
1936.000000	13.431732
1935.000000	13.478757
1934.000000	13.538314
1933.000000	13.587130
1932.000000	13.613029
1931.000000	13.695383
1930.000000	13.744437
1929.000000	13.818794
1928.000000	13.906041
1927.000000	13.988752
1926.000000	14.105599
1925.000000	14.197739
1924.000000	14.329027
1923.000000	14.443128
1922.000000	14.552575
1921.000000	14.705705
1920.000000	14.846064
1919.000000	14.970549
1918.000000	15.153039
1917.000000	15.350449
1916.000000	15.508353
1915.000000	15.672702
1914.000000	15.870469
1913.000000	16.055586
1912.000000	16.249176
1911.000000	16.450286
1910.000000	16.687917
1909.000000	16.897262
1908.000000	17.128210
1907.000000	17.342329
1906.000000	17.586764
1905.000000	17.820098
1904.000000	18.059878
1903.000000	18.325080
1902.000000	18.571186
1901.000000	18.852023
1900.000000	19.115316
1899.000000	19.387440
1898.000000	19.671261
1897.000000	19.953531
1896.000000	20.237710
1895.000000	20.530244
1894.000000	20.823374
1893.000000	21.112686
1892.000000	21.401520
1891.000000	21.684028
1890.000000	21.947201
1889.000000	22.277450
1888.000000	22.630854
1887.000000	23.008725
1886.000000	23.421925
1885.000000	23.876659
1884.000000	24.407899
1883.000000	24.904646
1882.000000	25.446866
1881.000000	26.061652
1880.000000	26.588953
1879.000000	27.107661
1878.000000	27.596053
1877.000000	28.057829
1876.000000	28.450380
1875.000000	28.824432
1874.000000	29.191084
1873.000000	29.500686
1872.000000	29.767081
1871.000000	30.031806
1870.000000	30.244851
1869.000000	30.455031
1868.000000	30.658050
1867.000000	30.790413
1866.000000	30.889475
1865.000000	30.996893
1864.000000	31.090466
1863.000000	31.175206
1862.000000	31.231541
1861.000000	31.250398
1860.000000	31.253024
1859.000000	31.213996
1858.000000	31.173535
1857.000000	31.162913
1856.000000	31.134507
1855.000000	31.062179
1854.000000	30.977319
1853.000000	30.881837
1852.000000	30.801990
1851.000000	30.761887
1850.000000	30.716652
1849.000000	30.614964
1848.000000	30.436531
1847.000000	30.263828
1846.000000	30.159275
1845.000000	30.138865
1844.000000	30.138149
1843.000000	30.131227
1842.000000	30.079786
1841.000000	29.971413
1840.000000	29.872231
1839.000000	29.787013
1838.000000	29.710985
1837.000000	29.635554
1836.000000	29.547352
1835.000000	29.431342
1834.000000	29.335621
1833.000000	29.281434
1832.000000	29.206958
1831.000000	29.102286
1830.000000	28.970759
1829.000000	28.834697
1828.000000	28.701379
1827.000000	28.592530
1826.000000	28.505999
1825.000000	28.445248
1824.000000	28.414574
1823.000000	28.428181
1822.000000	28.393688
1821.000000	28.294983
1820.000000	28.209168
1819.000000	28.167753
1818.000000	28.167514
1817.000000	28.198665
1816.000000	28.201888
1815.000000	28.178614
1814.000000	28.169543
1813.000000	28.148298
1812.000000	28.120012
1811.000000	28.061051
1810.000000	28.000301
1809.000000	27.978817
1808.000000	27.956737
1807.000000	27.888586
1806.000000	27.796565
1805.000000	27.725192
1804.000000	27.668500
1803.000000	27.621117
1802.000000	27.554995
1801.000000	27.467390
1800.000000	27.390646
1799.000000	27.318677
1798.000000	27.271890
1797.000000	27.236442
1796.000000	27.180705
1795.000000	27.107064
1794.000000	27.050252
1793.000000	26.967063
1792.000000	26.870387
1791.000000	26.809278
1790.000000	26.731818
1789.000000	26.639797
1788.000000	26.564486
1787.000000	26.462797
1786.000000	26.354067
1785.000000	26.245933
1784.000000	26.125029
1783.000000	25.997918
1782.000000	25.875223
1781.000000	25.764583
1780.000000	25.649646
1779.000000	25.528861
1778.000000	25.368689
1777.000000	25.197657
1776.000000	25.031160
1775.000000	24.853801
1774.000000	24.661643
1773.000000	24.462324
1772.000000	24.275775
1771.000000	24.099252
1770.000000	23.899933
1769.000000	23.731288
1768.000000	23.576368
1767.000000	23.417270
1766.000000	23.278701
1765.000000	23.198138
1764.000000	23.157916
1763.000000	23.129630
1762.000000	23.172597
1761.000000	23.249102
1760.000000	23.335513
1759.000000	23.450689
1758.000000	23.524210
1757.000000	23.606803
1756.000000	23.650605
1755.000000	23.697749
1754.000000	23.715414
1753.000000	23.705030
1752.000000	23.685098
1751.000000	23.613367
1750.000000	23.539726
1749.000000	23.445318
1748.000000	23.311762
1747.000000	23.184413
1746.000000	23.009203
1745.000000	22.811674
1744.000000	22.582874
1743.000000	22.281747
1742.000000	21.995300
1741.000000	21.692502
1740.000000	21.352704
1739.000000	21.034510
1738.000000	20.776349
1737.000000	20.540269
1736.000000	20.364940
1735.000000	20.300848
1734.000000	20.247974
1733.000000	20.294761
1732.000000	20.391914
1731.000000	20.525708
1730.000000	20.655564
1729.000000	20.831252
1728.000000	20.984739
1727.000000	21.139421
1726.000000	21.267844
1725.000000	21.357001
1724.000000	21.408920
1723.000000	21.464419
1722.000000	21.489125
1721.000000	21.454751
1720.000000	21.468715
1719.000000	21.497718
1718.000000	21.548682
1717.000000	21.599287
1716.000000	21.631871
1715.000000	21.736901
1714.000000	21.816271
1713.000000	21.863535
1712.000000	21.929059
1711.000000	21.949349
1710.000000	21.945769
1709.000000	21.944217
1708.000000	21.921779
1707.000000	21.883108
1706.000000	21.815555
1705.000000	21.754924
1704.000000	21.655980
1703.000000	21.552382
1702.000000	21.391017
1701.000000	21.232397
1700.000000	21.030690
1699.000000	20.797117
1698.000000	20.622742
1697.000000	20.507805
1696.000000	20.414233
1695.000000	20.434403
1694.000000	20.548385
1693.000000	20.740902
1692.000000	20.947621
1691.000000	21.196710
1690.000000	21.392330
1689.000000	21.524095
1688.000000	21.572194
1687.000000	21.549517
1686.000000	21.555962
1685.000000	21.595707
1684.000000	21.749195
1683.000000	22.020245
1682.000000	22.519021
1681.000000	23.232512
1680.000000	23.955910
1679.000000	24.730868
1678.000000	25.466201
1677.000000	26.160834
1676.000000	26.755092
1675.000000	27.282990
1674.000000	27.727460
1673.000000	28.156534
1672.000000	28.457183
1671.000000	28.742437
1670.000000	28.986752
1669.000000	29.193949
1668.000000	29.399832
1667.000000	29.580891
1666.000000	29.719459
1665.000000	29.843348
1664.000000	29.931191
1663.000000	30.029061
1662.000000	30.104611
1661.000000	30.159155
1660.000000	30.214058
1659.000000	30.241031
1658.000000	30.277434
1657.000000	30.255950
1656.000000	30.270750
1655.000000	30.277911
1654.000000	30.258099
1653.000000	30.230170
1652.000000	30.176223
1651.000000	30.157126
1650.000000	30.108788
1649.000000	30.054960
1648.000000	29.987526
1647.000000	29.904695
1646.000000	29.820193
1645.000000	29.743211
1644.000000	29.664438
1643.000000	29.569313
1642.000000	29.493763
1641.000000	29.409858
1640.000000	29.319150
1639.000000	29.204213
1638.000000	29.113744
1637.000000	29.034851
1636.000000	28.926002
1635.000000	28.812616
1634.000000	28.675838
1633.000000	28.589784
1632.000000	28.486425
1631.000000	28.360866
1630.000000	28.244139
1629.000000	28.134573
1628.000000	28.011997
1627.000000	27.896344
1626.000000	27.757776
1625.000000	27.644987
1624.000000	27.541628
1623.000000	27.418456
1622.000000	27.305906
1621.000000	27.197653
1620.000000	27.081880
1619.000000	26.977208
1618.000000	26.859407
1617.000000	26.759628
1616.000000	26.665339
1615.000000	26.540496
1614.000000	26.425798
1613.000000	26.332344
1612.000000	26.246888
1611.000000	26.133741
1610.000000	26.045778
1609.000000	25.960202
1608.000000	25.854933
1607.000000	25.768044
1606.000000	25.681155
1605.000000	25.607156
1604.000000	25.496994
1603.000000	25.386950
1602.000000	25.296242
1601.000000	25.216634
1600.000000	25.109932
1599.000000	25.022924
1598.000000	24.953819
1597.000000	24.870391
1596.000000	24.793289
