PE UV       SUBTECH     SPECTRUM    ASCII       PEDS        4.00        
   -1
CICIMAUCR0244-2.Sample.ASC
24/06/21
14:36:34.00
24/06/21
14:36:34.00
Vinicio Soto Monge
C. cupreomarginata. Ventral. Sex M
250,000000
1
Lambda 1050
1050L1511233
PerkinElmer UV WinLab 6.3.2.0749 / 2.02.05 Lambda 900 UV/VIS/NIR, Aug  7 2015 09:38:08

0
0
3350/servo 860,8/2
0
0
UV/VIS
1
1
1
DoubleDePol,CommonBeamDepol,RBeamAtt,SBeamAtt,60mm sphere, WB InGaAs Detector
0
0
0
0
Program
Program
3350/servo 860,8/2
3350/0,2 860,8/0,2
3350/0,2 860,8/0,2
0
15.00
 
 
 
0
 
860,8
319,2
860,8
Front
100
on
S:100 R:100
0
0
0
0
 
0
 
 
 
0
 
 
0
0
0
0
0
 
 
 
 
0
0


0
0
#HDR
-1
-1
#GR
nm
%R
1.0
0.0
2500,000000
-1,000000
2251
8
56,913700
3,918900
#DATA
2482.000000	4.819468
2481.000000	4.804345
2480.000000	4.818908
2479.000000	4.801880
2478.000000	4.750349
2477.000000	4.834479
2476.000000	4.790342
2475.000000	4.761664
2474.000000	4.819580
2473.000000	4.777123
2472.000000	4.769617
2471.000000	4.776675
2470.000000	4.709125
2469.000000	4.768161
2468.000000	4.730969
2467.000000	4.710357
2466.000000	4.707108
2465.000000	4.731193
2464.000000	4.756623
2463.000000	4.786197
2462.000000	4.745980
2461.000000	4.750797
2460.000000	4.784068
2459.000000	4.754942
2458.000000	4.743628
2457.000000	4.766369
2456.000000	4.784853
2455.000000	4.795159
2454.000000	4.790342
2453.000000	4.820140
2452.000000	4.836943
2451.000000	4.838064
2450.000000	4.837616
2449.000000	4.832350
2448.000000	4.864165
2447.000000	4.870662
2446.000000	4.881417
2445.000000	4.894523
2444.000000	4.904045
2443.000000	4.925666
2442.000000	4.918496
2441.000000	4.925106
2440.000000	4.952776
2439.000000	4.980445
2438.000000	5.010244
2437.000000	5.033544
2436.000000	5.014724
2435.000000	5.015845
2434.000000	5.037801
2433.000000	5.046987
2432.000000	5.058974
2431.000000	5.085635
2430.000000	5.099862
2429.000000	5.096277
2428.000000	5.108936
2427.000000	5.135038
2426.000000	5.144111
2425.000000	5.160131
2424.000000	5.144896
2423.000000	5.156770
2422.000000	5.182199
2421.000000	5.190265
2420.000000	5.194858
2419.000000	5.200683
2418.000000	5.213230
2417.000000	5.210317
2416.000000	5.220287
2415.000000	5.233954
2414.000000	5.251318
2413.000000	5.254118
2412.000000	5.246725
2411.000000	5.248069
2410.000000	5.261512
2409.000000	5.259944
2408.000000	5.269129
2407.000000	5.290078
2406.000000	5.303857
2405.000000	5.319428
2404.000000	5.308114
2403.000000	5.310130
2402.000000	5.321892
2401.000000	5.322901
2400.000000	5.328390
2399.000000	5.335223
2398.000000	5.364685
2397.000000	5.380369
2396.000000	5.399301
2395.000000	5.415208
2394.000000	5.421817
2393.000000	5.420809
2392.000000	5.422153
2391.000000	5.422713
2390.000000	5.437501
2389.000000	5.459569
2388.000000	5.463042
2387.000000	5.470995
2386.000000	5.471892
2385.000000	5.481862
2384.000000	5.486007
2383.000000	5.490712
2382.000000	5.492840
2381.000000	5.497881
2380.000000	5.486343
2379.000000	5.481526
2378.000000	5.488583
2377.000000	5.493736
2376.000000	5.495305
2375.000000	5.492616
2374.000000	5.488023
2373.000000	5.486343
2372.000000	5.484438
2371.000000	5.483990
2370.000000	5.484662
2369.000000	5.475028
2368.000000	5.466066
2367.000000	5.469875
2366.000000	5.460129
2365.000000	5.443102
2364.000000	5.423162
2363.000000	5.429547
2362.000000	5.440077
2361.000000	5.414424
2360.000000	5.388770
2359.000000	5.388994
2358.000000	5.387650
2357.000000	5.382049
2356.000000	5.375776
2355.000000	5.365918
2354.000000	5.365021
2353.000000	5.358972
2352.000000	5.366590
2351.000000	5.376112
2350.000000	5.375664
2349.000000	5.371743
2348.000000	5.373647
2347.000000	5.374095
2346.000000	5.377904
2345.000000	5.391123
2344.000000	5.397396
2343.000000	5.416888
2342.000000	5.423498
2341.000000	5.415656
2340.000000	5.423498
2339.000000	5.437276
2338.000000	5.439853
2337.000000	5.442878
2336.000000	5.461249
2335.000000	5.462594
2334.000000	5.470099
2333.000000	5.480517
2332.000000	5.472676
2331.000000	5.464162
2330.000000	5.454080
2329.000000	5.447807
2328.000000	5.449935
2327.000000	5.430443
2326.000000	5.411847
2325.000000	5.411511
2324.000000	5.407254
2323.000000	5.387202
2322.000000	5.375216
2321.000000	5.351243
2320.000000	5.326149
2319.000000	5.325813
2318.000000	5.297807
2317.000000	5.279772
2316.000000	5.274843
2315.000000	5.240115
2314.000000	5.213454
2313.000000	5.189369
2312.000000	5.187352
2311.000000	5.174582
2310.000000	5.152737
2309.000000	5.135598
2308.000000	5.134813
2307.000000	5.127084
2306.000000	5.116666
2305.000000	5.123947
2304.000000	5.120026
2303.000000	5.125852
2302.000000	5.128092
2301.000000	5.115321
2300.000000	5.136270
2299.000000	5.166628
2298.000000	5.182087
2297.000000	5.184888
2296.000000	5.210541
2295.000000	5.213006
2294.000000	5.244708
2293.000000	5.251542
2292.000000	5.258599
2291.000000	5.269690
2290.000000	5.268905
2289.000000	5.295119
2288.000000	5.307553
2287.000000	5.296799
2286.000000	5.286045
2285.000000	5.304865
2284.000000	5.299040
2283.000000	5.278651
2282.000000	5.286605
2281.000000	5.292654
2280.000000	5.263192
2279.000000	5.272490
2278.000000	5.258935
2277.000000	5.263864
2276.000000	5.253894
2275.000000	5.229697
2274.000000	5.248181
2273.000000	5.225440
2272.000000	5.235410
2271.000000	5.237427
2270.000000	5.246725
2269.000000	5.223424
2268.000000	5.245941
2267.000000	5.249077
2266.000000	5.261960
2265.000000	5.293663
2264.000000	5.310130
2263.000000	5.365694
2262.000000	5.385634
2261.000000	5.414536
2260.000000	5.449375
2259.000000	5.531040
2258.000000	5.578762
2257.000000	5.641719
2256.000000	5.696274
2255.000000	5.736267
2254.000000	5.812891
2253.000000	5.882569
2252.000000	5.936901
2251.000000	5.995153
2250.000000	6.081299
2249.000000	6.156914
2248.000000	6.189625
2247.000000	6.250006
2246.000000	6.306690
2245.000000	6.361469
2244.000000	6.422746
2243.000000	6.467779
2242.000000	6.512140
2241.000000	6.569272
2240.000000	6.605456
2239.000000	6.627300
2238.000000	6.661355
2237.000000	6.691490
2236.000000	6.703812
2235.000000	6.753887
2234.000000	6.769794
2233.000000	6.807994
2232.000000	6.825470
2231.000000	6.806090
2230.000000	6.820653
2229.000000	6.857620
2228.000000	6.860085
2227.000000	6.874984
2226.000000	6.885290
2225.000000	6.865238
2224.000000	6.880249
2223.000000	6.861093
2222.000000	6.883386
2221.000000	6.870727
2220.000000	6.844290
2219.000000	6.841713
2218.000000	6.828046
2217.000000	6.808106
2216.000000	6.793991
2215.000000	6.786037
2214.000000	6.782005
2213.000000	6.812699
2212.000000	6.767329
2211.000000	6.752654
2210.000000	6.726665
2209.000000	6.737083
2208.000000	6.727113
2207.000000	6.718935
2206.000000	6.710086
2205.000000	6.701572
2204.000000	6.695859
2203.000000	6.697091
2202.000000	6.682304
2201.000000	6.683536
2200.000000	6.666172
2199.000000	6.678383
2198.000000	6.652842
2197.000000	6.670653
2196.000000	6.663596
2195.000000	6.670429
2194.000000	6.652618
2193.000000	6.648921
2192.000000	6.667741
2191.000000	6.647577
2190.000000	6.651497
2189.000000	6.642087
2188.000000	6.646456
2187.000000	6.637943
2186.000000	6.642535
2185.000000	6.602879
2184.000000	6.607808
2183.000000	6.606912
2182.000000	6.597166
2181.000000	6.597278
2180.000000	6.593693
2179.000000	6.587868
2178.000000	6.593357
2177.000000	6.599967
2176.000000	6.580363
2175.000000	6.555829
2174.000000	6.591341
2173.000000	6.584283
2172.000000	6.588764
2171.000000	6.587084
2170.000000	6.570392
2169.000000	6.574761
2168.000000	6.597166
2167.000000	6.598622
2166.000000	6.595710
2165.000000	6.595598
2164.000000	6.598958
2163.000000	6.618562
2162.000000	6.635030
2161.000000	6.635926
2160.000000	6.652057
2159.000000	6.655418
2158.000000	6.661916
2157.000000	6.676479
2156.000000	6.705157
2155.000000	6.720840
2154.000000	6.714903
2153.000000	6.737083
2152.000000	6.757247
2151.000000	6.774835
2150.000000	6.796007
2149.000000	6.824573
2148.000000	6.840145
2147.000000	6.834207
2146.000000	6.861429
2145.000000	6.880697
2144.000000	6.892572
2143.000000	6.927635
2142.000000	6.922594
2141.000000	6.940966
2140.000000	6.953848
2139.000000	6.977373
2138.000000	6.988127
2137.000000	6.981406
2136.000000	7.003923
2135.000000	7.020838
2134.000000	7.027672
2133.000000	7.044923
2132.000000	7.060383
2131.000000	7.056910
2130.000000	7.069344
2129.000000	7.082899
2128.000000	7.077858
2127.000000	7.086260
2126.000000	7.087268
2125.000000	7.085924
2124.000000	7.076290
2123.000000	7.089173
2122.000000	7.087156
2121.000000	7.073041
2120.000000	7.080547
2119.000000	7.089060
2118.000000	7.066544
2117.000000	7.061391
2116.000000	7.053213
2115.000000	7.050412
2114.000000	7.036858
2113.000000	7.042571
2112.000000	7.031144
2111.000000	7.039658
2110.000000	7.035513
2109.000000	7.014677
2108.000000	6.994737
2107.000000	6.987791
2106.000000	6.985999
2105.000000	6.981070
2104.000000	6.983871
2103.000000	6.962810
2102.000000	6.943318
2101.000000	6.938949
2100.000000	6.937157
2099.000000	6.934916
2098.000000	6.922594
2097.000000	6.907695
2096.000000	6.898957
2095.000000	6.892235
2094.000000	6.890555
2093.000000	6.876328
2092.000000	6.863558
2091.000000	6.872967
2090.000000	6.871399
2089.000000	6.855940
2088.000000	6.843281
2087.000000	6.821661
2086.000000	6.821997
2085.000000	6.839809
2084.000000	6.822109
2083.000000	6.799480
2082.000000	6.797464
2081.000000	6.776291
2080.000000	6.762961
2079.000000	6.770466
2078.000000	6.757807
2077.000000	6.733386
2076.000000	6.723640
2075.000000	6.714006
2074.000000	6.692274
2073.000000	6.681408
2072.000000	6.672334
2071.000000	6.641191
2070.000000	6.628309
2069.000000	6.627636
2068.000000	6.599407
2067.000000	6.581035
2066.000000	6.561543
2065.000000	6.545635
2064.000000	6.522110
2063.000000	6.497241
2062.000000	6.494777
2061.000000	6.493208
2060.000000	6.477413
2059.000000	6.458369
2058.000000	6.457809
2057.000000	6.442350
2056.000000	6.419609
2055.000000	6.433948
2054.000000	6.452432
2053.000000	6.447727
2052.000000	6.434956
2051.000000	6.458481
2050.000000	6.483798
2049.000000	6.496233
2048.000000	6.519086
2047.000000	6.540930
2046.000000	6.574985
2045.000000	6.598062
2044.000000	6.623716
2043.000000	6.648137
2042.000000	6.674014
2041.000000	6.706389
2040.000000	6.740444
2039.000000	6.775843
2038.000000	6.807210
2037.000000	6.822781
2036.000000	6.845970
2035.000000	6.869383
2034.000000	6.895372
2033.000000	6.900973
2032.000000	6.942534
2031.000000	6.955529
2030.000000	6.952056
2029.000000	6.977821
2028.000000	6.993841
2027.000000	7.012325
2026.000000	7.028792
2025.000000	7.040554
2024.000000	7.045371
2023.000000	7.055117
2022.000000	7.073937
2021.000000	7.080099
2020.000000	7.066432
2019.000000	7.071809
2018.000000	7.071921
2017.000000	7.089285
2016.000000	7.078082
2015.000000	7.081219
2014.000000	7.094886
2013.000000	7.088724
2012.000000	7.082899
2011.000000	7.064863
2010.000000	7.077970
2009.000000	7.075282
2008.000000	7.046828
2007.000000	7.050749
2006.000000	7.044363
2005.000000	7.024311
2004.000000	7.016693
2003.000000	6.989136
2002.000000	6.965387
2001.000000	6.984095
2000.000000	6.934020
1999.000000	6.908927
1998.000000	6.907247
1997.000000	6.892908
1996.000000	6.863782
1995.000000	6.845858
1994.000000	6.816060
1993.000000	6.793207
1992.000000	6.790406
1991.000000	6.762737
1990.000000	6.729578
1989.000000	6.694178
1988.000000	6.651049
1987.000000	6.633686
1986.000000	6.615762
1985.000000	6.591901
1984.000000	6.576554
1983.000000	6.526703
1982.000000	6.511244
1981.000000	6.487831
1980.000000	6.467219
1979.000000	6.431372
1978.000000	6.395636
1977.000000	6.386674
1976.000000	6.362029
1975.000000	6.316660
1974.000000	6.312627
1973.000000	6.293135
1972.000000	6.254375
1971.000000	6.243844
1970.000000	6.210237
1969.000000	6.199147
1968.000000	6.173382
1967.000000	6.168341
1966.000000	6.118154
1965.000000	6.094517
1964.000000	6.074801
1963.000000	6.066960
1962.000000	6.065279
1961.000000	6.052845
1960.000000	6.006579
1959.000000	6.018229
1958.000000	5.983278
1957.000000	5.963002
1956.000000	5.948327
1955.000000	5.925250
1954.000000	5.907102
1953.000000	5.897916
1952.000000	5.879321
1951.000000	5.869462
1950.000000	5.823981
1949.000000	5.846274
1948.000000	5.813115
1947.000000	5.813899
1946.000000	5.803481
1945.000000	5.792502
1944.000000	5.761920
1943.000000	5.741308
1942.000000	5.787237
1941.000000	5.753518
1940.000000	5.740636
1939.000000	5.745005
1938.000000	5.754975
1937.000000	5.747581
1936.000000	5.722264
1935.000000	5.724616
1934.000000	5.757887
1933.000000	5.769202
1932.000000	5.758783
1931.000000	5.771666
1930.000000	5.794295
1929.000000	5.784997
1928.000000	5.799336
1927.000000	5.819948
1926.000000	5.837872
1925.000000	5.853107
1924.000000	5.903966
1923.000000	5.899597
1922.000000	5.927267
1921.000000	5.986863
1920.000000	5.999746
1919.000000	6.043323
1918.000000	6.062255
1917.000000	6.092277
1916.000000	6.136974
1915.000000	6.200940
1914.000000	6.222336
1913.000000	6.297952
1912.000000	6.362925
1911.000000	6.408519
1910.000000	6.465203
1909.000000	6.513709
1908.000000	6.588764
1907.000000	6.636374
1906.000000	6.739884
1905.000000	6.807434
1904.000000	6.898733
1903.000000	6.999554
1902.000000	7.074722
1901.000000	7.176327
1900.000000	7.291375
1899.000000	7.413368
1898.000000	7.541971
1897.000000	7.636294
1896.000000	7.760192
1895.000000	7.888683
1894.000000	8.021543
1893.000000	8.157203
1892.000000	8.293087
1891.000000	8.483079
1890.000000	8.679120
1889.000000	8.858469
1888.000000	9.067056
1887.000000	9.254023
1886.000000	9.480647
1885.000000	9.704245
1884.000000	9.975902
1883.000000	10.273436
1882.000000	10.597071
1881.000000	10.901102
1880.000000	11.218913
1879.000000	11.513198
1878.000000	11.810172
1877.000000	12.121709
1876.000000	12.461475
1875.000000	12.769092
1874.000000	13.099336
1873.000000	13.410089
1872.000000	13.716697
1871.000000	14.005717
1870.000000	14.288016
1869.000000	14.543989
1868.000000	14.792905
1867.000000	14.994659
1866.000000	15.170200
1865.000000	15.310677
1864.000000	15.435471
1863.000000	15.546374
1862.000000	15.648203
1861.000000	15.784648
1860.000000	15.899471
1859.000000	16.005109
1858.000000	16.117917
1857.000000	16.198014
1856.000000	16.264892
1855.000000	16.318887
1854.000000	16.341964
1853.000000	16.383636
1852.000000	16.405481
1851.000000	16.407497
1850.000000	16.396743
1849.000000	16.375683
1848.000000	16.394279
1847.000000	16.401448
1846.000000	16.416795
1845.000000	16.390918
1844.000000	16.349469
1843.000000	16.294802
1842.000000	16.270941
1841.000000	16.278222
1840.000000	16.280575
1839.000000	16.254585
1838.000000	16.245063
1837.000000	16.231061
1836.000000	16.192749
1835.000000	16.160710
1834.000000	16.126207
1833.000000	16.076132
1832.000000	16.003989
1831.000000	15.956491
1830.000000	15.920868
1829.000000	15.862952
1828.000000	15.820719
1827.000000	15.773221
1826.000000	15.729196
1825.000000	15.672288
1824.000000	15.610787
1823.000000	15.564074
1822.000000	15.524865
1821.000000	15.506942
1820.000000	15.500332
1819.000000	15.487562
1818.000000	15.456083
1817.000000	15.420348
1816.000000	15.403768
1815.000000	15.385396
1814.000000	15.366016
1813.000000	15.356606
1812.000000	15.338571
1811.000000	15.317062
1810.000000	15.305412
1809.000000	15.275165
1808.000000	15.233717
1807.000000	15.201566
1806.000000	15.175129
1805.000000	15.130879
1804.000000	15.086518
1803.000000	15.053583
1802.000000	15.028042
1801.000000	14.988274
1800.000000	14.941672
1799.000000	14.899215
1798.000000	14.847684
1797.000000	14.815758
1796.000000	14.778454
1795.000000	14.732300
1794.000000	14.689507
1793.000000	14.653660
1792.000000	14.626886
1791.000000	14.585774
1790.000000	14.540292
1789.000000	14.483273
1788.000000	14.460644
1787.000000	14.427037
1786.000000	14.372593
1785.000000	14.331817
1784.000000	14.276477
1783.000000	14.218337
1782.000000	14.166695
1781.000000	14.109115
1780.000000	14.053999
1779.000000	14.013447
1778.000000	13.961580
1777.000000	13.895598
1776.000000	13.828608
1775.000000	13.763747
1774.000000	13.684098
1773.000000	13.622821
1772.000000	13.553255
1771.000000	13.458483
1770.000000	13.362479
1769.000000	13.287311
1768.000000	13.207551
1767.000000	13.116700
1766.000000	13.040748
1765.000000	12.991122
1764.000000	12.940263
1763.000000	12.884812
1762.000000	12.867000
1761.000000	12.877754
1760.000000	12.887948
1759.000000	12.924020
1758.000000	12.959643
1757.000000	13.005797
1756.000000	13.059008
1755.000000	13.089030
1754.000000	13.133839
1753.000000	13.155124
1752.000000	13.175624
1751.000000	13.179433
1750.000000	13.167222
1749.000000	13.166102
1748.000000	13.131263
1747.000000	13.094407
1746.000000	13.045341
1745.000000	13.002772
1744.000000	12.950345
1743.000000	12.855686
1742.000000	12.753520
1741.000000	12.654716
1740.000000	12.513790
1739.000000	12.376674
1738.000000	12.240341
1737.000000	12.120476
1736.000000	12.001956
1735.000000	11.913345
1734.000000	11.840642
1733.000000	11.785639
1732.000000	11.763010
1731.000000	11.769955
1730.000000	11.807931
1729.000000	11.832240
1728.000000	11.880746
1727.000000	11.920179
1726.000000	11.974622
1725.000000	12.043180
1724.000000	12.086869
1723.000000	12.137504
1722.000000	12.189707
1721.000000	12.210991
1720.000000	12.241014
1719.000000	12.271260
1718.000000	12.298033
1717.000000	12.350460
1716.000000	12.390789
1715.000000	12.443440
1714.000000	12.506397
1713.000000	12.544037
1712.000000	12.614275
1711.000000	12.667150
1710.000000	12.682049
1709.000000	12.709943
1708.000000	12.740414
1707.000000	12.738845
1706.000000	12.724954
1705.000000	12.713080
1704.000000	12.681601
1703.000000	12.649227
1702.000000	12.607666
1701.000000	12.554679
1700.000000	12.481192
1699.000000	12.407928
1698.000000	12.333097
1697.000000	12.245494
1696.000000	12.179625
1695.000000	12.159012
1694.000000	12.118012
1693.000000	12.145346
1692.000000	12.190379
1691.000000	12.266667
1690.000000	12.386420
1689.000000	12.462372
1688.000000	12.563081
1687.000000	12.626374
1686.000000	12.685186
1685.000000	12.755313
1684.000000	12.811100
1683.000000	12.877418
1682.000000	13.006693
1681.000000	13.204974
1680.000000	13.495339
1679.000000	13.797242
1678.000000	14.159973
1677.000000	14.538052
1676.000000	14.934839
1675.000000	15.301715
1674.000000	15.569563
1673.000000	15.873818
1672.000000	16.133040
1671.000000	16.374562
1670.000000	16.559513
1669.000000	16.726764
1668.000000	16.870602
1667.000000	17.041549
1666.000000	17.143491
1665.000000	17.229076
1664.000000	17.327993
1663.000000	17.409546
1662.000000	17.466230
1661.000000	17.549015
1660.000000	17.596961
1659.000000	17.653421
1658.000000	17.703831
1657.000000	17.730045
1656.000000	17.744272
1655.000000	17.760403
1654.000000	17.769701
1653.000000	17.770037
1652.000000	17.747296
1651.000000	17.749201
1650.000000	17.718842
1649.000000	17.709544
1648.000000	17.669552
1647.000000	17.642779
1646.000000	17.592256
1645.000000	17.576461
1644.000000	17.507678
1643.000000	17.458052
1642.000000	17.407418
1641.000000	17.385573
1640.000000	17.351406
1639.000000	17.276126
1638.000000	17.200735
1637.000000	17.177658
1636.000000	17.144835
1635.000000	17.071796
1634.000000	17.018136
1633.000000	16.935463
1632.000000	16.887965
1631.000000	16.820415
1630.000000	16.755218
1629.000000	16.678370
1628.000000	16.607235
1627.000000	16.553464
1626.000000	16.495324
1625.000000	16.419932
1624.000000	16.340843
1623.000000	16.275086
1622.000000	16.223219
1621.000000	16.150628
1620.000000	16.084982
1619.000000	16.026618
1618.000000	15.983265
1617.000000	15.898463
1616.000000	15.833938
1615.000000	15.779719
1614.000000	15.703767
1613.000000	15.668367
1612.000000	15.605074
1611.000000	15.562841
1610.000000	15.486890
1609.000000	15.448466
1608.000000	15.381364
1607.000000	15.323896
1606.000000	15.255897
1605.000000	15.205151
1604.000000	15.151716
1603.000000	15.090327
1602.000000	15.028826
1601.000000	14.988498
1600.000000	14.895742
1599.000000	14.847460
1598.000000	14.796938
1597.000000	14.720762
1596.000000	14.674048
1595.000000	14.622181
1594.000000	14.573339
1593.000000	14.527522
1592.000000	14.465685
1591.000000	14.426253
1590.000000	14.372369
1589.000000	14.325208
1588.000000	14.293617
1587.000000	14.228868
1586.000000	14.195373
1585.000000	14.166919
1584.000000	14.115724
1583.000000	14.097128
1582.000000	14.064529
1581.000000	14.027226
1580.000000	13.999332
