PE UV       SUBTECH     SPECTRUM    ASCII       PEDS        4.00        
   -1
CICIMAUCR0261-3.ASC
24/07/01
17:03:09.00
24/07/01
17:03:09.00
Vinicio Soto Monge
C. resplendens. Sex M. Ventral
250,000000
1
Lambda 1050
1050L1511233
PerkinElmer UV WinLab 6.3.2.0749 / 2.02.05 Lambda 900 UV/VIS/NIR, Aug  7 2015 09:38:08

0
0
3350/servo 860,8/2
0
0
UV/VIS
1
1
1
DoubleDePol,CommonBeamDepol,RBeamAtt,SBeamAtt,60mm sphere, WB InGaAs Detector
0
0
0
0
Program
Program
3350/servo 860,8/2
3350/0,2 860,8/0,2
3350/0,2 860,8/0,2
0
15.00
 
 
 
0
 
860,8
319,2
860,8
Front
100
on
S:100 R:100
0
0
0
0
 
0
 
 
 
0
 
 
0
0
0
0
0
 
 
 
 
0
0


0
0
#HDR
-1
-1
#GR
nm
%R
1.0
0.0
2500,000000
-1,000000
2251
8
46,448200
4,460900
#DATA
2482.000000	6.409805
2481.000000	6.387240
2480.000000	6.492464
2479.000000	6.477144
2478.000000	6.418831
2477.000000	6.449591
2476.000000	6.420612
2475.000000	6.434151
2474.000000	6.411586
2473.000000	6.432845
2472.000000	6.382726
2471.000000	6.420018
2470.000000	6.359211
2469.000000	6.355292
2468.000000	6.402560
2467.000000	6.368000
2466.000000	6.368356
2465.000000	6.384152
2464.000000	6.350423
2463.000000	6.362299
2462.000000	6.389971
2461.000000	6.381064
2460.000000	6.389496
2459.000000	6.342109
2458.000000	6.386289
2457.000000	6.400779
2456.000000	6.398047
2455.000000	6.426432
2454.000000	6.453391
2453.000000	6.431063
2452.000000	6.456954
2451.000000	6.458142
2450.000000	6.505172
2449.000000	6.504935
2448.000000	6.549946
2447.000000	6.549946
2446.000000	6.550896
2445.000000	6.591038
2444.000000	6.600658
2443.000000	6.608022
2442.000000	6.636169
2441.000000	6.629637
2440.000000	6.676311
2439.000000	6.692225
2438.000000	6.683793
2437.000000	6.704339
2436.000000	6.749351
2435.000000	6.772509
2434.000000	6.792343
2433.000000	6.778685
2432.000000	6.801607
2431.000000	6.810633
2430.000000	6.836523
2429.000000	6.838423
2428.000000	6.866095
2427.000000	6.887710
2426.000000	6.892580
2425.000000	6.902318
2424.000000	6.918945
2423.000000	6.951605
2422.000000	6.985453
2421.000000	6.990679
2420.000000	6.980703
2419.000000	6.995429
2418.000000	7.013838
2417.000000	7.016094
2416.000000	7.023695
2415.000000	7.042222
2414.000000	7.066569
2413.000000	7.085809
2412.000000	7.103979
2411.000000	7.111580
2410.000000	7.115975
2409.000000	7.115143
2408.000000	7.123338
2407.000000	7.141865
2406.000000	7.151723
2405.000000	7.154929
2404.000000	7.165855
2403.000000	7.176900
2402.000000	7.191865
2401.000000	7.201128
2400.000000	7.216449
2399.000000	7.206473
2398.000000	7.218230
2397.000000	7.226425
2396.000000	7.240914
2395.000000	7.257541
2394.000000	7.251247
2393.000000	7.273574
2392.000000	7.288301
2391.000000	7.298277
2390.000000	7.292576
2389.000000	7.289014
2388.000000	7.305997
2387.000000	7.328206
2386.000000	7.324168
2385.000000	7.325712
2384.000000	7.317873
2383.000000	7.315498
2382.000000	7.330700
2381.000000	7.318823
2380.000000	7.316923
2379.000000	7.333906
2378.000000	7.337826
2377.000000	7.333788
2376.000000	7.335331
2375.000000	7.334856
2374.000000	7.322624
2373.000000	7.308016
2372.000000	7.310154
2371.000000	7.313598
2370.000000	7.300177
2369.000000	7.287113
2368.000000	7.287351
2367.000000	7.275712
2366.000000	7.268467
2365.000000	7.265617
2364.000000	7.255166
2363.000000	7.260985
2362.000000	7.245902
2361.000000	7.208373
2360.000000	7.191865
2359.000000	7.186639
2358.000000	7.170606
2357.000000	7.146853
2356.000000	7.144834
2355.000000	7.145784
2354.000000	7.135689
2353.000000	7.127732
2352.000000	7.121438
2351.000000	7.113718
2350.000000	7.113362
2349.000000	7.104573
2348.000000	7.109443
2347.000000	7.120725
2346.000000	7.129039
2345.000000	7.141390
2344.000000	7.136283
2343.000000	7.151723
2342.000000	7.164668
2341.000000	7.158255
2340.000000	7.176782
2339.000000	7.181770
2338.000000	7.188302
2337.000000	7.204929
2336.000000	7.193171
2335.000000	7.177732
2334.000000	7.181176
2333.000000	7.211461
2332.000000	7.198634
2331.000000	7.163124
2330.000000	7.143647
2329.000000	7.129276
2328.000000	7.113837
2327.000000	7.102436
2326.000000	7.107899
2325.000000	7.081296
2324.000000	7.055643
2323.000000	7.040441
2322.000000	7.024170
2321.000000	6.998873
2320.000000	6.964788
2319.000000	6.935691
2318.000000	6.904456
2317.000000	6.884148
2316.000000	6.862057
2315.000000	6.812652
2314.000000	6.765502
2313.000000	6.729755
2312.000000	6.716572
2311.000000	6.692344
2310.000000	6.670254
2309.000000	6.641394
2308.000000	6.604459
2307.000000	6.604815
2306.000000	6.597570
2305.000000	6.577618
2304.000000	6.566335
2303.000000	6.565979
2302.000000	6.554697
2301.000000	6.574886
2300.000000	6.593295
2299.000000	6.596264
2298.000000	6.606240
2297.000000	6.628805
2296.000000	6.676905
2295.000000	6.701964
2294.000000	6.714553
2293.000000	6.711346
2292.000000	6.738187
2291.000000	6.758970
2290.000000	6.771203
2289.000000	6.788661
2288.000000	6.788661
2287.000000	6.801013
2286.000000	6.770609
2285.000000	6.791274
2284.000000	6.792937
2283.000000	6.775835
2282.000000	6.772985
2281.000000	6.767878
2280.000000	6.738781
2279.000000	6.716097
2278.000000	6.701489
2277.000000	6.699826
2276.000000	6.671679
2275.000000	6.654458
2274.000000	6.639256
2273.000000	6.629755
2272.000000	6.624648
2271.000000	6.620492
2270.000000	6.628686
2269.000000	6.624055
2268.000000	6.620254
2267.000000	6.654696
2266.000000	6.663247
2265.000000	6.686643
2264.000000	6.721560
2263.000000	6.762415
2262.000000	6.808139
2261.000000	6.860157
2260.000000	6.904337
2259.000000	6.957425
2258.000000	7.037709
2257.000000	7.103386
2256.000000	7.181413
2255.000000	7.266092
2254.000000	7.345664
2253.000000	7.445544
2252.000000	7.515140
2251.000000	7.580698
2250.000000	7.662288
2249.000000	7.747323
2248.000000	7.804567
2247.000000	7.897560
2246.000000	7.929863
2245.000000	8.048271
2244.000000	8.079981
2243.000000	8.163472
2242.000000	8.182355
2241.000000	8.210384
2240.000000	8.270122
2239.000000	8.313352
2238.000000	8.349575
2237.000000	8.387104
2236.000000	8.431759
2235.000000	8.459788
2234.000000	8.459907
2233.000000	8.484728
2232.000000	8.516438
2231.000000	8.545654
2230.000000	8.542210
2229.000000	8.582233
2228.000000	8.565488
2227.000000	8.579739
2226.000000	8.591022
2225.000000	8.580927
2224.000000	8.579383
2223.000000	8.564656
2222.000000	8.540072
2221.000000	8.572138
2220.000000	8.548386
2219.000000	8.528552
2218.000000	8.512044
2217.000000	8.502780
2216.000000	8.495536
2215.000000	8.457412
2214.000000	8.452543
2213.000000	8.451356
2212.000000	8.433778
2211.000000	8.436273
2210.000000	8.432591
2209.000000	8.418458
2208.000000	8.374278
2207.000000	8.394705
2206.000000	8.373446
2205.000000	8.360857
2204.000000	8.336155
2203.000000	8.343399
2202.000000	8.322853
2201.000000	8.349100
2200.000000	8.313589
2199.000000	8.319409
2198.000000	8.297200
2197.000000	8.301713
2196.000000	8.297675
2195.000000	8.284967
2194.000000	8.278910
2193.000000	8.275347
2192.000000	8.282473
2191.000000	8.253257
2190.000000	8.244944
2189.000000	8.244113
2188.000000	8.236630
2187.000000	8.237937
2186.000000	8.239481
2185.000000	8.228079
2184.000000	8.237224
2183.000000	8.204208
2182.000000	8.231999
2181.000000	8.220835
2180.000000	8.200051
2179.000000	8.201951
2178.000000	8.199814
2177.000000	8.185800
2176.000000	8.182593
2175.000000	8.196132
2174.000000	8.179743
2173.000000	8.201714
2172.000000	8.185087
2171.000000	8.180574
2170.000000	8.179624
2169.000000	8.185681
2168.000000	8.216203
2167.000000	8.204089
2166.000000	8.208365
2165.000000	8.201239
2164.000000	8.232949
2163.000000	8.263352
2162.000000	8.269409
2161.000000	8.275110
2160.000000	8.264065
2159.000000	8.283305
2158.000000	8.296369
2157.000000	8.317865
2156.000000	8.324872
2155.000000	8.351356
2154.000000	8.359907
2153.000000	8.374397
2152.000000	8.419052
2151.000000	8.431047
2150.000000	8.437223
2149.000000	8.442211
2148.000000	8.456462
2147.000000	8.510619
2146.000000	8.509431
2145.000000	8.519407
2144.000000	8.544466
2143.000000	8.569051
2142.000000	8.569882
2141.000000	8.583896
2140.000000	8.605986
2139.000000	8.625820
2138.000000	8.625345
2137.000000	8.652542
2136.000000	8.675225
2135.000000	8.684489
2134.000000	8.674750
2133.000000	8.677482
2132.000000	8.676532
2131.000000	8.683658
2130.000000	8.711686
2129.000000	8.723087
2128.000000	8.717387
2127.000000	8.703847
2126.000000	8.702066
2125.000000	8.693159
2124.000000	8.712280
2123.000000	8.698384
2122.000000	8.695178
2121.000000	8.703610
2120.000000	8.702304
2119.000000	8.687458
2118.000000	8.677482
2117.000000	8.657173
2116.000000	8.633777
2115.000000	8.643397
2114.000000	8.641496
2113.000000	8.618338
2112.000000	8.598979
2111.000000	8.593516
2110.000000	8.580571
2109.000000	8.576414
2108.000000	8.569051
2107.000000	8.562162
2106.000000	8.558124
2105.000000	8.551117
2104.000000	8.522376
2103.000000	8.494467
2102.000000	8.480571
2101.000000	8.467270
2100.000000	8.461450
2099.000000	8.458125
2098.000000	8.451949
2097.000000	8.451118
2096.000000	8.433778
2095.000000	8.406582
2094.000000	8.403731
2093.000000	8.395299
2092.000000	8.389598
2091.000000	8.389480
2090.000000	8.386985
2089.000000	8.387936
2088.000000	8.370834
2087.000000	8.359670
2086.000000	8.358126
2085.000000	8.346962
2084.000000	8.335798
2083.000000	8.329623
2082.000000	8.320478
2081.000000	8.301832
2080.000000	8.292687
2079.000000	8.285917
2078.000000	8.268578
2077.000000	8.240787
2076.000000	8.220241
2075.000000	8.210502
2074.000000	8.195776
2073.000000	8.169173
2072.000000	8.153139
2071.000000	8.140313
2070.000000	8.129505
2069.000000	8.110622
2068.000000	8.070242
2067.000000	8.052309
2066.000000	8.040789
2065.000000	8.023806
2064.000000	7.992452
2063.000000	7.981644
2062.000000	7.965136
2061.000000	7.940315
2060.000000	7.931170
2059.000000	7.918106
2058.000000	7.895303
2057.000000	7.872500
2056.000000	7.870363
2055.000000	7.873688
2054.000000	7.854211
2053.000000	7.852667
2052.000000	7.876063
2051.000000	7.889365
2050.000000	7.880576
2049.000000	7.902073
2048.000000	7.931289
2047.000000	7.947084
2046.000000	7.967155
2045.000000	7.983070
2044.000000	8.017630
2043.000000	8.051121
2042.000000	8.063829
2041.000000	8.092332
2040.000000	8.121786
2039.000000	8.146607
2038.000000	8.172498
2037.000000	8.195776
2036.000000	8.205989
2035.000000	8.235205
2034.000000	8.275585
2033.000000	8.283186
2032.000000	8.296844
2031.000000	8.308839
2030.000000	8.311808
2029.000000	8.328910
2028.000000	8.351475
2027.000000	8.332710
2026.000000	8.337223
2025.000000	8.353257
2024.000000	8.368458
2023.000000	8.376416
2022.000000	8.381997
2021.000000	8.365846
2020.000000	8.359314
2019.000000	8.378435
2018.000000	8.386867
2017.000000	8.377722
2016.000000	8.365489
2015.000000	8.352306
2014.000000	8.355869
2013.000000	8.357651
2012.000000	8.323328
2011.000000	8.338767
2010.000000	8.327604
2009.000000	8.327485
2008.000000	8.317627
2007.000000	8.293400
2006.000000	8.270597
2005.000000	8.247438
2004.000000	8.229742
2003.000000	8.230930
2002.000000	8.205277
2001.000000	8.179267
2000.000000	8.144470
1999.000000	8.130456
1998.000000	8.117035
1997.000000	8.098389
1996.000000	8.056347
1995.000000	8.041145
1994.000000	8.017749
1993.000000	7.956348
1992.000000	7.953497
1991.000000	7.936158
1990.000000	7.895541
1989.000000	7.865731
1988.000000	7.806230
1987.000000	7.792929
1986.000000	7.789722
1985.000000	7.746254
1984.000000	7.703975
1983.000000	7.693998
1982.000000	7.639011
1981.000000	7.642692
1980.000000	7.589367
1979.000000	7.556945
1978.000000	7.527016
1977.000000	7.507777
1976.000000	7.458490
1975.000000	7.455283
1974.000000	7.403858
1973.000000	7.365616
1972.000000	7.362647
1971.000000	7.344001
1970.000000	7.288895
1969.000000	7.284382
1968.000000	7.250653
1967.000000	7.232126
1966.000000	7.209085
1965.000000	7.165262
1964.000000	7.161342
1963.000000	7.137708
1962.000000	7.094360
1961.000000	7.085690
1960.000000	7.070963
1959.000000	7.067400
1958.000000	7.036759
1957.000000	7.033790
1956.000000	6.973933
1955.000000	6.939967
1954.000000	6.950299
1953.000000	6.938066
1952.000000	6.887117
1951.000000	6.884266
1950.000000	6.863958
1949.000000	6.864433
1948.000000	6.823697
1947.000000	6.817759
1946.000000	6.825478
1945.000000	6.820965
1944.000000	6.789255
1943.000000	6.785811
1942.000000	6.755645
1941.000000	6.742343
1940.000000	6.720847
1939.000000	6.750657
1938.000000	6.744956
1937.000000	6.730586
1936.000000	6.756239
1935.000000	6.770253
1934.000000	6.742819
1933.000000	6.752320
1932.000000	6.776429
1931.000000	6.770134
1930.000000	6.800181
1929.000000	6.802438
1928.000000	6.814789
1927.000000	6.838542
1926.000000	6.874884
1925.000000	6.884504
1924.000000	6.930822
1923.000000	6.929753
1922.000000	6.953506
1921.000000	7.001486
1920.000000	7.062412
1919.000000	7.112530
1918.000000	7.152198
1917.000000	7.192696
1916.000000	7.256947
1915.000000	7.255878
1914.000000	7.334500
1913.000000	7.399345
1912.000000	7.466447
1911.000000	7.541981
1910.000000	7.606944
1909.000000	7.673571
1908.000000	7.746967
1907.000000	7.795185
1906.000000	7.890434
1905.000000	7.981644
1904.000000	8.100290
1903.000000	8.177367
1902.000000	8.310027
1901.000000	8.408482
1900.000000	8.509906
1899.000000	8.682114
1898.000000	8.831400
1897.000000	8.976886
1896.000000	9.115246
1895.000000	9.255387
1894.000000	9.393747
1893.000000	9.577831
1892.000000	9.765478
1891.000000	9.976996
1890.000000	10.202054
1889.000000	10.455733
1888.000000	10.664401
1887.000000	10.940171
1886.000000	11.181856
1885.000000	11.490998
1884.000000	11.807147
1883.000000	12.151563
1882.000000	12.514505
1881.000000	12.886236
1880.000000	13.231839
1879.000000	13.597869
1878.000000	13.926132
1877.000000	14.308196
1876.000000	14.693584
1875.000000	15.017928
1874.000000	15.382652
1873.000000	15.702721
1872.000000	16.058537
1871.000000	16.401646
1870.000000	16.727772
1869.000000	17.027057
1868.000000	17.324323
1867.000000	17.552706
1866.000000	17.780732
1865.000000	17.973724
1864.000000	18.147950
1863.000000	18.328352
1862.000000	18.497353
1861.000000	18.635832
1860.000000	18.782268
1859.000000	18.926922
1858.000000	19.054712
1857.000000	19.163025
1856.000000	19.251148
1855.000000	19.338795
1854.000000	19.423830
1853.000000	19.482737
1852.000000	19.524423
1851.000000	19.560409
1850.000000	19.589862
1849.000000	19.634399
1848.000000	19.665752
1847.000000	19.673947
1846.000000	19.702332
1845.000000	19.697225
1844.000000	19.684992
1843.000000	19.671928
1842.000000	19.669672
1841.000000	19.676797
1840.000000	19.698294
1839.000000	19.683092
1838.000000	19.673235
1837.000000	19.654589
1836.000000	19.634161
1835.000000	19.601145
1834.000000	19.570741
1833.000000	19.542594
1832.000000	19.498652
1831.000000	19.461360
1830.000000	19.436538
1829.000000	19.398415
1828.000000	19.366942
1827.000000	19.310648
1826.000000	19.256136
1825.000000	19.222882
1824.000000	19.192360
1823.000000	19.167300
1822.000000	19.130009
1821.000000	19.114807
1820.000000	19.105424
1819.000000	19.075615
1818.000000	19.050793
1817.000000	19.020508
1816.000000	19.010413
1815.000000	19.003881
1814.000000	18.990224
1813.000000	18.975378
1812.000000	18.955901
1811.000000	18.955069
1810.000000	18.930129
1809.000000	18.879892
1808.000000	18.849845
1807.000000	18.816353
1806.000000	18.787137
1805.000000	18.761841
1804.000000	18.722411
1803.000000	18.690582
1802.000000	18.662792
1801.000000	18.630844
1800.000000	18.589989
1799.000000	18.543434
1798.000000	18.505073
1797.000000	18.459468
1796.000000	18.423364
1795.000000	18.402936
1794.000000	18.372770
1793.000000	18.324433
1792.000000	18.281084
1791.000000	18.236548
1790.000000	18.198662
1789.000000	18.160539
1788.000000	18.115053
1787.000000	18.082868
1786.000000	18.056027
1785.000000	18.018141
1784.000000	17.968142
1783.000000	17.914579
1782.000000	17.855078
1781.000000	17.804248
1780.000000	17.763393
1779.000000	17.720519
1778.000000	17.671470
1777.000000	17.610544
1776.000000	17.551518
1775.000000	17.490711
1774.000000	17.430379
1773.000000	17.361615
1772.000000	17.307815
1771.000000	17.230143
1770.000000	17.163160
1769.000000	17.103066
1768.000000	17.019100
1767.000000	16.940478
1766.000000	16.889172
1765.000000	16.828127
1764.000000	16.762807
1763.000000	16.740836
1762.000000	16.735967
1761.000000	16.743924
1760.000000	16.773852
1759.000000	16.810313
1758.000000	16.846892
1757.000000	16.893566
1756.000000	16.935371
1755.000000	16.988696
1754.000000	17.044753
1753.000000	17.075869
1752.000000	17.117792
1751.000000	17.138695
1750.000000	17.149027
1749.000000	17.140001
1748.000000	17.134063
1747.000000	17.108766
1746.000000	17.066843
1745.000000	17.018862
1744.000000	16.964587
1743.000000	16.900217
1742.000000	16.804731
1741.000000	16.697131
1740.000000	16.576942
1739.000000	16.425043
1738.000000	16.289177
1737.000000	16.149036
1736.000000	16.018633
1735.000000	15.917090
1734.000000	15.839299
1733.000000	15.791556
1732.000000	15.766378
1731.000000	15.761865
1730.000000	15.765428
1729.000000	15.824573
1728.000000	15.901532
1727.000000	15.941793
1726.000000	16.012457
1725.000000	16.094760
1724.000000	16.162456
1723.000000	16.220650
1722.000000	16.249391
1721.000000	16.293452
1720.000000	16.359129
1719.000000	16.375993
1718.000000	16.430150
1717.000000	16.490719
1716.000000	16.582286
1715.000000	16.651525
1714.000000	16.724090
1713.000000	16.797130
1712.000000	16.863044
1711.000000	16.922663
1710.000000	16.979314
1709.000000	17.002473
1708.000000	17.027769
1707.000000	17.033945
1706.000000	17.049741
1705.000000	17.013636
1704.000000	16.975632
1703.000000	16.935134
1702.000000	16.882284
1701.000000	16.808769
1700.000000	16.711501
1699.000000	16.629792
1698.000000	16.501052
1697.000000	16.402834
1696.000000	16.308654
1695.000000	16.243453
1694.000000	16.239771
1693.000000	16.232527
1692.000000	16.249035
1691.000000	16.337633
1690.000000	16.435732
1689.000000	16.524211
1688.000000	16.625872
1687.000000	16.722190
1686.000000	16.809481
1685.000000	16.827058
1684.000000	16.895348
1683.000000	16.995347
1682.000000	17.109479
1681.000000	17.298907
1680.000000	17.544036
1679.000000	17.892252
1678.000000	18.254719
1677.000000	18.626450
1676.000000	18.992480
1675.000000	19.332739
1674.000000	19.675491
1673.000000	19.933802
1672.000000	20.198527
1671.000000	20.409927
1670.000000	20.604937
1669.000000	20.770969
1668.000000	20.928094
1667.000000	21.091750
1666.000000	21.218709
1665.000000	21.320014
1664.000000	21.428564
1663.000000	21.494478
1662.000000	21.571081
1661.000000	21.651603
1660.000000	21.681531
1659.000000	21.759916
1658.000000	21.783312
1657.000000	21.848870
1656.000000	21.860509
1655.000000	21.886874
1654.000000	21.884143
1653.000000	21.893287
1652.000000	21.869535
1651.000000	21.879867
1650.000000	21.866566
1649.000000	21.816210
1648.000000	21.801602
1647.000000	21.784500
1646.000000	21.748633
1645.000000	21.697090
1644.000000	21.658610
1643.000000	21.646615
1642.000000	21.602791
1641.000000	21.536877
1640.000000	21.491509
1639.000000	21.443647
1638.000000	21.407543
1637.000000	21.360394
1636.000000	21.284029
1635.000000	21.237711
1634.000000	21.204813
1633.000000	21.134743
1632.000000	21.072510
1631.000000	21.005765
1630.000000	20.944245
1629.000000	20.869187
1628.000000	20.838664
1627.000000	20.772275
1626.000000	20.681302
1625.000000	20.615982
1624.000000	20.546030
1623.000000	20.458026
1622.000000	20.415627
1621.000000	20.361234
1620.000000	20.312778
1619.000000	20.237957
1618.000000	20.160879
1617.000000	20.106366
1616.000000	20.077507
1615.000000	20.011118
1614.000000	19.911475
1613.000000	19.874777
1612.000000	19.814801
1611.000000	19.756013
1610.000000	19.687249
1609.000000	19.630598
1608.000000	19.581786
1607.000000	19.517654
1606.000000	19.459697
1605.000000	19.391289
1604.000000	19.313618
1603.000000	19.244378
1602.000000	19.191053
1601.000000	19.115282
1600.000000	19.068726
1599.000000	18.998775
1598.000000	18.950675
1597.000000	18.876685
1596.000000	18.836306
1595.000000	18.764691
1594.000000	18.699965
1593.000000	18.645096
1592.000000	18.586545
1591.000000	18.531795
1590.000000	18.466950
1589.000000	18.436903
1588.000000	18.382509
1587.000000	18.318258
1586.000000	18.271227
1585.000000	18.232629
1584.000000	18.184886
1583.000000	18.137024
1582.000000	18.099732
1581.000000	18.037619
1580.000000	18.012322
