PE UV       SUBTECH     SPECTRUM    ASCII       PEDS        4.00        
   -1
CICIMAUCR0113-4.Sample.ASC
24/04/18
17:16:39.00
24/04/18
17:16:39.00
Vinicio Soto Monge
C. kalinini
250,000000
1
Lambda 1050
1050L1511233
PerkinElmer UV WinLab 6.3.2.0749 / 2.02.05 Lambda 900 UV/VIS/NIR, Aug  7 2015 09:38:08

0
0
3350/servo 860,8/2
0
0
UV/VIS
1
1
1
DoubleDePol,CommonBeamDepol,RBeamAtt,SBeamAtt,60mm sphere, WB InGaAs Detector
0
0
0
0
Program
Program
3350/servo 860,8/2
3350/0,2 860,8/0,2
3350/0,2 860,8/0,2
0
15.00
 
 
 
0
 
860,8
319,2
860,8
Front
100
on
S:100 R:100
0
0
0
0
 
0
 
 
 
0
 
 
0
0
0
0
0
 
 
 
 
0
0


0
0
#HDR
-1
-1
#GR
nm
%R
1.0
0.0
2500,000000
-1,000000
2251
8
46,046400
2,843400
#DATA
2482.000000	5.379204
2481.000000	5.379524
2480.000000	5.401203
2479.000000	5.329012
2478.000000	5.308294
2477.000000	5.333284
2476.000000	5.336594
2475.000000	5.336274
2474.000000	5.318760
2473.000000	5.303061
2472.000000	5.315556
2471.000000	5.288645
2470.000000	5.337982
2469.000000	5.302741
2468.000000	5.333284
2467.000000	5.334245
2466.000000	5.353788
2465.000000	5.377389
2464.000000	5.376961
2463.000000	5.400456
2462.000000	5.428755
2461.000000	5.460045
2460.000000	5.484714
2459.000000	5.509276
2458.000000	5.554449
2457.000000	5.588302
2456.000000	5.601865
2455.000000	5.632834
2454.000000	5.682706
2453.000000	5.747956
2452.000000	5.779673
2451.000000	5.826661
2450.000000	5.878669
2449.000000	5.920424
2448.000000	5.986315
2447.000000	6.002013
2446.000000	6.045370
2445.000000	6.126639
2444.000000	6.177792
2443.000000	6.217732
2442.000000	6.277108
2441.000000	6.297078
2440.000000	6.338193
2439.000000	6.364250
2438.000000	6.433238
2437.000000	6.466130
2436.000000	6.519312
2435.000000	6.545156
2434.000000	6.594921
2433.000000	6.612221
2432.000000	6.631336
2431.000000	6.661345
2430.000000	6.708974
2429.000000	6.753186
2428.000000	6.762370
2427.000000	6.784369
2426.000000	6.815873
2425.000000	6.833707
2424.000000	6.849405
2423.000000	6.869375
2422.000000	6.885180
2421.000000	6.901733
2420.000000	6.933237
2419.000000	6.938790
2418.000000	6.964527
2417.000000	6.995710
2416.000000	7.024330
2415.000000	7.048785
2414.000000	7.076871
2413.000000	7.089259
2412.000000	7.111899
2411.000000	7.128452
2410.000000	7.157072
2409.000000	7.169780
2408.000000	7.165188
2407.000000	7.186333
2406.000000	7.214953
2405.000000	7.224457
2404.000000	7.235671
2403.000000	7.256175
2402.000000	7.276038
2401.000000	7.301027
2400.000000	7.301134
2399.000000	7.315017
2398.000000	7.341608
2397.000000	7.372044
2396.000000	7.386994
2395.000000	7.389130
2394.000000	7.407712
2393.000000	7.412838
2392.000000	7.419459
2391.000000	7.432915
2390.000000	7.447225
2389.000000	7.448293
2388.000000	7.445943
2387.000000	7.454914
2386.000000	7.466661
2385.000000	7.461535
2384.000000	7.466768
2383.000000	7.440604
2382.000000	7.434410
2381.000000	7.439643
2380.000000	7.428536
2379.000000	7.420420
2378.000000	7.395217
2377.000000	7.384218
2376.000000	7.393616
2375.000000	7.379626
2374.000000	7.355704
2373.000000	7.331249
2372.000000	7.312133
2371.000000	7.298037
2370.000000	7.273688
2369.000000	7.247418
2368.000000	7.221040
2367.000000	7.189537
2366.000000	7.162839
2365.000000	7.121083
2364.000000	7.095346
2363.000000	7.071318
2362.000000	7.020913
2361.000000	6.982040
2360.000000	6.963138
2359.000000	6.938256
2358.000000	6.922664
2357.000000	6.900131
2356.000000	6.872152
2355.000000	6.842784
2354.000000	6.823989
2353.000000	6.836483
2352.000000	6.854958
2351.000000	6.846415
2350.000000	6.867453
2349.000000	6.907500
2348.000000	6.926615
2347.000000	6.949682
2346.000000	6.984924
2345.000000	7.005855
2344.000000	7.023582
2343.000000	7.054125
2342.000000	7.086376
2341.000000	7.101647
2340.000000	7.100045
2339.000000	7.102929
2338.000000	7.119374
2337.000000	7.110084
2336.000000	7.097269
2335.000000	7.103676
2334.000000	7.086376
2333.000000	7.060959
2332.000000	7.049853
2331.000000	7.022728
2330.000000	7.005641
2329.000000	6.963245
2328.000000	6.940819
2327.000000	6.918820
2326.000000	6.864676
2325.000000	6.820465
2324.000000	6.766001
2323.000000	6.714100
2322.000000	6.671277
2321.000000	6.615638
2320.000000	6.555087
2319.000000	6.481187
2318.000000	6.394473
2317.000000	6.333174
2316.000000	6.255109
2315.000000	6.197015
2314.000000	6.124076
2313.000000	6.056156
2312.000000	5.989091
2311.000000	5.953530
2310.000000	5.927152
2309.000000	5.902056
2308.000000	5.892658
2307.000000	5.888387
2306.000000	5.901415
2305.000000	5.921385
2304.000000	5.939967
2303.000000	5.977665
2302.000000	6.028177
2301.000000	6.079010
2300.000000	6.139347
2299.000000	6.205451
2298.000000	6.242401
2297.000000	6.307651
2296.000000	6.358591
2295.000000	6.414015
2294.000000	6.441247
2293.000000	6.489517
2292.000000	6.518030
2291.000000	6.542913
2290.000000	6.544622
2289.000000	6.537894
2288.000000	6.544835
2287.000000	6.549107
2286.000000	6.550388
2285.000000	6.537253
2284.000000	6.517924
2283.000000	6.491867
2282.000000	6.466770
2281.000000	6.442956
2280.000000	6.416685
2279.000000	6.384221
2278.000000	6.362755
2277.000000	6.342999
2276.000000	6.326019
2275.000000	6.299641
2274.000000	6.325485
2273.000000	6.324417
2272.000000	6.336378
2271.000000	6.344814
2270.000000	6.395327
2269.000000	6.424801
2268.000000	6.485673
2267.000000	6.551136
2266.000000	6.635074
2265.000000	6.738021
2264.000000	6.831891
2263.000000	6.955876
2262.000000	7.110404
2261.000000	7.254252
2260.000000	7.388917
2259.000000	7.576550
2258.000000	7.741009
2257.000000	7.927681
2256.000000	8.102178
2255.000000	8.265570
2254.000000	8.436543
2253.000000	8.604526
2252.000000	8.780306
2251.000000	8.926610
2250.000000	9.057537
2249.000000	9.197647
2248.000000	9.327933
2247.000000	9.464947
2246.000000	9.575583
2245.000000	9.663366
2244.000000	9.771653
2243.000000	9.838504
2242.000000	9.943053
2241.000000	10.036283
2240.000000	10.101746
2239.000000	10.147026
2238.000000	10.200101
2237.000000	10.281369
2236.000000	10.321416
2235.000000	10.363279
2234.000000	10.386986
2233.000000	10.410694
2232.000000	10.420733
2231.000000	10.451275
2230.000000	10.434402
2229.000000	10.421053
2228.000000	10.439955
2227.000000	10.432586
2226.000000	10.421160
2225.000000	10.405675
2224.000000	10.401297
2223.000000	10.388695
2222.000000	10.366376
2221.000000	10.339785
2220.000000	10.283826
2219.000000	10.227119
2218.000000	10.207363
2217.000000	10.160161
2216.000000	10.125240
2215.000000	10.089038
2214.000000	10.064903
2213.000000	10.036496
2212.000000	10.002430
2211.000000	9.978935
2210.000000	9.958325
2209.000000	9.946898
2208.000000	9.923083
2207.000000	9.920200
2206.000000	9.877910
2205.000000	9.903327
2204.000000	9.891259
2203.000000	9.851960
2202.000000	9.842135
2201.000000	9.851747
2200.000000	9.842349
2199.000000	9.833592
2198.000000	9.831670
2197.000000	9.813408
2196.000000	9.822913
2195.000000	9.778594
2194.000000	9.771119
2193.000000	9.769944
2192.000000	9.737907
2191.000000	9.726907
2190.000000	9.703947
2189.000000	9.699675
2188.000000	9.681521
2187.000000	9.662191
2186.000000	9.661978
2185.000000	9.658454
2184.000000	9.644571
2183.000000	9.638056
2182.000000	9.638377
2181.000000	9.599611
2180.000000	9.587544
2179.000000	9.573661
2178.000000	9.566186
2177.000000	9.554866
2176.000000	9.537565
2175.000000	9.545041
2174.000000	9.528808
2173.000000	9.537993
2172.000000	9.533614
2171.000000	9.539915
2170.000000	9.559885
2169.000000	9.527420
2168.000000	9.548031
2167.000000	9.568001
2166.000000	9.599932
2165.000000	9.573981
2164.000000	9.610184
2163.000000	9.637950
2162.000000	9.639658
2161.000000	9.669026
2160.000000	9.704481
2159.000000	9.733955
2158.000000	9.801341
2157.000000	9.832097
2156.000000	9.856979
2155.000000	9.897453
2154.000000	9.970179
2153.000000	10.008837
2152.000000	10.050699
2151.000000	10.118939
2150.000000	10.191878
2149.000000	10.227333
2148.000000	10.272719
2147.000000	10.344377
2146.000000	10.365735
2145.000000	10.424470
2144.000000	10.506166
2143.000000	10.532757
2142.000000	10.550805
2141.000000	10.606550
2140.000000	10.666247
2139.000000	10.720710
2138.000000	10.768340
2137.000000	10.823337
2136.000000	10.855054
2135.000000	10.898412
2134.000000	10.946895
2133.000000	10.993670
2132.000000	11.038843
2131.000000	11.076006
2130.000000	11.107083
2129.000000	11.156207
2128.000000	11.181196
2127.000000	11.214195
2126.000000	11.243029
2125.000000	11.267911
2124.000000	11.289056
2123.000000	11.308492
2122.000000	11.318210
2121.000000	11.323229
2120.000000	11.353451
2119.000000	11.369043
2118.000000	11.378654
2117.000000	11.382605
2116.000000	11.389974
2115.000000	11.409730
2114.000000	11.436642
2113.000000	11.438351
2112.000000	11.416245
2111.000000	11.396061
2110.000000	11.391896
2109.000000	11.408663
2108.000000	11.405672
2107.000000	11.390828
2106.000000	11.374810
2105.000000	11.382178
2104.000000	11.393925
2103.000000	11.388265
2102.000000	11.375557
2101.000000	11.374489
2100.000000	11.375771
2099.000000	11.358791
2098.000000	11.354839
2097.000000	11.350247
2096.000000	11.345015
2095.000000	11.371606
2094.000000	11.373848
2093.000000	11.346189
2092.000000	11.352063
2091.000000	11.340636
2090.000000	11.346296
2089.000000	11.374382
2088.000000	11.362635
2087.000000	11.348112
2086.000000	11.344694
2085.000000	11.346723
2084.000000	11.337966
2083.000000	11.320987
2082.000000	11.303793
2081.000000	11.304220
2080.000000	11.294182
2079.000000	11.279445
2078.000000	11.269193
2077.000000	11.222845
2076.000000	11.166139
2075.000000	11.144780
2074.000000	11.119257
2073.000000	11.074298
2072.000000	11.039377
2071.000000	10.985233
2070.000000	10.945507
2069.000000	10.916032
2068.000000	10.875879
2067.000000	10.828356
2066.000000	10.796746
2065.000000	10.746768
2064.000000	10.697643
2063.000000	10.669130
2062.000000	10.640190
2061.000000	10.618297
2060.000000	10.587541
2059.000000	10.564047
2058.000000	10.566824
2057.000000	10.560950
2056.000000	10.547815
2055.000000	10.563193
2054.000000	10.612744
2053.000000	10.660907
2052.000000	10.701488
2051.000000	10.759689
2050.000000	10.834871
2049.000000	10.941022
2048.000000	11.032542
2047.000000	11.123208
2046.000000	11.238757
2045.000000	11.345442
2044.000000	11.470281
2043.000000	11.605159
2042.000000	11.737794
2041.000000	11.867867
2040.000000	11.979037
2039.000000	12.110391
2038.000000	12.228075
2037.000000	12.322799
2036.000000	12.428843
2035.000000	12.533606
2034.000000	12.624806
2033.000000	12.706075
2032.000000	12.822798
2031.000000	12.928095
2030.000000	12.988539
2029.000000	13.075147
2028.000000	13.152464
2027.000000	13.223801
2026.000000	13.310409
2025.000000	13.370746
2024.000000	13.452655
2023.000000	13.526021
2022.000000	13.575573
2021.000000	13.619784
2020.000000	13.667947
2019.000000	13.738110
2018.000000	13.807951
2017.000000	13.833368
2016.000000	13.870745
2015.000000	13.918160
2014.000000	13.970809
2013.000000	14.024632
2012.000000	14.023137
2011.000000	14.055067
2010.000000	14.067562
2009.000000	14.082299
2008.000000	14.102376
2007.000000	14.106861
2006.000000	14.088600
2005.000000	14.100454
2004.000000	14.112414
2003.000000	14.092978
2002.000000	14.107395
2001.000000	14.110065
2000.000000	14.088493
1999.000000	14.085183
1998.000000	14.055494
1997.000000	14.036592
1996.000000	14.015981
1995.000000	13.986721
1994.000000	13.925209
1993.000000	13.915597
1992.000000	13.856648
1991.000000	13.803680
1990.000000	13.771108
1989.000000	13.713013
1988.000000	13.642958
1987.000000	13.618716
1986.000000	13.567350
1985.000000	13.512565
1984.000000	13.495052
1983.000000	13.414531
1982.000000	13.344369
1981.000000	13.309768
1980.000000	13.217820
1979.000000	13.155241
1978.000000	13.118931
1977.000000	13.060089
1976.000000	12.994199
1975.000000	12.917415
1974.000000	12.896805
1973.000000	12.816390
1972.000000	12.747296
1971.000000	12.702017
1970.000000	12.671688
1969.000000	12.597788
1968.000000	12.537237
1967.000000	12.511927
1966.000000	12.441018
1965.000000	12.408446
1964.000000	12.337003
1963.000000	12.293966
1962.000000	12.251890
1961.000000	12.189523
1960.000000	12.123740
1959.000000	12.068528
1958.000000	12.016628
1957.000000	11.962057
1956.000000	11.895953
1955.000000	11.846615
1954.000000	11.803578
1953.000000	11.746338
1952.000000	11.686321
1951.000000	11.641575
1950.000000	11.577287
1949.000000	11.527094
1948.000000	11.483417
1947.000000	11.419021
1946.000000	11.386236
1945.000000	11.396702
1944.000000	11.358791
1943.000000	11.327074
1942.000000	11.255523
1941.000000	11.233097
1940.000000	11.200953
1939.000000	11.200846
1938.000000	11.253387
1937.000000	11.298774
1936.000000	11.306142
1935.000000	11.310735
1934.000000	11.317035
1933.000000	11.338500
1932.000000	11.380576
1931.000000	11.420944
1930.000000	11.421050
1929.000000	11.516522
1928.000000	11.620644
1927.000000	11.746017
1926.000000	11.852596
1925.000000	11.969746
1924.000000	12.029015
1923.000000	12.068849
1922.000000	12.187601
1921.000000	12.382282
1920.000000	12.626515
1919.000000	12.834652
1918.000000	12.999218
1917.000000	13.092874
1916.000000	13.160367
1915.000000	13.216005
1914.000000	13.428520
1913.000000	13.781253
1912.000000	14.092658
1911.000000	14.340415
1910.000000	14.534562
1909.000000	14.600773
1908.000000	14.697846
1907.000000	14.899256
1906.000000	15.193787
1905.000000	15.603120
1904.000000	15.975075
1903.000000	16.260636
1902.000000	16.493228
1901.000000	16.689832
1900.000000	17.051322
1899.000000	17.543097
1898.000000	17.948051
1897.000000	18.303134
1896.000000	18.512659
1895.000000	18.627887
1894.000000	18.831966
1893.000000	19.109945
1892.000000	19.463532
1891.000000	19.901592
1890.000000	20.280916
1889.000000	20.594670
1888.000000	20.895075
1887.000000	21.131618
1886.000000	21.397530
1885.000000	21.713953
1884.000000	22.151265
1883.000000	22.559103
1882.000000	22.900943
1881.000000	23.229434
1880.000000	23.451240
1879.000000	23.642718
1878.000000	23.862602
1877.000000	24.055041
1876.000000	24.224305
1875.000000	24.395599
1874.000000	24.573087
1873.000000	24.800767
1872.000000	25.022039
1871.000000	25.245661
1870.000000	25.607151
1869.000000	25.888227
1868.000000	26.104373
1867.000000	26.275133
1866.000000	26.310801
1865.000000	26.318063
1864.000000	26.299161
1863.000000	26.214369
1862.000000	26.164604
1861.000000	26.171225
1860.000000	26.218213
1859.000000	26.303967
1858.000000	26.405846
1857.000000	26.453048
1856.000000	26.392817
1855.000000	26.365372
1854.000000	26.455504
1853.000000	26.495551
1852.000000	26.457320
1851.000000	26.345936
1850.000000	26.113557
1849.000000	25.948884
1848.000000	26.108004
1847.000000	26.434253
1846.000000	26.557597
1845.000000	26.410652
1844.000000	26.119537
1843.000000	25.870286
1842.000000	25.886625
1841.000000	26.057278
1840.000000	26.115373
1839.000000	26.039871
1838.000000	25.908944
1837.000000	25.909478
1836.000000	26.034318
1835.000000	26.147624
1834.000000	26.093587
1833.000000	25.895702
1832.000000	25.752388
1831.000000	25.690876
1830.000000	25.723234
1829.000000	25.719496
1828.000000	25.651897
1827.000000	25.622102
1826.000000	25.673148
1825.000000	25.682226
1824.000000	25.589958
1823.000000	25.391859
1822.000000	25.313047
1821.000000	25.423362
1820.000000	25.579812
1819.000000	25.625199
1818.000000	25.536455
1817.000000	25.425712
1816.000000	25.423683
1815.000000	25.478787
1814.000000	25.478360
1813.000000	25.437886
1812.000000	25.393568
1811.000000	25.425819
1810.000000	25.436071
1809.000000	25.384917
1808.000000	25.314969
1807.000000	25.283786
1806.000000	25.300979
1805.000000	25.305571
1804.000000	25.267126
1803.000000	25.182440
1802.000000	25.145277
1801.000000	25.171868
1800.000000	25.198139
1799.000000	25.162791
1798.000000	25.104376
1797.000000	25.066358
1796.000000	25.045854
1795.000000	25.032398
1794.000000	25.011681
1793.000000	24.986798
1792.000000	24.958285
1791.000000	24.930198
1790.000000	24.924005
1789.000000	24.874453
1788.000000	24.816999
1787.000000	24.804611
1786.000000	24.771292
1785.000000	24.734770
1784.000000	24.689490
1783.000000	24.648482
1782.000000	24.613882
1781.000000	24.566466
1780.000000	24.530050
1779.000000	24.471315
1778.000000	24.424540
1777.000000	24.360785
1776.000000	24.294468
1775.000000	24.225587
1774.000000	24.130436
1773.000000	24.051089
1772.000000	23.955618
1771.000000	23.860039
1770.000000	23.781120
1769.000000	23.704550
1768.000000	23.623602
1767.000000	23.522898
1766.000000	23.456473
1765.000000	23.415038
1764.000000	23.385991
1763.000000	23.366982
1762.000000	23.384068
1761.000000	23.398379
1760.000000	23.398272
1759.000000	23.424329
1758.000000	23.456900
1757.000000	23.496413
1756.000000	23.525674
1755.000000	23.538276
1754.000000	23.533043
1753.000000	23.519374
1752.000000	23.498122
1751.000000	23.488618
1750.000000	23.428707
1749.000000	23.403077
1748.000000	23.319780
1747.000000	23.238725
1746.000000	23.164718
1745.000000	23.061558
1744.000000	22.940135
1743.000000	22.806646
1742.000000	22.683729
1741.000000	22.505066
1740.000000	22.349898
1739.000000	22.167177
1738.000000	22.020018
1737.000000	21.869122
1736.000000	21.766602
1735.000000	21.671343
1734.000000	21.616666
1733.000000	21.615812
1732.000000	21.624462
1731.000000	21.653723
1730.000000	21.694731
1729.000000	21.738088
1728.000000	21.778242
1727.000000	21.824696
1726.000000	21.841142
1725.000000	21.879267
1724.000000	21.879587
1723.000000	21.917819
1722.000000	21.939391
1721.000000	21.989689
1720.000000	22.027494
1719.000000	22.106199
1718.000000	22.201564
1717.000000	22.294259
1716.000000	22.380974
1715.000000	22.481145
1714.000000	22.581209
1713.000000	22.694301
1712.000000	22.736484
1711.000000	22.816898
1710.000000	22.840178
1709.000000	22.866556
1708.000000	22.891118
1707.000000	22.909807
1706.000000	22.892827
1705.000000	22.896564
1704.000000	22.868158
1703.000000	22.825868
1702.000000	22.744600
1701.000000	22.632362
1700.000000	22.565617
1699.000000	22.454233
1698.000000	22.370188
1697.000000	22.276318
1696.000000	22.227087
1695.000000	22.203380
1694.000000	22.236912
1693.000000	22.276212
1692.000000	22.348189
1691.000000	22.434904
1690.000000	22.503037
1689.000000	22.560171
1688.000000	22.645711
1687.000000	22.668671
1686.000000	22.714378
1685.000000	22.802481
1684.000000	22.914826
1683.000000	23.132681
1682.000000	23.382894
1681.000000	23.720996
1680.000000	24.100214
1679.000000	24.502284
1678.000000	24.856512
1677.000000	25.212983
1676.000000	25.537523
1675.000000	25.816036
1674.000000	26.081733
1673.000000	26.311335
1672.000000	26.509754
1671.000000	26.710309
1670.000000	26.884380
1669.000000	27.043179
1668.000000	27.210628
1667.000000	27.420474
1666.000000	27.540828
1665.000000	27.652105
1664.000000	27.779294
1663.000000	27.857572
1662.000000	27.951015
1661.000000	28.017653
1660.000000	28.120173
1659.000000	28.193752
1658.000000	28.250993
1657.000000	28.313573
1656.000000	28.363124
1655.000000	28.387366
1654.000000	28.374978
1653.000000	28.382667
1652.000000	28.416306
1651.000000	28.437985
1650.000000	28.429976
1649.000000	28.402317
1648.000000	28.380638
1647.000000	28.352552
1646.000000	28.328844
1645.000000	28.320301
1644.000000	28.301185
1643.000000	28.283564
1642.000000	28.279293
1641.000000	28.248750
1640.000000	28.245119
1639.000000	28.198985
1638.000000	28.147832
1637.000000	28.127435
1636.000000	28.091873
1635.000000	28.072223
1634.000000	28.016265
1633.000000	27.969597
1632.000000	27.923356
1631.000000	27.868892
1630.000000	27.815603
1629.000000	27.788051
1628.000000	27.757295
1627.000000	27.705180
1626.000000	27.654668
1625.000000	27.577671
1624.000000	27.509965
1623.000000	27.444822
1622.000000	27.420367
1621.000000	27.374660
1620.000000	27.342623
1619.000000	27.277266
1618.000000	27.223550
1617.000000	27.193435
1616.000000	27.165776
1615.000000	27.112380
1614.000000	27.074362
1613.000000	27.035383
1612.000000	26.980812
1611.000000	26.922077
1610.000000	26.867400
1609.000000	26.810159
1608.000000	26.751317
1607.000000	26.690019
1606.000000	26.662253
1605.000000	26.622206
1604.000000	26.557597
1603.000000	26.508366
1602.000000	26.455931
1601.000000	26.398371
1600.000000	26.325859
1599.000000	26.257192
1598.000000	26.197923
1597.000000	26.164070
1596.000000	26.112382
1595.000000	26.042220
1594.000000	25.996300
1593.000000	25.933400
