PE UV       SUBTECH     SPECTRUM    ASCII       PEDS        4.00        
   -1
CICIMAUCR0258-1.ASC
24/07/01
14:18:30.00
24/07/01
14:18:30.00
Vinicio Soto Monge
C. resplendens. Sex M. Ventral
250,000000
1
Lambda 1050
1050L1511233
PerkinElmer UV WinLab 6.3.2.0749 / 2.02.05 Lambda 900 UV/VIS/NIR, Aug  7 2015 09:38:08

0
0
3350/servo 860,8/2
0
0
UV/VIS
1
1
1
DoubleDePol,CommonBeamDepol,RBeamAtt,SBeamAtt,60mm sphere, WB InGaAs Detector
0
0
0
0
Program
Program
3350/servo 860,8/2
3350/0,2 860,8/0,2
3350/0,2 860,8/0,2
0
15.00
 
 
 
0
 
860,8
319,2
860,8
Front
100
on
S:100 R:100
0
0
0
0
 
0
 
 
 
0
 
 
0
0
0
0
0
 
 
 
 
0
0


0
0
#HDR
-1
-1
#GR
nm
%R
1.0
0.0
2500,000000
-1,000000
2251
8
65,226500
3,924400
#DATA
2482.000000	5.961627
2481.000000	5.981148
2480.000000	5.951330
2479.000000	6.004852
2478.000000	5.984473
2477.000000	5.930736
2476.000000	5.975034
2475.000000	5.905960
2474.000000	5.994340
2473.000000	5.966668
2472.000000	5.976750
2471.000000	5.988441
2470.000000	6.012682
2469.000000	5.983507
2468.000000	5.985009
2467.000000	5.981362
2466.000000	6.003994
2465.000000	5.986618
2464.000000	5.998094
2463.000000	5.972138
2462.000000	6.034670
2461.000000	6.030808
2460.000000	6.092589
2459.000000	6.089371
2458.000000	6.100633
2457.000000	6.132596
2456.000000	6.149436
2455.000000	6.186225
2454.000000	6.177108
2453.000000	6.220655
2452.000000	6.266776
2451.000000	6.295951
2450.000000	6.335314
2449.000000	6.332633
2448.000000	6.357195
2447.000000	6.372962
2446.000000	6.452762
2445.000000	6.478611
2444.000000	6.469923
2443.000000	6.516366
2442.000000	6.560449
2441.000000	6.593485
2440.000000	6.648508
2439.000000	6.687550
2438.000000	6.696453
2437.000000	6.713829
2436.000000	6.760164
2435.000000	6.800922
2434.000000	6.812292
2433.000000	6.866993
2432.000000	6.884584
2431.000000	6.922017
2430.000000	6.929739
2429.000000	6.970712
2428.000000	7.004927
2427.000000	7.015224
2426.000000	7.059307
2425.000000	7.103605
2424.000000	7.119908
2423.000000	7.145436
2422.000000	7.174181
2421.000000	7.197027
2420.000000	7.218157
2419.000000	7.243577
2418.000000	7.268139
2417.000000	7.311257
2416.000000	7.326380
2415.000000	7.335068
2414.000000	7.349977
2413.000000	7.379366
2412.000000	7.395776
2411.000000	7.423342
2410.000000	7.445759
2409.000000	7.467532
2408.000000	7.474182
2407.000000	7.498315
2406.000000	7.528026
2405.000000	7.544973
2404.000000	7.551515
2403.000000	7.566424
2402.000000	7.580797
2401.000000	7.591415
2400.000000	7.583157
2399.000000	7.607504
2398.000000	7.621448
2397.000000	7.633568
2396.000000	7.652124
2395.000000	7.676149
2394.000000	7.669285
2393.000000	7.677007
2392.000000	7.689557
2391.000000	7.701677
2390.000000	7.706289
2389.000000	7.717229
2388.000000	7.731924
2387.000000	7.738037
2386.000000	7.754448
2385.000000	7.751874
2384.000000	7.750694
2383.000000	7.769786
2382.000000	7.764208
2381.000000	7.761956
2380.000000	7.765281
2379.000000	7.766246
2378.000000	7.759811
2377.000000	7.750265
2376.000000	7.749514
2375.000000	7.767641
2374.000000	7.774183
2373.000000	7.764745
2372.000000	7.749943
2371.000000	7.726668
2370.000000	7.726239
2369.000000	7.728706
2368.000000	7.720662
2367.000000	7.702749
2366.000000	7.693847
2365.000000	7.682692
2364.000000	7.662635
2363.000000	7.644937
2362.000000	7.621126
2361.000000	7.596671
2360.000000	7.593453
2359.000000	7.582620
2358.000000	7.554519
2357.000000	7.528026
2356.000000	7.502284
2355.000000	7.485444
2354.000000	7.481797
2353.000000	7.481583
2352.000000	7.468068
2351.000000	7.462384
2350.000000	7.465280
2349.000000	7.460668
2348.000000	7.457986
2347.000000	7.477936
2346.000000	7.493274
2345.000000	7.507861
2344.000000	7.535427
2343.000000	7.554304
2342.000000	7.568784
2341.000000	7.572645
2340.000000	7.580904
2339.000000	7.607719
2338.000000	7.615870
2337.000000	7.613832
2336.000000	7.616514
2335.000000	7.622199
2334.000000	7.633782
2333.000000	7.642470
2332.000000	7.628098
2331.000000	7.617050
2330.000000	7.611473
2329.000000	7.599031
2328.000000	7.590236
2327.000000	7.575005
2326.000000	7.557093
2325.000000	7.541862
2324.000000	7.526846
2323.000000	7.492952
2322.000000	7.455412
2321.000000	7.413474
2320.000000	7.386552
2319.000000	7.348154
2318.000000	7.318765
2317.000000	7.303105
2316.000000	7.239716
2315.000000	7.182762
2314.000000	7.156162
2313.000000	7.116369
2312.000000	7.079150
2311.000000	7.027237
2310.000000	6.987015
2309.000000	6.942181
2308.000000	6.921802
2307.000000	6.901316
2306.000000	6.865277
2305.000000	6.878684
2304.000000	6.881151
2303.000000	6.871069
2302.000000	6.882224
2301.000000	6.879435
2300.000000	6.911398
2299.000000	6.939714
2298.000000	6.961595
2297.000000	7.011899
2296.000000	7.035389
2295.000000	7.052228
2294.000000	7.100387
2293.000000	7.147688
2292.000000	7.176219
2291.000000	7.199387
2290.000000	7.244542
2289.000000	7.264814
2288.000000	7.269533
2287.000000	7.271035
2286.000000	7.285086
2285.000000	7.296348
2284.000000	7.302140
2283.000000	7.287446
2282.000000	7.273717
2281.000000	7.269319
2280.000000	7.257092
2279.000000	7.238000
2278.000000	7.230062
2277.000000	7.201210
2276.000000	7.168174
2275.000000	7.138464
2274.000000	7.128167
2273.000000	7.103069
2272.000000	7.097599
2271.000000	7.074002
2270.000000	7.102961
2269.000000	7.101245
2268.000000	7.102318
2267.000000	7.153158
2266.000000	7.185765
2265.000000	7.210220
2264.000000	7.256233
2263.000000	7.308146
2262.000000	7.376792
2261.000000	7.477507
2260.000000	7.562348
2259.000000	7.654590
2258.000000	7.768821
2257.000000	7.860205
2256.000000	8.001571
2255.000000	8.116766
2254.000000	8.234965
2253.000000	8.385555
2252.000000	8.526922
2251.000000	8.624634
2250.000000	8.742618
2249.000000	8.896533
2248.000000	8.990492
2247.000000	9.093567
2246.000000	9.192030
2245.000000	9.308941
2244.000000	9.391208
2243.000000	9.504688
2242.000000	9.565718
2241.000000	9.630609
2240.000000	9.713948
2239.000000	9.761678
2238.000000	9.838904
2237.000000	9.871082
2236.000000	9.939512
2235.000000	9.969008
2234.000000	9.998826
2233.000000	10.041301
2232.000000	10.072834
2231.000000	10.104797
2230.000000	10.127429
2229.000000	10.126893
2228.000000	10.166364
2227.000000	10.169581
2226.000000	10.132792
2225.000000	10.158427
2224.000000	10.143089
2223.000000	10.134722
2222.000000	10.136868
2221.000000	10.126571
2220.000000	10.091176
2219.000000	10.062109
2218.000000	10.055459
2217.000000	10.036688
2216.000000	10.003438
2215.000000	9.964075
2214.000000	9.963538
2213.000000	9.912483
2212.000000	9.933935
2211.000000	9.876981
2210.000000	9.853277
2209.000000	9.844053
2208.000000	9.829358
2207.000000	9.804796
2206.000000	9.792890
2205.000000	9.774442
2204.000000	9.770474
2203.000000	9.748700
2202.000000	9.751382
2201.000000	9.717381
2200.000000	9.696894
2199.000000	9.696358
2198.000000	9.699361
2197.000000	9.678982
2196.000000	9.659139
2195.000000	9.653669
2194.000000	9.640798
2193.000000	9.636293
2192.000000	9.630180
2191.000000	9.626855
2190.000000	9.598646
2189.000000	9.605725
2188.000000	9.590601
2187.000000	9.584917
2186.000000	9.551774
2185.000000	9.565289
2184.000000	9.552632
2183.000000	9.542979
2182.000000	9.548771
2181.000000	9.515199
2180.000000	9.508334
2179.000000	9.500290
2178.000000	9.493426
2177.000000	9.470901
2176.000000	9.489135
2175.000000	9.472081
2174.000000	9.460819
2173.000000	9.449771
2172.000000	9.450200
2171.000000	9.448699
2170.000000	9.435399
2169.000000	9.476264
2168.000000	9.460068
2167.000000	9.464466
2166.000000	9.463393
2165.000000	9.465967
2164.000000	9.489457
2163.000000	9.507369
2162.000000	9.500719
2161.000000	9.542764
2160.000000	9.543193
2159.000000	9.552847
2158.000000	9.565181
2157.000000	9.574298
2156.000000	9.614520
2155.000000	9.659783
2154.000000	9.671689
2153.000000	9.701614
2152.000000	9.727570
2151.000000	9.745482
2150.000000	9.762536
2149.000000	9.788815
2148.000000	9.829358
2147.000000	9.853277
2146.000000	9.872476
2145.000000	9.903688
2144.000000	9.935222
2143.000000	9.966113
2142.000000	9.990996
2141.000000	9.988100
2140.000000	10.020492
2139.000000	10.053742
2138.000000	10.084418
2137.000000	10.096753
2136.000000	10.115309
2135.000000	10.135580
2134.000000	10.152098
2133.000000	10.152420
2132.000000	10.165506
2131.000000	10.175695
2130.000000	10.182345
2129.000000	10.186206
2128.000000	10.194787
2127.000000	10.213021
2126.000000	10.201973
2125.000000	10.209052
2124.000000	10.215917
2123.000000	10.197683
2122.000000	10.190282
2121.000000	10.191248
2120.000000	10.191891
2119.000000	10.180093
2118.000000	10.167651
2117.000000	10.166256
2116.000000	10.144590
2115.000000	10.132577
2114.000000	10.109517
2113.000000	10.081844
2112.000000	10.067042
2111.000000	10.051490
2110.000000	10.026392
2109.000000	10.012877
2108.000000	10.001186
2107.000000	9.979949
2106.000000	9.943159
2105.000000	9.937153
2104.000000	9.937153
2103.000000	9.904439
2102.000000	9.872691
2101.000000	9.845769
2100.000000	9.827642
2099.000000	9.814557
2098.000000	9.793534
2097.000000	9.784310
2096.000000	9.765111
2095.000000	9.729930
2094.000000	9.719955
2093.000000	9.713519
2092.000000	9.688314
2091.000000	9.644338
2090.000000	9.641227
2089.000000	9.636937
2088.000000	9.607763
2087.000000	9.586740
2086.000000	9.576122
2085.000000	9.548020
2084.000000	9.525174
2083.000000	9.503508
2082.000000	9.477015
2081.000000	9.453311
2080.000000	9.423171
2079.000000	9.397322
2078.000000	9.363429
2077.000000	9.333718
2076.000000	9.300146
2075.000000	9.252953
2074.000000	9.218415
2073.000000	9.195569
2072.000000	9.153417
2071.000000	9.107403
2070.000000	9.080803
2069.000000	9.041547
2068.000000	8.994353
2067.000000	8.947374
2066.000000	8.900073
2065.000000	8.857599
2064.000000	8.820487
2063.000000	8.778335
2062.000000	8.746586
2061.000000	8.717841
2060.000000	8.693708
2059.000000	8.659815
2058.000000	8.630319
2057.000000	8.606936
2056.000000	8.592993
2055.000000	8.572185
2054.000000	8.570898
2053.000000	8.578620
2052.000000	8.564033
2051.000000	8.560708
2050.000000	8.571112
2049.000000	8.584519
2048.000000	8.603289
2047.000000	8.644798
2046.000000	8.667859
2045.000000	8.688131
2044.000000	8.732965
2043.000000	8.767609
2042.000000	8.800216
2041.000000	8.817162
2040.000000	8.849340
2039.000000	8.883984
2038.000000	8.918307
2037.000000	8.956062
2036.000000	8.967860
2035.000000	8.978908
2034.000000	9.010978
2033.000000	9.033180
2032.000000	9.048733
2031.000000	9.061818
2030.000000	9.064929
2029.000000	9.063427
2028.000000	9.065894
2027.000000	9.083806
2026.000000	9.096570
2025.000000	9.086917
2024.000000	9.101397
2023.000000	9.085415
2022.000000	9.081018
2021.000000	9.100968
2020.000000	9.076513
2019.000000	9.058386
2018.000000	9.056455
2017.000000	9.046051
2016.000000	9.027925
2015.000000	9.007975
2014.000000	8.991457
2013.000000	8.990599
2012.000000	8.971292
2011.000000	8.933430
2010.000000	8.919487
2009.000000	8.898786
2008.000000	8.885915
2007.000000	8.856204
2006.000000	8.821560
2005.000000	8.815232
2004.000000	8.770076
2003.000000	8.721166
2002.000000	8.684591
2001.000000	8.676869
2000.000000	8.655846
1999.000000	8.599214
1998.000000	8.572614
1997.000000	8.529818
1996.000000	8.491312
1995.000000	8.446263
1994.000000	8.416017
1993.000000	8.371397
1992.000000	8.324418
1991.000000	8.296424
1990.000000	8.255022
1989.000000	8.210617
1988.000000	8.172004
1987.000000	8.115479
1986.000000	8.085769
1985.000000	8.033963
1984.000000	7.988700
1983.000000	7.956308
1982.000000	7.907398
1981.000000	7.859561
1980.000000	7.799067
1979.000000	7.787376
1978.000000	7.735034
1977.000000	7.691487
1976.000000	7.651265
1975.000000	7.624665
1974.000000	7.588519
1973.000000	7.535105
1972.000000	7.485981
1971.000000	7.448976
1970.000000	7.429026
1969.000000	7.383656
1968.000000	7.335605
1967.000000	7.295275
1966.000000	7.284442
1965.000000	7.245079
1964.000000	7.219337
1963.000000	7.167316
1962.000000	7.145221
1961.000000	7.123984
1960.000000	7.097062
1959.000000	7.045578
1958.000000	7.024448
1957.000000	6.989482
1956.000000	6.971248
1955.000000	6.932850
1954.000000	6.915045
1953.000000	6.895739
1952.000000	6.849403
1951.000000	6.817869
1950.000000	6.805213
1949.000000	6.796739
1948.000000	6.758448
1947.000000	6.747829
1946.000000	6.733242
1945.000000	6.699349
1944.000000	6.684869
1943.000000	6.653120
1942.000000	6.645934
1941.000000	6.650868
1940.000000	6.652477
1939.000000	6.634565
1938.000000	6.609037
1937.000000	6.614722
1936.000000	6.614186
1935.000000	6.607965
1934.000000	6.595308
1933.000000	6.621372
1932.000000	6.631562
1931.000000	6.638962
1930.000000	6.668780
1929.000000	6.674894
1928.000000	6.698812
1927.000000	6.723696
1926.000000	6.750189
1925.000000	6.753621
1924.000000	6.799421
1923.000000	6.853801
1922.000000	6.879006
1921.000000	6.908502
1920.000000	6.955374
1919.000000	7.010183
1918.000000	7.068746
1917.000000	7.136426
1916.000000	7.197241
1915.000000	7.237892
1914.000000	7.321232
1913.000000	7.383656
1912.000000	7.467318
1911.000000	7.565995
1910.000000	7.629278
1909.000000	7.711008
1908.000000	7.816550
1907.000000	7.913619
1906.000000	8.031710
1905.000000	8.175758
1904.000000	8.284518
1903.000000	8.414515
1902.000000	8.542152
1901.000000	8.696819
1900.000000	8.864892
1899.000000	9.015268
1898.000000	9.222277
1897.000000	9.403650
1896.000000	9.609908
1895.000000	9.808443
1894.000000	10.046127
1893.000000	10.284991
1892.000000	10.558500
1891.000000	10.863006
1890.000000	11.181563
1889.000000	11.513634
1888.000000	11.864154
1887.000000	12.248568
1886.000000	12.639953
1885.000000	13.078532
1884.000000	13.515716
1883.000000	14.001810
1882.000000	14.496485
1881.000000	14.993627
1880.000000	15.512328
1879.000000	16.007861
1878.000000	16.512404
1877.000000	17.018019
1876.000000	17.534896
1875.000000	18.053704
1874.000000	18.550417
1873.000000	19.029433
1872.000000	19.540518
1871.000000	20.012347
1870.000000	20.460686
1869.000000	20.882747
1868.000000	21.305774
1867.000000	21.656830
1866.000000	21.965090
1865.000000	22.240422
1864.000000	22.511571
1863.000000	22.767811
1862.000000	23.003672
1861.000000	23.261306
1860.000000	23.506176
1859.000000	23.737640
1858.000000	23.961273
1857.000000	24.120122
1856.000000	24.278007
1855.000000	24.428597
1854.000000	24.546903
1853.000000	24.659310
1852.000000	24.728813
1851.000000	24.799925
1850.000000	24.878974
1849.000000	24.951695
1848.000000	25.016694
1847.000000	25.069143
1846.000000	25.104109
1845.000000	25.106684
1844.000000	25.102286
1843.000000	25.106147
1842.000000	25.131460
1841.000000	25.158382
1840.000000	25.175651
1839.000000	25.181764
1838.000000	25.165783
1837.000000	25.150123
1836.000000	25.144331
1835.000000	25.124059
1834.000000	25.082229
1833.000000	25.042972
1832.000000	24.996208
1831.000000	24.952983
1830.000000	24.923165
1829.000000	24.887340
1828.000000	24.825989
1827.000000	24.749299
1826.000000	24.713904
1825.000000	24.679689
1824.000000	24.614047
1823.000000	24.568676
1822.000000	24.543471
1821.000000	24.525880
1820.000000	24.517300
1819.000000	24.478472
1818.000000	24.414439
1817.000000	24.394274
1816.000000	24.368425
1815.000000	24.337857
1814.000000	24.317478
1813.000000	24.289483
1812.000000	24.271357
1811.000000	24.237677
1810.000000	24.200459
1809.000000	24.176004
1808.000000	24.136104
1807.000000	24.090626
1806.000000	24.049332
1805.000000	23.987122
1804.000000	23.928988
1803.000000	23.890697
1802.000000	23.853800
1801.000000	23.804461
1800.000000	23.759842
1799.000000	23.693771
1798.000000	23.622659
1797.000000	23.580614
1796.000000	23.536101
1795.000000	23.492662
1794.000000	23.444396
1793.000000	23.386905
1792.000000	23.337674
1791.000000	23.295843
1790.000000	23.249507
1789.000000	23.201134
1788.000000	23.157909
1787.000000	23.098917
1786.000000	23.043679
1785.000000	23.001955
1784.000000	22.958945
1783.000000	22.904136
1782.000000	22.855333
1781.000000	22.811787
1780.000000	22.739173
1779.000000	22.672780
1778.000000	22.617864
1777.000000	22.558014
1776.000000	22.514145
1775.000000	22.449576
1774.000000	22.354116
1773.000000	22.269489
1772.000000	22.207708
1771.000000	22.137240
1770.000000	22.050682
1769.000000	21.967986
1768.000000	21.871883
1767.000000	21.789616
1766.000000	21.719898
1765.000000	21.655865
1764.000000	21.601914
1763.000000	21.559118
1762.000000	21.543458
1761.000000	21.546140
1760.000000	21.566304
1759.000000	21.614678
1758.000000	21.669165
1757.000000	21.732018
1756.000000	21.776101
1755.000000	21.845712
1754.000000	21.917575
1753.000000	21.981608
1752.000000	22.028051
1751.000000	22.051755
1750.000000	22.058083
1749.000000	22.059263
1748.000000	22.060764
1747.000000	22.057332
1746.000000	22.015823
1745.000000	21.967021
1744.000000	21.908458
1743.000000	21.844103
1742.000000	21.749287
1741.000000	21.627227
1740.000000	21.503773
1739.000000	21.351251
1738.000000	21.187039
1737.000000	21.043957
1736.000000	20.894546
1735.000000	20.770019
1734.000000	20.658363
1733.000000	20.585106
1732.000000	20.539414
1731.000000	20.537590
1730.000000	20.561724
1729.000000	20.610419
1728.000000	20.701910
1727.000000	20.773022
1726.000000	20.851750
1725.000000	20.939165
1724.000000	21.033445
1723.000000	21.095440
1722.000000	21.164729
1721.000000	21.222112
1720.000000	21.294190
1719.000000	21.360905
1718.000000	21.432660
1717.000000	21.515571
1716.000000	21.588721
1715.000000	21.665947
1714.000000	21.758404
1713.000000	21.854292
1712.000000	21.952112
1711.000000	22.052398
1710.000000	22.108494
1709.000000	22.161373
1708.000000	22.208781
1707.000000	22.215002
1706.000000	22.216825
1705.000000	22.181430
1704.000000	22.140457
1703.000000	22.094873
1702.000000	22.029660
1701.000000	21.944389
1700.000000	21.851504
1699.000000	21.713248
1698.000000	21.595049
1697.000000	21.465696
1696.000000	21.357258
1695.000000	21.280675
1694.000000	21.239381
1693.000000	21.240990
1692.000000	21.281426
1691.000000	21.365624
1690.000000	21.503022
1689.000000	21.620577
1688.000000	21.769773
1687.000000	21.884968
1686.000000	22.015072
1685.000000	22.121902
1684.000000	22.220043
1683.000000	22.338242
1682.000000	22.510713
1681.000000	22.717185
1680.000000	23.032631
1679.000000	23.410824
1678.000000	23.836424
1677.000000	24.292486
1676.000000	24.722699
1675.000000	25.154092
1674.000000	25.533357
1673.000000	25.883126
1672.000000	26.202648
1671.000000	26.478838
1670.000000	26.723923
1669.000000	26.935007
1668.000000	27.131397
1667.000000	27.314058
1666.000000	27.432042
1665.000000	27.561503
1664.000000	27.672515
1663.000000	27.770442
1662.000000	27.840267
1661.000000	27.900117
1660.000000	27.955784
1659.000000	28.032473
1658.000000	28.069907
1657.000000	28.104658
1656.000000	28.124394
1655.000000	28.144987
1654.000000	28.167297
1653.000000	28.153568
1652.000000	28.137265
1651.000000	28.107983
1650.000000	28.095112
1649.000000	28.060146
1648.000000	28.030006
1647.000000	27.981633
1646.000000	27.920925
1645.000000	27.875340
1644.000000	27.820746
1643.000000	27.748561
1642.000000	27.707374
1641.000000	27.640981
1640.000000	27.584349
1639.000000	27.532650
1638.000000	27.446307
1637.000000	27.389460
1636.000000	27.341623
1635.000000	27.250239
1634.000000	27.170975
1633.000000	27.127107
1632.000000	27.025962
1631.000000	26.941014
1630.000000	26.859497
1629.000000	26.746769
1628.000000	26.677695
1627.000000	26.605295
1626.000000	26.512946
1625.000000	26.417165
1624.000000	26.307761
1623.000000	26.230428
1622.000000	26.149555
1621.000000	26.051521
1620.000000	25.971614
1619.000000	25.870362
1618.000000	25.792278
1617.000000	25.708080
1616.000000	25.635681
1615.000000	25.532713
1614.000000	25.474257
1613.000000	25.402502
1612.000000	25.298998
1611.000000	25.204932
1610.000000	25.119447
1609.000000	25.041256
1608.000000	24.935070
1607.000000	24.868249
1606.000000	24.783193
1605.000000	24.692452
1604.000000	24.612116
1603.000000	24.511508
1602.000000	24.411436
1601.000000	24.317585
1600.000000	24.236712
1599.000000	24.145864
1598.000000	24.051477
1597.000000	23.948080
1596.000000	23.869567
1595.000000	23.791590
1594.000000	23.682509
1593.000000	23.592734
1592.000000	23.513041
1591.000000	23.424446
1590.000000	23.362450
1589.000000	23.278038
1588.000000	23.205102
1587.000000	23.123050
1586.000000	23.052152
1585.000000	22.957121
1584.000000	22.888262
1583.000000	22.818544
1582.000000	22.745286
