PE UV       SUBTECH     SPECTRUM    ASCII       PEDS        4.00        
   -1
CICIMAUCR0248-3.ASC
24/06/27
16:03:25.00
24/06/27
16:03:25.00
Vinicio Soto Monge
C. resplendens. Sex F. Ventral
250,000000
1
Lambda 1050
1050L1511233
PerkinElmer UV WinLab 6.3.2.0749 / 2.02.05 Lambda 900 UV/VIS/NIR, Aug  7 2015 09:38:08

0
0
3350/servo 860,8/2
0
0
UV/VIS
1
1
1
DoubleDePol,CommonBeamDepol,RBeamAtt,SBeamAtt,60mm sphere, WB InGaAs Detector
0
0
0
0
Program
Program
3350/servo 860,8/2
3350/0,2 860,8/0,2
3350/0,2 860,8/0,2
0
15.00
 
 
 
0
 
860,8
319,2
860,8
Front
100
on
S:100 R:100
0
0
0
0
 
0
 
 
 
0
 
 
0
0
0
0
0
 
 
 
 
0
0


0
0
#HDR
-1
-1
#GR
nm
%R
1.0
0.0
2500,000000
-1,000000
2251
8
62,298300
4,676600
#DATA
2482.000000	5.771112
2481.000000	5.746715
2480.000000	5.720021
2479.000000	5.748903
2478.000000	5.701531
2477.000000	5.686653
2476.000000	5.708424
2475.000000	5.706455
2474.000000	5.707220
2473.000000	5.747262
2472.000000	5.728445
2471.000000	5.707877
2470.000000	5.740916
2469.000000	5.774941
2468.000000	5.735665
2467.000000	5.701750
2466.000000	5.675056
2465.000000	5.712909
2464.000000	5.748575
2463.000000	5.773519
2462.000000	5.744527
2461.000000	5.791898
2460.000000	5.789601
2459.000000	5.772534
2458.000000	5.774941
2457.000000	5.800213
2456.000000	5.826688
2455.000000	5.842771
2454.000000	5.875154
2453.000000	5.890580
2452.000000	5.897253
2451.000000	5.892658
2450.000000	5.897034
2449.000000	5.949110
2448.000000	5.958409
2447.000000	5.987511
2446.000000	6.041774
2445.000000	6.049980
2444.000000	6.054684
2443.000000	6.072188
2442.000000	6.090349
2441.000000	6.127546
2440.000000	6.160586
2439.000000	6.180716
2438.000000	6.210474
2437.000000	6.230166
2436.000000	6.255985
2435.000000	6.269223
2434.000000	6.303685
2433.000000	6.335959
2432.000000	6.333333
2431.000000	6.339897
2430.000000	6.380048
2429.000000	6.410243
2428.000000	6.420965
2427.000000	6.433984
2426.000000	6.454770
2425.000000	6.476870
2424.000000	6.500173
2423.000000	6.528289
2422.000000	6.553452
2421.000000	6.549404
2420.000000	6.567893
2419.000000	6.569315
2418.000000	6.585179
2417.000000	6.604215
2416.000000	6.628612
2415.000000	6.649617
2414.000000	6.658479
2413.000000	6.654212
2412.000000	6.680140
2411.000000	6.702021
2410.000000	6.721713
2409.000000	6.723573
2408.000000	6.721166
2407.000000	6.747970
2406.000000	6.762192
2405.000000	6.764381
2404.000000	6.799280
2403.000000	6.832757
2402.000000	6.859999
2401.000000	6.878050
2400.000000	6.863390
2399.000000	6.877175
2398.000000	6.894679
2397.000000	6.917435
2396.000000	6.950475
2395.000000	6.958024
2394.000000	6.962400
2393.000000	6.978701
2392.000000	6.997080
2391.000000	7.002113
2390.000000	6.995658
2389.000000	7.025197
2388.000000	7.039638
2387.000000	7.036794
2386.000000	7.047843
2385.000000	7.063050
2384.000000	7.064801
2383.000000	7.073225
2382.000000	7.066332
2381.000000	7.074428
2380.000000	7.081649
2379.000000	7.091276
2378.000000	7.087228
2377.000000	7.075851
2376.000000	7.084603
2375.000000	7.093902
2374.000000	7.100466
2373.000000	7.094887
2372.000000	7.074209
2371.000000	7.079789
2370.000000	7.099700
2369.000000	7.103420
2368.000000	7.077929
2367.000000	7.063926
2366.000000	7.059440
2365.000000	7.053423
2364.000000	7.038325
2363.000000	7.044452
2362.000000	7.051016
2361.000000	7.027057
2360.000000	7.005614
2359.000000	6.991720
2358.000000	6.994345
2357.000000	6.993470
2356.000000	6.979467
2355.000000	6.967213
2354.000000	6.957695
2353.000000	6.960212
2352.000000	6.974215
2351.000000	6.962619
2350.000000	6.948068
2349.000000	6.966229
2348.000000	6.971699
2347.000000	6.988438
2346.000000	6.996862
2345.000000	6.979357
2344.000000	6.981326
2343.000000	7.011522
2342.000000	7.017211
2341.000000	7.035153
2340.000000	7.056814
2339.000000	7.054079
2338.000000	7.063488
2337.000000	7.078039
2336.000000	7.089635
2335.000000	7.086791
2334.000000	7.087994
2333.000000	7.090182
2332.000000	7.101013
2331.000000	7.096199
2330.000000	7.085587
2329.000000	7.081868
2328.000000	7.091276
2327.000000	7.081211
2326.000000	7.074428
2325.000000	7.066332
2324.000000	7.049922
2323.000000	7.045874
2322.000000	7.018742
2321.000000	6.995877
2320.000000	6.975856
2319.000000	6.968636
2318.000000	6.946318
2317.000000	6.900915
2316.000000	6.886255
2315.000000	6.862077
2314.000000	6.828272
2313.000000	6.794795
2312.000000	6.787683
2311.000000	6.761755
2310.000000	6.729809
2309.000000	6.694800
2308.000000	6.670075
2307.000000	6.655525
2306.000000	6.649945
2305.000000	6.642287
2304.000000	6.634082
2303.000000	6.632878
2302.000000	6.641412
2301.000000	6.659135
2300.000000	6.670732
2299.000000	6.688783
2298.000000	6.702240
2297.000000	6.712195
2296.000000	6.734295
2295.000000	6.795342
2294.000000	6.805188
2293.000000	6.836149
2292.000000	6.844026
2291.000000	6.875862
2290.000000	6.908683
2289.000000	6.906495
2288.000000	6.917107
2287.000000	6.932533
2286.000000	6.952116
2285.000000	6.929141
2284.000000	6.935158
2283.000000	6.938440
2282.000000	6.944786
2281.000000	6.934940
2280.000000	6.942707
2279.000000	6.913278
2278.000000	6.902666
2277.000000	6.905729
2276.000000	6.889975
2275.000000	6.894351
2274.000000	6.871705
2273.000000	6.866782
2272.000000	6.843260
2271.000000	6.853434
2270.000000	6.857811
2269.000000	6.855513
2268.000000	6.875753
2267.000000	6.901462
2266.000000	6.917654
2265.000000	6.940738
2264.000000	6.964150
2263.000000	6.999268
2262.000000	7.074209
2261.000000	7.109656
2260.000000	7.183065
2259.000000	7.255381
2258.000000	7.337652
2257.000000	7.430535
2256.000000	7.503835
2255.000000	7.584574
2254.000000	7.691679
2253.000000	7.784781
2252.000000	7.891230
2251.000000	7.977768
2250.000000	8.071089
2249.000000	8.184649
2248.000000	8.239241
2247.000000	8.329608
2246.000000	8.408815
2245.000000	8.482553
2244.000000	8.562855
2243.000000	8.613836
2242.000000	8.693919
2241.000000	8.746104
2240.000000	8.794789
2239.000000	8.832423
2238.000000	8.902441
2237.000000	8.929354
2236.000000	8.954517
2235.000000	9.008453
2234.000000	8.999263
2233.000000	9.059981
2232.000000	9.077705
2231.000000	9.092802
2230.000000	9.105165
2229.000000	9.120700
2228.000000	9.087332
2227.000000	9.119825
2226.000000	9.116980
2225.000000	9.108337
2224.000000	9.097178
2223.000000	9.106149
2222.000000	9.066545
2221.000000	9.044446
2220.000000	9.061513
2219.000000	9.034381
2218.000000	9.041930
2217.000000	9.017533
2216.000000	9.006702
2215.000000	8.967426
2214.000000	8.936794
2213.000000	8.921587
2212.000000	8.891610
2211.000000	8.885921
2210.000000	8.849600
2209.000000	8.851569
2208.000000	8.836690
2207.000000	8.812621
2206.000000	8.806823
2205.000000	8.768094
2204.000000	8.787130
2203.000000	8.772908
2202.000000	8.746542
2201.000000	8.750699
2200.000000	8.754528
2199.000000	8.732101
2198.000000	8.718316
2197.000000	8.709236
2196.000000	8.705625
2195.000000	8.693810
2194.000000	8.689434
2193.000000	8.689543
2192.000000	8.684182
2191.000000	8.670179
2190.000000	8.676087
2189.000000	8.670398
2188.000000	8.648189
2187.000000	8.650377
2186.000000	8.649611
2185.000000	8.643047
2184.000000	8.615477
2183.000000	8.602240
2182.000000	8.613508
2181.000000	8.582109
2180.000000	8.596551
2179.000000	8.585939
2178.000000	8.579046
2177.000000	8.566027
2176.000000	8.566902
2175.000000	8.564714
2174.000000	8.547101
2173.000000	8.543490
2172.000000	8.552242
2171.000000	8.546007
2170.000000	8.553993
2169.000000	8.560885
2168.000000	8.555415
2167.000000	8.558150
2166.000000	8.572263
2165.000000	8.570950
2164.000000	8.588017
2163.000000	8.607053
2162.000000	8.608257
2161.000000	8.630247
2160.000000	8.634842
2159.000000	8.651580
2158.000000	8.662411
2157.000000	8.684401
2156.000000	8.724990
2155.000000	8.730241
2154.000000	8.768204
2153.000000	8.793148
2152.000000	8.790522
2151.000000	8.824437
2150.000000	8.854413
2149.000000	8.882639
2148.000000	8.905067
2147.000000	8.947843
2146.000000	8.967426
2145.000000	8.993246
2144.000000	9.022784
2143.000000	9.047509
2142.000000	9.063045
2141.000000	9.086566
2140.000000	9.111838
2139.000000	9.141486
2138.000000	9.159319
2137.000000	9.197172
2136.000000	9.226930
2135.000000	9.244216
2134.000000	9.245638
2133.000000	9.270582
2132.000000	9.280537
2131.000000	9.299245
2130.000000	9.316859
2129.000000	9.329003
2128.000000	9.335458
2127.000000	9.349243
2126.000000	9.359526
2125.000000	9.363465
2124.000000	9.354166
2123.000000	9.363355
2122.000000	9.372217
2121.000000	9.374843
2120.000000	9.382173
2119.000000	9.375499
2118.000000	9.383704
2117.000000	9.379985
2116.000000	9.378015
2115.000000	9.366091
2114.000000	9.353619
2113.000000	9.343225
2112.000000	9.341366
2111.000000	9.335458
2110.000000	9.317844
2109.000000	9.319047
2108.000000	9.321782
2107.000000	9.296401
2106.000000	9.289727
2105.000000	9.292572
2104.000000	9.276161
2103.000000	9.266206
2102.000000	9.259423
2101.000000	9.230759
2100.000000	9.210848
2099.000000	9.209316
2098.000000	9.197829
2097.000000	9.186342
2096.000000	9.179121
2095.000000	9.167306
2094.000000	9.151223
2093.000000	9.138861
2092.000000	9.142252
2091.000000	9.143346
2090.000000	9.129999
2089.000000	9.117090
2088.000000	9.110744
2087.000000	9.105930
2086.000000	9.095209
2085.000000	9.080549
2084.000000	9.064904
2083.000000	9.059215
2082.000000	9.046087
2081.000000	9.026285
2080.000000	9.015564
2079.000000	9.002107
2078.000000	8.977492
2077.000000	8.949922
2076.000000	8.921477
2075.000000	8.890297
2074.000000	8.868636
2073.000000	8.840519
2072.000000	8.810652
2071.000000	8.779253
2070.000000	8.737680
2069.000000	8.718097
2068.000000	8.687574
2067.000000	8.648955
2066.000000	8.611976
2065.000000	8.571716
2064.000000	8.533316
2063.000000	8.506403
2062.000000	8.501370
2061.000000	8.471941
2060.000000	8.438792
2059.000000	8.416473
2058.000000	8.404658
2057.000000	8.371181
2056.000000	8.344268
2055.000000	8.342517
2054.000000	8.343064
2053.000000	8.344268
2052.000000	8.345143
2051.000000	8.358271
2050.000000	8.361225
2049.000000	8.378511
2048.000000	8.415379
2047.000000	8.437369
2046.000000	8.476754
2045.000000	8.509575
2044.000000	8.536160
2043.000000	8.585610
2042.000000	8.620072
2041.000000	8.646110
2040.000000	8.697748
2039.000000	8.726084
2038.000000	8.768641
2037.000000	8.822577
2036.000000	8.835268
2035.000000	8.863712
2034.000000	8.908130
2033.000000	8.920493
2032.000000	8.941826
2031.000000	8.975960
2030.000000	9.003748
2029.000000	9.014688
2028.000000	9.039195
2027.000000	9.065889
2026.000000	9.075516
2025.000000	9.082299
2024.000000	9.093787
2023.000000	9.110744
2022.000000	9.124420
2021.000000	9.123544
2020.000000	9.127592
2019.000000	9.115667
2018.000000	9.136454
2017.000000	9.135797
2016.000000	9.125514
2015.000000	9.130109
2014.000000	9.137986
2013.000000	9.127155
2012.000000	9.113807
2011.000000	9.118731
2010.000000	9.128358
2009.000000	9.099913
2008.000000	9.073110
2007.000000	9.064139
2006.000000	9.039632
2005.000000	9.009437
2004.000000	9.004405
2003.000000	9.001779
2002.000000	8.967536
2001.000000	8.932199
2000.000000	8.930339
1999.000000	8.891063
1998.000000	8.864807
1997.000000	8.831329
1996.000000	8.802447
1995.000000	8.799931
1994.000000	8.761421
1993.000000	8.714049
1992.000000	8.684729
1991.000000	8.666897
1990.000000	8.627621
1989.000000	8.581015
1988.000000	8.565152
1987.000000	8.513295
1986.000000	8.469534
1985.000000	8.436166
1984.000000	8.412973
1983.000000	8.362866
1982.000000	8.332014
1981.000000	8.300725
1980.000000	8.266154
1979.000000	8.245914
1978.000000	8.198434
1977.000000	8.151390
1976.000000	8.118022
1975.000000	8.082685
1974.000000	8.046145
1973.000000	8.025577
1972.000000	7.972954
1971.000000	7.959607
1970.000000	7.923176
1969.000000	7.884447
1968.000000	7.859285
1967.000000	7.817274
1966.000000	7.801629
1965.000000	7.798347
1964.000000	7.754695
1963.000000	7.723516
1962.000000	7.685006
1961.000000	7.659077
1960.000000	7.640479
1959.000000	7.610174
1958.000000	7.575494
1957.000000	7.549565
1956.000000	7.515650
1955.000000	7.507007
1954.000000	7.491144
1953.000000	7.440162
1952.000000	7.419376
1951.000000	7.394213
1950.000000	7.381194
1949.000000	7.363471
1948.000000	7.367409
1947.000000	7.311395
1946.000000	7.314349
1945.000000	7.288420
1944.000000	7.264242
1943.000000	7.245972
1942.000000	7.238423
1941.000000	7.235360
1940.000000	7.225076
1939.000000	7.201773
1938.000000	7.205712
1937.000000	7.209869
1936.000000	7.216433
1935.000000	7.210525
1934.000000	7.197725
1933.000000	7.227155
1932.000000	7.211729
1931.000000	7.261726
1930.000000	7.268071
1929.000000	7.287107
1928.000000	7.324742
1927.000000	7.319163
1926.000000	7.367847
1925.000000	7.368394
1924.000000	7.406138
1923.000000	7.434364
1922.000000	7.481735
1921.000000	7.534358
1920.000000	7.545408
1919.000000	7.600766
1918.000000	7.660937
1917.000000	7.707105
1916.000000	7.760166
1915.000000	7.847469
1914.000000	7.922848
1913.000000	8.001946
1912.000000	8.055335
1911.000000	8.129838
1910.000000	8.221080
1909.000000	8.304554
1908.000000	8.389123
1907.000000	8.488570
1906.000000	8.606288
1905.000000	8.714706
1904.000000	8.836799
1903.000000	8.985259
1902.000000	9.127264
1901.000000	9.247498
1900.000000	9.391363
1899.000000	9.545183
1898.000000	9.726026
1897.000000	9.915512
1896.000000	10.102153
1895.000000	10.285622
1894.000000	10.453008
1893.000000	10.634508
1892.000000	10.852001
1891.000000	11.078465
1890.000000	11.376697
1889.000000	11.637076
1888.000000	11.867697
1887.000000	12.145799
1886.000000	12.422807
1885.000000	12.722024
1884.000000	13.055265
1883.000000	13.392883
1882.000000	13.775136
1881.000000	14.110784
1880.000000	14.478269
1879.000000	14.806915
1878.000000	15.151315
1877.000000	15.495059
1876.000000	15.847336
1875.000000	16.215039
1874.000000	16.575194
1873.000000	16.930972
1872.000000	17.279639
1871.000000	17.624477
1870.000000	17.974238
1869.000000	18.288005
1868.000000	18.591161
1867.000000	18.844428
1866.000000	19.096712
1865.000000	19.275585
1864.000000	19.485092
1863.000000	19.640772
1862.000000	19.768773
1861.000000	19.960338
1860.000000	20.154090
1859.000000	20.311959
1858.000000	20.471687
1857.000000	20.607675
1856.000000	20.718609
1855.000000	20.802412
1854.000000	20.883589
1853.000000	20.964109
1852.000000	21.036753
1851.000000	21.065963
1850.000000	21.110819
1849.000000	21.133137
1848.000000	21.163660
1847.000000	21.209500
1846.000000	21.255559
1845.000000	21.270437
1844.000000	21.240023
1843.000000	21.218252
1842.000000	21.205343
1841.000000	21.234225
1840.000000	21.267265
1839.000000	21.259825
1838.000000	21.224816
1837.000000	21.217377
1836.000000	21.186963
1835.000000	21.182149
1834.000000	21.158300
1833.000000	21.103051
1832.000000	21.058524
1831.000000	21.018154
1830.000000	20.983802
1829.000000	20.955138
1828.000000	20.921442
1827.000000	20.867178
1826.000000	20.811821
1825.000000	20.774952
1824.000000	20.723314
1823.000000	20.669487
1822.000000	20.628790
1821.000000	20.622335
1820.000000	20.643012
1819.000000	20.629446
1818.000000	20.591155
1817.000000	20.551879
1816.000000	20.533937
1815.000000	20.516433
1814.000000	20.478798
1813.000000	20.453636
1812.000000	20.444883
1811.000000	20.434052
1810.000000	20.412172
1809.000000	20.373334
1808.000000	20.329026
1807.000000	20.297518
1806.000000	20.265681
1805.000000	20.220279
1804.000000	20.173783
1803.000000	20.140415
1802.000000	20.110767
1801.000000	20.076305
1800.000000	20.031340
1799.000000	19.980906
1798.000000	19.926970
1797.000000	19.882771
1796.000000	19.832446
1795.000000	19.790545
1794.000000	19.757833
1793.000000	19.720417
1792.000000	19.681142
1791.000000	19.638256
1790.000000	19.601387
1789.000000	19.564956
1788.000000	19.537168
1787.000000	19.496032
1786.000000	19.453693
1785.000000	19.408291
1784.000000	19.368031
1783.000000	19.329411
1782.000000	19.278977
1781.000000	19.231386
1780.000000	19.171324
1779.000000	19.112466
1778.000000	19.079754
1777.000000	19.023193
1776.000000	18.967288
1775.000000	18.923089
1774.000000	18.853071
1773.000000	18.788633
1772.000000	18.720913
1771.000000	18.651442
1770.000000	18.588207
1769.000000	18.518189
1768.000000	18.444233
1767.000000	18.383624
1766.000000	18.322358
1765.000000	18.253653
1764.000000	18.214158
1763.000000	18.179259
1762.000000	18.167662
1761.000000	18.162083
1760.000000	18.183307
1759.000000	18.208907
1758.000000	18.237680
1757.000000	18.283082
1756.000000	18.329797
1755.000000	18.390078
1754.000000	18.441607
1753.000000	18.489635
1752.000000	18.516001
1751.000000	18.522346
1750.000000	18.534162
1749.000000	18.536131
1748.000000	18.518736
1747.000000	18.501888
1746.000000	18.479789
1745.000000	18.434168
1744.000000	18.391719
1743.000000	18.318419
1742.000000	18.226849
1741.000000	18.113727
1740.000000	18.004324
1739.000000	17.883324
1738.000000	17.743835
1737.000000	17.607629
1736.000000	17.485754
1735.000000	17.367380
1734.000000	17.285328
1733.000000	17.228438
1732.000000	17.183911
1731.000000	17.181395
1730.000000	17.171221
1729.000000	17.190694
1728.000000	17.215091
1727.000000	17.265417
1726.000000	17.321321
1725.000000	17.393090
1724.000000	17.443415
1723.000000	17.500633
1722.000000	17.561023
1721.000000	17.617256
1720.000000	17.668894
1719.000000	17.725346
1718.000000	17.785409
1717.000000	17.868774
1716.000000	17.941636
1715.000000	18.023032
1714.000000	18.130137
1713.000000	18.231663
1712.000000	18.321701
1711.000000	18.384827
1710.000000	18.452876
1709.000000	18.527598
1708.000000	18.553417
1707.000000	18.542367
1706.000000	18.568733
1705.000000	18.549806
1704.000000	18.518845
1703.000000	18.500356
1702.000000	18.465785
1701.000000	18.391391
1700.000000	18.306494
1699.000000	18.222582
1698.000000	18.116024
1697.000000	18.006840
1696.000000	17.919099
1695.000000	17.844814
1694.000000	17.791097
1693.000000	17.779610
1692.000000	17.784971
1691.000000	17.854770
1690.000000	17.903235
1689.000000	17.987804
1688.000000	18.075764
1687.000000	18.164490
1686.000000	18.216018
1685.000000	18.288224
1684.000000	18.370605
1683.000000	18.464910
1682.000000	18.589739
1681.000000	18.777146
1680.000000	19.044198
1679.000000	19.318471
1678.000000	19.652697
1677.000000	20.012633
1676.000000	20.366223
1675.000000	20.720141
1674.000000	21.020890
1673.000000	21.289145
1672.000000	21.552369
1671.000000	21.794806
1670.000000	21.998514
1669.000000	22.177169
1668.000000	22.342148
1667.000000	22.477480
1666.000000	22.619594
1665.000000	22.746501
1664.000000	22.858092
1663.000000	22.926141
1662.000000	23.034340
1661.000000	23.117815
1660.000000	23.189692
1659.000000	23.218794
1658.000000	23.280606
1657.000000	23.359595
1656.000000	23.357735
1655.000000	23.389024
1654.000000	23.409592
1653.000000	23.392088
1652.000000	23.413421
1651.000000	23.386399
1650.000000	23.387055
1649.000000	23.354015
1648.000000	23.347123
1647.000000	23.293625
1646.000000	23.266384
1645.000000	23.225467
1644.000000	23.179408
1643.000000	23.140680
1642.000000	23.115298
1641.000000	23.043968
1640.000000	23.018805
1639.000000	22.969574
1638.000000	22.909293
1637.000000	22.861046
1636.000000	22.807329
1635.000000	22.768163
1634.000000	22.706679
1633.000000	22.611717
1632.000000	22.569269
1631.000000	22.494656
1630.000000	22.422231
1629.000000	22.343899
1628.000000	22.280773
1627.000000	22.216772
1626.000000	22.148505
1625.000000	22.061420
1624.000000	21.994685
1623.000000	21.922698
1622.000000	21.844584
1621.000000	21.781787
1620.000000	21.725663
1619.000000	21.646018
1618.000000	21.572389
1617.000000	21.504450
1616.000000	21.428087
1615.000000	21.377105
1614.000000	21.322294
1613.000000	21.247682
1612.000000	21.220440
1611.000000	21.144515
1610.000000	21.071871
1609.000000	20.992882
1608.000000	20.932383
1607.000000	20.866303
1606.000000	20.797161
1605.000000	20.718719
1604.000000	20.660298
1603.000000	20.586888
1602.000000	20.508556
1601.000000	20.436787
1600.000000	20.357033
1599.000000	20.289859
1598.000000	20.217872
1597.000000	20.127068
1596.000000	20.077727
1595.000000	19.994690
1594.000000	19.941958
1593.000000	19.899619
1592.000000	19.833212
1591.000000	19.759037
1590.000000	19.702038
1589.000000	19.646023
1588.000000	19.582789
1587.000000	19.513646
1586.000000	19.470760
1585.000000	19.408400
1584.000000	19.357309
1583.000000	19.308734
1582.000000	19.257206
1581.000000	19.193642
1580.000000	19.142661
