PE UV       SUBTECH     SPECTRUM    ASCII       PEDS        4.00        
   -1
CICIMAUCR0006-3.Sample.ASC
24/04/12
11:24:13.00
24/04/12
11:24:13.00
Vinicio Soto Monge
C. kalinini
250,000000
1
Lambda 1050
1050L1511233
PerkinElmer UV WinLab 6.3.2.0749 / 2.02.05 Lambda 900 UV/VIS/NIR, Aug  7 2015 09:38:08

0
0
3350/servo 860,8/2
0
0
UV/VIS
1
1
1
DoubleDePol,CommonBeamDepol,RBeamAtt,SBeamAtt,60mm sphere, WB InGaAs Detector
0
0
0
0
Program
Program
3350/servo 860,8/2
3350/0,2 860,8/0,2
3350/0,2 860,8/0,2
0
15.00
 
 
 
0
 
860,8
319,2
860,8
Front
100
on
S:100 R:100
0
0
0
0
 
0
 
 
 
0
 
 
0
0
0
0
0
 
 
 
 
0
0


0
0
#HDR
-1
-1
#GR
nm
%R
1.0
0.0
2500,000000
-1,000000
2251
8
53,231800
3,109100
#DATA
2482.000000	9.043014
2481.000000	9.037323
2480.000000	9.058223
2479.000000	9.130721
2478.000000	9.096478
2477.000000	9.108794
2476.000000	9.088640
2475.000000	9.100863
2474.000000	9.176627
2473.000000	9.139958
2472.000000	9.181945
2471.000000	9.183158
2470.000000	9.220014
2469.000000	9.231677
2468.000000	9.279262
2467.000000	9.314998
2466.000000	9.354466
2465.000000	9.387589
2464.000000	9.461020
2463.000000	9.493863
2462.000000	9.533518
2461.000000	9.620945
2460.000000	9.667504
2459.000000	9.733284
2458.000000	9.827801
2457.000000	9.879212
2456.000000	9.965519
2455.000000	10.019730
2454.000000	10.107436
2453.000000	10.156421
2452.000000	10.232091
2451.000000	10.294699
2450.000000	10.374568
2449.000000	10.457609
2448.000000	10.532160
2447.000000	10.581425
2446.000000	10.669784
2445.000000	10.734911
2444.000000	10.799478
2443.000000	10.876828
2442.000000	10.955484
2441.000000	11.008574
2440.000000	11.081166
2439.000000	11.146759
2438.000000	11.228494
2437.000000	11.296980
2436.000000	11.358001
2435.000000	11.414917
2434.000000	11.460823
2433.000000	11.521191
2432.000000	11.580906
2431.000000	11.648926
2430.000000	11.685688
2429.000000	11.732340
2428.000000	11.773021
2427.000000	11.751748
2426.000000	11.709574
2425.000000	11.667773
2424.000000	11.648553
2423.000000	11.658163
2422.000000	11.705935
2421.000000	11.738125
2420.000000	11.752774
2419.000000	11.754454
2418.000000	11.752121
2417.000000	11.774514
2416.000000	11.766117
2415.000000	11.783005
2414.000000	11.800453
2413.000000	11.787577
2412.000000	11.778620
2411.000000	11.798680
2410.000000	11.809690
2409.000000	11.801199
2408.000000	11.812023
2407.000000	11.785337
2406.000000	11.814542
2405.000000	11.826205
2404.000000	11.821260
2403.000000	11.843373
2402.000000	11.826205
2401.000000	11.844866
2400.000000	11.841507
2399.000000	11.826112
2398.000000	11.851117
2397.000000	11.841040
2396.000000	11.833763
2395.000000	11.837961
2394.000000	11.803532
2393.000000	11.813236
2392.000000	11.824152
2391.000000	11.810250
2390.000000	11.789909
2389.000000	11.793735
2388.000000	11.792242
2387.000000	11.790283
2386.000000	11.770782
2385.000000	11.735139
2384.000000	11.727022
2383.000000	11.726182
2382.000000	11.698937
2381.000000	11.663388
2380.000000	11.633437
2379.000000	11.584452
2378.000000	11.572322
2377.000000	11.561779
2376.000000	11.547970
2375.000000	11.535654
2374.000000	11.497772
2373.000000	11.443562
2372.000000	11.429099
2371.000000	11.390378
2370.000000	11.318160
2369.000000	11.277759
2368.000000	11.252100
2367.000000	11.199476
2366.000000	11.147692
2365.000000	11.106451
2364.000000	11.061852
2363.000000	10.996725
2362.000000	10.932531
2361.000000	10.894089
2360.000000	10.854528
2359.000000	10.784083
2358.000000	10.729593
2357.000000	10.711398
2356.000000	10.693857
2355.000000	10.638061
2354.000000	10.601672
2353.000000	10.611189
2352.000000	10.613895
2351.000000	10.594954
2350.000000	10.597567
2349.000000	10.608017
2348.000000	10.624065
2347.000000	10.618747
2346.000000	10.623785
2345.000000	10.631063
2344.000000	10.629197
2343.000000	10.640767
2342.000000	10.654203
2341.000000	10.636941
2340.000000	10.627611
2339.000000	10.627797
2338.000000	10.597660
2337.000000	10.542237
2336.000000	10.500623
2335.000000	10.488680
2334.000000	10.482988
2333.000000	10.437082
2332.000000	10.403026
2331.000000	10.353014
2330.000000	10.310747
2329.000000	10.274825
2328.000000	10.202607
2327.000000	10.145971
2326.000000	10.090921
2325.000000	10.055652
2324.000000	10.003681
2323.000000	9.934262
2322.000000	9.869322
2321.000000	9.801396
2320.000000	9.721900
2319.000000	9.654907
2318.000000	9.582503
2317.000000	9.481734
2316.000000	9.413248
2315.000000	9.360811
2314.000000	9.283368
2313.000000	9.235409
2312.000000	9.182412
2311.000000	9.145650
2310.000000	9.091253
2309.000000	9.061395
2308.000000	9.066714
2307.000000	9.034803
2306.000000	9.032377
2305.000000	9.082016
2304.000000	9.124469
2303.000000	9.129788
2302.000000	9.182878
2301.000000	9.248938
2300.000000	9.287100
2299.000000	9.317330
2298.000000	9.391788
2297.000000	9.446744
2296.000000	9.464006
2295.000000	9.521948
2294.000000	9.547700
2293.000000	9.549286
2292.000000	9.571493
2291.000000	9.607135
2290.000000	9.597898
2289.000000	9.567201
2288.000000	9.550126
2287.000000	9.535757
2286.000000	9.525120
2285.000000	9.468951
2284.000000	9.439933
2283.000000	9.394774
2282.000000	9.366502
2281.000000	9.292231
2280.000000	9.266199
2279.000000	9.213109
2278.000000	9.182225
2277.000000	9.127828
2276.000000	9.081642
2275.000000	9.090880
2274.000000	9.079403
2273.000000	9.026966
2272.000000	9.015116
2271.000000	9.055797
2270.000000	9.093026
2269.000000	9.080803
2268.000000	9.123909
2267.000000	9.211336
2266.000000	9.310519
2265.000000	9.365942
2264.000000	9.468764
2263.000000	9.595939
2262.000000	9.732537
2261.000000	9.905338
2260.000000	10.045762
2259.000000	10.203447
2258.000000	10.364771
2257.000000	10.546715
2256.000000	10.712985
2255.000000	10.840346
2254.000000	11.004282
2253.000000	11.193691
2252.000000	11.346431
2251.000000	11.503557
2250.000000	11.600967
2249.000000	11.730381
2248.000000	11.863714
2247.000000	11.988555
2246.000000	12.073929
2245.000000	12.169380
2244.000000	12.285731
2243.000000	12.360282
2242.000000	12.456666
2241.000000	12.493988
2240.000000	12.567792
2239.000000	12.647194
2238.000000	12.697113
2237.000000	12.737420
2236.000000	12.786499
2235.000000	12.845934
2234.000000	12.889787
2233.000000	12.934760
2232.000000	12.962845
2231.000000	12.957433
2230.000000	12.968350
2229.000000	12.974228
2228.000000	12.993449
2227.000000	13.002499
2226.000000	13.016962
2225.000000	13.008098
2224.000000	12.992796
2223.000000	12.944930
2222.000000	12.941105
2221.000000	12.933081
2220.000000	12.930841
2219.000000	12.901917
2218.000000	12.890254
2217.000000	12.863475
2216.000000	12.836323
2215.000000	12.821395
2214.000000	12.791444
2213.000000	12.775582
2212.000000	12.751883
2211.000000	12.740033
2210.000000	12.717733
2209.000000	12.695060
2208.000000	12.685636
2207.000000	12.662030
2206.000000	12.618177
2205.000000	12.610059
2204.000000	12.596903
2203.000000	12.585147
2202.000000	12.564433
2201.000000	12.553796
2200.000000	12.541947
2199.000000	12.537188
2198.000000	12.520580
2197.000000	12.496414
2196.000000	12.477473
2195.000000	12.465530
2194.000000	12.445843
2193.000000	12.443230
2192.000000	12.430821
2191.000000	12.424103
2190.000000	12.416825
2189.000000	12.412719
2188.000000	12.388087
2187.000000	12.385848
2186.000000	12.371199
2185.000000	12.348619
2184.000000	12.327905
2183.000000	12.316615
2182.000000	12.354590
2181.000000	12.335556
2180.000000	12.329025
2179.000000	12.324919
2178.000000	12.303646
2177.000000	12.332664
2176.000000	12.326599
2175.000000	12.326039
2174.000000	12.310271
2173.000000	12.329958
2172.000000	12.338355
2171.000000	12.371105
2170.000000	12.359536
2169.000000	12.360469
2168.000000	12.381089
2167.000000	12.398257
2166.000000	12.431007
2165.000000	12.426902
2164.000000	12.450881
2163.000000	12.471222
2162.000000	12.514981
2161.000000	12.523192
2160.000000	12.542040
2159.000000	12.583187
2158.000000	12.633759
2157.000000	12.645048
2156.000000	12.670054
2155.000000	12.704297
2154.000000	12.716240
2153.000000	12.737234
2152.000000	12.763826
2151.000000	12.804506
2150.000000	12.844534
2149.000000	12.869820
2148.000000	12.906302
2147.000000	12.920391
2146.000000	12.930655
2145.000000	12.948476
2144.000000	12.970589
2143.000000	12.986638
2142.000000	13.009964
2141.000000	13.024799
2140.000000	13.043180
2139.000000	13.054564
2138.000000	13.049712
2137.000000	13.053537
2136.000000	13.058762
2135.000000	13.069959
2134.000000	13.070612
2133.000000	13.074344
2132.000000	13.056896
2131.000000	13.062215
2130.000000	13.066973
2129.000000	13.046726
2128.000000	13.009684
2127.000000	13.008471
2126.000000	12.988037
2125.000000	12.963965
2124.000000	12.955194
2123.000000	12.938306
2122.000000	12.906862
2121.000000	12.866368
2120.000000	12.824474
2119.000000	12.793403
2118.000000	12.778941
2117.000000	12.746004
2116.000000	12.704670
2115.000000	12.665296
2114.000000	12.629000
2113.000000	12.614911
2112.000000	12.589625
2111.000000	12.552397
2110.000000	12.517781
2109.000000	12.479246
2108.000000	12.455826
2107.000000	12.429887
2106.000000	12.389486
2105.000000	12.351698
2104.000000	12.314469
2103.000000	12.297115
2102.000000	12.289930
2101.000000	12.265204
2100.000000	12.220791
2099.000000	12.182350
2098.000000	12.170313
2097.000000	12.169007
2096.000000	12.146427
2095.000000	12.109105
2094.000000	12.111531
2093.000000	12.106586
2092.000000	12.087925
2091.000000	12.081114
2090.000000	12.063759
2089.000000	12.055548
2088.000000	12.041459
2087.000000	12.032129
2086.000000	12.025224
2085.000000	11.989675
2084.000000	11.965323
2083.000000	11.954313
2082.000000	11.949554
2081.000000	11.937704
2080.000000	11.913912
2079.000000	11.876030
2078.000000	11.840574
2077.000000	11.833763
2076.000000	11.818181
2075.000000	11.814728
2074.000000	11.792335
2073.000000	11.771062
2072.000000	11.738685
2071.000000	11.709387
2070.000000	11.698191
2069.000000	11.687741
2068.000000	11.654244
2067.000000	11.642954
2066.000000	11.626626
2065.000000	11.599381
2064.000000	11.584172
2063.000000	11.576335
2062.000000	11.550956
2061.000000	11.537986
2060.000000	11.544704
2059.000000	11.543864
2058.000000	11.537147
2057.000000	11.557580
2056.000000	11.560100
2055.000000	11.588651
2054.000000	11.639222
2053.000000	11.675331
2052.000000	11.724409
2051.000000	11.783938
2050.000000	11.843466
2049.000000	11.909620
2048.000000	11.998073
2047.000000	12.075142
2046.000000	12.171620
2045.000000	12.268937
2044.000000	12.355244
2043.000000	12.440711
2042.000000	12.549598
2041.000000	12.641316
2040.000000	12.721092
2039.000000	12.810011
2038.000000	12.893426
2037.000000	12.988504
2036.000000	13.089926
2035.000000	13.166156
2034.000000	13.229044
2033.000000	13.287452
2032.000000	13.363029
2031.000000	13.453815
2030.000000	13.505039
2029.000000	13.544414
2028.000000	13.584722
2027.000000	13.647609
2026.000000	13.710497
2025.000000	13.741194
2024.000000	13.779822
2023.000000	13.821156
2022.000000	13.877046
2021.000000	13.919780
2020.000000	13.957288
2019.000000	13.970071
2018.000000	14.007020
2017.000000	14.048540
2016.000000	14.065055
2015.000000	14.082876
2014.000000	14.117026
2013.000000	14.127196
2012.000000	14.121411
2011.000000	14.130369
2010.000000	14.140352
2009.000000	14.136993
2008.000000	14.130928
2007.000000	14.143151
2006.000000	14.113480
2005.000000	14.108909
2004.000000	14.085302
2003.000000	14.069814
2002.000000	14.061323
2001.000000	14.022695
2000.000000	13.994890
1999.000000	13.960367
1998.000000	13.920806
1997.000000	13.863517
1996.000000	13.834219
1995.000000	13.814065
1994.000000	13.740354
1993.000000	13.700700
1992.000000	13.680079
1991.000000	13.602916
1990.000000	13.553278
1989.000000	13.477608
1988.000000	13.427596
1987.000000	13.382437
1986.000000	13.326361
1985.000000	13.263660
1984.000000	13.199839
1983.000000	13.121836
1982.000000	13.071638
1981.000000	12.988130
1980.000000	12.950435
1979.000000	12.865528
1978.000000	12.814117
1977.000000	12.731635
1976.000000	12.699352
1975.000000	12.628160
1974.000000	12.546705
1973.000000	12.495294
1972.000000	12.427648
1971.000000	12.386314
1970.000000	12.337609
1969.000000	12.282466
1968.000000	12.221818
1967.000000	12.152959
1966.000000	12.089045
1965.000000	12.028397
1964.000000	11.970828
1963.000000	11.923709
1962.000000	11.869125
1961.000000	11.824246
1960.000000	11.764064
1959.000000	11.701550
1958.000000	11.647619
1957.000000	11.575961
1956.000000	11.525763
1955.000000	11.483310
1954.000000	11.447481
1953.000000	11.393364
1952.000000	11.351470
1951.000000	11.276639
1950.000000	11.245009
1949.000000	11.196397
1948.000000	11.143493
1947.000000	11.117648
1946.000000	11.088070
1945.000000	11.060265
1944.000000	11.030035
1943.000000	11.008761
1942.000000	10.973865
1941.000000	10.969480
1940.000000	10.952405
1939.000000	10.974145
1938.000000	11.023037
1937.000000	11.042724
1936.000000	11.035166
1935.000000	11.032274
1934.000000	11.045896
1933.000000	11.062598
1932.000000	11.090776
1931.000000	11.161408
1930.000000	11.217018
1929.000000	11.303418
1928.000000	11.394763
1927.000000	11.474446
1926.000000	11.571389
1925.000000	11.666840
1924.000000	11.695671
1923.000000	11.756693
1922.000000	11.927347
1921.000000	12.115450
1920.000000	12.282279
1919.000000	12.463104
1918.000000	12.554916
1917.000000	12.586640
1916.000000	12.657925
1915.000000	12.796855
1914.000000	13.020227
1913.000000	13.296690
1912.000000	13.560183
1911.000000	13.729531
1910.000000	13.835992
1909.000000	13.892535
1908.000000	13.996663
1907.000000	14.224233
1906.000000	14.532886
1905.000000	14.904146
1904.000000	15.204401
1903.000000	15.376362
1902.000000	15.542351
1901.000000	15.756019
1900.000000	16.031269
1899.000000	16.394691
1898.000000	16.707076
1897.000000	16.911880
1896.000000	17.008077
1895.000000	17.097090
1894.000000	17.288552
1893.000000	17.541315
1892.000000	17.862657
1891.000000	18.236902
1890.000000	18.546861
1889.000000	18.777884
1888.000000	18.989313
1887.000000	19.156795
1886.000000	19.416836
1885.000000	19.779885
1884.000000	20.195838
1883.000000	20.579321
1882.000000	20.939571
1881.000000	21.272763
1880.000000	21.522820
1879.000000	21.785100
1878.000000	22.069773
1877.000000	22.375160
1876.000000	22.672802
1875.000000	22.975203
1874.000000	23.225727
1873.000000	23.526448
1872.000000	23.854415
1871.000000	24.118001
1870.000000	24.384853
1869.000000	24.615596
1868.000000	24.735586
1867.000000	24.759752
1866.000000	24.727375
1865.000000	24.667194
1864.000000	24.593203
1863.000000	24.507083
1862.000000	24.493180
1861.000000	24.552895
1860.000000	24.639482
1859.000000	24.765630
1858.000000	24.858375
1857.000000	24.805565
1856.000000	24.708341
1855.000000	24.711140
1854.000000	24.736706
1853.000000	24.733254
1852.000000	24.687814
1851.000000	24.531062
1850.000000	24.335775
1849.000000	24.299759
1848.000000	24.477505
1847.000000	24.699944
1846.000000	24.726442
1845.000000	24.501111
1844.000000	24.192552
1843.000000	24.008555
1842.000000	24.052968
1841.000000	24.221663
1840.000000	24.272701
1839.000000	24.223156
1838.000000	24.159055
1837.000000	24.157749
1836.000000	24.204961
1835.000000	24.195258
1834.000000	24.046343
1833.000000	23.821478
1832.000000	23.662767
1831.000000	23.615555
1830.000000	23.648491
1829.000000	23.622273
1828.000000	23.537365
1827.000000	23.511240
1826.000000	23.502003
1825.000000	23.426799
1824.000000	23.288054
1823.000000	23.111428
1822.000000	23.068975
1821.000000	23.216303
1820.000000	23.361579
1819.000000	23.365871
1818.000000	23.271913
1817.000000	23.176182
1816.000000	23.153322
1815.000000	23.156308
1814.000000	23.140539
1813.000000	23.103311
1812.000000	23.089875
1811.000000	23.110962
1810.000000	23.089688
1809.000000	23.024002
1808.000000	22.933869
1807.000000	22.888336
1806.000000	22.898787
1805.000000	22.883858
1804.000000	22.826102
1803.000000	22.756590
1802.000000	22.728319
1801.000000	22.727945
1800.000000	22.698088
1799.000000	22.650596
1798.000000	22.590787
1797.000000	22.526034
1796.000000	22.490018
1795.000000	22.451576
1794.000000	22.417893
1793.000000	22.380198
1792.000000	22.345302
1791.000000	22.307140
1790.000000	22.257782
1789.000000	22.201239
1788.000000	22.163544
1787.000000	22.124729
1786.000000	22.075185
1785.000000	22.031611
1784.000000	21.987851
1783.000000	21.937373
1782.000000	21.870754
1781.000000	21.818130
1780.000000	21.758881
1779.000000	21.690582
1778.000000	21.636932
1777.000000	21.559209
1776.000000	21.471409
1775.000000	21.375305
1774.000000	21.276122
1773.000000	21.182537
1772.000000	21.072437
1771.000000	20.983704
1770.000000	20.885361
1769.000000	20.771436
1768.000000	20.680837
1767.000000	20.606193
1766.000000	20.542559
1765.000000	20.465396
1764.000000	20.437498
1763.000000	20.434418
1762.000000	20.451680
1761.000000	20.483870
1760.000000	20.537427
1759.000000	20.585759
1758.000000	20.621401
1757.000000	20.675052
1756.000000	20.712934
1755.000000	20.753894
1754.000000	20.779740
1753.000000	20.785711
1752.000000	20.781886
1751.000000	20.762852
1750.000000	20.731035
1749.000000	20.664695
1748.000000	20.610391
1747.000000	20.534815
1746.000000	20.454106
1745.000000	20.337288
1744.000000	20.211420
1743.000000	20.057094
1742.000000	19.886812
1741.000000	19.716438
1740.000000	19.516765
1739.000000	19.337620
1738.000000	19.153809
1737.000000	18.989126
1736.000000	18.879959
1735.000000	18.796265
1734.000000	18.759410
1733.000000	18.744574
1732.000000	18.774338
1731.000000	18.818005
1730.000000	18.891716
1729.000000	18.964680
1728.000000	19.047722
1727.000000	19.116207
1726.000000	19.179002
1725.000000	19.204567
1724.000000	19.243662
1723.000000	19.290034
1722.000000	19.313827
1721.000000	19.326423
1720.000000	19.349283
1719.000000	19.375502
1718.000000	19.435870
1717.000000	19.486814
1716.000000	19.560992
1715.000000	19.606338
1714.000000	19.673517
1713.000000	19.742563
1712.000000	19.794067
1711.000000	19.839787
1710.000000	19.855648
1709.000000	19.858541
1708.000000	19.860873
1707.000000	19.856488
1706.000000	19.830363
1705.000000	19.809463
1704.000000	19.771767
1703.000000	19.706920
1702.000000	19.620893
1701.000000	19.536079
1700.000000	19.428219
1699.000000	19.278278
1698.000000	19.176109
1697.000000	19.106784
1696.000000	19.064050
1695.000000	19.052947
1694.000000	19.099412
1693.000000	19.189172
1692.000000	19.329036
1691.000000	19.427192
1690.000000	19.556513
1689.000000	19.623039
1688.000000	19.672118
1687.000000	19.701695
1686.000000	19.714945
1685.000000	19.758052
1684.000000	19.854156
1683.000000	20.026396
1682.000000	20.299686
1681.000000	20.671320
1680.000000	21.089885
1679.000000	21.517688
1678.000000	21.953515
1677.000000	22.359298
1676.000000	22.717495
1675.000000	23.007300
1674.000000	23.281337
1673.000000	23.520943
1672.000000	23.724441
1671.000000	23.897242
1670.000000	24.062392
1669.000000	24.215412
1668.000000	24.357981
1667.000000	24.464536
1666.000000	24.551402
1665.000000	24.644801
1664.000000	24.711420
1663.000000	24.777573
1662.000000	24.829358
1661.000000	24.871065
1660.000000	24.930967
1659.000000	24.975939
1658.000000	24.994787
1657.000000	24.998333
1656.000000	25.039480
1655.000000	25.056928
1654.000000	25.046758
1653.000000	25.049277
1652.000000	25.053662
1651.000000	25.022032
1650.000000	25.009063
1649.000000	24.971927
1648.000000	24.946922
1647.000000	24.921823
1646.000000	24.892432
1645.000000	24.853617
1644.000000	24.804165
1643.000000	24.766097
1642.000000	24.713100
1641.000000	24.673818
1640.000000	24.639296
1639.000000	24.584619
1638.000000	24.541512
1637.000000	24.484876
1636.000000	24.434118
1635.000000	24.383174
1634.000000	24.326911
1633.000000	24.273261
1632.000000	24.217091
1631.000000	24.157749
1630.000000	24.100460
1629.000000	24.036826
1628.000000	23.976085
1627.000000	23.925700
1626.000000	23.865052
1625.000000	23.800485
1624.000000	23.720896
1623.000000	23.656235
1622.000000	23.581312
1621.000000	23.518517
1620.000000	23.455257
1619.000000	23.414016
1618.000000	23.355421
1617.000000	23.277978
1616.000000	23.202681
1615.000000	23.150336
1614.000000	23.102191
1613.000000	23.057685
1612.000000	22.996010
1611.000000	22.936109
1610.000000	22.880872
1609.000000	22.809587
1608.000000	22.749592
1607.000000	22.699394
1606.000000	22.639492
1605.000000	22.578004
1604.000000	22.523514
1603.000000	22.463799
1602.000000	22.389622
