PE UV       SUBTECH     SPECTRUM    ASCII       PEDS        4.00        
   -1
CICIMAUCR0233-3.ASC
24/06/14
14:14:12.00
24/06/14
14:14:12.00
Vinicio Soto Monge
C. resplendens. Sex F. Ventral 
250,000000
1
Lambda 1050
1050L1511233
PerkinElmer UV WinLab 6.3.2.0749 / 2.02.05 Lambda 900 UV/VIS/NIR, Aug  7 2015 09:38:08

0
0
3350/servo 860,8/2
0
0
UV/VIS
1
1
1
DoubleDePol,CommonBeamDepol,RBeamAtt,SBeamAtt,60mm sphere, WB InGaAs Detector
0
0
0
0
Program
Program
3350/servo 860,8/2
3350/0,2 860,8/0,2
3350/0,2 860,8/0,2
0
15.00
 
 
 
0
 
860,8
319,2
860,8
Front
100
on
S:100 R:100
0
0
0
0
 
0
 
 
 
0
 
 
0
0
0
0
0
 
 
 
 
0
0


0
0
#HDR
-1
-1
#GR
nm
%R
1.0
0.0
2500,000000
-1,000000
2251
8
50,153800
4,151800
#DATA
2482.000000	5.047061
2481.000000	5.095983
2480.000000	5.043838
2479.000000	5.091033
2478.000000	5.055234
2477.000000	5.009304
2476.000000	5.043032
2475.000000	5.055118
2474.000000	4.985131
2473.000000	4.934251
2472.000000	4.954741
2471.000000	4.974886
2470.000000	4.965332
2469.000000	4.964526
2468.000000	4.933561
2467.000000	4.989160
2466.000000	5.006887
2465.000000	4.970512
2464.000000	4.974080
2463.000000	5.004239
2462.000000	4.986857
2461.000000	4.967173
2460.000000	4.949446
2459.000000	4.950367
2458.000000	4.943000
2457.000000	4.956238
2456.000000	4.998138
2455.000000	5.020355
2454.000000	5.038542
2453.000000	5.018398
2452.000000	5.015635
2451.000000	5.011952
2450.000000	5.066860
2449.000000	5.030945
2448.000000	5.045794
2447.000000	5.064097
2446.000000	5.097825
2445.000000	5.080213
2444.000000	5.121423
2443.000000	5.119351
2442.000000	5.112674
2441.000000	5.139265
2440.000000	5.184274
2439.000000	5.169194
2438.000000	5.195094
2437.000000	5.197166
2436.000000	5.207181
2435.000000	5.232735
2434.000000	5.260017
2433.000000	5.261859
2432.000000	5.270032
2431.000000	5.292939
2430.000000	5.278089
2429.000000	5.284190
2428.000000	5.311817
2427.000000	5.318724
2426.000000	5.301572
2425.000000	5.312623
2424.000000	5.326551
2423.000000	5.335760
2422.000000	5.324019
2421.000000	5.359013
2420.000000	5.371099
2419.000000	5.348307
2418.000000	5.363042
2417.000000	5.367876
2416.000000	5.383647
2415.000000	5.406439
2414.000000	5.392395
2413.000000	5.411043
2412.000000	5.429806
2411.000000	5.433720
2410.000000	5.443504
2409.000000	5.461577
2408.000000	5.462383
2407.000000	5.452023
2406.000000	5.463189
2405.000000	5.471016
2404.000000	5.472052
2403.000000	5.476657
2402.000000	5.496686
2401.000000	5.509463
2400.000000	5.530759
2399.000000	5.537551
2398.000000	5.564602
2397.000000	5.564947
2396.000000	5.573580
2395.000000	5.573005
2394.000000	5.574156
2393.000000	5.579796
2392.000000	5.586358
2391.000000	5.597063
2390.000000	5.615251
2389.000000	5.626071
2388.000000	5.628143
2387.000000	5.623539
2386.000000	5.629064
2385.000000	5.633208
2384.000000	5.645410
2383.000000	5.652892
2382.000000	5.658993
2381.000000	5.669814
2380.000000	5.667626
2379.000000	5.662907
2378.000000	5.665900
2377.000000	5.677986
2376.000000	5.672806
2375.000000	5.664518
2374.000000	5.656000
2373.000000	5.651626
2372.000000	5.644489
2371.000000	5.648748
2370.000000	5.654389
2369.000000	5.653813
2368.000000	5.649899
2367.000000	5.634589
2366.000000	5.620431
2365.000000	5.610186
2364.000000	5.622157
2363.000000	5.622042
2362.000000	5.618819
2361.000000	5.607078
2360.000000	5.596372
2359.000000	5.601207
2358.000000	5.591883
2357.000000	5.597408
2356.000000	5.589005
2355.000000	5.565407
2354.000000	5.556774
2353.000000	5.557695
2352.000000	5.550213
2351.000000	5.560573
2350.000000	5.564487
2349.000000	5.564717
2348.000000	5.577955
2347.000000	5.582099
2346.000000	5.586012
2345.000000	5.591077
2344.000000	5.590041
2343.000000	5.594646
2342.000000	5.612833
2341.000000	5.629640
2340.000000	5.640460
2339.000000	5.637582
2338.000000	5.652317
2337.000000	5.656921
2336.000000	5.652777
2335.000000	5.650935
2334.000000	5.666590
2333.000000	5.670619
2332.000000	5.643798
2331.000000	5.637813
2330.000000	5.646676
2329.000000	5.632748
2328.000000	5.629064
2327.000000	5.618819
2326.000000	5.606617
2325.000000	5.614560
2324.000000	5.602819
2323.000000	5.593495
2322.000000	5.573580
2321.000000	5.553666
2320.000000	5.545263
2319.000000	5.542155
2318.000000	5.527881
2317.000000	5.486786
2316.000000	5.459850
2315.000000	5.453749
2314.000000	5.450181
2313.000000	5.425087
2312.000000	5.396194
2311.000000	5.385488
2310.000000	5.375128
2309.000000	5.358667
2308.000000	5.329199
2307.000000	5.329774
2306.000000	5.338178
2305.000000	5.341516
2304.000000	5.330120
2303.000000	5.343358
2302.000000	5.332997
2301.000000	5.342667
2300.000000	5.349113
2299.000000	5.360624
2298.000000	5.364193
2297.000000	5.377776
2296.000000	5.395273
2295.000000	5.428310
2294.000000	5.434641
2293.000000	5.459850
2292.000000	5.455706
2291.000000	5.465491
2290.000000	5.479649
2289.000000	5.487477
2288.000000	5.491045
2287.000000	5.484484
2286.000000	5.521780
2285.000000	5.503247
2284.000000	5.490700
2283.000000	5.491045
2282.000000	5.485865
2281.000000	5.445922
2280.000000	5.460541
2279.000000	5.456052
2278.000000	5.451562
2277.000000	5.461117
2276.000000	5.446037
2275.000000	5.438555
2274.000000	5.426813
2273.000000	5.410928
2272.000000	5.406208
2271.000000	5.389172
2270.000000	5.414957
2269.000000	5.415993
2268.000000	5.428655
2267.000000	5.441432
2266.000000	5.455016
2265.000000	5.467678
2264.000000	5.490009
2263.000000	5.508427
2262.000000	5.544572
2261.000000	5.593610
2260.000000	5.620776
2259.000000	5.668662
2258.000000	5.703196
2257.000000	5.771342
2256.000000	5.820840
2255.000000	5.840754
2254.000000	5.904411
2253.000000	5.966110
2252.000000	6.006399
2251.000000	6.057739
2250.000000	6.136130
2249.000000	6.175959
2248.000000	6.212794
2247.000000	6.269544
2246.000000	6.331934
2245.000000	6.365432
2244.000000	6.385001
2243.000000	6.437146
2242.000000	6.469838
2241.000000	6.499537
2240.000000	6.557898
2239.000000	6.555941
2238.000000	6.580690
2237.000000	6.623166
2236.000000	6.622130
2235.000000	6.665067
2234.000000	6.676233
2233.000000	6.684521
2232.000000	6.705011
2231.000000	6.713644
2230.000000	6.736321
2229.000000	6.745530
2228.000000	6.765789
2227.000000	6.750710
2226.000000	6.773041
2225.000000	6.738393
2224.000000	6.736781
2223.000000	6.736321
2222.000000	6.765905
2221.000000	6.723659
2220.000000	6.721126
2219.000000	6.743458
2218.000000	6.705356
2217.000000	6.726652
2216.000000	6.713184
2215.000000	6.721817
2214.000000	6.706622
2213.000000	6.686823
2212.000000	6.709270
2211.000000	6.686132
2210.000000	6.687974
2209.000000	6.689931
2208.000000	6.666103
2207.000000	6.640433
2206.000000	6.661383
2205.000000	6.639512
2204.000000	6.640894
2203.000000	6.640663
2202.000000	6.623051
2201.000000	6.639858
2200.000000	6.610159
2199.000000	6.653556
2198.000000	6.618562
2197.000000	6.591396
2196.000000	6.616605
2195.000000	6.638822
2194.000000	6.621440
2193.000000	6.592892
2192.000000	6.598187
2191.000000	6.588863
2190.000000	6.591050
2189.000000	6.588518
2188.000000	6.620519
2187.000000	6.597497
2186.000000	6.572287
2185.000000	6.576777
2184.000000	6.599684
2183.000000	6.580115
2182.000000	6.598993
2181.000000	6.572057
2180.000000	6.576316
2179.000000	6.588403
2178.000000	6.568949
2177.000000	6.558704
2176.000000	6.554790
2175.000000	6.560776
2174.000000	6.565956
2173.000000	6.577122
2172.000000	6.571712
2171.000000	6.552143
2170.000000	6.562618
2169.000000	6.565841
2168.000000	6.566301
2167.000000	6.578849
2166.000000	6.585295
2165.000000	6.588288
2164.000000	6.604288
2163.000000	6.606590
2162.000000	6.588518
2161.000000	6.616260
2160.000000	6.630534
2159.000000	6.618677
2158.000000	6.633642
2157.000000	6.648376
2156.000000	6.660117
2155.000000	6.657815
2154.000000	6.678765
2153.000000	6.680031
2152.000000	6.686247
2151.000000	6.719515
2150.000000	6.726306
2149.000000	6.744379
2148.000000	6.746451
2147.000000	6.751055
2146.000000	6.770624
2145.000000	6.792610
2144.000000	6.804006
2143.000000	6.816554
2142.000000	6.818280
2141.000000	6.825532
2140.000000	6.830022
2139.000000	6.844295
2138.000000	6.846943
2137.000000	6.855231
2136.000000	6.869390
2135.000000	6.879404
2134.000000	6.876757
2133.000000	6.896326
2132.000000	6.901276
2131.000000	6.904614
2130.000000	6.892642
2129.000000	6.887923
2128.000000	6.896671
2127.000000	6.895175
2126.000000	6.889419
2125.000000	6.891031
2124.000000	6.908067
2123.000000	6.895520
2122.000000	6.895865
2121.000000	6.895405
2120.000000	6.899089
2119.000000	6.878829
2118.000000	6.869505
2117.000000	6.864785
2116.000000	6.852814
2115.000000	6.836928
2114.000000	6.840497
2113.000000	6.818511
2112.000000	6.800208
2111.000000	6.808150
2110.000000	6.808611
2109.000000	6.793646
2108.000000	6.792495
2107.000000	6.787430
2106.000000	6.792150
2105.000000	6.765214
2104.000000	6.747947
2103.000000	6.737472
2102.000000	6.731716
2101.000000	6.726421
2100.000000	6.727457
2099.000000	6.707658
2098.000000	6.690161
2097.000000	6.690391
2096.000000	6.696377
2095.000000	6.700176
2094.000000	6.674391
2093.000000	6.665988
2092.000000	6.664261
2091.000000	6.640088
2090.000000	6.649066
2089.000000	6.653210
2088.000000	6.641469
2087.000000	6.622015
2086.000000	6.611310
2085.000000	6.624202
2084.000000	6.621094
2083.000000	6.609813
2082.000000	6.595079
2081.000000	6.585295
2080.000000	6.584719
2079.000000	6.573323
2078.000000	6.565726
2077.000000	6.564229
2076.000000	6.540401
2075.000000	6.513811
2074.000000	6.505062
2073.000000	6.497119
2072.000000	6.488256
2071.000000	6.474097
2070.000000	6.469608
2069.000000	6.454989
2068.000000	6.438067
2067.000000	6.427592
2066.000000	6.426786
2065.000000	6.424024
2064.000000	6.397203
2063.000000	6.390987
2062.000000	6.371187
2061.000000	6.348280
2060.000000	6.345863
2059.000000	6.333086
2058.000000	6.328481
2057.000000	6.317315
2056.000000	6.310754
2055.000000	6.318351
2054.000000	6.305114
2053.000000	6.307186
2052.000000	6.315358
2051.000000	6.329402
2050.000000	6.335503
2049.000000	6.342064
2048.000000	6.343215
2047.000000	6.358295
2046.000000	6.374641
2045.000000	6.387533
2044.000000	6.392713
2043.000000	6.418038
2042.000000	6.442902
2041.000000	6.448312
2040.000000	6.466615
2039.000000	6.488831
2038.000000	6.516688
2037.000000	6.531653
2036.000000	6.531883
2035.000000	6.538444
2034.000000	6.558359
2033.000000	6.568949
2032.000000	6.581726
2031.000000	6.582532
2030.000000	6.578158
2029.000000	6.585525
2028.000000	6.585755
2027.000000	6.610504
2026.000000	6.619598
2025.000000	6.601756
2024.000000	6.596115
2023.000000	6.602792
2022.000000	6.612691
2021.000000	6.607396
2020.000000	6.602101
2019.000000	6.608202
2018.000000	6.609238
2017.000000	6.596115
2016.000000	6.604403
2015.000000	6.594043
2014.000000	6.577122
2013.000000	6.577928
2012.000000	6.562963
2011.000000	6.552143
2010.000000	6.536257
2009.000000	6.538099
2008.000000	6.519451
2007.000000	6.497004
2006.000000	6.494817
2005.000000	6.482846
2004.000000	6.472716
2003.000000	6.446240
2002.000000	6.446125
2001.000000	6.437377
2000.000000	6.415390
1999.000000	6.394440
1998.000000	6.392713
1997.000000	6.370036
1996.000000	6.334812
1995.000000	6.342640
1994.000000	6.313747
1993.000000	6.304538
1992.000000	6.283703
1991.000000	6.229370
1990.000000	6.206463
1989.000000	6.209226
1988.000000	6.190578
1987.000000	6.149943
1986.000000	6.139468
1985.000000	6.144303
1984.000000	6.102517
1983.000000	6.076963
1982.000000	6.068905
1981.000000	6.063725
1980.000000	6.053365
1979.000000	6.025047
1978.000000	5.991320
1977.000000	5.969564
1976.000000	5.949304
1975.000000	5.942397
1974.000000	5.925821
1973.000000	5.911087
1972.000000	5.888525
1971.000000	5.894051
1970.000000	5.857215
1969.000000	5.848236
1968.000000	5.840639
1967.000000	5.812667
1966.000000	5.767888
1965.000000	5.786191
1964.000000	5.767428
1963.000000	5.759025
1962.000000	5.766277
1961.000000	5.733125
1960.000000	5.729556
1959.000000	5.730362
1958.000000	5.700894
1957.000000	5.700894
1956.000000	5.679483
1955.000000	5.671886
1954.000000	5.660605
1953.000000	5.634474
1952.000000	5.635741
1951.000000	5.614100
1950.000000	5.624460
1949.000000	5.589236
1948.000000	5.602358
1947.000000	5.594761
1946.000000	5.593149
1945.000000	5.561609
1944.000000	5.559537
1943.000000	5.565868
1942.000000	5.563566
1941.000000	5.563566
1940.000000	5.569206
1939.000000	5.579106
1938.000000	5.574962
1937.000000	5.560458
1936.000000	5.554011
1935.000000	5.567595
1934.000000	5.568285
1933.000000	5.574386
1932.000000	5.562069
1931.000000	5.558155
1930.000000	5.585667
1929.000000	5.577264
1928.000000	5.622273
1927.000000	5.627337
1926.000000	5.643338
1925.000000	5.666360
1924.000000	5.663367
1923.000000	5.681440
1922.000000	5.683742
1921.000000	5.742104
1920.000000	5.775256
1919.000000	5.786767
1918.000000	5.824638
1917.000000	5.843977
1916.000000	5.860323
1915.000000	5.891288
1914.000000	5.910857
1913.000000	5.961851
1912.000000	5.996154
1911.000000	6.054055
1910.000000	6.064070
1909.000000	6.108849
1908.000000	6.146260
1907.000000	6.168706
1906.000000	6.245946
1905.000000	6.315243
1904.000000	6.375562
1903.000000	6.445549
1902.000000	6.492860
1901.000000	6.550531
1900.000000	6.626044
1899.000000	6.690622
1898.000000	6.756465
1897.000000	6.862253
1896.000000	6.913477
1895.000000	6.953651
1894.000000	7.035611
1893.000000	7.121484
1892.000000	7.238207
1891.000000	7.355275
1890.000000	7.498474
1889.000000	7.626593
1888.000000	7.772669
1887.000000	7.914602
1886.000000	8.015209
1885.000000	8.205833
1884.000000	8.397724
1883.000000	8.593759
1882.000000	8.820529
1881.000000	9.042003
1880.000000	9.260369
1879.000000	9.458706
1878.000000	9.668439
1877.000000	9.893712
1876.000000	10.144195
1875.000000	10.394332
1874.000000	10.623289
1873.000000	10.888620
1872.000000	11.158442
1871.000000	11.415601
1870.000000	11.639262
1869.000000	11.896536
1868.000000	12.107190
1867.000000	12.257986
1866.000000	12.407861
1865.000000	12.507087
1864.000000	12.616788
1863.000000	12.728101
1862.000000	12.821802
1861.000000	12.934841
1860.000000	13.071479
1859.000000	13.179223
1858.000000	13.284895
1857.000000	13.403575
1856.000000	13.478973
1855.000000	13.519377
1854.000000	13.565422
1853.000000	13.630920
1852.000000	13.663612
1851.000000	13.679497
1850.000000	13.692735
1849.000000	13.700217
1848.000000	13.721398
1847.000000	13.778723
1846.000000	13.820048
1845.000000	13.807041
1844.000000	13.773198
1843.000000	13.718175
1842.000000	13.700102
1841.000000	13.723239
1840.000000	13.743154
1839.000000	13.780335
1838.000000	13.771011
1837.000000	13.771356
1836.000000	13.756161
1835.000000	13.734866
1834.000000	13.719671
1833.000000	13.685368
1832.000000	13.629999
1831.000000	13.577393
1830.000000	13.556098
1829.000000	13.540903
1828.000000	13.517535
1827.000000	13.462973
1826.000000	13.426828
1825.000000	13.396553
1824.000000	13.357761
1823.000000	13.313328
1822.000000	13.279830
1821.000000	13.257499
1820.000000	13.254851
1819.000000	13.271888
1818.000000	13.235858
1817.000000	13.210418
1816.000000	13.185439
1815.000000	13.164028
1814.000000	13.165985
1813.000000	13.166561
1812.000000	13.151366
1811.000000	13.125351
1810.000000	13.098760
1809.000000	13.083450
1808.000000	13.065032
1807.000000	13.037406
1806.000000	13.009318
1805.000000	12.987793
1804.000000	12.950496
1803.000000	12.916539
1802.000000	12.890408
1801.000000	12.860825
1800.000000	12.842177
1799.000000	12.806492
1798.000000	12.758951
1797.000000	12.723612
1796.000000	12.700590
1795.000000	12.669509
1794.000000	12.628645
1793.000000	12.592155
1792.000000	12.560038
1791.000000	12.541045
1790.000000	12.509389
1789.000000	12.472093
1788.000000	12.442049
1787.000000	12.403026
1786.000000	12.359514
1785.000000	12.335686
1784.000000	12.310132
1783.000000	12.278246
1782.000000	12.228863
1781.000000	12.189840
1780.000000	12.163595
1779.000000	12.115939
1778.000000	12.078642
1777.000000	12.042152
1776.000000	11.997489
1775.000000	11.964107
1774.000000	11.921170
1773.000000	11.867528
1772.000000	11.805368
1771.000000	11.751496
1770.000000	11.710631
1769.000000	11.667464
1768.000000	11.597016
1767.000000	11.538770
1766.000000	11.499862
1765.000000	11.463832
1764.000000	11.436321
1763.000000	11.392809
1762.000000	11.365757
1761.000000	11.389355
1760.000000	11.414910
1759.000000	11.432982
1758.000000	11.470509
1757.000000	11.517244
1756.000000	11.549821
1755.000000	11.583433
1754.000000	11.634658
1753.000000	11.669652
1752.000000	11.691868
1751.000000	11.701307
1750.000000	11.700386
1749.000000	11.698429
1748.000000	11.697854
1747.000000	11.694516
1746.000000	11.662400
1745.000000	11.614398
1744.000000	11.570656
1743.000000	11.523920
1742.000000	11.468552
1741.000000	11.389355
1740.000000	11.292547
1739.000000	11.208400
1738.000000	11.124138
1737.000000	11.009027
1736.000000	10.945601
1735.000000	10.862375
1734.000000	10.792618
1733.000000	10.756242
1732.000000	10.752674
1731.000000	10.751983
1730.000000	10.758084
1729.000000	10.808388
1728.000000	10.847756
1727.000000	10.895412
1726.000000	10.942493
1725.000000	11.008682
1724.000000	11.050582
1723.000000	11.092368
1722.000000	11.118383
1721.000000	11.135880
1720.000000	11.189176
1719.000000	11.193090
1718.000000	11.224746
1717.000000	11.243279
1716.000000	11.293467
1715.000000	11.346304
1714.000000	11.396147
1713.000000	11.451861
1712.000000	11.471084
1711.000000	11.510568
1710.000000	11.525992
1709.000000	11.541302
1708.000000	11.567202
1707.000000	11.589189
1706.000000	11.564440
1705.000000	11.551317
1704.000000	11.526453
1703.000000	11.463832
1702.000000	11.440234
1701.000000	11.385902
1700.000000	11.328346
1699.000000	11.267337
1698.000000	11.187104
1697.000000	11.091447
1696.000000	11.032855
1695.000000	11.005113
1694.000000	10.959759
1693.000000	10.964939
1692.000000	11.003502
1691.000000	11.066813
1690.000000	11.122527
1689.000000	11.201839
1688.000000	11.277237
1687.000000	11.346304
1686.000000	11.395801
1685.000000	11.405586
1684.000000	11.468091
1683.000000	11.490999
1682.000000	11.593218
1681.000000	11.729279
1680.000000	11.906781
1679.000000	12.152889
1678.000000	12.407055
1677.000000	12.716705
1676.000000	12.981231
1675.000000	13.216749
1674.000000	13.472181
1673.000000	13.678691
1672.000000	13.866668
1671.000000	14.048199
1670.000000	14.203369
1669.000000	14.329416
1668.000000	14.451780
1667.000000	14.544675
1666.000000	14.610634
1665.000000	14.692132
1664.000000	14.778236
1663.000000	14.820251
1662.000000	14.876196
1661.000000	14.901060
1660.000000	14.950788
1659.000000	14.968745
1658.000000	14.976227
1657.000000	15.000976
1656.000000	15.028948
1655.000000	15.013063
1654.000000	15.025956
1653.000000	15.028143
1652.000000	15.012603
1651.000000	15.016977
1650.000000	14.978530
1649.000000	14.971393
1648.000000	14.931794
1647.000000	14.925693
1646.000000	14.880800
1645.000000	14.843159
1644.000000	14.810237
1643.000000	14.764998
1642.000000	14.746925
1641.000000	14.708708
1640.000000	14.656793
1639.000000	14.610979
1638.000000	14.587957
1637.000000	14.527523
1636.000000	14.465593
1635.000000	14.441995
1634.000000	14.392958
1633.000000	14.352899
1632.000000	14.295919
1631.000000	14.252177
1630.000000	14.197614
1629.000000	14.156634
1628.000000	14.102762
1627.000000	14.046703
1626.000000	13.999162
1625.000000	13.954498
1624.000000	13.886813
1623.000000	13.839157
1622.000000	13.787702
1621.000000	13.729455
1620.000000	13.698260
1619.000000	13.636330
1618.000000	13.575206
1617.000000	13.520528
1616.000000	13.484613
1615.000000	13.445130
1614.000000	13.417849
1613.000000	13.363056
1612.000000	13.315630
1611.000000	13.276607
1610.000000	13.249326
1609.000000	13.196144
1608.000000	13.124890
1607.000000	13.088630
1606.000000	13.042701
1605.000000	12.990901
1604.000000	12.960741
1603.000000	12.896739
1602.000000	12.842407
1601.000000	12.819960
1600.000000	12.792218
1599.000000	12.745598
1598.000000	12.695525
1597.000000	12.637508
1596.000000	12.590428
1595.000000	12.542542
1594.000000	12.505591
1593.000000	12.477849
1592.000000	12.435373
1591.000000	12.409012
1590.000000	12.373788
1589.000000	12.324520
1588.000000	12.266619
1587.000000	12.240950
1586.000000	12.230129
1585.000000	12.189840
1584.000000	12.162559
1583.000000	12.132054
1582.000000	12.088772
1581.000000	12.061491
1580.000000	12.029605
1579.000000	12.008194
