PE UV       SUBTECH     SPECTRUM    ASCII       PEDS        4.00        
   -1
CICIMAUCR0141-3.Sample.ASC
24/04/22
09:38:58.00
24/04/22
09:38:58.00
Vinicio Soto Monge
C. kalinini
250,000000
1
Lambda 1050
1050L1511233
PerkinElmer UV WinLab 6.3.2.0749 / 2.02.05 Lambda 900 UV/VIS/NIR, Aug  7 2015 09:38:08

0
0
3350/servo 860,8/2
0
0
UV/VIS
1
1
1
DoubleDePol,CommonBeamDepol,RBeamAtt,SBeamAtt,60mm sphere, WB InGaAs Detector
0
0
0
0
Program
Program
3350/servo 860,8/2
3350/0,2 860,8/0,2
3350/0,2 860,8/0,2
0
15.00
 
 
 
0
 
860,8
319,2
860,8
Front
100
on
S:100 R:100
0
0
0
0
 
0
 
 
 
0
 
 
0
0
0
0
0
 
 
 
 
0
0


0
0
#HDR
-1
-1
#GR
nm
%R
1.0
0.0
2500,000000
-1,000000
2251
8
96,279600
5,742600
#DATA
2482.000000	11.816012
2481.000000	11.842539
2480.000000	11.823990
2479.000000	11.909953
2478.000000	11.919527
2477.000000	11.922319
2476.000000	11.941666
2475.000000	11.967695
2474.000000	11.983451
2473.000000	12.066523
2472.000000	12.070312
2471.000000	12.166348
2470.000000	12.173130
2469.000000	12.184199
2468.000000	12.235957
2467.000000	12.320325
2466.000000	12.330796
2465.000000	12.396914
2464.000000	12.458146
2463.000000	12.505616
2462.000000	12.573429
2461.000000	12.636855
2460.000000	12.716237
2459.000000	12.777967
2458.000000	12.838301
2457.000000	12.936032
2456.000000	12.994471
2455.000000	13.066573
2454.000000	13.157423
2453.000000	13.270513
2452.000000	13.322869
2451.000000	13.432467
2450.000000	13.510553
2449.000000	13.633016
2448.000000	13.740919
2447.000000	13.846230
2446.000000	13.941468
2445.000000	14.043387
2444.000000	14.166748
2443.000000	14.273156
2442.000000	14.391730
2441.000000	14.501428
2440.000000	14.598461
2439.000000	14.718531
2438.000000	14.826833
2437.000000	14.920177
2436.000000	15.041543
2435.000000	15.158023
2434.000000	15.250369
2433.000000	15.334039
2432.000000	15.438153
2431.000000	15.538178
2430.000000	15.636208
2429.000000	15.728055
2428.000000	15.825687
2427.000000	15.916737
2426.000000	16.004994
2425.000000	16.084974
2424.000000	16.158572
2423.000000	16.208335
2422.000000	16.268868
2421.000000	16.332394
2420.000000	16.391033
2419.000000	16.443289
2418.000000	16.527457
2417.000000	16.584700
2416.000000	16.638353
2415.000000	16.683927
2414.000000	16.710853
2413.000000	16.753835
2412.000000	16.791631
2411.000000	16.809682
2410.000000	16.847378
2409.000000	16.888365
2408.000000	16.912499
2407.000000	16.922272
2406.000000	16.964356
2405.000000	16.992978
2404.000000	16.992878
2403.000000	17.004745
2402.000000	17.012723
2401.000000	17.044436
2400.000000	17.062287
2399.000000	17.067672
2398.000000	17.079540
2397.000000	17.080138
2396.000000	17.083329
2395.000000	17.104072
2394.000000	17.103075
2393.000000	17.114643
2392.000000	17.126810
2391.000000	17.127308
2390.000000	17.114942
2389.000000	17.109457
2388.000000	17.115840
2387.000000	17.120228
2386.000000	17.109856
2385.000000	17.093800
2384.000000	17.085822
2383.000000	17.059594
2382.000000	17.036259
2381.000000	17.028181
2380.000000	17.002352
2379.000000	16.974229
2378.000000	16.972334
2377.000000	16.950095
2376.000000	16.906017
2375.000000	16.883379
2374.000000	16.879689
2373.000000	16.860542
2372.000000	16.828829
2371.000000	16.802003
2370.000000	16.783055
2369.000000	16.755830
2368.000000	16.738378
2367.000000	16.739375
2366.000000	16.732992
2365.000000	16.710654
2364.000000	16.690609
2363.000000	16.683927
2362.000000	16.675052
2361.000000	16.641644
2360.000000	16.623394
2359.000000	16.625887
2358.000000	16.609831
2357.000000	16.583204
2356.000000	16.552987
2355.000000	16.530150
2354.000000	16.513197
2353.000000	16.474802
2352.000000	16.441095
2351.000000	16.426236
2350.000000	16.404097
2349.000000	16.363010
2348.000000	16.320826
2347.000000	16.301279
2346.000000	16.276647
2345.000000	16.240846
2344.000000	16.221997
2343.000000	16.207637
2342.000000	16.179813
2341.000000	16.165154
2340.000000	16.142616
2339.000000	16.117983
2338.000000	16.095744
2337.000000	16.080786
2336.000000	16.072109
2335.000000	16.075899
2334.000000	16.068420
2333.000000	16.063733
2332.000000	16.065528
2331.000000	16.077993
2330.000000	16.073605
2329.000000	16.086370
2328.000000	16.107113
2327.000000	16.118981
2326.000000	16.149198
2325.000000	16.154982
2324.000000	16.174428
2323.000000	16.192479
2322.000000	16.182506
2321.000000	16.171636
2320.000000	16.176822
2319.000000	16.178118
2318.000000	16.157674
2317.000000	16.150993
2316.000000	16.113895
2315.000000	16.084077
2314.000000	16.044087
2313.000000	15.993326
2312.000000	15.968295
2311.000000	15.941868
2310.000000	15.908958
2309.000000	15.852513
2308.000000	15.799758
2307.000000	15.784799
2306.000000	15.753087
2305.000000	15.708110
2304.000000	15.702925
2303.000000	15.682780
2302.000000	15.672907
2301.000000	15.649771
2300.000000	15.649671
2299.000000	15.641892
2298.000000	15.647278
2297.000000	15.665228
2296.000000	15.669317
2295.000000	15.687866
2294.000000	15.684974
2293.000000	15.723668
2292.000000	15.736133
2291.000000	15.761464
2290.000000	15.782905
2289.000000	15.796368
2288.000000	15.840746
2287.000000	15.858696
2286.000000	15.899883
2285.000000	15.922222
2284.000000	15.952638
2283.000000	15.989237
2282.000000	16.024441
2281.000000	16.067123
2280.000000	16.098736
2279.000000	16.101529
2278.000000	16.138527
2277.000000	16.146704
2276.000000	16.169841
2275.000000	16.195969
2274.000000	16.201853
2273.000000	16.216014
2272.000000	16.251716
2271.000000	16.270165
2270.000000	16.295794
2269.000000	16.339175
2268.000000	16.347851
2267.000000	16.399808
2266.000000	16.463035
2265.000000	16.532843
2264.000000	16.595869
2263.000000	16.678542
2262.000000	16.786844
2261.000000	16.890360
2260.000000	17.021100
2259.000000	17.150046
2258.000000	17.256852
2257.000000	17.397166
2256.000000	17.563908
2255.000000	17.703923
2254.000000	17.866775
2253.000000	17.995322
2252.000000	18.170739
2251.000000	18.315641
2250.000000	18.469917
2249.000000	18.631572
2248.000000	18.753038
2247.000000	18.874803
2246.000000	18.999062
2245.000000	19.101779
2244.000000	19.191233
2243.000000	19.291558
2242.000000	19.374131
2241.000000	19.430077
2240.000000	19.493502
2239.000000	19.534390
2238.000000	19.548252
2237.000000	19.594325
2236.000000	19.608287
2235.000000	19.616963
2234.000000	19.624841
2233.000000	19.622049
2232.000000	19.574679
2231.000000	19.548451
2230.000000	19.490511
2229.000000	19.491209
2228.000000	19.410830
2227.000000	19.371937
2226.000000	19.325863
2225.000000	19.242193
2224.000000	19.166003
2223.000000	19.097890
2222.000000	19.013223
2221.000000	18.939226
2220.000000	18.862138
2219.000000	18.773881
2218.000000	18.703076
2217.000000	18.592280
2216.000000	18.503823
2215.000000	18.420054
2214.000000	18.336683
2213.000000	18.266177
2212.000000	18.184801
2211.000000	18.111004
2210.000000	18.044387
2209.000000	17.959221
2208.000000	17.878044
2207.000000	17.829876
2206.000000	17.780811
2205.000000	17.725164
2204.000000	17.653661
2203.000000	17.588640
2202.000000	17.538976
2201.000000	17.491307
2200.000000	17.404745
2199.000000	17.375326
2198.000000	17.338926
2197.000000	17.294449
2196.000000	17.262337
2195.000000	17.212474
2194.000000	17.172085
2193.000000	17.124117
2192.000000	17.104571
2191.000000	17.055306
2190.000000	17.023992
2189.000000	17.013022
2188.000000	16.981409
2187.000000	16.949996
2186.000000	16.916588
2185.000000	16.900731
2184.000000	16.853062
2183.000000	16.816762
2182.000000	16.809283
2181.000000	16.759320
2180.000000	16.738078
2179.000000	16.728704
2178.000000	16.720028
2177.000000	16.698188
2176.000000	16.676847
2175.000000	16.672559
2174.000000	16.662985
2173.000000	16.669467
2172.000000	16.662686
2171.000000	16.677246
2170.000000	16.681933
2169.000000	16.711152
2168.000000	16.735785
2167.000000	16.752339
2166.000000	16.789038
2165.000000	16.828330
2164.000000	16.873307
2163.000000	16.889761
2162.000000	16.952589
2161.000000	17.018009
2160.000000	17.068370
2159.000000	17.120228
2158.000000	17.196119
2157.000000	17.284576
2156.000000	17.368046
2155.000000	17.457500
2154.000000	17.554534
2153.000000	17.653462
2152.000000	17.747304
2151.000000	17.864182
2150.000000	17.973482
2149.000000	18.061240
2148.000000	18.163559
2147.000000	18.257401
2146.000000	18.360717
2145.000000	18.469219
2144.000000	18.569842
2143.000000	18.658797
2142.000000	18.762412
2141.000000	18.860243
2140.000000	18.955182
2139.000000	19.042542
2138.000000	19.127509
2137.000000	19.221849
2136.000000	19.318583
2135.000000	19.399561
2134.000000	19.475352
2133.000000	19.543166
2132.000000	19.597018
2131.000000	19.662538
2130.000000	19.737731
2129.000000	19.807140
2128.000000	19.853712
2127.000000	19.893602
2126.000000	19.946656
2125.000000	20.002802
2124.000000	20.061241
2123.000000	20.097841
2122.000000	20.125365
2121.000000	20.163660
2120.000000	20.200159
2119.000000	20.229279
2118.000000	20.234864
2117.000000	20.248826
2116.000000	20.282134
2115.000000	20.301979
2114.000000	20.304971
2113.000000	20.324517
2112.000000	20.337980
2111.000000	20.331398
2110.000000	20.328706
2109.000000	20.328706
2108.000000	20.325315
2107.000000	20.326113
2106.000000	20.331199
2105.000000	20.342368
2104.000000	20.336385
2103.000000	20.331997
2102.000000	20.351443
2101.000000	20.350346
2100.000000	20.338878
2099.000000	20.352740
2098.000000	20.354535
2097.000000	20.354834
2096.000000	20.372386
2095.000000	20.384951
2094.000000	20.408487
2093.000000	20.427734
2092.000000	20.450272
2091.000000	20.465031
2090.000000	20.488068
2089.000000	20.517786
2088.000000	20.526163
2087.000000	20.537532
2086.000000	20.549299
2085.000000	20.551493
2084.000000	20.548402
2083.000000	20.527260
2082.000000	20.507913
2081.000000	20.493852
2080.000000	20.443391
2079.000000	20.393528
2078.000000	20.345759
2077.000000	20.287918
2076.000000	20.222199
2075.000000	20.139925
2074.000000	20.059945
2073.000000	19.978070
2072.000000	19.889613
2071.000000	19.790087
2070.000000	19.684078
2069.000000	19.574081
2068.000000	19.443141
2067.000000	19.318882
2066.000000	19.201505
2065.000000	19.080239
2064.000000	18.972734
2063.000000	18.858748
2062.000000	18.739376
2061.000000	18.628082
2060.000000	18.540523
2059.000000	18.443888
2058.000000	18.359121
2057.000000	18.311851
2056.000000	18.270964
2055.000000	18.219405
2054.000000	18.206541
2053.000000	18.223893
2052.000000	18.241744
2051.000000	18.285025
2050.000000	18.348052
2049.000000	18.428231
2048.000000	18.514793
2047.000000	18.628680
2046.000000	18.744562
2045.000000	18.871612
2044.000000	19.014619
2043.000000	19.139376
2042.000000	19.274305
2041.000000	19.419705
2040.000000	19.546257
2039.000000	19.671513
2038.000000	19.805544
2037.000000	19.935487
2036.000000	20.050770
2035.000000	20.173233
2034.000000	20.286123
2033.000000	20.389938
2032.000000	20.472610
2031.000000	20.559073
2030.000000	20.671463
2029.000000	20.763610
2028.000000	20.836410
2027.000000	20.916988
2026.000000	21.011229
2025.000000	21.074256
2024.000000	21.137382
2023.000000	21.196320
2022.000000	21.262239
2021.000000	21.318086
2020.000000	21.384304
2019.000000	21.440150
2018.000000	21.466178
2017.000000	21.508662
2016.000000	21.548851
2015.000000	21.576974
2014.000000	21.607988
2013.000000	21.626438
2012.000000	21.631424
2011.000000	21.648078
2010.000000	21.633219
2009.000000	21.630427
2008.000000	21.622648
2007.000000	21.593129
2006.000000	21.576675
2005.000000	21.550546
2004.000000	21.511853
2003.000000	21.450521
2002.000000	21.416914
2001.000000	21.379517
2000.000000	21.293254
1999.000000	21.254760
1998.000000	21.176575
1997.000000	21.098489
1996.000000	21.038255
1995.000000	20.954086
1994.000000	20.870217
1993.000000	20.792630
1992.000000	20.697691
1991.000000	20.611628
1990.000000	20.528955
1989.000000	20.429429
1988.000000	20.331398
1987.000000	20.235861
1986.000000	20.129155
1985.000000	20.023345
1984.000000	19.932695
1983.000000	19.828282
1982.000000	19.724068
1981.000000	19.637706
1980.000000	19.529104
1979.000000	19.424692
1978.000000	19.327160
1977.000000	19.227334
1976.000000	19.130301
1975.000000	19.033068
1974.000000	18.941221
1973.000000	18.875402
1972.000000	18.774978
1971.000000	18.676449
1970.000000	18.596668
1969.000000	18.502028
1968.000000	18.406192
1967.000000	18.329204
1966.000000	18.244836
1965.000000	18.150894
1964.000000	18.067324
1963.000000	17.959221
1962.000000	17.890909
1961.000000	17.785997
1960.000000	17.685274
1959.000000	17.611676
1958.000000	17.526909
1957.000000	17.427682
1956.000000	17.336533
1955.000000	17.239998
1954.000000	17.166500
1953.000000	17.065478
1952.000000	16.983005
1951.000000	16.897540
1950.000000	16.829228
1949.000000	16.758422
1948.000000	16.677445
1947.000000	16.622297
1946.000000	16.566351
1945.000000	16.496542
1944.000000	16.446879
1943.000000	16.412873
1942.000000	16.380362
1941.000000	16.352838
1940.000000	16.338377
1939.000000	16.316139
1938.000000	16.279539
1937.000000	16.260292
1936.000000	16.267971
1935.000000	16.296193
1934.000000	16.300382
1933.000000	16.344261
1932.000000	16.390833
1931.000000	16.447976
1930.000000	16.524366
1929.000000	16.565652
1928.000000	16.667672
1927.000000	16.750245
1926.000000	16.836508
1925.000000	16.951192
1924.000000	17.065179
1923.000000	17.215566
1922.000000	17.393077
1921.000000	17.557426
1920.000000	17.727558
1919.000000	17.900283
1918.000000	18.078293
1917.000000	18.268271
1916.000000	18.508810
1915.000000	18.768695
1914.000000	19.056105
1913.000000	19.377820
1912.000000	19.676001
1911.000000	19.961117
1910.000000	20.241446
1909.000000	20.545809
1908.000000	20.961466
1907.000000	21.391583
1906.000000	21.896894
1905.000000	22.386747
1904.000000	22.843093
1903.000000	23.328957
1902.000000	23.835863
1901.000000	24.395923
1900.000000	24.994976
1899.000000	25.594727
1898.000000	26.206644
1897.000000	26.753142
1896.000000	27.267328
1895.000000	27.847433
1894.000000	28.455262
1893.000000	29.108466
1892.000000	29.775432
1891.000000	30.369997
1890.000000	30.936639
1889.000000	31.529709
1888.000000	32.046687
1887.000000	32.550701
1886.000000	33.052920
1885.000000	33.583960
1884.000000	34.046987
1883.000000	34.505427
1882.000000	34.889471
1881.000000	35.241004
1880.000000	35.587551
1879.000000	35.939284
1878.000000	36.270573
1877.000000	36.575635
1876.000000	36.880995
1875.000000	37.186555
1874.000000	37.452623
1873.000000	37.701639
1872.000000	37.933402
1871.000000	38.118193
1870.000000	38.266585
1869.000000	38.422656
1868.000000	38.533152
1867.000000	38.603260
1866.000000	38.676758
1865.000000	38.773192
1864.000000	38.871921
1863.000000	38.979525
1862.000000	39.080647
1861.000000	39.191143
1860.000000	39.292166
1859.000000	39.351901
1858.000000	39.405354
1857.000000	39.449134
1856.000000	39.495008
1855.000000	39.550256
1854.000000	39.559132
1853.000000	39.565514
1852.000000	39.596529
1851.000000	39.617371
1850.000000	39.660353
1849.000000	39.695656
1848.000000	39.685185
1847.000000	39.622258
1846.000000	39.558832
1845.000000	39.533602
1844.000000	39.536494
1843.000000	39.584661
1842.000000	39.583963
1841.000000	39.536294
1840.000000	39.496803
1839.000000	39.461301
1838.000000	39.425399
1837.000000	39.372345
1836.000000	39.313806
1835.000000	39.247588
1834.000000	39.179077
1833.000000	39.144571
1832.000000	39.135995
1831.000000	39.118343
1830.000000	39.090919
1829.000000	39.053921
1828.000000	39.019116
1827.000000	38.998972
1826.000000	38.969253
1825.000000	38.956189
1824.000000	38.983614
1823.000000	39.057810
1822.000000	39.103883
1821.000000	39.097102
1820.000000	39.073068
1819.000000	39.042153
1818.000000	39.031781
1817.000000	39.047438
1816.000000	39.050430
1815.000000	39.026197
1814.000000	39.020512
1813.000000	39.013731
1812.000000	38.985509
1811.000000	38.942327
1810.000000	38.909817
1809.000000	38.898648
1808.000000	38.882093
1807.000000	38.864641
1806.000000	38.832928
1805.000000	38.805803
1804.000000	38.805903
1803.000000	38.810091
1802.000000	38.802113
1801.000000	38.764317
1800.000000	38.723429
1799.000000	38.702886
1798.000000	38.688426
1797.000000	38.675760
1796.000000	38.662297
1795.000000	38.635671
1794.000000	38.621510
1793.000000	38.610739
1792.000000	38.597875
1791.000000	38.602562
1790.000000	38.594982
1789.000000	38.594185
1788.000000	38.608346
1787.000000	38.618418
1786.000000	38.622008
1785.000000	38.624501
1784.000000	38.622507
1783.000000	38.610340
1782.000000	38.608445
1781.000000	38.584711
1780.000000	38.568655
1779.000000	38.549707
1778.000000	38.517296
1777.000000	38.487877
1776.000000	38.447887
1775.000000	38.391442
1774.000000	38.342477
1773.000000	38.301290
1772.000000	38.260602
1771.000000	38.208744
1770.000000	38.169652
1769.000000	38.131357
1768.000000	38.085882
1767.000000	38.042003
1766.000000	38.033825
1765.000000	38.010789
1764.000000	37.984760
1763.000000	37.978777
1762.000000	37.979475
1761.000000	37.996229
1760.000000	38.015177
1759.000000	38.017071
1758.000000	38.041604
1757.000000	38.043898
1756.000000	38.050679
1755.000000	38.066236
1754.000000	38.097849
1753.000000	38.079101
1752.000000	38.080896
1751.000000	38.080697
1750.000000	38.046291
1749.000000	38.004406
1748.000000	37.968106
1747.000000	37.888824
1746.000000	37.821011
1745.000000	37.740133
1744.000000	37.643598
1743.000000	37.528814
1742.000000	37.433775
1741.000000	37.317096
1740.000000	37.235421
1739.000000	37.141579
1738.000000	37.032379
1737.000000	36.955191
1736.000000	36.886281
1735.000000	36.800117
1734.000000	36.725921
1733.000000	36.614727
1732.000000	36.540731
1731.000000	36.471720
1730.000000	36.386455
1729.000000	36.318442
1728.000000	36.253520
1727.000000	36.210040
1726.000000	36.150204
1725.000000	36.129661
1724.000000	36.144420
1723.000000	36.227292
1722.000000	36.355939
1721.000000	36.525173
1720.000000	36.759130
1719.000000	37.013730
1718.000000	37.289173
1717.000000	37.581669
1716.000000	37.850330
1715.000000	38.099644
1714.000000	38.340582
1713.000000	38.533252
1712.000000	38.748760
1711.000000	38.921186
1710.000000	39.071672
1709.000000	39.210490
1708.000000	39.332156
1707.000000	39.433477
1706.000000	39.540782
1705.000000	39.583864
1704.000000	39.657262
1703.000000	39.702039
1702.000000	39.706925
1701.000000	39.737242
1700.000000	39.733353
1699.000000	39.738937
1698.000000	39.737840
1697.000000	39.694958
1696.000000	39.637915
1695.000000	39.558633
1694.000000	39.441355
1693.000000	39.333153
1692.000000	39.190645
1691.000000	39.060503
1690.000000	38.979226
1689.000000	38.958483
1688.000000	38.961375
1687.000000	39.042552
1686.000000	39.182567
1685.000000	39.351802
1684.000000	39.600817
1683.000000	39.839361
1682.000000	40.100044
1681.000000	40.341381
1680.000000	40.571249
1679.000000	40.777382
1678.000000	40.967160
1677.000000	41.145570
1676.000000	41.314405
1675.000000	41.487230
1674.000000	41.668731
1673.000000	41.823705
1672.000000	42.024453
1671.000000	42.230487
1670.000000	42.398724
1669.000000	42.600868
1668.000000	42.782968
1667.000000	42.976236
1666.000000	43.135797
1665.000000	43.296855
1664.000000	43.467186
1663.000000	43.612487
1662.000000	43.772946
1661.000000	43.904284
1660.000000	44.037219
1659.000000	44.144923
1658.000000	44.242554
1657.000000	44.336696
1656.000000	44.408099
1655.000000	44.459458
1654.000000	44.503038
1653.000000	44.564669
1652.000000	44.601168
1651.000000	44.619518
1650.000000	44.640760
1649.000000	44.650333
1648.000000	44.665591
1647.000000	44.677858
1646.000000	44.673968
1645.000000	44.669580
1644.000000	44.664295
1643.000000	44.665292
1642.000000	44.675165
1641.000000	44.675963
1640.000000	44.674267
1639.000000	44.675564
1638.000000	44.663198
1637.000000	44.656915
1636.000000	44.642455
1635.000000	44.622111
1634.000000	44.587406
1633.000000	44.563073
1632.000000	44.523283
1631.000000	44.491071
1630.000000	44.449685
1629.000000	44.417573
1628.000000	44.377084
1627.000000	44.339288
1626.000000	44.292318
1625.000000	44.253325
1624.000000	44.217822
1623.000000	44.174641
1622.000000	44.137543
1621.000000	44.107526
1620.000000	44.076511
1619.000000	44.037319
1618.000000	44.008298
1617.000000	43.980475
1616.000000	43.937493
1615.000000	43.887830
1614.000000	43.843651
1613.000000	43.795484
1612.000000	43.752602
1611.000000	43.695758
1610.000000	43.627446
1609.000000	43.558635
1608.000000	43.495808
1607.000000	43.419318
1606.000000	43.334252
