PE UV       SUBTECH     SPECTRUM    ASCII       PEDS        4.00        
   -1
CICIMAUCR0210-3.Sample.ASC
24/06/12
13:35:32.00
24/06/12
13:35:32.00
Vinicio Soto Monge
C. resplendens. Sex F. Ventral
250,000000
1
Lambda 1050
1050L1511233
PerkinElmer UV WinLab 6.3.2.0749 / 2.02.05 Lambda 900 UV/VIS/NIR, Aug  7 2015 09:38:08

0
0
3350/servo 860,8/2
0
0
UV/VIS
1
1
1
DoubleDePol,CommonBeamDepol,RBeamAtt,SBeamAtt,60mm sphere, WB InGaAs Detector
0
0
0
0
Program
Program
3350/servo 860,8/2
3350/0,2 860,8/0,2
3350/0,2 860,8/0,2
0
15.00
 
 
 
0
 
860,8
319,2
860,8
Front
100
on
S:100 R:100
0
0
0
0
 
0
 
 
 
0
 
 
0
0
0
0
0
 
 
 
 
0
0


0
0
#HDR
-1
-1
#GR
nm
%R
1.0
0.0
2500,000000
-1,000000
2251
8
50,458900
3,367000
#DATA
2482.000000	6.075784
2481.000000	6.005982
2480.000000	5.976728
2479.000000	5.967586
2478.000000	5.883372
2477.000000	6.012220
2476.000000	5.997486
2475.000000	5.945860
2474.000000	5.926716
2473.000000	5.904560
2472.000000	5.899505
2471.000000	5.883264
2470.000000	5.960702
2469.000000	5.941881
2468.000000	5.954895
2467.000000	5.927361
2466.000000	5.913272
2465.000000	5.944892
2464.000000	5.942849
2463.000000	5.954895
2462.000000	5.888104
2461.000000	5.969199
2460.000000	5.957476
2459.000000	5.951345
2458.000000	6.006305
2457.000000	5.968984
2456.000000	5.938009
2455.000000	5.968231
2454.000000	6.010500
2453.000000	6.029429
2452.000000	6.086324
2451.000000	6.150211
2450.000000	6.195383
2449.000000	6.220658
2448.000000	6.240556
2447.000000	6.251311
2446.000000	6.197750
2445.000000	6.273790
2444.000000	6.320253
2443.000000	6.391883
2442.000000	6.405004
2441.000000	6.458458
2440.000000	6.443078
2439.000000	6.470182
2438.000000	6.492015
2437.000000	6.468353
2436.000000	6.543640
2435.000000	6.578595
2434.000000	6.627747
2433.000000	6.655496
2432.000000	6.742614
2431.000000	6.712499
2430.000000	6.765307
2429.000000	6.772621
2428.000000	6.762726
2427.000000	6.814029
2426.000000	6.836615
2425.000000	6.878023
2424.000000	6.925131
2423.000000	6.934811
2422.000000	6.960947
2421.000000	6.954816
2420.000000	6.972132
2419.000000	7.019886
2418.000000	7.035804
2417.000000	7.059143
2416.000000	7.061724
2415.000000	7.090656
2414.000000	7.103992
2413.000000	7.144110
2412.000000	7.153252
2411.000000	7.116468
2410.000000	7.168524
2409.000000	7.210900
2408.000000	7.221440
2407.000000	7.246823
2406.000000	7.256180
2405.000000	7.249942
2404.000000	7.259837
2403.000000	7.291135
2402.000000	7.261880
2401.000000	7.276292
2400.000000	7.325767
2399.000000	7.326735
2398.000000	7.325659
2397.000000	7.367497
2396.000000	7.381372
2395.000000	7.384383
2394.000000	7.385566
2393.000000	7.378791
2392.000000	7.424070
2391.000000	7.459240
2390.000000	7.461069
2389.000000	7.480321
2388.000000	7.494088
2387.000000	7.495486
2386.000000	7.495486
2385.000000	7.502692
2384.000000	7.506456
2383.000000	7.525493
2382.000000	7.534312
2381.000000	7.531516
2380.000000	7.546896
2379.000000	7.533237
2378.000000	7.547326
2377.000000	7.552596
2376.000000	7.543454
2375.000000	7.542917
2374.000000	7.535603
2373.000000	7.555500
2372.000000	7.561846
2371.000000	7.543777
2370.000000	7.534420
2369.000000	7.538615
2368.000000	7.540981
2367.000000	7.543454
2366.000000	7.539582
2365.000000	7.533775
2364.000000	7.525923
2363.000000	7.513340
2362.000000	7.509037
2361.000000	7.497099
2360.000000	7.477417
2359.000000	7.472147
2358.000000	7.461499
2357.000000	7.440849
2356.000000	7.425791
2355.000000	7.403528
2354.000000	7.410734
2353.000000	7.399333
2352.000000	7.380619
2351.000000	7.378898
2350.000000	7.396644
2349.000000	7.403420
2348.000000	7.390406
2347.000000	7.404818
2346.000000	7.435901
2345.000000	7.434073
2344.000000	7.436116
2343.000000	7.454293
2342.000000	7.482149
2341.000000	7.486989
2340.000000	7.501939
2339.000000	7.534097
2338.000000	7.548617
2337.000000	7.543992
2336.000000	7.548294
2335.000000	7.557006
2334.000000	7.558835
2333.000000	7.575398
2332.000000	7.555393
2331.000000	7.546143
2330.000000	7.562922
2329.000000	7.563459
2328.000000	7.538399
2327.000000	7.534312
2326.000000	7.507101
2325.000000	7.486021
2324.000000	7.478923
2323.000000	7.464080
2322.000000	7.437192
2321.000000	7.400624
2320.000000	7.377285
2319.000000	7.360184
2318.000000	7.333618
2317.000000	7.289844
2316.000000	7.260267
2315.000000	7.225742
2314.000000	7.179279
2313.000000	7.134430
2312.000000	7.096248
2311.000000	7.074523
2310.000000	7.042902
2309.000000	6.991169
2308.000000	6.981704
2307.000000	6.966217
2306.000000	6.961484
2305.000000	6.944599
2304.000000	6.918893
2303.000000	6.935026
2302.000000	6.945244
2301.000000	6.960301
2300.000000	6.982887
2299.000000	6.995579
2298.000000	7.025478
2297.000000	7.043547
2296.000000	7.061831
2295.000000	7.115070
2294.000000	7.140775
2293.000000	7.188744
2292.000000	7.228861
2291.000000	7.244457
2290.000000	7.254889
2289.000000	7.268333
2288.000000	7.307160
2287.000000	7.327703
2286.000000	7.339319
2285.000000	7.338996
2284.000000	7.316410
2283.000000	7.322540
2282.000000	7.330177
2281.000000	7.329639
2280.000000	7.296082
2279.000000	7.284897
2278.000000	7.274787
2277.000000	7.259514
2276.000000	7.236068
2275.000000	7.229399
2274.000000	7.226280
2273.000000	7.204447
2272.000000	7.204124
2271.000000	7.190465
2270.000000	7.180785
2269.000000	7.207243
2268.000000	7.209287
2267.000000	7.227786
2266.000000	7.240262
2265.000000	7.276292
2264.000000	7.334156
2263.000000	7.369433
2262.000000	7.446441
2261.000000	7.526138
2260.000000	7.600673
2259.000000	7.677573
2258.000000	7.773833
2257.000000	7.876546
2256.000000	7.977324
2255.000000	8.075842
2254.000000	8.168123
2253.000000	8.282560
2252.000000	8.402589
2251.000000	8.502613
2250.000000	8.612425
2249.000000	8.702555
2248.000000	8.789027
2247.000000	8.875608
2246.000000	8.955950
2245.000000	9.039949
2244.000000	9.113838
2243.000000	9.180736
2242.000000	9.259895
2241.000000	9.314747
2240.000000	9.381645
2239.000000	9.410039
2238.000000	9.444026
2237.000000	9.513935
2236.000000	9.528778
2235.000000	9.557172
2234.000000	9.565668
2233.000000	9.630738
2232.000000	9.656658
2231.000000	9.634287
2230.000000	9.676771
2229.000000	9.690753
2228.000000	9.687419
2227.000000	9.708607
2226.000000	9.709790
2225.000000	9.710327
2224.000000	9.688709
2223.000000	9.698389
2222.000000	9.694947
2221.000000	9.667521
2220.000000	9.663219
2219.000000	9.645043
2218.000000	9.606754
2217.000000	9.608797
2216.000000	9.560614
2215.000000	9.572875
2214.000000	9.531789
2213.000000	9.534693
2212.000000	9.519743
2211.000000	9.495221
2210.000000	9.478443
2209.000000	9.458546
2208.000000	9.423483
2207.000000	9.434023
2206.000000	9.427033
2205.000000	9.424129
2204.000000	9.392185
2203.000000	9.386593
2202.000000	9.401758
2201.000000	9.381430
2200.000000	9.354649
2199.000000	9.340990
2198.000000	9.346153
2197.000000	9.343141
2196.000000	9.324319
2195.000000	9.342173
2194.000000	9.298722
2193.000000	9.298399
2192.000000	9.288827
2191.000000	9.310768
2190.000000	9.295065
2189.000000	9.281621
2188.000000	9.258174
2187.000000	9.259572
2186.000000	9.252366
2185.000000	9.258604
2184.000000	9.222682
2183.000000	9.234190
2182.000000	9.218917
2181.000000	9.196331
2180.000000	9.197084
2179.000000	9.205150
2178.000000	9.196761
2177.000000	9.169658
2176.000000	9.187727
2175.000000	9.163312
2174.000000	9.178585
2173.000000	9.179553
2172.000000	9.174498
2171.000000	9.178692
2170.000000	9.164603
2169.000000	9.168260
2168.000000	9.159978
2167.000000	9.184823
2166.000000	9.173637
2165.000000	9.178370
2164.000000	9.184930
2163.000000	9.203214
2162.000000	9.197837
2161.000000	9.217089
2160.000000	9.244515
2159.000000	9.250538
2158.000000	9.276566
2157.000000	9.281728
2156.000000	9.285493
2155.000000	9.308186
2154.000000	9.331740
2153.000000	9.350455
2152.000000	9.374009
2151.000000	9.397025
2150.000000	9.417998
2149.000000	9.444671
2148.000000	9.464138
2147.000000	9.491672
2146.000000	9.500276
2145.000000	9.524261
2144.000000	9.548245
2143.000000	9.583200
2142.000000	9.623747
2141.000000	9.613422
2140.000000	9.620090
2139.000000	9.631491
2138.000000	9.643322
2137.000000	9.668920
2136.000000	9.672899
2135.000000	9.674190
2134.000000	9.695700
2133.000000	9.711726
2132.000000	9.721083
2131.000000	9.729472
2130.000000	9.715275
2129.000000	9.720222
2128.000000	9.743239
2127.000000	9.730225
2126.000000	9.732483
2125.000000	9.732591
2124.000000	9.745605
2123.000000	9.735065
2122.000000	9.735065
2121.000000	9.736033
2120.000000	9.721728
2119.000000	9.709682
2118.000000	9.713231
2117.000000	9.691291
2116.000000	9.683547
2115.000000	9.665478
2114.000000	9.654507
2113.000000	9.646764
2112.000000	9.624715
2111.000000	9.609765
2110.000000	9.608582
2109.000000	9.586211
2108.000000	9.573735
2107.000000	9.561689
2106.000000	9.542867
2105.000000	9.527272
2104.000000	9.484789
2103.000000	9.461234
2102.000000	9.463278
2101.000000	9.459298
2100.000000	9.444779
2099.000000	9.435314
2098.000000	9.418321
2097.000000	9.384441
2096.000000	9.357446
2095.000000	9.344324
2094.000000	9.333354
2093.000000	9.331525
2092.000000	9.327869
2091.000000	9.304960
2090.000000	9.285923
2089.000000	9.266241
2088.000000	9.253012
2087.000000	9.246451
2086.000000	9.220638
2085.000000	9.207732
2084.000000	9.196223
2083.000000	9.172347
2082.000000	9.167292
2081.000000	9.149868
2080.000000	9.114053
2079.000000	9.095984
2078.000000	9.059739
2077.000000	9.023063
2076.000000	9.011555
2075.000000	8.985957
2074.000000	8.945087
2073.000000	8.907336
2072.000000	8.881846
2071.000000	8.850763
2070.000000	8.820648
2069.000000	8.790425
2068.000000	8.757622
2067.000000	8.716321
2066.000000	8.689756
2065.000000	8.655877
2064.000000	8.613393
2063.000000	8.591452
2062.000000	8.546172
2061.000000	8.516273
2060.000000	8.492503
2059.000000	8.461743
2058.000000	8.447223
2057.000000	8.417969
2056.000000	8.401513
2055.000000	8.406031
2054.000000	8.393662
2053.000000	8.379895
2052.000000	8.382154
2051.000000	8.392694
2050.000000	8.389145
2049.000000	8.388069
2048.000000	8.413129
2047.000000	8.434317
2046.000000	8.452386
2045.000000	8.479489
2044.000000	8.497989
2043.000000	8.536277
2042.000000	8.557035
2041.000000	8.582848
2040.000000	8.610382
2039.000000	8.619846
2038.000000	8.613070
2037.000000	8.630709
2036.000000	8.659211
2035.000000	8.690401
2034.000000	8.697715
2033.000000	8.716429
2032.000000	8.724495
2031.000000	8.721484
2030.000000	8.734068
2029.000000	8.726001
2028.000000	8.749770
2027.000000	8.730733
2026.000000	8.721269
2025.000000	8.722882
2024.000000	8.735466
2023.000000	8.740413
2022.000000	8.740736
2021.000000	8.745791
2020.000000	8.727292
2019.000000	8.707394
2018.000000	8.687927
2017.000000	8.677387
2016.000000	8.668568
2015.000000	8.645659
2014.000000	8.637592
2013.000000	8.619846
2012.000000	8.619954
2011.000000	8.591022
2010.000000	8.569942
2009.000000	8.542623
2008.000000	8.514014
2007.000000	8.505195
2006.000000	8.481210
2005.000000	8.466906
2004.000000	8.430338
2003.000000	8.407321
2002.000000	8.373442
2001.000000	8.329453
2000.000000	8.290088
1999.000000	8.268363
1998.000000	8.251692
1997.000000	8.204153
1996.000000	8.175759
1995.000000	8.138653
1994.000000	8.096815
1993.000000	8.060140
1992.000000	8.016688
1991.000000	7.982486
1990.000000	7.964095
1989.000000	7.919245
1988.000000	7.867404
1987.000000	7.837074
1986.000000	7.799216
1985.000000	7.750709
1984.000000	7.727800
1983.000000	7.681445
1982.000000	7.624657
1981.000000	7.610137
1980.000000	7.585615
1979.000000	7.529903
1978.000000	7.493657
1977.000000	7.467092
1976.000000	7.443322
1975.000000	7.385029
1974.000000	7.350397
1973.000000	7.324154
1972.000000	7.281778
1971.000000	7.258116
1970.000000	7.190788
1969.000000	7.172611
1968.000000	7.146476
1967.000000	7.128622
1966.000000	7.079793
1965.000000	7.045376
1964.000000	7.010851
1963.000000	7.018488
1962.000000	6.969228
1961.000000	6.939328
1960.000000	6.935779
1959.000000	6.888456
1958.000000	6.851350
1957.000000	6.821558
1956.000000	6.788001
1955.000000	6.769717
1954.000000	6.752509
1953.000000	6.727664
1952.000000	6.709702
1951.000000	6.660336
1950.000000	6.647967
1949.000000	6.626887
1948.000000	6.611291
1947.000000	6.598708
1946.000000	6.562677
1945.000000	6.573755
1944.000000	6.556117
1943.000000	6.513203
1942.000000	6.530734
1941.000000	6.515569
1940.000000	6.500081
1939.000000	6.492445
1938.000000	6.486530
1937.000000	6.489864
1936.000000	6.506535
1935.000000	6.498361
1934.000000	6.485347
1933.000000	6.517720
1932.000000	6.502663
1931.000000	6.533315
1930.000000	6.554611
1929.000000	6.548373
1928.000000	6.569453
1927.000000	6.609140
1926.000000	6.633232
1925.000000	6.682814
1924.000000	6.708627
1923.000000	6.719705
1922.000000	6.771761
1921.000000	6.819944
1920.000000	6.862105
1919.000000	6.932445
1918.000000	6.979338
1917.000000	7.024295
1916.000000	7.100873
1915.000000	7.139915
1914.000000	7.218536
1913.000000	7.283176
1912.000000	7.376962
1911.000000	7.441602
1910.000000	7.519255
1909.000000	7.596371
1908.000000	7.681875
1907.000000	7.769854
1906.000000	7.887947
1905.000000	8.011741
1904.000000	8.145429
1903.000000	8.253843
1902.000000	8.389252
1901.000000	8.533373
1900.000000	8.663405
1899.000000	8.836888
1898.000000	9.009619
1897.000000	9.184823
1896.000000	9.338301
1895.000000	9.536306
1894.000000	9.700540
1893.000000	9.904031
1892.000000	10.146563
1891.000000	10.421469
1890.000000	10.671207
1889.000000	10.965580
1888.000000	11.236829
1887.000000	11.527008
1886.000000	11.826758
1885.000000	12.161356
1884.000000	12.479283
1883.000000	12.852600
1882.000000	13.247212
1881.000000	13.578906
1880.000000	13.964699
1879.000000	14.298222
1878.000000	14.654653
1877.000000	15.018182
1876.000000	15.364288
1875.000000	15.726097
1874.000000	16.077796
1873.000000	16.444767
1872.000000	16.807329
1871.000000	17.124180
1870.000000	17.442968
1869.000000	17.743686
1868.000000	18.027734
1867.000000	18.268761
1866.000000	18.485158
1865.000000	18.676172
1864.000000	18.860841
1863.000000	19.019482
1862.000000	19.205979
1861.000000	19.377956
1860.000000	19.555957
1859.000000	19.704380
1858.000000	19.864097
1857.000000	20.000474
1856.000000	20.111361
1855.000000	20.194822
1854.000000	20.292266
1853.000000	20.382395
1852.000000	20.448325
1851.000000	20.479193
1850.000000	20.537917
1849.000000	20.601373
1848.000000	20.646976
1847.000000	20.705270
1846.000000	20.723769
1845.000000	20.695267
1844.000000	20.714089
1843.000000	20.713981
1842.000000	20.733771
1841.000000	20.753884
1840.000000	20.758724
1839.000000	20.764531
1838.000000	20.767220
1837.000000	20.758401
1836.000000	20.746462
1835.000000	20.735384
1834.000000	20.706022
1833.000000	20.672143
1832.000000	20.622776
1831.000000	20.602664
1830.000000	20.587606
1829.000000	20.565558
1828.000000	20.531249
1827.000000	20.488765
1826.000000	20.446282
1825.000000	20.417350
1824.000000	20.370134
1823.000000	20.344321
1822.000000	20.332813
1821.000000	20.317648
1820.000000	20.313238
1819.000000	20.292158
1818.000000	20.258924
1817.000000	20.240317
1816.000000	20.212031
1815.000000	20.186111
1814.000000	20.167611
1813.000000	20.153630
1812.000000	20.137819
1811.000000	20.117599
1810.000000	20.092862
1809.000000	20.069200
1808.000000	20.035644
1807.000000	19.980361
1806.000000	19.949171
1805.000000	19.919271
1804.000000	19.872163
1803.000000	19.843984
1802.000000	19.824625
1801.000000	19.796338
1800.000000	19.765040
1799.000000	19.712984
1798.000000	19.671146
1797.000000	19.639418
1796.000000	19.605431
1795.000000	19.578866
1794.000000	19.541975
1793.000000	19.496372
1792.000000	19.464429
1791.000000	19.432808
1790.000000	19.405167
1789.000000	19.380430
1788.000000	19.346336
1787.000000	19.310736
1786.000000	19.273092
1785.000000	19.259648
1784.000000	19.232114
1783.000000	19.190921
1782.000000	19.161344
1781.000000	19.110902
1780.000000	19.069709
1779.000000	19.044649
1778.000000	19.016040
1777.000000	18.976460
1776.000000	18.929782
1775.000000	18.871274
1774.000000	18.829973
1773.000000	18.798245
1772.000000	18.744683
1771.000000	18.680797
1770.000000	18.638206
1769.000000	18.604542
1768.000000	18.542591
1767.000000	18.489675
1766.000000	18.449988
1765.000000	18.408903
1764.000000	18.379756
1763.000000	18.355556
1762.000000	18.349426
1761.000000	18.354803
1760.000000	18.367817
1759.000000	18.403848
1758.000000	18.445148
1757.000000	18.504948
1756.000000	18.556465
1755.000000	18.610350
1754.000000	18.661330
1753.000000	18.702092
1752.000000	18.729196
1751.000000	18.765011
1750.000000	18.763720
1749.000000	18.774906
1748.000000	18.785769
1747.000000	18.785876
1746.000000	18.766409
1745.000000	18.730702
1744.000000	18.695747
1743.000000	18.641648
1742.000000	18.565285
1741.000000	18.484190
1740.000000	18.391049
1739.000000	18.302425
1738.000000	18.208531
1737.000000	18.092374
1736.000000	17.991596
1735.000000	17.928785
1734.000000	17.835967
1733.000000	17.773694
1732.000000	17.753581
1731.000000	17.758636
1730.000000	17.766165
1729.000000	17.802626
1728.000000	17.839731
1727.000000	17.880817
1726.000000	17.941584
1725.000000	17.989123
1724.000000	18.046986
1723.000000	18.110980
1722.000000	18.169919
1721.000000	18.215092
1720.000000	18.267148
1719.000000	18.332540
1718.000000	18.395996
1717.000000	18.454505
1716.000000	18.528824
1715.000000	18.604864
1714.000000	18.691337
1713.000000	18.761462
1712.000000	18.824918
1711.000000	18.908810
1710.000000	18.969254
1709.000000	19.008834
1708.000000	19.045940
1707.000000	19.054114
1706.000000	19.055942
1705.000000	19.063794
1704.000000	19.026365
1703.000000	18.971083
1702.000000	18.949465
1701.000000	18.900420
1700.000000	18.815884
1699.000000	18.737155
1698.000000	18.662943
1697.000000	18.560230
1696.000000	18.485588
1695.000000	18.415894
1694.000000	18.382552
1693.000000	18.386532
1692.000000	18.396211
1691.000000	18.452139
1690.000000	18.529147
1689.000000	18.606047
1688.000000	18.680474
1687.000000	18.768883
1686.000000	18.850408
1685.000000	18.926233
1684.000000	19.004317
1683.000000	19.101760
1682.000000	19.198773
1681.000000	19.369890
1680.000000	19.588438
1679.000000	19.857428
1678.000000	20.127387
1677.000000	20.423050
1676.000000	20.709679
1675.000000	21.003299
1674.000000	21.255404
1673.000000	21.494172
1672.000000	21.706804
1671.000000	21.899432
1670.000000	22.042800
1669.000000	22.218327
1668.000000	22.334377
1667.000000	22.430099
1666.000000	22.534426
1665.000000	22.611111
1664.000000	22.688119
1663.000000	22.755448
1662.000000	22.826755
1661.000000	22.866120
1660.000000	22.936029
1659.000000	22.967220
1658.000000	22.996689
1657.000000	23.014651
1656.000000	23.013467
1655.000000	23.041862
1654.000000	23.014435
1653.000000	23.038312
1652.000000	23.056811
1651.000000	23.017232
1650.000000	23.018092
1649.000000	22.966037
1648.000000	22.951194
1647.000000	22.911507
1646.000000	22.895159
1645.000000	22.847405
1644.000000	22.817506
1643.000000	22.773194
1642.000000	22.741251
1641.000000	22.710383
1640.000000	22.655316
1639.000000	22.621974
1638.000000	22.555291
1637.000000	22.522380
1636.000000	22.472045
1635.000000	22.408158
1634.000000	22.385250
1633.000000	22.302649
1632.000000	22.267909
1631.000000	22.212627
1630.000000	22.143255
1629.000000	22.078508
1628.000000	22.032475
1627.000000	21.970740
1626.000000	21.892011
1625.000000	21.824898
1624.000000	21.757247
1623.000000	21.704976
1622.000000	21.636142
1621.000000	21.566663
1620.000000	21.527083
1619.000000	21.456528
1618.000000	21.412754
1617.000000	21.332950
1616.000000	21.277130
1615.000000	21.221202
1614.000000	21.146022
1613.000000	21.086868
1612.000000	21.040298
1611.000000	20.978562
1610.000000	20.923387
1609.000000	20.854553
1608.000000	20.819599
1607.000000	20.742913
1606.000000	20.680640
1605.000000	20.612559
1604.000000	20.551038
1603.000000	20.486184
1602.000000	20.435957
1601.000000	20.373468
1600.000000	20.308936
1599.000000	20.225475
1598.000000	20.150941
1597.000000	20.097809
1596.000000	20.036182
1595.000000	19.960141
1594.000000	19.904214
1593.000000	19.847856
1592.000000	19.777409
1591.000000	19.737937
1590.000000	19.676416
1589.000000	19.627910
1588.000000	19.565744
1587.000000	19.506267
1586.000000	19.458514
1585.000000	19.400112
1584.000000	19.370965
1583.000000	19.308800
1582.000000	19.270511
1581.000000	19.208130
1580.000000	19.168443
