PE UV       SUBTECH     SPECTRUM    ASCII       PEDS        4.00        
   -1
CICIMAUCR0018-4.Sample.ASC
24/04/25
09:33:39.00
24/04/25
09:33:39.00
Vinicio Soto Monge
C. cupreomarginata
250,000000
1
Lambda 1050
1050L1511233
PerkinElmer UV WinLab 6.3.2.0749 / 2.02.05 Lambda 900 UV/VIS/NIR, Aug  7 2015 09:38:08

0
0
3350/servo 860,8/2
0
0
UV/VIS
1
1
1
DoubleDePol,CommonBeamDepol,RBeamAtt,SBeamAtt,60mm sphere, WB InGaAs Detector
0
0
0
0
Program
Program
3350/servo 860,8/2
3350/0,2 860,8/0,2
3350/0,2 860,8/0,2
0
15.00
 
 
 
0
 
860,8
319,2
860,8
Front
100
on
S:100 R:100
0
0
0
0
 
0
 
 
 
0
 
 
0
0
0
0
0
 
 
 
 
0
0


0
0
#HDR
-1
-1
#GR
nm
%R
1.0
0.0
2500,000000
-1,000000
2251
8
71,686800
5,649200
#DATA
2482.000000	6.987120
2481.000000	6.934871
2480.000000	6.935649
2479.000000	6.885623
2478.000000	6.970556
2477.000000	6.882844
2476.000000	6.902299
2475.000000	6.953102
2474.000000	6.917195
2473.000000	6.904300
2472.000000	6.935871
2471.000000	6.907079
2470.000000	6.917862
2469.000000	6.898963
2468.000000	6.966554
2467.000000	6.907968
2466.000000	6.932870
2465.000000	6.977114
2464.000000	6.948100
2463.000000	7.017024
2462.000000	6.996902
2461.000000	7.019358
2460.000000	7.053487
2459.000000	7.098843
2458.000000	7.134862
2457.000000	7.160430
2456.000000	7.189111
2455.000000	7.236135
2454.000000	7.285939
2453.000000	7.259925
2452.000000	7.329516
2451.000000	7.357086
2450.000000	7.396884
2449.000000	7.427789
2448.000000	7.509052
2447.000000	7.526506
2446.000000	7.544070
2445.000000	7.621554
2444.000000	7.670023
2443.000000	7.699372
2442.000000	7.753844
2441.000000	7.781747
2440.000000	7.813986
2439.000000	7.870014
2438.000000	7.900919
2437.000000	7.939717
2436.000000	7.974290
2435.000000	8.008085
2434.000000	8.031208
2433.000000	8.045104
2432.000000	8.109692
2431.000000	8.121031
2430.000000	8.152825
2429.000000	8.177838
2428.000000	8.222528
2427.000000	8.226085
2426.000000	8.239203
2425.000000	8.276333
2424.000000	8.298455
2423.000000	8.326358
2422.000000	8.344701
2421.000000	8.360931
2420.000000	8.383832
2419.000000	8.387612
2418.000000	8.408289
2417.000000	8.420851
2416.000000	8.436303
2415.000000	8.452311
2414.000000	8.481215
2413.000000	8.514788
2412.000000	8.559811
2411.000000	8.594050
2410.000000	8.630625
2409.000000	8.662085
2408.000000	8.672312
2407.000000	8.682318
2406.000000	8.694546
2405.000000	8.737457
2404.000000	8.761803
2403.000000	8.773364
2402.000000	8.791707
2401.000000	8.811717
2400.000000	8.832394
2399.000000	8.860408
2398.000000	8.885421
2397.000000	8.890535
2396.000000	8.920773
2395.000000	8.952455
2394.000000	8.961460
2393.000000	8.967908
2392.000000	8.975134
2391.000000	8.989363
2390.000000	9.009040
2389.000000	9.019712
2388.000000	9.027160
2387.000000	9.057954
2386.000000	9.061622
2385.000000	9.060066
2384.000000	9.063401
2383.000000	9.058621
2382.000000	9.058732
2381.000000	9.052062
2380.000000	9.048282
2379.000000	9.048504
2378.000000	9.048616
2377.000000	9.037054
2376.000000	9.023714
2375.000000	9.010930
2374.000000	9.008373
2373.000000	9.002926
2372.000000	8.983138
2371.000000	8.952900
2370.000000	8.933557
2369.000000	8.920550
2368.000000	8.904320
2367.000000	8.877306
2366.000000	8.854517
2365.000000	8.825835
2364.000000	8.795598
2363.000000	8.757134
2362.000000	8.729897
2361.000000	8.697992
2360.000000	8.652413
2359.000000	8.628290
2358.000000	8.605723
2357.000000	8.594384
2356.000000	8.574040
2355.000000	8.554808
2354.000000	8.548360
2353.000000	8.548249
2352.000000	8.549806
2351.000000	8.574040
2350.000000	8.595718
2349.000000	8.604834
2348.000000	8.627401
2347.000000	8.656860
2346.000000	8.674202
2345.000000	8.714667
2344.000000	8.758912
2343.000000	8.787371
2342.000000	8.804602
2341.000000	8.824390
2340.000000	8.830504
2339.000000	8.858296
2338.000000	8.881197
2337.000000	8.879418
2336.000000	8.895982
2335.000000	8.898539
2334.000000	8.881308
2333.000000	8.861742
2332.000000	8.862409
2331.000000	8.842288
2330.000000	8.810161
2329.000000	8.791484
2328.000000	8.734566
2327.000000	8.718892
2326.000000	8.683540
2325.000000	8.648856
2324.000000	8.609836
2323.000000	8.565258
2322.000000	8.515344
2321.000000	8.472989
2320.000000	8.415181
2319.000000	8.368157
2318.000000	8.325691
2317.000000	8.270441
2316.000000	8.213523
2315.000000	8.152603
2314.000000	8.105245
2313.000000	8.067560
2312.000000	8.027650
2311.000000	7.991187
2310.000000	7.972622
2309.000000	7.962728
2308.000000	7.930823
2307.000000	7.922486
2306.000000	7.951278
2305.000000	7.940939
2304.000000	7.978848
2303.000000	8.011420
2302.000000	8.048328
2301.000000	8.087792
2300.000000	8.153270
2299.000000	8.201294
2298.000000	8.262659
2297.000000	8.310128
2296.000000	8.363377
2295.000000	8.425298
2294.000000	8.449866
2293.000000	8.496000
2292.000000	8.525793
2291.000000	8.545581
2290.000000	8.567370
2289.000000	8.576931
2288.000000	8.582934
2287.000000	8.569038
2286.000000	8.579265
2285.000000	8.570260
2284.000000	8.528906
2283.000000	8.517900
2282.000000	8.506784
2281.000000	8.494555
2280.000000	8.453645
2279.000000	8.438193
2278.000000	8.418628
2277.000000	8.412069
2276.000000	8.395505
2275.000000	8.373605
2274.000000	8.392948
2273.000000	8.377940
2272.000000	8.390502
2271.000000	8.409178
2270.000000	8.447642
2269.000000	8.467541
2268.000000	8.513343
2267.000000	8.563035
2266.000000	8.625622
2265.000000	8.719892
2264.000000	8.809271
2263.000000	8.898094
2262.000000	9.024937
2261.000000	9.152669
2260.000000	9.282846
2259.000000	9.411578
2258.000000	9.570326
2257.000000	9.708841
2256.000000	9.879928
2255.000000	10.020778
2254.000000	10.181971
2253.000000	10.325711
2252.000000	10.489906
2251.000000	10.586511
2250.000000	10.731029
2249.000000	10.853203
2248.000000	10.985826
2247.000000	11.105442
2246.000000	11.187929
2245.000000	11.289648
2244.000000	11.405818
2243.000000	11.478966
2242.000000	11.563009
2241.000000	11.652388
2240.000000	11.720534
2239.000000	11.791570
2238.000000	11.856270
2237.000000	11.916856
2236.000000	11.948206
2235.000000	12.000232
2234.000000	12.074715
2233.000000	12.085276
2232.000000	12.148975
2231.000000	12.162760
2230.000000	12.200779
2229.000000	12.205559
2228.000000	12.224791
2227.000000	12.257586
2226.000000	12.240688
2225.000000	12.260587
2224.000000	12.251471
2223.000000	12.246802
2222.000000	12.250360
2221.000000	12.237464
2220.000000	12.227682
2219.000000	12.215564
2218.000000	12.216565
2217.000000	12.225014
2216.000000	12.178212
2215.000000	12.176322
2214.000000	12.158091
2213.000000	12.150865
2212.000000	12.134412
2211.000000	12.128298
2210.000000	12.090834
2209.000000	12.073158
2208.000000	12.087277
2207.000000	12.067489
2206.000000	12.040920
2205.000000	12.045033
2204.000000	12.031359
2203.000000	12.025801
2202.000000	12.030803
2201.000000	12.021021
2200.000000	11.998898
2199.000000	11.993562
2198.000000	11.974997
2197.000000	11.970328
2196.000000	11.956988
2195.000000	11.952986
2194.000000	11.961768
2193.000000	11.924193
2192.000000	11.919969
2191.000000	11.934421
2190.000000	11.920636
2189.000000	11.927973
2188.000000	11.917412
2187.000000	11.875168
2186.000000	11.892955
2185.000000	11.862273
2184.000000	11.857937
2183.000000	11.828700
2182.000000	11.837705
2181.000000	11.823809
2180.000000	11.800575
2179.000000	11.766891
2178.000000	11.764890
2177.000000	11.770782
2176.000000	11.769670
2175.000000	11.772338
2174.000000	11.775340
2173.000000	11.779342
2172.000000	11.766224
2171.000000	11.773450
2170.000000	11.786345
2169.000000	11.807356
2168.000000	11.791459
2167.000000	11.811803
2166.000000	11.820252
2165.000000	11.832702
2164.000000	11.837371
2163.000000	11.841262
2162.000000	11.859605
2161.000000	11.867831
2160.000000	11.889064
2159.000000	11.910853
2158.000000	11.925527
2157.000000	11.951541
2156.000000	11.966548
2155.000000	11.970328
2154.000000	12.005791
2153.000000	12.020354
2152.000000	12.040920
2151.000000	12.066711
2150.000000	12.101506
2149.000000	12.108510
2148.000000	12.116958
2147.000000	12.142861
2146.000000	12.166762
2145.000000	12.161648
2144.000000	12.169318
2143.000000	12.185549
2142.000000	12.196999
2141.000000	12.221012
2140.000000	12.227237
2139.000000	12.237798
2138.000000	12.257363
2137.000000	12.274706
2136.000000	12.253917
2135.000000	12.258809
2134.000000	12.272705
2133.000000	12.264812
2132.000000	12.264256
2131.000000	12.255362
2130.000000	12.254918
2129.000000	12.241244
2128.000000	12.225903
2127.000000	12.208672
2126.000000	12.202891
2125.000000	12.194776
2124.000000	12.174543
2123.000000	12.157868
2122.000000	12.142972
2121.000000	12.127186
2120.000000	12.097838
2119.000000	12.069379
2118.000000	12.049146
2117.000000	12.024800
2116.000000	11.988337
2115.000000	11.970662
2114.000000	11.960101
2113.000000	11.934199
2112.000000	11.902627
2111.000000	11.885396
2110.000000	11.854825
2109.000000	11.825143
2108.000000	11.800575
2107.000000	11.766891
2106.000000	11.750772
2105.000000	11.736209
2104.000000	11.711863
2103.000000	11.684627
2102.000000	11.662393
2101.000000	11.629599
2100.000000	11.600806
2099.000000	11.586799
2098.000000	11.561119
2097.000000	11.552337
2096.000000	11.539219
2095.000000	11.521099
2094.000000	11.505202
2093.000000	11.481968
2092.000000	11.462402
2091.000000	11.447172
2090.000000	11.431053
2089.000000	11.416601
2088.000000	11.413377
2087.000000	11.404373
2086.000000	11.379916
2085.000000	11.364130
2084.000000	11.365575
2083.000000	11.340896
2082.000000	11.324110
2081.000000	11.303988
2080.000000	11.282533
2079.000000	11.282199
2078.000000	11.256853
2077.000000	11.243068
2076.000000	11.233841
2075.000000	11.212497
2074.000000	11.188485
2073.000000	11.174033
2072.000000	11.155468
2071.000000	11.141016
2070.000000	11.131567
2069.000000	11.098328
2068.000000	11.083987
2067.000000	11.061976
2066.000000	11.048858
2065.000000	11.041187
2064.000000	11.021177
2063.000000	11.010394
2062.000000	11.018176
2061.000000	11.021955
2060.000000	11.010950
2059.000000	11.018732
2058.000000	11.022734
2057.000000	11.038631
2056.000000	11.045857
2055.000000	11.073760
2054.000000	11.119894
2053.000000	11.149354
2052.000000	11.193821
2051.000000	11.230951
2050.000000	11.288758
2049.000000	11.353569
2048.000000	11.419380
2047.000000	11.504090
2046.000000	11.585132
2045.000000	11.653277
2044.000000	11.724647
2043.000000	11.779008
2042.000000	11.853491
2041.000000	11.941647
2040.000000	12.024244
2039.000000	12.083275
2038.000000	12.159313
2037.000000	12.226348
2036.000000	12.312614
2035.000000	12.368976
2034.000000	12.443792
2033.000000	12.488926
2032.000000	12.529947
2031.000000	12.593313
2030.000000	12.635890
2029.000000	12.708816
2028.000000	12.737275
2027.000000	12.792748
2026.000000	12.834102
2025.000000	12.869009
2024.000000	12.912364
2023.000000	12.949494
2022.000000	12.984957
2021.000000	13.031425
2020.000000	13.050212
2019.000000	13.083118
2018.000000	13.118914
2017.000000	13.126473
2016.000000	13.152264
2015.000000	13.176277
2014.000000	13.202512
2013.000000	13.218854
2012.000000	13.205847
2011.000000	13.216519
2010.000000	13.225524
2009.000000	13.227636
2008.000000	13.220299
2007.000000	13.247869
2006.000000	13.232083
2005.000000	13.236641
2004.000000	13.211739
2003.000000	13.220077
2002.000000	13.197843
2001.000000	13.177166
2000.000000	13.157045
1999.000000	13.141370
1998.000000	13.104129
1997.000000	13.088676
1996.000000	13.063664
1995.000000	13.041319
1994.000000	13.026978
1993.000000	12.985513
1992.000000	12.946048
1991.000000	12.929706
1990.000000	12.884906
1989.000000	12.835992
1988.000000	12.795749
1987.000000	12.766845
1986.000000	12.731272
1985.000000	12.672242
1984.000000	12.638558
1983.000000	12.610544
1982.000000	12.553737
1981.000000	12.520275
1980.000000	12.488815
1979.000000	12.447349
1978.000000	12.391543
1977.000000	12.361639
1976.000000	12.322397
1975.000000	12.278152
1974.000000	12.256808
1973.000000	12.212229
1972.000000	12.164205
1971.000000	12.119849
1970.000000	12.098282
1969.000000	12.040253
1968.000000	12.019242
1967.000000	11.998898
1966.000000	11.953097
1965.000000	11.916523
1964.000000	11.895957
1963.000000	11.865608
1962.000000	11.814248
1961.000000	11.780676
1960.000000	11.758331
1959.000000	11.722313
1958.000000	11.700190
1957.000000	11.653722
1956.000000	11.615480
1955.000000	11.588578
1954.000000	11.555894
1953.000000	11.536662
1952.000000	11.501978
1951.000000	11.468072
1950.000000	11.467071
1949.000000	11.434388
1948.000000	11.410376
1947.000000	11.382362
1946.000000	11.362685
1945.000000	11.343453
1944.000000	11.317773
1943.000000	11.319774
1942.000000	11.313771
1941.000000	11.315216
1940.000000	11.333448
1939.000000	11.331113
1938.000000	11.325110
1937.000000	11.326666
1936.000000	11.340674
1935.000000	11.360906
1934.000000	11.385585
1933.000000	11.441058
1932.000000	11.474408
1931.000000	11.493085
1930.000000	11.537996
1929.000000	11.585687
1928.000000	11.652610
1927.000000	11.699190
1926.000000	11.756441
1925.000000	11.827033
1924.000000	11.873723
1923.000000	11.968883
1922.000000	12.041698
1921.000000	12.130076
1920.000000	12.216676
1919.000000	12.297606
1918.000000	12.403216
1917.000000	12.530947
1916.000000	12.616435
1915.000000	12.744834
1914.000000	12.880681
1913.000000	12.981177
1912.000000	13.098237
1911.000000	13.230638
1910.000000	13.368597
1909.000000	13.490214
1908.000000	13.624616
1907.000000	13.783030
1906.000000	13.960899
1905.000000	14.118090
1904.000000	14.260496
1903.000000	14.424802
1902.000000	14.578770
1901.000000	14.774314
1900.000000	14.966523
1899.000000	15.151729
1898.000000	15.339936
1897.000000	15.508133
1896.000000	15.683000
1895.000000	15.872652
1894.000000	16.081203
1893.000000	16.305428
1892.000000	16.553221
1891.000000	16.759326
1890.000000	16.986665
1889.000000	17.239571
1888.000000	17.500705
1887.000000	17.801080
1886.000000	18.127691
1885.000000	18.551018
1884.000000	18.957559
1883.000000	19.357207
1882.000000	19.800433
1881.000000	20.229652
1880.000000	20.657982
1879.000000	21.115548
1878.000000	21.527648
1877.000000	21.922293
1876.000000	22.308046
1875.000000	22.665005
1874.000000	23.017519
1873.000000	23.335236
1872.000000	23.619826
1871.000000	23.864506
1870.000000	24.099181
1869.000000	24.290612
1868.000000	24.432018
1867.000000	24.532847
1866.000000	24.632120
1865.000000	24.727613
1864.000000	24.803652
1863.000000	24.896588
1862.000000	24.972294
1861.000000	25.023653
1860.000000	25.045887
1859.000000	25.065897
1858.000000	25.072678
1857.000000	25.054113
1856.000000	25.031212
1855.000000	25.003309
1854.000000	24.931495
1853.000000	24.860570
1852.000000	24.821216
1851.000000	24.792202
1850.000000	24.747735
1849.000000	24.669806
1848.000000	24.576981
1847.000000	24.477930
1846.000000	24.394332
1845.000000	24.336414
1844.000000	24.323740
1843.000000	24.307955
1842.000000	24.275938
1841.000000	24.232694
1840.000000	24.174442
1839.000000	24.116413
1838.000000	24.051046
1837.000000	23.970449
1836.000000	23.885628
1835.000000	23.800251
1834.000000	23.717098
1833.000000	23.646506
1832.000000	23.576693
1831.000000	23.477420
1830.000000	23.374145
1829.000000	23.276651
1828.000000	23.186827
1827.000000	23.108565
1826.000000	23.026634
1825.000000	22.965826
1824.000000	22.939368
1823.000000	22.922581
1822.000000	22.892233
1821.000000	22.851212
1820.000000	22.801520
1819.000000	22.774617
1818.000000	22.755718
1817.000000	22.744935
1816.000000	22.740711
1815.000000	22.731484
1814.000000	22.730483
1813.000000	22.717254
1812.000000	22.685794
1811.000000	22.640993
1810.000000	22.589634
1809.000000	22.546723
1808.000000	22.511705
1807.000000	22.459123
1806.000000	22.402427
1805.000000	22.344620
1804.000000	22.305489
1803.000000	22.279476
1802.000000	22.221335
1801.000000	22.164194
1800.000000	22.110945
1799.000000	22.060253
1798.000000	22.014451
1797.000000	21.975876
1796.000000	21.927741
1795.000000	21.885941
1794.000000	21.838584
1793.000000	21.780332
1792.000000	21.724081
1791.000000	21.666607
1790.000000	21.615025
1789.000000	21.550103
1788.000000	21.491852
1787.000000	21.425596
1786.000000	21.342220
1785.000000	21.265736
1784.000000	21.200925
1783.000000	21.128110
1782.000000	21.046736
1781.000000	20.988484
1780.000000	20.896214
1779.000000	20.784046
1778.000000	20.707674
1777.000000	20.614960
1776.000000	20.503236
1775.000000	20.375060
1774.000000	20.270895
1773.000000	20.152168
1772.000000	20.034553
1771.000000	19.918716
1770.000000	19.779534
1769.000000	19.682929
1768.000000	19.595329
1767.000000	19.504727
1766.000000	19.423130
1765.000000	19.407788
1764.000000	19.373326
1763.000000	19.391447
1762.000000	19.444252
1761.000000	19.498279
1760.000000	19.562645
1759.000000	19.646910
1758.000000	19.732510
1757.000000	19.770974
1756.000000	19.830226
1755.000000	19.869580
1754.000000	19.885921
1753.000000	19.880141
1752.000000	19.851793
1751.000000	19.822778
1750.000000	19.807881
1749.000000	19.737068
1748.000000	19.646910
1747.000000	19.558421
1746.000000	19.462928
1745.000000	19.329971
1744.000000	19.170890
1743.000000	18.988130
1742.000000	18.755011
1741.000000	18.571362
1740.000000	18.365590
1739.000000	18.165266
1738.000000	18.010631
1737.000000	17.873784
1736.000000	17.776957
1735.000000	17.732045
1734.000000	17.749276
1733.000000	17.781959
1732.000000	17.850327
1731.000000	17.951045
1730.000000	18.057100
1729.000000	18.167600
1728.000000	18.298334
1727.000000	18.404832
1726.000000	18.475980
1725.000000	18.553019
1724.000000	18.600821
1723.000000	18.598153
1722.000000	18.631504
1721.000000	18.636062
1720.000000	18.650513
1719.000000	18.672525
1718.000000	18.692312
1717.000000	18.712211
1716.000000	18.768018
1715.000000	18.831050
1714.000000	18.893526
1713.000000	18.932101
1712.000000	18.943218
1711.000000	18.946553
1710.000000	18.948332
1709.000000	18.944219
1708.000000	18.908089
1707.000000	18.881187
1706.000000	18.841277
1705.000000	18.765906
1704.000000	18.712990
1703.000000	18.601155
1702.000000	18.464863
1701.000000	18.342467
1700.000000	18.188833
1699.000000	18.050874
1698.000000	17.920585
1697.000000	17.840433
1696.000000	17.820646
1695.000000	17.824870
1694.000000	17.939706
1693.000000	18.060101
1692.000000	18.196170
1691.000000	18.352806
1690.000000	18.485207
1689.000000	18.568694
1688.000000	18.586481
1687.000000	18.614495
1686.000000	18.616607
1685.000000	18.656072
1684.000000	18.809372
1683.000000	19.029707
1682.000000	19.401785
1681.000000	19.877695
1680.000000	20.386955
1679.000000	20.933900
1678.000000	21.446717
1677.000000	21.955644
1676.000000	22.354180
1675.000000	22.695465
1674.000000	23.062875
1673.000000	23.331568
1672.000000	23.520998
1671.000000	23.745223
1670.000000	23.938989
1669.000000	24.074169
1668.000000	24.177666
1667.000000	24.294837
1666.000000	24.365651
1665.000000	24.431907
1664.000000	24.503499
1663.000000	24.546854
1662.000000	24.575869
1661.000000	24.602216
1660.000000	24.634343
1659.000000	24.636233
1658.000000	24.632454
1657.000000	24.625116
1656.000000	24.595546
1655.000000	24.586208
1654.000000	24.552969
1653.000000	24.520619
1652.000000	24.476040
1651.000000	24.441467
1650.000000	24.396778
1649.000000	24.341416
1648.000000	24.270380
1647.000000	24.207904
1646.000000	24.141092
1645.000000	24.076503
1644.000000	24.001687
1643.000000	23.935098
1642.000000	23.858170
1641.000000	23.785577
1640.000000	23.703313
1639.000000	23.625495
1638.000000	23.556016
1637.000000	23.483645
1636.000000	23.397713
1635.000000	23.325898
1634.000000	23.235852
1633.000000	23.140359
1632.000000	23.050980
1631.000000	22.980389
1630.000000	22.876113
1629.000000	22.787290
1628.000000	22.699801
1627.000000	22.602196
1626.000000	22.514707
1625.000000	22.426662
1624.000000	22.370077
1623.000000	22.276474
1622.000000	22.193320
1621.000000	22.116392
1620.000000	22.053360
1619.000000	21.980323
1618.000000	21.869822
1617.000000	21.800120
1616.000000	21.730529
1615.000000	21.670609
1614.000000	21.586344
1613.000000	21.501523
1612.000000	21.454388
1611.000000	21.419037
1610.000000	21.355337
1609.000000	21.280744
1608.000000	21.214821
1607.000000	21.154124
1606.000000	21.089313
1605.000000	21.043734
1604.000000	20.985816
1603.000000	20.923228
1602.000000	20.867978
1601.000000	20.818619
1600.000000	20.754253
1599.000000	20.716456
1598.000000	20.653090
1597.000000	20.605844
1596.000000	20.578497
