PE UV       SUBTECH     SPECTRUM    ASCII       PEDS        4.00        
   -1
CICIMAUCR0021-1.Sample.ASC
24/04/17
11:15:20.00
24/04/17
11:15:20.00
Vinicio Soto Monge
C. resplendens. 
250,000000
1
Lambda 1050
1050L1511233
PerkinElmer UV WinLab 6.3.2.0749 / 2.02.05 Lambda 900 UV/VIS/NIR, Aug  7 2015 09:38:08

0
0
3350/servo 860,8/2
0
0
UV/VIS
1
1
1
DoubleDePol,CommonBeamDepol,RBeamAtt,SBeamAtt,60mm sphere, WB InGaAs Detector
0
0
0
0
Program
Program
3350/servo 860,8/2
3350/0,2 860,8/0,2
3350/0,2 860,8/0,2
0
15.00
 
 
 
0
 
860,8
319,2
860,8
Front
100
on
S:100 R:100
0
0
0
0
 
0
 
 
 
0
 
 
0
0
0
0
0
 
 
 
 
0
0


0
0
#HDR
-1
-1
#GR
nm
%R
1.0
0.0
2500,000000
-1,000000
2251
8
50,947000
3,696900
#DATA
2482.000000	5.672781
2481.000000	5.672678
2480.000000	5.624901
2479.000000	5.662073
2478.000000	5.667633
2477.000000	5.613369
2476.000000	5.711600
2475.000000	5.653114
2474.000000	5.652908
2473.000000	5.597615
2472.000000	5.637566
2471.000000	5.638081
2470.000000	5.649511
2469.000000	5.622018
2468.000000	5.613884
2467.000000	5.655689
2466.000000	5.692448
2465.000000	5.712835
2464.000000	5.681019
2463.000000	5.712218
2462.000000	5.745785
2461.000000	5.748359
2460.000000	5.772145
2459.000000	5.791091
2458.000000	5.816421
2457.000000	5.848238
2456.000000	5.882732
2455.000000	5.930920
2454.000000	5.945748
2453.000000	5.981786
2452.000000	6.023076
2451.000000	6.059218
2450.000000	6.078576
2449.000000	6.111834
2448.000000	6.150859
2447.000000	6.175880
2446.000000	6.214081
2445.000000	6.246309
2444.000000	6.290585
2443.000000	6.315195
2442.000000	6.346394
2441.000000	6.384389
2440.000000	6.432063
2439.000000	6.450391
2438.000000	6.473970
2437.000000	6.509185
2436.000000	6.530911
2435.000000	6.557477
2434.000000	6.603606
2433.000000	6.607622
2432.000000	6.640469
2431.000000	6.670638
2430.000000	6.672182
2429.000000	6.689996
2428.000000	6.715017
2427.000000	6.721401
2426.000000	6.759396
2425.000000	6.773296
2424.000000	6.772164
2423.000000	6.808923
2422.000000	6.808408
2421.000000	6.798729
2420.000000	6.743333
2419.000000	6.705647
2418.000000	6.680420
2417.000000	6.701116
2416.000000	6.704411
2415.000000	6.730668
2414.000000	6.739935
2413.000000	6.722225
2412.000000	6.722739
2411.000000	6.734993
2410.000000	6.734478
2409.000000	6.731904
2408.000000	6.710486
2407.000000	6.732315
2406.000000	6.761043
2405.000000	6.756513
2404.000000	6.734890
2403.000000	6.743333
2402.000000	6.761249
2401.000000	6.778239
2400.000000	6.775665
2399.000000	6.760425
2398.000000	6.760014
2397.000000	6.775253
2396.000000	6.781122
2395.000000	6.792963
2394.000000	6.800480
2393.000000	6.798112
2392.000000	6.784417
2391.000000	6.773502
2390.000000	6.784108
2389.000000	6.793890
2388.000000	6.784623
2387.000000	6.781431
2386.000000	6.768354
2385.000000	6.765574
2384.000000	6.752806
2383.000000	6.754144
2382.000000	6.744569
2381.000000	6.718209
2380.000000	6.714708
2379.000000	6.708221
2378.000000	6.696071
2377.000000	6.672285
2376.000000	6.660238
2375.000000	6.646132
2374.000000	6.623685
2373.000000	6.604945
2372.000000	6.599693
2371.000000	6.567774
2370.000000	6.529264
2369.000000	6.500639
2368.000000	6.470881
2367.000000	6.453995
2366.000000	6.420942
2365.000000	6.379034
2364.000000	6.348144
2363.000000	6.299955
2362.000000	6.262887
2361.000000	6.235704
2360.000000	6.206976
2359.000000	6.180925
2358.000000	6.159920
2357.000000	6.145504
2356.000000	6.128824
2355.000000	6.109363
2354.000000	6.086092
2353.000000	6.085989
2352.000000	6.085063
2351.000000	6.097110
2350.000000	6.102670
2349.000000	6.116468
2348.000000	6.138606
2347.000000	6.153845
2346.000000	6.173512
2345.000000	6.173409
2344.000000	6.174850
2343.000000	6.193178
2342.000000	6.208623
2341.000000	6.207903
2340.000000	6.200798
2339.000000	6.191634
2338.000000	6.195649
2337.000000	6.181440
2336.000000	6.160435
2335.000000	6.145813
2334.000000	6.121410
2333.000000	6.100405
2332.000000	6.077340
2331.000000	6.026165
2330.000000	5.996408
2329.000000	5.972931
2328.000000	5.938128
2327.000000	5.896426
2326.000000	5.858225
2325.000000	5.811272
2324.000000	5.772557
2323.000000	5.737857
2322.000000	5.705834
2321.000000	5.640964
2320.000000	5.584229
2319.000000	5.553339
2318.000000	5.519566
2317.000000	5.462419
2316.000000	5.422365
2315.000000	5.354921
2314.000000	5.302614
2313.000000	5.289949
2312.000000	5.267193
2311.000000	5.235685
2310.000000	5.189143
2309.000000	5.191718
2308.000000	5.181730
2307.000000	5.176478
2306.000000	5.203971
2305.000000	5.206236
2304.000000	5.222814
2303.000000	5.252674
2302.000000	5.284182
2301.000000	5.305394
2300.000000	5.339476
2299.000000	5.377059
2298.000000	5.407949
2297.000000	5.421026
2296.000000	5.443576
2295.000000	5.489705
2294.000000	5.488058
2293.000000	5.497943
2292.000000	5.516683
2291.000000	5.502370
2290.000000	5.496089
2289.000000	5.517197
2288.000000	5.517403
2287.000000	5.485484
2286.000000	5.453976
2285.000000	5.454902
2284.000000	5.430808
2283.000000	5.398888
2282.000000	5.380045
2281.000000	5.349155
2280.000000	5.321148
2279.000000	5.295612
2278.000000	5.274092
2277.000000	5.277078
2276.000000	5.269458
2275.000000	5.276357
2274.000000	5.246599
2273.000000	5.241863
2272.000000	5.255763
2271.000000	5.259264
2270.000000	5.261735
2269.000000	5.294479
2268.000000	5.327326
2267.000000	5.372116
2266.000000	5.392298
2265.000000	5.448930
2264.000000	5.525023
2263.000000	5.601837
2262.000000	5.659292
2261.000000	5.762260
2260.000000	5.849988
2259.000000	5.949249
2258.000000	6.048818
2257.000000	6.139532
2256.000000	6.249913
2255.000000	6.345673
2254.000000	6.456157
2253.000000	6.557786
2252.000000	6.646441
2251.000000	6.750747
2250.000000	6.827457
2249.000000	6.926821
2248.000000	7.016608
2247.000000	7.082404
2246.000000	7.166838
2245.000000	7.233355
2244.000000	7.289678
2243.000000	7.365565
2242.000000	7.430228
2241.000000	7.507763
2240.000000	7.560276
2239.000000	7.605067
2238.000000	7.687029
2237.000000	7.759930
2236.000000	7.812855
2235.000000	7.837567
2234.000000	7.902951
2233.000000	7.946713
2232.000000	8.006948
2231.000000	8.044120
2230.000000	8.078717
2229.000000	8.109607
2228.000000	8.141836
2227.000000	8.181169
2226.000000	8.217002
2225.000000	8.236360
2224.000000	8.264470
2223.000000	8.271781
2222.000000	8.306275
2221.000000	8.298655
2220.000000	8.316468
2219.000000	8.344475
2218.000000	8.353022
2217.000000	8.329236
2216.000000	8.355287
2215.000000	8.374439
2214.000000	8.363113
2213.000000	8.367849
2212.000000	8.374027
2211.000000	8.391738
2210.000000	8.378146
2209.000000	8.372792
2208.000000	8.370732
2207.000000	8.368673
2206.000000	8.382367
2205.000000	8.411095
2204.000000	8.373306
2203.000000	8.386486
2202.000000	8.368879
2201.000000	8.391326
2200.000000	8.388340
2199.000000	8.378764
2198.000000	8.378867
2197.000000	8.381647
2196.000000	8.365069
2195.000000	8.346638
2194.000000	8.332943
2193.000000	8.352610
2192.000000	8.340769
2191.000000	8.358685
2190.000000	8.346226
2189.000000	8.343343
2188.000000	8.317189
2187.000000	8.292168
2186.000000	8.313585
2185.000000	8.291756
2184.000000	8.283519
2183.000000	8.277032
2182.000000	8.257674
2181.000000	8.269721
2180.000000	8.238213
2179.000000	8.232859
2178.000000	8.241096
2177.000000	8.235433
2176.000000	8.244288
2175.000000	8.232344
2174.000000	8.236463
2173.000000	8.240890
2172.000000	8.240273
2171.000000	8.262102
2170.000000	8.267147
2169.000000	8.261484
2168.000000	8.255100
2167.000000	8.272295
2166.000000	8.270751
2165.000000	8.274252
2164.000000	8.297008
2163.000000	8.307407
2162.000000	8.310290
2161.000000	8.328413
2160.000000	8.336341
2159.000000	8.346020
2158.000000	8.357655
2157.000000	8.342931
2156.000000	8.375057
2155.000000	8.379381
2154.000000	8.373924
2153.000000	8.369291
2152.000000	8.396680
2151.000000	8.411713
2150.000000	8.401313
2149.000000	8.409757
2148.000000	8.421701
2147.000000	8.434160
2146.000000	8.439720
2145.000000	8.443530
2144.000000	8.442706
2143.000000	8.448575
2142.000000	8.441265
2141.000000	8.440544
2140.000000	8.440338
2139.000000	8.436837
2138.000000	8.428291
2137.000000	8.435911
2136.000000	8.422731
2135.000000	8.391635
2134.000000	8.371247
2133.000000	8.375263
2132.000000	8.359715
2131.000000	8.326765
2130.000000	8.301744
2129.000000	8.279812
2128.000000	8.263646
2127.000000	8.242950
2126.000000	8.213192
2125.000000	8.186421
2124.000000	8.154295
2123.000000	8.136172
2122.000000	8.109710
2121.000000	8.078511
2120.000000	8.058226
2119.000000	8.034750
2118.000000	8.012612
2117.000000	7.999329
2116.000000	7.986046
2115.000000	7.972351
2114.000000	7.954126
2113.000000	7.935180
2112.000000	7.934665
2111.000000	7.935901
2110.000000	7.929929
2109.000000	7.922927
2108.000000	7.920868
2107.000000	7.905217
2106.000000	7.891007
2105.000000	7.887094
2104.000000	7.878651
2103.000000	7.872885
2102.000000	7.870826
2101.000000	7.863000
2100.000000	7.844157
2099.000000	7.838185
2098.000000	7.846422
2097.000000	7.849511
2096.000000	7.844775
2095.000000	7.840656
2094.000000	7.848173
2093.000000	7.868869
2092.000000	7.889360
2091.000000	7.896773
2090.000000	7.907070
2089.000000	7.938578
2088.000000	7.961128
2087.000000	7.973175
2086.000000	8.001800
2085.000000	8.030116
2084.000000	8.041443
2083.000000	8.050607
2082.000000	8.065846
2081.000000	8.084586
2080.000000	8.101472
2079.000000	8.109916
2078.000000	8.108371
2077.000000	8.133392
2076.000000	8.134628
2075.000000	8.146160
2074.000000	8.145337
2073.000000	8.139673
2072.000000	8.159443
2071.000000	8.186935
2070.000000	8.194143
2069.000000	8.208044
2068.000000	8.209588
2067.000000	8.204852
2066.000000	8.203719
2065.000000	8.216281
2064.000000	8.217414
2063.000000	8.238007
2062.000000	8.249128
2061.000000	8.255203
2060.000000	8.247480
2059.000000	8.281048
2058.000000	8.313791
2057.000000	8.314512
2056.000000	8.337989
2055.000000	8.377734
2054.000000	8.402858
2053.000000	8.427467
2052.000000	8.483481
2051.000000	8.525904
2050.000000	8.570489
2049.000000	8.614147
2048.000000	8.668823
2047.000000	8.729368
2046.000000	8.783734
2045.000000	8.840572
2044.000000	8.916768
2043.000000	8.993891
2042.000000	9.061231
2041.000000	9.122600
2040.000000	9.188190
2039.000000	9.257796
2038.000000	9.334507
2037.000000	9.391036
2036.000000	9.429957
2035.000000	9.503064
2034.000000	9.559593
2033.000000	9.606135
2032.000000	9.669666
2031.000000	9.718472
2030.000000	9.771809
2029.000000	9.795492
2028.000000	9.838429
2027.000000	9.869525
2026.000000	9.937278
2025.000000	9.978877
2024.000000	10.009355
2023.000000	10.059500
2022.000000	10.094715
2021.000000	10.150935
2020.000000	10.193872
2019.000000	10.227749
2018.000000	10.263787
2017.000000	10.289632
2016.000000	10.318257
2015.000000	10.342557
2014.000000	10.384362
2013.000000	10.405470
2012.000000	10.431830
2011.000000	10.450055
2010.000000	10.466530
2009.000000	10.469619
2008.000000	10.488771
2007.000000	10.495876
2006.000000	10.503495
2005.000000	10.520279
2004.000000	10.514307
2003.000000	10.503701
2002.000000	10.507408
2001.000000	10.535930
2000.000000	10.488153
1999.000000	10.482593
1998.000000	10.485888
1997.000000	10.470340
1996.000000	10.446966
1995.000000	10.450261
1994.000000	10.429462
1993.000000	10.421533
1992.000000	10.367887
1991.000000	10.376639
1990.000000	10.344308
1989.000000	10.306004
1988.000000	10.305592
1987.000000	10.285204
1986.000000	10.220850
1985.000000	10.221056
1984.000000	10.178736
1983.000000	10.166277
1982.000000	10.118706
1981.000000	10.097701
1980.000000	10.073195
1979.000000	10.062177
1978.000000	10.020578
1977.000000	9.991850
1976.000000	9.964873
1975.000000	9.901445
1974.000000	9.865715
1973.000000	9.846666
1972.000000	9.818041
1971.000000	9.817218
1970.000000	9.776031
1969.000000	9.734226
1968.000000	9.708175
1967.000000	9.660707
1966.000000	9.619829
1965.000000	9.626110
1964.000000	9.573082
1963.000000	9.524790
1962.000000	9.506050
1961.000000	9.482574
1960.000000	9.446020
1959.000000	9.427177
1958.000000	9.397729
1957.000000	9.370854
1956.000000	9.338934
1955.000000	9.310721
1954.000000	9.272417
1953.000000	9.255222
1952.000000	9.237614
1951.000000	9.198899
1950.000000	9.161419
1949.000000	9.157197
1948.000000	9.118790
1947.000000	9.114671
1946.000000	9.105713
1945.000000	9.072249
1944.000000	9.068027
1943.000000	9.054641
1942.000000	9.028488
1941.000000	9.041565
1940.000000	9.030753
1939.000000	9.050008
1938.000000	9.055156
1937.000000	9.077191
1936.000000	9.077809
1935.000000	9.080795
1934.000000	9.103036
1933.000000	9.115289
1932.000000	9.142370
1931.000000	9.150916
1930.000000	9.193647
1929.000000	9.235246
1928.000000	9.277051
1927.000000	9.344495
1926.000000	9.390212
1925.000000	9.443549
1924.000000	9.472998
1923.000000	9.514288
1922.000000	9.575965
1921.000000	9.669871
1920.000000	9.766455
1919.000000	9.868290
1918.000000	9.923068
1917.000000	9.963020
1916.000000	10.008016
1915.000000	10.083079
1914.000000	10.186356
1913.000000	10.357796
1912.000000	10.486403
1911.000000	10.571145
1910.000000	10.658255
1909.000000	10.698618
1908.000000	10.752264
1907.000000	10.847406
1906.000000	11.003711
1905.000000	11.196054
1904.000000	11.343503
1903.000000	11.457900
1902.000000	11.563853
1901.000000	11.675573
1900.000000	11.833010
1899.000000	12.057170
1898.000000	12.265473
1897.000000	12.421571
1896.000000	12.532158
1895.000000	12.639553
1894.000000	12.791945
1893.000000	12.946808
1892.000000	13.166952
1891.000000	13.392245
1890.000000	13.594473
1889.000000	13.771474
1888.000000	13.944459
1887.000000	14.094894
1886.000000	14.256553
1885.000000	14.494922
1884.000000	14.783849
1883.000000	15.060522
1882.000000	15.313307
1881.000000	15.580198
1880.000000	15.788089
1879.000000	15.987125
1878.000000	16.229511
1877.000000	16.440800
1876.000000	16.623670
1875.000000	16.828266
1874.000000	16.998265
1873.000000	17.194418
1872.000000	17.399838
1871.000000	17.572411
1870.000000	17.762077
1869.000000	17.904172
1868.000000	18.008684
1867.000000	18.058314
1866.000000	18.039265
1865.000000	18.028762
1864.000000	17.994371
1863.000000	17.935371
1862.000000	17.893154
1861.000000	17.907261
1860.000000	17.921985
1859.000000	17.951640
1858.000000	17.961422
1857.000000	17.933312
1856.000000	17.856395
1855.000000	17.812840
1854.000000	17.794718
1853.000000	17.756105
1852.000000	17.705651
1851.000000	17.607008
1850.000000	17.458014
1849.000000	17.384804
1848.000000	17.431243
1847.000000	17.516191
1846.000000	17.500952
1845.000000	17.365653
1844.000000	17.203067
1843.000000	17.081154
1842.000000	17.061693
1841.000000	17.122341
1840.000000	17.138198
1839.000000	17.079918
1838.000000	17.010621
1837.000000	17.007841
1836.000000	16.999912
1835.000000	16.965521
1834.000000	16.877690
1833.000000	16.732918
1832.000000	16.629436
1831.000000	16.556947
1830.000000	16.513598
1829.000000	16.454494
1828.000000	16.378916
1827.000000	16.333405
1826.000000	16.298705
1825.000000	16.249074
1824.000000	16.169789
1823.000000	16.059100
1822.000000	16.013073
1821.000000	16.052407
1820.000000	16.098330
1819.000000	16.092358
1818.000000	16.031401
1817.000000	15.968282
1816.000000	15.968179
1815.000000	15.981256
1814.000000	15.985478
1813.000000	15.968179
1812.000000	15.939760
1811.000000	15.925860
1810.000000	15.910106
1809.000000	15.877053
1808.000000	15.841015
1807.000000	15.833292
1806.000000	15.830821
1805.000000	15.802505
1804.000000	15.759979
1803.000000	15.725691
1802.000000	15.703553
1801.000000	15.696757
1800.000000	15.678944
1799.000000	15.663396
1798.000000	15.624268
1797.000000	15.583184
1796.000000	15.568151
1795.000000	15.562282
1794.000000	15.519242
1793.000000	15.489278
1792.000000	15.469302
1791.000000	15.443149
1790.000000	15.397019
1789.000000	15.338637
1788.000000	15.311659
1787.000000	15.279431
1786.000000	15.232992
1785.000000	15.188922
1784.000000	15.120140
1783.000000	15.067318
1782.000000	15.017688
1781.000000	14.963424
1780.000000	14.925944
1779.000000	14.864884
1778.000000	14.798470
1777.000000	14.721553
1776.000000	14.642577
1775.000000	14.568338
1774.000000	14.495025
1773.000000	14.407091
1772.000000	14.300417
1771.000000	14.209188
1770.000000	14.120224
1769.000000	14.025185
1768.000000	13.941267
1767.000000	13.835004
1766.000000	13.768179
1765.000000	13.724829
1764.000000	13.672625
1763.000000	13.645750
1762.000000	13.627422
1761.000000	13.648325
1760.000000	13.677155
1759.000000	13.726786
1758.000000	13.751292
1757.000000	13.778681
1756.000000	13.791552
1755.000000	13.794126
1754.000000	13.781358
1753.000000	13.778990
1752.000000	13.756749
1751.000000	13.718754
1750.000000	13.684775
1749.000000	13.673243
1748.000000	13.625054
1747.000000	13.548858
1746.000000	13.476163
1745.000000	13.408411
1744.000000	13.315122
1743.000000	13.180544
1742.000000	13.056571
1741.000000	12.884101
1740.000000	12.724090
1739.000000	12.556253
1738.000000	12.406332
1737.000000	12.265267
1736.000000	12.153856
1735.000000	12.084559
1734.000000	12.034105
1733.000000	12.004862
1732.000000	12.025147
1731.000000	12.042857
1730.000000	12.091149
1729.000000	12.120289
1728.000000	12.162608
1727.000000	12.215534
1726.000000	12.257338
1725.000000	12.284110
1724.000000	12.299246
1723.000000	12.316648
1722.000000	12.308616
1721.000000	12.301203
1720.000000	12.288846
1719.000000	12.284316
1718.000000	12.283080
1717.000000	12.316648
1716.000000	12.347435
1715.000000	12.400360
1714.000000	12.440826
1713.000000	12.460596
1712.000000	12.510226
1711.000000	12.564799
1710.000000	12.578185
1709.000000	12.610414
1708.000000	12.602794
1707.000000	12.643466
1706.000000	12.623284
1705.000000	12.633169
1704.000000	12.637597
1703.000000	12.632140
1702.000000	12.612473
1701.000000	12.532364
1700.000000	12.464509
1699.000000	12.395521
1698.000000	12.331990
1697.000000	12.267120
1696.000000	12.246115
1695.000000	12.278756
1694.000000	12.316751
1693.000000	12.380487
1692.000000	12.477997
1691.000000	12.567579
1690.000000	12.649129
1689.000000	12.631316
1688.000000	12.588173
1687.000000	12.523509
1686.000000	12.450505
1685.000000	12.418482
1684.000000	12.401184
1683.000000	12.509608
1682.000000	12.734695
1681.000000	13.033712
1680.000000	13.413868
1679.000000	13.808130
1678.000000	14.176650
1677.000000	14.557218
1676.000000	14.902982
1675.000000	15.157929
1674.000000	15.380030
1673.000000	15.573300
1672.000000	15.732899
1671.000000	15.903928
1670.000000	15.998349
1669.000000	16.122630
1668.000000	16.250928
1667.000000	16.384065
1666.000000	16.482398
1665.000000	16.602252
1664.000000	16.727667
1663.000000	16.842166
1662.000000	16.941530
1661.000000	17.039761
1660.000000	17.125842
1659.000000	17.192255
1658.000000	17.237973
1657.000000	17.291310
1656.000000	17.343000
1655.000000	17.378215
1654.000000	17.410237
1653.000000	17.427227
1652.000000	17.419504
1651.000000	17.427742
1650.000000	17.427227
1649.000000	17.410855
1648.000000	17.396852
1647.000000	17.371728
1646.000000	17.351958
1645.000000	17.326628
1644.000000	17.297797
1643.000000	17.263715
1642.000000	17.229633
1641.000000	17.193285
1640.000000	17.125224
1639.000000	17.083625
1638.000000	17.042541
1637.000000	16.990028
1636.000000	16.946575
1635.000000	16.912596
1634.000000	16.875013
1633.000000	16.822191
1632.000000	16.772458
1631.000000	16.726534
1630.000000	16.689260
1629.000000	16.636747
1628.000000	16.576717
1627.000000	16.535118
1626.000000	16.476941
1625.000000	16.410527
1624.000000	16.357911
1623.000000	16.313635
1622.000000	16.251134
1621.000000	16.209329
1620.000000	16.167112
1619.000000	16.114805
1618.000000	16.049421
1617.000000	16.003497
1616.000000	15.960354
1615.000000	15.909076
1614.000000	15.850900
1613.000000	15.815582
1612.000000	15.780367
1611.000000	15.742372
1610.000000	15.697375
1609.000000	15.665764
1608.000000	15.646509
1607.000000	15.600174
1606.000000	15.573197
1605.000000	15.533966
1604.000000	15.492779
1603.000000	15.465802
1602.000000	15.450356
1601.000000	15.418437
1600.000000	15.386105
1599.000000	15.342035
1598.000000	15.318249
1597.000000	15.293949
1596.000000	15.247202
1595.000000	15.224240
1594.000000	15.207559
1593.000000	15.182332
1592.000000	15.160606
1591.000000	15.144440
1590.000000	15.127039
1589.000000	15.115507
1588.000000	15.091412
1587.000000	15.078335
1586.000000	15.064950
1585.000000	15.058566
1584.000000	15.039723
1583.000000	15.029426
