PE UV       SUBTECH     SPECTRUM    ASCII       PEDS        4.00        
   -1
C.AURI.INBI-TX3.ASC
23/11/29
13:33:10.00
23/11/29
13:33:10.00
Vinicio Soto Monge
C. AURIGANS INBIO DESCABEZADO
250,000000
1
Lambda 1050
1050L1511233
PerkinElmer UV WinLab 6.3.2.0749 / 2.02.05 Lambda 900 UV/VIS/NIR, Aug  7 2015 09:38:08

0
0
3350/servo 860,8/2
0
0
UV/VIS
1
1
1
DoubleDePol,CommonBeamDepol,RBeamAtt,SBeamAtt,60mm sphere, WB InGaAs Detector
0
0
0
0
Program
Program
3350/servo 860,8/2
3350/0,4 860,8/0,4
3350/0,4 860,8/0,4
0
20.00
 
 
 
0
 
860,8
319,2
860,8
Front
100
on
S:100 R:100
0
0
0
0
 
0
 
 
 
0
 
 
0
0
0
0
0
 
 
 
 
0
0


0
0
#HDR
-1
-1
#GR
nm
%R
1.0
0.0
2200,000000
-1,000000
1951
8
73,936923
0,295565
#DATA
284.000000	5.560172
285.000000	5.548624
286.000000	5.536512
287.000000	5.522013
288.000000	5.510276
289.000000	5.499053
290.000000	5.489704
291.000000	5.480706
292.000000	5.471783
293.000000	5.466953
294.000000	5.461658
295.000000	5.458475
296.000000	5.456208
297.000000	5.453103
298.000000	5.451422
299.000000	5.450227
300.000000	5.451136
301.000000	5.450768
302.000000	5.451166
303.000000	5.451429
304.000000	5.455044
305.000000	5.456829
306.000000	5.456638
307.000000	5.459220
308.000000	5.463256
309.000000	5.467904
310.000000	5.471511
311.000000	5.474899
312.000000	5.478068
313.000000	5.480363
314.000000	5.482577
315.000000	5.484289
316.000000	5.485890
317.000000	5.483723
318.000000	5.484712
319.000000	5.487616
320.000000	5.490813
321.000000	5.487079
322.000000	5.486275
323.000000	5.481707
324.000000	5.481160
325.000000	5.479824
326.000000	5.479398
327.000000	5.476462
328.000000	5.473096
329.000000	5.470742
330.000000	5.467615
331.000000	5.462855
332.000000	5.458770
333.000000	5.453882
334.000000	5.448875
335.000000	5.445196
336.000000	5.443365
337.000000	5.440263
338.000000	5.437319
339.000000	5.432542
340.000000	5.428197
341.000000	5.427939
342.000000	5.427857
343.000000	5.426097
344.000000	5.423208
345.000000	5.421811
346.000000	5.422947
347.000000	5.423602
348.000000	5.423077
349.000000	5.424565
350.000000	5.427094
351.000000	5.428448
352.000000	5.431485
353.000000	5.434326
354.000000	5.436317
355.000000	5.440062
356.000000	5.450255
357.000000	5.459562
358.000000	5.472841
359.000000	5.479568
360.000000	5.486740
361.000000	5.493935
362.000000	5.505071
363.000000	5.513540
364.000000	5.523229
365.000000	5.534182
366.000000	5.543585
367.000000	5.552179
368.000000	5.562720
369.000000	5.574011
370.000000	5.583981
371.000000	5.592652
372.000000	5.602011
373.000000	5.611289
374.000000	5.620601
375.000000	5.631143
376.000000	5.638431
377.000000	5.644181
378.000000	5.651573
379.000000	5.659549
380.000000	5.667967
381.000000	5.673792
382.000000	5.680398
383.000000	5.687979
384.000000	5.694251
385.000000	5.700722
386.000000	5.708593
387.000000	5.715968
388.000000	5.722359
389.000000	5.727603
390.000000	5.731036
391.000000	5.734148
392.000000	5.737191
393.000000	5.739956
394.000000	5.745339
395.000000	5.749395
396.000000	5.753027
397.000000	5.755488
398.000000	5.759269
399.000000	5.761698
400.000000	5.763066
401.000000	5.765547
402.000000	5.769204
403.000000	5.772575
404.000000	5.774929
405.000000	5.776213
406.000000	5.778648
407.000000	5.780907
408.000000	5.783071
409.000000	5.786407
410.000000	5.789150
411.000000	5.792513
412.000000	5.794936
413.000000	5.797465
414.000000	5.800084
415.000000	5.802616
416.000000	5.805224
417.000000	5.807907
418.000000	5.810631
419.000000	5.813718
420.000000	5.817466
421.000000	5.821593
422.000000	5.825844
423.000000	5.830325
424.000000	5.834726
425.000000	5.839292
426.000000	5.843959
427.000000	5.848787
428.000000	5.853653
429.000000	5.858826
430.000000	5.864572
431.000000	5.870139
432.000000	5.875362
433.000000	5.880435
434.000000	5.885561
435.000000	5.890747
436.000000	5.896322
437.000000	5.902297
438.000000	5.908165
439.000000	5.913966
440.000000	5.920368
441.000000	5.927304
442.000000	5.934223
443.000000	5.940877
444.000000	5.947362
445.000000	5.953754
446.000000	5.960257
447.000000	5.966759
448.000000	5.973129
449.000000	5.979251
450.000000	5.985191
451.000000	5.991140
452.000000	5.997421
453.000000	6.003732
454.000000	6.009791
455.000000	6.015433
456.000000	6.020901
457.000000	6.026596
458.000000	6.032173
459.000000	6.037564
460.000000	6.042842
461.000000	6.048286
462.000000	6.053740
463.000000	6.059110
464.000000	6.064270
465.000000	6.069200
466.000000	6.074238
467.000000	6.079527
468.000000	6.085150
469.000000	6.090990
470.000000	6.096977
471.000000	6.103122
472.000000	6.109268
473.000000	6.115577
474.000000	6.122318
475.000000	6.129442
476.000000	6.136437
477.000000	6.143946
478.000000	6.152030
479.000000	6.160456
480.000000	6.169383
481.000000	6.178518
482.000000	6.188118
483.000000	6.198746
484.000000	6.210515
485.000000	6.223266
486.000000	6.236938
487.000000	6.251393
488.000000	6.266950
489.000000	6.283805
490.000000	6.302256
491.000000	6.322277
492.000000	6.344117
493.000000	6.367828
494.000000	6.393564
495.000000	6.421990
496.000000	6.452560
497.000000	6.485115
498.000000	6.520153
499.000000	6.557265
500.000000	6.596614
501.000000	6.638450
502.000000	6.682769
503.000000	6.729676
504.000000	6.779219
505.000000	6.831690
506.000000	6.887648
507.000000	6.947267
508.000000	7.011679
509.000000	7.081941
510.000000	7.159798
511.000000	7.248015
512.000000	7.349682
513.000000	7.469876
514.000000	7.614509
515.000000	7.791425
516.000000	8.008543
517.000000	8.275839
518.000000	8.601829
519.000000	8.996594
520.000000	9.467494
521.000000	10.019728
522.000000	10.653157
523.000000	11.364068
524.000000	12.144189
525.000000	12.981446
526.000000	13.863441
527.000000	14.779497
528.000000	15.721148
529.000000	16.682203
530.000000	17.657855
531.000000	18.646122
532.000000	19.645108
533.000000	20.652621
534.000000	21.668645
535.000000	22.692097
536.000000	23.720236
537.000000	24.751289
538.000000	25.784320
539.000000	26.817862
540.000000	27.850128
541.000000	28.879826
542.000000	29.906126
543.000000	30.929128
544.000000	31.948749
545.000000	32.963819
546.000000	33.973287
547.000000	34.973815
548.000000	35.960849
549.000000	36.928391
550.000000	37.867597
551.000000	38.770570
552.000000	39.626550
553.000000	40.426429
554.000000	41.160065
555.000000	41.817521
556.000000	42.394448
557.000000	42.889505
558.000000	43.306222
559.000000	43.651816
560.000000	43.940293
561.000000	44.182752
562.000000	44.389854
563.000000	44.571601
564.000000	44.733672
565.000000	44.881455
566.000000	45.016814
567.000000	45.142530
568.000000	45.261219
569.000000	45.370815
570.000000	45.472527
571.000000	45.567415
572.000000	45.657083
573.000000	45.740709
574.000000	45.819973
575.000000	45.894438
576.000000	45.962354
577.000000	46.025017
578.000000	46.079574
579.000000	46.125321
580.000000	46.164930
581.000000	46.197426
582.000000	46.227504
583.000000	46.254982
584.000000	46.281627
585.000000	46.305948
586.000000	46.327225
587.000000	46.341600
588.000000	46.346578
589.000000	46.340914
590.000000	46.323316
591.000000	46.293899
592.000000	46.254639
593.000000	46.207865
594.000000	46.159542
595.000000	46.113780
596.000000	46.077765
597.000000	46.054124
598.000000	46.042269
599.000000	46.039889
600.000000	46.039227
601.000000	46.036665
602.000000	46.026912
603.000000	46.003009
604.000000	45.964930
605.000000	45.908944
606.000000	45.836297
607.000000	45.749149
608.000000	45.654474
609.000000	45.558457
610.000000	45.471236
611.000000	45.398856
612.000000	45.342712
613.000000	45.303766
614.000000	45.278542
615.000000	45.257108
616.000000	45.233951
617.000000	45.199924
618.000000	45.150469
619.000000	45.079243
620.000000	44.988129
621.000000	44.876248
622.000000	44.750497
623.000000	44.618592
624.000000	44.489960
625.000000	44.376109
626.000000	44.285643
627.000000	44.219845
628.000000	44.177652
629.000000	44.152848
630.000000	44.132024
631.000000	44.105387
632.000000	44.062291
633.000000	43.998388
634.000000	43.910065
635.000000	43.799812
636.000000	43.671467
637.000000	43.531153
638.000000	43.389818
639.000000	43.257592
640.000000	43.146744
641.000000	43.066267
642.000000	43.019657
643.000000	43.001395
644.000000	43.000803
645.000000	43.006086
646.000000	43.007168
647.000000	42.996883
648.000000	42.970414
649.000000	42.927563
650.000000	42.873418
651.000000	42.810960
652.000000	42.745042
653.000000	42.683696
654.000000	42.636622
655.000000	42.609754
656.000000	42.609008
657.000000	42.634922
658.000000	42.685315
659.000000	42.750543
660.000000	42.819678
661.000000	42.882103
662.000000	42.930379
663.000000	42.961136
664.000000	42.971559
665.000000	42.969215
666.000000	42.955603
667.000000	42.939747
668.000000	42.923347
669.000000	42.913516
670.000000	42.919614
671.000000	42.944415
672.000000	42.990990
673.000000	43.056517
674.000000	43.135275
675.000000	43.218443
676.000000	43.293637
677.000000	43.352834
678.000000	43.392529
679.000000	43.415526
680.000000	43.422629
681.000000	43.417766
682.000000	43.406349
683.000000	43.394143
684.000000	43.385190
685.000000	43.383431
686.000000	43.393906
687.000000	43.420386
688.000000	43.459632
689.000000	43.511992
690.000000	43.574551
691.000000	43.640480
692.000000	43.703832
693.000000	43.758002
694.000000	43.801255
695.000000	43.834835
696.000000	43.857780
697.000000	43.874747
698.000000	43.888880
699.000000	43.905584
700.000000	43.927330
701.000000	43.957120
702.000000	43.994280
703.000000	44.045164
704.000000	44.111356
705.000000	44.186742
706.000000	44.268070
707.000000	44.350317
708.000000	44.432048
709.000000	44.509422
710.000000	44.579461
711.000000	44.645311
712.000000	44.707464
713.000000	44.768825
714.000000	44.833324
715.000000	44.904163
716.000000	44.982791
717.000000	45.069877
718.000000	45.166909
719.000000	45.273053
720.000000	45.384512
721.000000	45.499484
722.000000	45.616115
723.000000	45.733927
724.000000	45.848111
725.000000	45.956315
726.000000	46.059081
727.000000	46.161187
728.000000	46.267637
729.000000	46.376866
730.000000	46.490214
731.000000	46.611222
732.000000	46.740510
733.000000	46.874989
734.000000	47.012347
735.000000	47.150866
736.000000	47.291055
737.000000	47.430533
738.000000	47.565093
739.000000	47.694387
740.000000	47.821651
741.000000	47.947186
742.000000	48.072525
743.000000	48.198759
744.000000	48.326899
745.000000	48.458979
746.000000	48.593994
747.000000	48.733781
748.000000	48.876404
749.000000	49.017622
750.000000	49.156156
751.000000	49.292654
752.000000	49.427991
753.000000	49.561308
754.000000	49.691926
755.000000	49.819485
756.000000	49.945587
757.000000	50.068125
758.000000	50.186067
759.000000	50.305978
760.000000	50.428876
761.000000	50.553834
762.000000	50.677151
763.000000	50.797299
764.000000	50.916632
765.000000	51.034037
766.000000	51.150119
767.000000	51.264277
768.000000	51.375433
769.000000	51.484664
770.000000	51.592158
771.000000	51.696212
772.000000	51.799346
773.000000	51.903545
774.000000	52.005513
775.000000	52.107813
776.000000	52.206900
777.000000	52.305313
778.000000	52.400978
779.000000	52.493569
780.000000	52.583908
781.000000	52.670919
782.000000	52.752733
783.000000	52.834779
784.000000	52.914927
785.000000	52.995080
786.000000	53.080285
787.000000	53.162179
788.000000	53.240144
789.000000	53.314866
790.000000	53.391049
791.000000	53.472771
792.000000	53.551942
793.000000	53.630204
794.000000	53.699490
795.000000	53.764590
796.000000	53.824883
797.000000	53.886441
798.000000	53.946324
799.000000	54.006731
800.000000	54.069136
801.000000	54.127911
802.000000	54.188528
803.000000	54.245895
804.000000	54.304936
805.000000	54.362355
806.000000	54.416933
807.000000	54.471206
808.000000	54.524163
809.000000	54.577845
810.000000	54.626497
811.000000	54.678289
812.000000	54.719786
813.000000	54.761976
814.000000	54.804618
815.000000	54.840681
816.000000	54.877417
817.000000	54.916373
818.000000	54.947015
819.000000	54.979576
820.000000	55.015254
821.000000	55.043434
822.000000	55.071010
823.000000	55.098235
824.000000	55.122668
825.000000	55.147007
826.000000	55.160328
827.000000	55.184366
828.000000	55.205048
829.000000	55.223694
830.000000	55.236584
831.000000	55.247780
832.000000	55.259225
833.000000	55.263890
834.000000	55.262403
835.000000	55.257169
836.000000	55.257896
837.000000	55.253113
838.000000	55.250900
839.000000	55.241754
840.000000	55.233265
841.000000	55.224007
842.000000	55.204859
843.000000	55.181237
844.000000	55.163114
845.000000	55.139541
846.000000	55.101142
847.000000	55.081676
848.000000	55.052537
849.000000	55.018742
850.000000	54.983345
851.000000	54.946013
852.000000	54.906652
853.000000	54.869273
854.000000	54.828695
855.000000	54.794410
856.000000	54.764736
857.000000	54.697321
858.000000	54.550327
859.000000	54.522199
860.000000	54.499940
861.000000	54.467187
862.000000	54.392410
863.000000	54.326440
864.000000	54.278928
865.000000	54.219932
866.000000	54.141359
867.000000	54.060853
868.000000	53.958810
869.000000	53.905147
870.000000	53.864994
871.000000	53.816261
872.000000	53.740840
873.000000	53.652053
874.000000	53.594255
875.000000	53.577584
876.000000	53.528350
877.000000	53.483084
878.000000	53.430821
879.000000	53.372015
880.000000	53.339183
881.000000	53.294818
882.000000	53.213249
883.000000	53.165501
884.000000	53.107886
885.000000	53.049087
886.000000	52.991298
887.000000	52.924459
888.000000	52.889596
889.000000	52.814151
890.000000	52.771230
891.000000	52.719841
892.000000	52.660106
893.000000	52.658003
894.000000	52.560941
895.000000	52.472786
896.000000	52.364203
897.000000	52.297967
898.000000	52.249356
899.000000	52.170341
900.000000	52.077630
901.000000	51.989360
902.000000	51.926993
903.000000	51.878987
904.000000	51.778705
905.000000	51.654754
906.000000	51.555607
907.000000	51.454715
908.000000	51.363340
909.000000	51.282308
910.000000	51.160237
911.000000	51.054231
912.000000	50.923147
913.000000	50.819462
914.000000	50.731976
915.000000	50.609924
916.000000	50.526550
917.000000	50.466359
918.000000	50.360591
919.000000	50.269382
920.000000	50.155159
921.000000	50.052645
922.000000	49.934223
923.000000	49.791775
924.000000	49.683686
925.000000	49.540471
926.000000	49.409070
927.000000	49.313712
928.000000	49.233508
929.000000	49.106372
930.000000	48.971416
931.000000	48.881797
932.000000	48.769373
933.000000	48.636981
934.000000	48.557323
935.000000	48.457738
936.000000	48.402772
937.000000	48.302822
938.000000	48.214048
939.000000	48.099410
940.000000	48.027669
941.000000	47.925259
942.000000	47.847861
943.000000	47.776581
944.000000	47.656556
945.000000	47.523730
946.000000	47.407540
947.000000	47.332569
948.000000	47.247632
949.000000	47.120216
950.000000	47.001710
951.000000	46.892837
952.000000	46.790522
953.000000	46.694862
954.000000	46.564539
955.000000	46.492840
956.000000	46.417539
957.000000	46.363634
958.000000	46.262443
959.000000	46.173591
960.000000	46.069341
961.000000	45.942682
962.000000	45.847182
963.000000	45.737181
964.000000	45.661396
965.000000	45.571839
966.000000	45.465236
967.000000	45.363746
968.000000	45.273215
969.000000	45.182422
970.000000	45.111809
971.000000	45.003907
972.000000	44.918872
973.000000	44.837559
974.000000	44.785701
975.000000	44.688519
976.000000	44.581748
977.000000	44.495505
978.000000	44.402408
979.000000	44.298090
980.000000	44.207642
981.000000	44.141978
982.000000	44.063977
983.000000	43.958583
984.000000	43.883885
985.000000	43.836094
986.000000	43.761928
987.000000	43.655791
988.000000	43.565209
989.000000	43.506458
990.000000	43.395033
991.000000	43.276834
992.000000	43.166181
993.000000	43.077102
994.000000	42.991925
995.000000	42.934480
996.000000	42.883732
997.000000	42.805045
998.000000	42.770518
999.000000	42.741496
1000.000000	42.723119
1001.000000	42.716039
1002.000000	42.663028
1003.000000	42.591371
1004.000000	42.496746
1005.000000	42.426684
1006.000000	42.390659
1007.000000	42.334690
1008.000000	42.279927
1009.000000	42.223379
1010.000000	42.143964
1011.000000	42.082982
1012.000000	42.002802
1013.000000	41.926166
1014.000000	41.887264
1015.000000	41.870470
1016.000000	41.837252
1017.000000	41.802055
1018.000000	41.801972
1019.000000	41.785214
1020.000000	41.708236
1021.000000	41.649919
1022.000000	41.590516
1023.000000	41.520225
1024.000000	41.473778
1025.000000	41.461180
1026.000000	41.449831
1027.000000	41.453915
1028.000000	41.423577
1029.000000	41.369460
1030.000000	41.341190
1031.000000	41.333675
1032.000000	41.299004
1033.000000	41.249386
1034.000000	41.213938
1035.000000	41.189834
1036.000000	41.143477
1037.000000	41.118528
1038.000000	41.117178
1039.000000	41.108844
1040.000000	41.099434
1041.000000	41.047050
1042.000000	41.017966
1043.000000	40.986412
1044.000000	40.921013
1045.000000	40.894049
1046.000000	40.877514
1047.000000	40.898725
1048.000000	40.923478
1049.000000	40.896651
1050.000000	40.862846
1051.000000	40.812691
1052.000000	40.727789
1053.000000	40.638901
1054.000000	40.587511
1055.000000	40.571069
1056.000000	40.518301
1057.000000	40.519941
1058.000000	40.523952
1059.000000	40.498869
1060.000000	40.465280
1061.000000	40.416876
1062.000000	40.351276
1063.000000	40.346283
1064.000000	40.366997
1065.000000	40.334040
1066.000000	40.278428
1067.000000	40.255368
1068.000000	40.230642
1069.000000	40.190156
1070.000000	40.147461
1071.000000	40.104275
1072.000000	40.113016
1073.000000	40.043644
1074.000000	39.964875
1075.000000	39.912714
1076.000000	39.890481
1077.000000	39.860825
1078.000000	39.860352
1079.000000	39.871317
1080.000000	39.866540
1081.000000	39.862891
1082.000000	39.776230
1083.000000	39.759312
1084.000000	39.780268
1085.000000	39.789844
1086.000000	39.809456
1087.000000	39.843077
1088.000000	39.850886
1089.000000	39.820412
1090.000000	39.819932
1091.000000	39.840989
1092.000000	39.812390
1093.000000	39.770159
1094.000000	39.730838
1095.000000	39.725732
1096.000000	39.721075
1097.000000	39.705728
1098.000000	39.726687
1099.000000	39.735899
1100.000000	39.718990
1101.000000	39.704011
1102.000000	39.706625
1103.000000	39.706603
1104.000000	39.712337
1105.000000	39.680403
1106.000000	39.676647
1107.000000	39.626464
1108.000000	39.680157
1109.000000	39.667267
1110.000000	39.689873
1111.000000	39.680661
1112.000000	39.640786
1113.000000	39.609590
1114.000000	39.546950
1115.000000	39.544778
1116.000000	39.524741
1117.000000	39.596254
1118.000000	39.571592
1119.000000	39.526163
1120.000000	39.487180
1121.000000	39.411207
1122.000000	39.416128
1123.000000	39.412191
1124.000000	39.439338
1125.000000	39.458535
1126.000000	39.435609
1127.000000	39.490265
1128.000000	39.514098
1129.000000	39.539865
1130.000000	39.488532
1131.000000	39.470932
1132.000000	39.468021
1133.000000	39.421495
1134.000000	39.373309
1135.000000	39.342367
1136.000000	39.332741
1137.000000	39.263260
1138.000000	39.283069
1139.000000	39.242720
1140.000000	39.201583
1141.000000	39.184067
1142.000000	39.185665
1143.000000	39.162814
1144.000000	39.170942
1145.000000	39.097375
1146.000000	39.059344
1147.000000	39.057596
1148.000000	39.009276
1149.000000	39.035731
1150.000000	38.967112
1151.000000	38.955115
1152.000000	38.855883
1153.000000	38.799704
1154.000000	38.776795
1155.000000	38.767713
1156.000000	38.792851
1157.000000	38.736003
1158.000000	38.704530
1159.000000	38.633079
1160.000000	38.515277
1161.000000	38.490184
1162.000000	38.414655
1163.000000	38.376082
1164.000000	38.334428
1165.000000	38.339329
1166.000000	38.289877
1167.000000	38.262832
1168.000000	38.236192
1169.000000	38.173561
1170.000000	38.149215
1171.000000	38.161519
1172.000000	38.190075
1173.000000	38.153853
1174.000000	38.119987
1175.000000	38.074523
1176.000000	38.014975
1177.000000	37.983626
1178.000000	37.896388
1179.000000	37.885827
1180.000000	37.888571
1181.000000	37.895223
1182.000000	37.878082
1183.000000	37.892602
1184.000000	37.875091
1185.000000	37.888987
1186.000000	37.852227
1187.000000	37.826591
1188.000000	37.821942
1189.000000	37.807049
1190.000000	37.776956
1191.000000	37.731356
1192.000000	37.707680
1193.000000	37.713185
1194.000000	37.687424
1195.000000	37.719983
1196.000000	37.718698
1197.000000	37.693546
1198.000000	37.651758
1199.000000	37.631041
1200.000000	37.602700
1201.000000	37.604047
1202.000000	37.542876
1203.000000	37.490120
