PE UV       SUBTECH     SPECTRUM    ASCII       PEDS        4.00        
   -1
S.BELT.1063-TX3.ASC
23/11/29
16:25:54.00
23/11/29
16:25:54.00
Vinicio Soto Monge
STRIGIDA BELTI INBIO0004211063
250,000000
1
Lambda 1050
1050L1511233
PerkinElmer UV WinLab 6.3.2.0749 / 2.02.05 Lambda 900 UV/VIS/NIR, Aug  7 2015 09:38:08

0
0
3350/servo 860,8/2
0
0
UV/VIS
1
1
1
DoubleDePol,CommonBeamDepol,RBeamAtt,SBeamAtt,60mm sphere, WB InGaAs Detector
0
0
0
0
Program
Program
3350/servo 860,8/2
3350/0,4 860,8/0,4
3350/0,4 860,8/0,4
0
20.00
 
 
 
0
 
860,8
319,2
860,8
Front
100
on
S:100 R:100
0
0
0
0
 
0
 
 
 
0
 
 
0
0
0
0
0
 
 
 
 
0
0


0
0
#HDR
-1
-1
#GR
nm
%R
1.0
0.0
2200,000000
-1,000000
1951
8
69,176726
0,292731
#DATA
284.000000	8.427853
285.000000	8.410235
286.000000	8.391418
287.000000	8.372116
288.000000	8.353046
289.000000	8.333723
290.000000	8.314364
291.000000	8.295344
292.000000	8.277287
293.000000	8.257854
294.000000	8.239587
295.000000	8.218950
296.000000	8.199801
297.000000	8.180174
298.000000	8.162195
299.000000	8.144796
300.000000	8.127093
301.000000	8.108585
302.000000	8.091157
303.000000	8.073268
304.000000	8.056192
305.000000	8.038158
306.000000	8.020349
307.000000	8.002757
308.000000	7.984440
309.000000	7.965635
310.000000	7.946784
311.000000	7.927773
312.000000	7.910103
313.000000	7.889890
314.000000	7.870698
315.000000	7.850687
316.000000	7.831294
317.000000	7.817230
318.000000	7.803263
319.000000	7.794525
320.000000	7.781564
321.000000	7.767083
322.000000	7.758452
323.000000	7.742294
324.000000	7.727870
325.000000	7.716887
326.000000	7.702312
327.000000	7.687031
328.000000	7.671265
329.000000	7.656471
330.000000	7.643147
331.000000	7.628711
332.000000	7.615024
333.000000	7.601615
334.000000	7.586450
335.000000	7.571886
336.000000	7.557794
337.000000	7.544532
338.000000	7.532030
339.000000	7.516064
340.000000	7.501421
341.000000	7.489841
342.000000	7.478770
343.000000	7.466090
344.000000	7.452951
345.000000	7.442292
346.000000	7.433043
347.000000	7.422565
348.000000	7.413377
349.000000	7.404761
350.000000	7.397530
351.000000	7.389656
352.000000	7.377582
353.000000	7.365296
354.000000	7.347088
355.000000	7.334733
356.000000	7.324092
357.000000	7.307070
358.000000	7.299940
359.000000	7.290706
360.000000	7.279513
361.000000	7.270385
362.000000	7.260197
363.000000	7.251231
364.000000	7.241468
365.000000	7.231343
366.000000	7.223033
367.000000	7.214951
368.000000	7.205614
369.000000	7.198361
370.000000	7.190666
371.000000	7.182644
372.000000	7.174194
373.000000	7.165899
374.000000	7.158789
375.000000	7.149898
376.000000	7.137438
377.000000	7.122135
378.000000	7.108330
379.000000	7.096111
380.000000	7.082492
381.000000	7.067870
382.000000	7.053395
383.000000	7.039269
384.000000	7.024167
385.000000	7.009391
386.000000	6.994522
387.000000	6.978773
388.000000	6.963873
389.000000	6.949970
390.000000	6.934687
391.000000	6.919858
392.000000	6.905314
393.000000	6.889348
394.000000	6.874229
395.000000	6.858943
396.000000	6.843520
397.000000	6.829573
398.000000	6.816345
399.000000	6.802976
400.000000	6.789963
401.000000	6.775758
402.000000	6.760930
403.000000	6.746984
404.000000	6.733461
405.000000	6.719988
406.000000	6.707237
407.000000	6.693679
408.000000	6.680939
409.000000	6.670255
410.000000	6.659807
411.000000	6.651568
412.000000	6.645379
413.000000	6.639529
414.000000	6.633800
415.000000	6.628585
416.000000	6.623790
417.000000	6.619356
418.000000	6.615130
419.000000	6.611071
420.000000	6.607228
421.000000	6.603613
422.000000	6.600115
423.000000	6.596836
424.000000	6.594063
425.000000	6.591516
426.000000	6.588942
427.000000	6.586890
428.000000	6.585141
429.000000	6.583348
430.000000	6.581856
431.000000	6.580688
432.000000	6.579450
433.000000	6.578265
434.000000	6.577583
435.000000	6.577125
436.000000	6.576914
437.000000	6.576825
438.000000	6.576630
439.000000	6.576490
440.000000	6.576726
441.000000	6.577147
442.000000	6.577808
443.000000	6.578286
444.000000	6.579220
445.000000	6.580600
446.000000	6.582274
447.000000	6.584407
448.000000	6.586623
449.000000	6.589017
450.000000	6.590871
451.000000	6.593032
452.000000	6.595780
453.000000	6.598855
454.000000	6.602114
455.000000	6.605440
456.000000	6.608673
457.000000	6.612553
458.000000	6.616887
459.000000	6.621020
460.000000	6.624877
461.000000	6.629018
462.000000	6.633293
463.000000	6.637959
464.000000	6.643059
465.000000	6.648384
466.000000	6.654169
467.000000	6.660332
468.000000	6.666649
469.000000	6.673454
470.000000	6.680678
471.000000	6.688373
472.000000	6.696817
473.000000	6.705937
474.000000	6.715937
475.000000	6.726633
476.000000	6.738166
477.000000	6.750471
478.000000	6.763558
479.000000	6.777264
480.000000	6.791485
481.000000	6.806489
482.000000	6.822318
483.000000	6.839525
484.000000	6.858086
485.000000	6.878046
486.000000	6.899275
487.000000	6.921494
488.000000	6.945170
489.000000	6.970614
490.000000	6.997648
491.000000	7.026468
492.000000	7.057044
493.000000	7.089419
494.000000	7.123905
495.000000	7.160760
496.000000	7.199588
497.000000	7.240617
498.000000	7.283970
499.000000	7.330211
500.000000	7.378879
501.000000	7.430071
502.000000	7.484491
503.000000	7.542362
504.000000	7.603360
505.000000	7.667718
506.000000	7.735635
507.000000	7.806975
508.000000	7.882090
509.000000	7.961234
510.000000	8.044374
511.000000	8.131532
512.000000	8.223319
513.000000	8.319826
514.000000	8.421187
515.000000	8.527802
516.000000	8.639182
517.000000	8.755377
518.000000	8.876414
519.000000	9.002160
520.000000	9.133446
521.000000	9.269955
522.000000	9.411461
523.000000	9.557882
524.000000	9.708881
525.000000	9.864374
526.000000	10.024095
527.000000	10.187942
528.000000	10.355374
529.000000	10.525949
530.000000	10.699573
531.000000	10.875870
532.000000	11.054093
533.000000	11.233647
534.000000	11.413821
535.000000	11.594740
536.000000	11.775339
537.000000	11.955104
538.000000	12.133294
539.000000	12.309914
540.000000	12.483748
541.000000	12.654042
542.000000	12.820089
543.000000	12.981163
544.000000	13.136751
545.000000	13.286169
546.000000	13.429177
547.000000	13.564934
548.000000	13.692077
549.000000	13.810138
550.000000	13.918527
551.000000	14.017429
552.000000	14.105565
553.000000	14.182781
554.000000	14.249185
555.000000	14.304348
556.000000	14.348140
557.000000	14.380583
558.000000	14.401327
559.000000	14.411658
560.000000	14.412043
561.000000	14.402689
562.000000	14.383255
563.000000	14.355015
564.000000	14.318722
565.000000	14.274160
566.000000	14.223121
567.000000	14.166286
568.000000	14.104618
569.000000	14.039011
570.000000	13.969978
571.000000	13.898902
572.000000	13.826859
573.000000	13.754581
574.000000	13.682562
575.000000	13.612555
576.000000	13.544991
577.000000	13.481250
578.000000	13.421815
579.000000	13.366838
580.000000	13.317314
581.000000	13.272582
582.000000	13.233793
583.000000	13.201710
584.000000	13.176554
585.000000	13.158156
586.000000	13.146953
587.000000	13.142513
588.000000	13.145121
589.000000	13.154632
590.000000	13.170367
591.000000	13.192401
592.000000	13.220983
593.000000	13.255797
594.000000	13.295802
595.000000	13.340593
596.000000	13.390359
597.000000	13.445268
598.000000	13.504193
599.000000	13.566647
600.000000	13.632389
601.000000	13.702283
602.000000	13.775340
603.000000	13.851432
604.000000	13.929813
605.000000	14.010320
606.000000	14.092678
607.000000	14.176721
608.000000	14.262168
609.000000	14.348382
610.000000	14.435222
611.000000	14.522690
612.000000	14.610288
613.000000	14.697921
614.000000	14.785452
615.000000	14.873205
616.000000	14.960902
617.000000	15.048475
618.000000	15.135873
619.000000	15.222293
620.000000	15.308737
621.000000	15.395334
622.000000	15.482153
623.000000	15.569258
624.000000	15.656039
625.000000	15.743286
626.000000	15.831307
627.000000	15.919626
628.000000	16.008195
629.000000	16.097076
630.000000	16.186755
631.000000	16.277279
632.000000	16.367755
633.000000	16.460088
634.000000	16.552933
635.000000	16.647625
636.000000	16.742654
637.000000	16.838813
638.000000	16.935837
639.000000	17.034041
640.000000	17.133301
641.000000	17.234274
642.000000	17.336529
643.000000	17.439378
644.000000	17.543270
645.000000	17.647102
646.000000	17.750789
647.000000	17.855297
648.000000	17.960383
649.000000	18.065139
650.000000	18.169039
651.000000	18.273703
652.000000	18.376906
653.000000	18.480028
654.000000	18.583589
655.000000	18.686431
656.000000	18.787896
657.000000	18.889216
658.000000	18.991244
659.000000	19.093712
660.000000	19.196434
661.000000	19.299075
662.000000	19.402417
663.000000	19.507241
664.000000	19.613482
665.000000	19.721944
666.000000	19.831025
667.000000	19.941767
668.000000	20.053799
669.000000	20.169180
670.000000	20.286644
671.000000	20.405121
672.000000	20.524934
673.000000	20.645274
674.000000	20.765348
675.000000	20.885609
676.000000	21.005014
677.000000	21.123873
678.000000	21.242051
679.000000	21.358264
680.000000	21.474301
681.000000	21.589402
682.000000	21.702210
683.000000	21.813843
684.000000	21.924504
685.000000	22.034504
686.000000	22.143300
687.000000	22.251839
688.000000	22.358219
689.000000	22.464136
690.000000	22.570005
691.000000	22.677791
692.000000	22.786496
693.000000	22.894429
694.000000	23.003042
695.000000	23.112923
696.000000	23.224529
697.000000	23.335503
698.000000	23.446710
699.000000	23.559377
700.000000	23.671817
701.000000	23.785143
702.000000	23.898348
703.000000	24.009754
704.000000	24.118838
705.000000	24.227219
706.000000	24.335815
707.000000	24.441844
708.000000	24.545576
709.000000	24.649612
710.000000	24.753294
711.000000	24.856823
712.000000	24.957335
713.000000	25.056557
714.000000	25.157033
715.000000	25.256646
716.000000	25.355605
717.000000	25.452951
718.000000	25.548450
719.000000	25.643499
720.000000	25.739687
721.000000	25.836829
722.000000	25.934140
723.000000	26.033321
724.000000	26.132378
725.000000	26.231264
726.000000	26.330228
727.000000	26.430480
728.000000	26.530303
729.000000	26.627704
730.000000	26.723458
731.000000	26.818532
732.000000	26.914808
733.000000	27.009478
734.000000	27.100253
735.000000	27.189904
736.000000	27.280087
737.000000	27.368471
738.000000	27.455761
739.000000	27.542775
740.000000	27.628220
741.000000	27.711148
742.000000	27.793966
743.000000	27.877529
744.000000	27.960675
745.000000	28.043263
746.000000	28.123725
747.000000	28.204643
748.000000	28.286936
749.000000	28.368434
750.000000	28.449262
751.000000	28.529434
752.000000	28.611951
753.000000	28.697786
754.000000	28.782834
755.000000	28.865853
756.000000	28.947240
757.000000	29.027086
758.000000	29.103444
759.000000	29.179048
760.000000	29.255247
761.000000	29.330621
762.000000	29.403442
763.000000	29.475482
764.000000	29.549112
765.000000	29.622301
766.000000	29.694884
767.000000	29.766725
768.000000	29.837067
769.000000	29.908552
770.000000	29.979069
771.000000	30.047254
772.000000	30.119261
773.000000	30.193587
774.000000	30.265815
775.000000	30.337031
776.000000	30.407084
777.000000	30.478828
778.000000	30.551356
779.000000	30.622786
780.000000	30.692992
781.000000	30.763345
782.000000	30.834079
783.000000	30.902420
784.000000	30.970178
785.000000	31.040084
786.000000	31.110775
787.000000	31.178257
788.000000	31.242154
789.000000	31.302574
790.000000	31.366218
791.000000	31.433674
792.000000	31.499055
793.000000	31.564271
794.000000	31.629171
795.000000	31.693933
796.000000	31.756932
797.000000	31.819274
798.000000	31.883330
799.000000	31.949594
800.000000	32.016713
801.000000	32.081391
802.000000	32.146477
803.000000	32.214953
804.000000	32.281665
805.000000	32.349147
806.000000	32.414123
807.000000	32.477893
808.000000	32.537609
809.000000	32.603715
810.000000	32.668819
811.000000	32.737973
812.000000	32.803634
813.000000	32.868851
814.000000	32.932622
815.000000	32.992670
816.000000	33.053715
817.000000	33.114448
818.000000	33.177140
819.000000	33.236952
820.000000	33.298350
821.000000	33.358759
822.000000	33.419049
823.000000	33.476522
824.000000	33.541913
825.000000	33.604104
826.000000	33.662647
827.000000	33.728076
828.000000	33.793934
829.000000	33.861489
830.000000	33.919516
831.000000	33.975553
832.000000	34.036938
833.000000	34.095198
834.000000	34.146821
835.000000	34.199145
836.000000	34.249690
837.000000	34.299072
838.000000	34.349037
839.000000	34.398526
840.000000	34.450843
841.000000	34.501520
842.000000	34.545970
843.000000	34.594193
844.000000	34.644032
845.000000	34.696142
846.000000	34.742373
847.000000	34.784419
848.000000	34.823480
849.000000	34.877531
850.000000	34.936244
851.000000	34.989610
852.000000	35.040145
853.000000	35.084031
854.000000	35.133127
855.000000	35.187288
856.000000	35.241552
857.000000	35.271226
858.000000	35.323459
859.000000	35.355779
860.000000	35.399617
861.000000	35.469879
862.000000	35.478869
863.000000	35.498679
864.000000	35.516029
865.000000	35.523163
866.000000	35.555133
867.000000	35.595115
868.000000	35.606110
869.000000	35.645891
870.000000	35.709348
871.000000	35.744649
872.000000	35.763918
873.000000	35.783460
874.000000	35.816137
875.000000	35.870127
876.000000	35.907582
877.000000	35.948008
878.000000	35.985799
879.000000	36.007022
880.000000	36.037179
881.000000	36.089184
882.000000	36.151540
883.000000	36.183728
884.000000	36.241531
885.000000	36.270254
886.000000	36.295958
887.000000	36.298108
888.000000	36.346435
889.000000	36.390958
890.000000	36.426372
891.000000	36.447162
892.000000	36.458222
893.000000	36.437990
894.000000	36.466543
895.000000	36.501455
896.000000	36.502242
897.000000	36.553982
898.000000	36.628054
899.000000	36.690393
900.000000	36.722646
901.000000	36.746243
902.000000	36.763215
903.000000	36.797884
904.000000	36.828149
905.000000	36.848172
906.000000	36.896181
907.000000	36.924452
908.000000	36.971260
909.000000	37.010566
910.000000	36.999663
911.000000	37.021741
912.000000	37.019051
913.000000	37.035043
914.000000	37.076586
915.000000	37.084525
916.000000	37.089166
917.000000	37.085849
918.000000	37.103850
919.000000	37.074079
920.000000	37.082607
921.000000	37.103075
922.000000	37.143706
923.000000	37.141636
924.000000	37.146291
925.000000	37.142259
926.000000	37.155588
927.000000	37.181978
928.000000	37.254281
929.000000	37.280456
930.000000	37.279565
931.000000	37.302067
932.000000	37.318431
933.000000	37.304147
934.000000	37.325599
935.000000	37.357574
936.000000	37.382677
937.000000	37.383002
938.000000	37.400402
939.000000	37.402393
940.000000	37.407951
941.000000	37.426399
942.000000	37.468515
943.000000	37.481949
944.000000	37.478728
945.000000	37.498006
946.000000	37.518637
947.000000	37.575960
948.000000	37.613346
949.000000	37.615413
950.000000	37.641032
951.000000	37.613643
952.000000	37.588238
953.000000	37.597690
954.000000	37.642457
955.000000	37.670611
956.000000	37.673892
957.000000	37.680257
958.000000	37.695253
959.000000	37.697219
960.000000	37.708642
961.000000	37.673203
962.000000	37.710887
963.000000	37.703608
964.000000	37.709931
965.000000	37.743834
966.000000	37.740693
967.000000	37.743996
968.000000	37.748154
969.000000	37.727847
970.000000	37.740199
971.000000	37.748722
972.000000	37.789817
973.000000	37.800761
974.000000	37.799694
975.000000	37.785523
976.000000	37.760783
977.000000	37.743396
978.000000	37.729849
979.000000	37.726395
980.000000	37.753653
981.000000	37.758924
982.000000	37.749280
983.000000	37.738820
984.000000	37.751090
985.000000	37.777139
986.000000	37.827351
987.000000	37.880010
988.000000	37.902983
989.000000	37.891947
990.000000	37.881643
991.000000	37.898252
992.000000	37.929080
993.000000	37.951278
994.000000	37.958866
995.000000	37.961539
996.000000	37.997887
997.000000	37.984447
998.000000	38.009284
999.000000	38.034865
1000.000000	38.026799
1001.000000	38.024150
1002.000000	37.990341
1003.000000	37.967340
1004.000000	37.968847
1005.000000	37.988125
1006.000000	38.005311
1007.000000	37.998546
1008.000000	38.012972
1009.000000	38.021160
1010.000000	38.029597
1011.000000	38.025589
1012.000000	38.043889
1013.000000	38.065768
1014.000000	38.087665
1015.000000	38.095552
1016.000000	38.095698
1017.000000	38.098984
1018.000000	38.122287
1019.000000	38.126397
1020.000000	38.099877
1021.000000	38.115568
1022.000000	38.136625
1023.000000	38.145906
1024.000000	38.156050
1025.000000	38.153159
1026.000000	38.141169
1027.000000	38.133088
1028.000000	38.099304
1029.000000	38.068896
1030.000000	38.058403
1031.000000	38.056173
1032.000000	38.053227
1033.000000	38.019491
1034.000000	37.987334
1035.000000	37.979303
1036.000000	38.003139
1037.000000	38.042333
1038.000000	38.062949
1039.000000	38.081400
1040.000000	38.067917
1041.000000	38.038528
1042.000000	38.044201
1043.000000	38.075975
1044.000000	38.097406
1045.000000	38.088597
1046.000000	38.083483
1047.000000	38.079067
1048.000000	38.082208
1049.000000	38.066832
1050.000000	38.049426
1051.000000	38.053556
1052.000000	38.048575
1053.000000	38.020612
1054.000000	37.984944
1055.000000	37.995351
1056.000000	37.960629
1057.000000	37.926190
1058.000000	37.896061
1059.000000	37.860584
1060.000000	37.863201
1061.000000	37.870983
1062.000000	37.847179
1063.000000	37.847011
1064.000000	37.876214
1065.000000	37.898940
1066.000000	37.916868
1067.000000	37.942094
1068.000000	37.954815
1069.000000	37.957381
1070.000000	37.960180
1071.000000	37.939114
1072.000000	37.941289
1073.000000	37.948659
1074.000000	37.915173
1075.000000	37.887039
1076.000000	37.881087
1077.000000	37.835762
1078.000000	37.794404
1079.000000	37.794231
1080.000000	37.800172
1081.000000	37.800144
1082.000000	37.772175
1083.000000	37.741518
1084.000000	37.764405
1085.000000	37.770766
1086.000000	37.773977
1087.000000	37.767058
1088.000000	37.774823
1089.000000	37.796474
1090.000000	37.790866
1091.000000	37.815670
1092.000000	37.777142
1093.000000	37.781456
1094.000000	37.788053
1095.000000	37.812100
1096.000000	37.814761
1097.000000	37.814223
1098.000000	37.847247
1099.000000	37.840074
1100.000000	37.835268
1101.000000	37.836439
1102.000000	37.822854
1103.000000	37.841468
1104.000000	37.846353
1105.000000	37.817195
1106.000000	37.811664
1107.000000	37.804383
1108.000000	37.778582
1109.000000	37.798389
1110.000000	37.833909
1111.000000	37.826506
1112.000000	37.851617
1113.000000	37.877524
1114.000000	37.869788
1115.000000	37.859750
1116.000000	37.844917
1117.000000	37.867039
1118.000000	37.885599
1119.000000	37.848929
1120.000000	37.842346
1121.000000	37.791933
1122.000000	37.816685
1123.000000	37.793142
1124.000000	37.790082
1125.000000	37.770247
1126.000000	37.726211
1127.000000	37.775925
1128.000000	37.802088
1129.000000	37.816526
1130.000000	37.769227
1131.000000	37.751761
1132.000000	37.760200
1133.000000	37.737218
1134.000000	37.720549
1135.000000	37.706878
1136.000000	37.679498
1137.000000	37.707663
1138.000000	37.690260
1139.000000	37.681423
1140.000000	37.684934
1141.000000	37.697867
1142.000000	37.679062
1143.000000	37.677719
1144.000000	37.672439
1145.000000	37.610518
1146.000000	37.613770
1147.000000	37.603026
1148.000000	37.545857
1149.000000	37.509897
1150.000000	37.493172
1151.000000	37.502989
1152.000000	37.497770
1153.000000	37.498076
1154.000000	37.502781
1155.000000	37.485165
1156.000000	37.502449
1157.000000	37.448550
1158.000000	37.422002
1159.000000	37.390896
1160.000000	37.360828
1161.000000	37.351290
1162.000000	37.308001
1163.000000	37.247864
1164.000000	37.175058
1165.000000	37.144870
1166.000000	37.110049
1167.000000	37.085726
1168.000000	37.083774
1169.000000	37.061632
1170.000000	36.998995
1171.000000	36.987899
1172.000000	36.944083
1173.000000	36.916966
1174.000000	36.889612
1175.000000	36.855465
1176.000000	36.801509
1177.000000	36.777624
1178.000000	36.739846
1179.000000	36.709787
1180.000000	36.741907
1181.000000	36.724816
1182.000000	36.703172
1183.000000	36.697857
1184.000000	36.699343
1185.000000	36.678266
1186.000000	36.652580
1187.000000	36.612531
1188.000000	36.572869
1189.000000	36.532503
1190.000000	36.501455
1191.000000	36.467929
1192.000000	36.471197
1193.000000	36.494028
1194.000000	36.477361
1195.000000	36.495896
1196.000000	36.483322
1197.000000	36.456831
1198.000000	36.438603
1199.000000	36.498452
1200.000000	36.509823
1201.000000	36.493307
1202.000000	36.460249
1203.000000	36.408166
