PE UV       SUBTECH     SPECTRUM    ASCII       PEDS        4.00        
   -1
M.HIRT.DIUR-TX3.ASC
23/11/30
14:37:47.00
23/11/30
14:37:47.00
Vinicio Soto Monge
MACRASPIS HIRTIVENTIS DIURNA
250,000000
1
Lambda 1050
1050L1511233
PerkinElmer UV WinLab 6.3.2.0749 / 2.02.05 Lambda 900 UV/VIS/NIR, Aug  7 2015 09:38:08

0
0
3350/servo 860,8/2
0
0
UV/VIS
1
1
1
DoubleDePol,CommonBeamDepol,RBeamAtt,SBeamAtt,60mm sphere, WB InGaAs Detector
0
0
0
0
Program
Program
3350/servo 860,8/2
3350/0,4 860,8/0,4
3350/0,4 860,8/0,4
0
20.00
 
 
 
0
 
860,8
319,2
860,8
Front
100
on
S:100 R:100
0
0
0
0
 
0
 
 
 
0
 
 
0
0
0
0
0
 
 
 
 
0
0


0
0
#HDR
-1
-1
#GR
nm
%R
1.0
0.0
2200,000000
-1,000000
1951
8
47,460125
0,241152
#DATA
284.000000	5.131679
285.000000	5.119037
286.000000	5.108634
287.000000	5.099890
288.000000	5.092540
289.000000	5.085826
290.000000	5.078975
291.000000	5.072134
292.000000	5.065211
293.000000	5.061593
294.000000	5.057846
295.000000	5.055094
296.000000	5.052796
297.000000	5.051074
298.000000	5.049246
299.000000	5.047332
300.000000	5.048055
301.000000	5.047628
302.000000	5.048594
303.000000	5.048436
304.000000	5.049141
305.000000	5.050037
306.000000	5.052371
307.000000	5.053075
308.000000	5.054729
309.000000	5.055101
310.000000	5.055911
311.000000	5.057615
312.000000	5.059689
313.000000	5.060467
314.000000	5.060588
315.000000	5.063671
316.000000	5.063123
317.000000	5.060224
318.000000	5.055788
319.000000	5.049346
320.000000	5.038583
321.000000	5.029780
322.000000	5.026123
323.000000	5.019406
324.000000	5.011621
325.000000	5.005995
326.000000	4.997316
327.000000	4.987581
328.000000	4.976925
329.000000	4.963834
330.000000	4.952453
331.000000	4.940001
332.000000	4.926642
333.000000	4.914713
334.000000	4.901628
335.000000	4.887212
336.000000	4.873278
337.000000	4.857775
338.000000	4.843881
339.000000	4.829355
340.000000	4.816313
341.000000	4.802979
342.000000	4.789011
343.000000	4.775420
344.000000	4.764560
345.000000	4.752163
346.000000	4.738777
347.000000	4.725359
348.000000	4.711861
349.000000	4.698481
350.000000	4.682659
351.000000	4.669058
352.000000	4.658687
353.000000	4.651206
354.000000	4.643370
355.000000	4.641884
356.000000	4.638165
357.000000	4.627087
358.000000	4.619685
359.000000	4.613173
360.000000	4.604469
361.000000	4.598329
362.000000	4.592753
363.000000	4.588294
364.000000	4.585214
365.000000	4.578318
366.000000	4.574004
367.000000	4.569462
368.000000	4.564498
369.000000	4.559911
370.000000	4.554312
371.000000	4.548184
372.000000	4.544930
373.000000	4.539712
374.000000	4.534000
375.000000	4.529095
376.000000	4.522508
377.000000	4.519408
378.000000	4.515931
379.000000	4.510605
380.000000	4.505752
381.000000	4.501717
382.000000	4.497967
383.000000	4.493709
384.000000	4.489429
385.000000	4.485967
386.000000	4.481220
387.000000	4.476202
388.000000	4.470657
389.000000	4.467097
390.000000	4.461977
391.000000	4.457105
392.000000	4.452939
393.000000	4.447868
394.000000	4.442728
395.000000	4.437972
396.000000	4.433617
397.000000	4.429863
398.000000	4.425117
399.000000	4.420899
400.000000	4.417966
401.000000	4.414252
402.000000	4.410635
403.000000	4.406148
404.000000	4.402266
405.000000	4.399627
406.000000	4.397455
407.000000	4.393888
408.000000	4.392154
409.000000	4.390423
410.000000	4.387196
411.000000	4.384963
412.000000	4.380164
413.000000	4.375768
414.000000	4.371818
415.000000	4.367940
416.000000	4.364229
417.000000	4.360630
418.000000	4.357406
419.000000	4.354718
420.000000	4.352176
421.000000	4.349900
422.000000	4.347955
423.000000	4.346192
424.000000	4.344421
425.000000	4.343018
426.000000	4.342109
427.000000	4.341683
428.000000	4.341330
429.000000	4.341142
430.000000	4.341143
431.000000	4.341208
432.000000	4.341464
433.000000	4.342100
434.000000	4.343094
435.000000	4.344787
436.000000	4.346968
437.000000	4.349330
438.000000	4.352360
439.000000	4.355787
440.000000	4.359813
441.000000	4.364522
442.000000	4.370198
443.000000	4.376480
444.000000	4.383679
445.000000	4.391891
446.000000	4.401206
447.000000	4.411792
448.000000	4.423536
449.000000	4.436690
450.000000	4.451694
451.000000	4.468838
452.000000	4.488098
453.000000	4.509642
454.000000	4.534046
455.000000	4.561637
456.000000	4.592186
457.000000	4.626216
458.000000	4.664372
459.000000	4.706837
460.000000	4.753745
461.000000	4.805606
462.000000	4.863565
463.000000	4.927953
464.000000	4.999165
465.000000	5.077982
466.000000	5.164875
467.000000	5.260489
468.000000	5.365114
469.000000	5.479088
470.000000	5.602070
471.000000	5.734146
472.000000	5.874847
473.000000	6.022922
474.000000	6.177419
475.000000	6.336613
476.000000	6.499034
477.000000	6.663110
478.000000	6.827443
479.000000	6.990208
480.000000	7.149442
481.000000	7.303790
482.000000	7.451564
483.000000	7.591878
484.000000	7.723725
485.000000	7.845279
486.000000	7.956083
487.000000	8.056146
488.000000	8.145261
489.000000	8.222450
490.000000	8.288152
491.000000	8.342884
492.000000	8.385978
493.000000	8.417905
494.000000	8.438792
495.000000	8.448915
496.000000	8.448238
497.000000	8.436529
498.000000	8.413720
499.000000	8.379617
500.000000	8.333775
501.000000	8.275870
502.000000	8.205473
503.000000	8.122715
504.000000	8.027828
505.000000	7.920779
506.000000	7.802097
507.000000	7.672411
508.000000	7.533341
509.000000	7.386030
510.000000	7.232032
511.000000	7.072888
512.000000	6.910317
513.000000	6.745960
514.000000	6.581450
515.000000	6.419166
516.000000	6.260164
517.000000	6.106102
518.000000	5.957793
519.000000	5.815830
520.000000	5.681771
521.000000	5.555864
522.000000	5.438278
523.000000	5.328833
524.000000	5.228000
525.000000	5.135504
526.000000	5.050781
527.000000	4.973692
528.000000	4.903506
529.000000	4.839836
530.000000	4.781958
531.000000	4.729849
532.000000	4.682360
533.000000	4.639439
534.000000	4.600707
535.000000	4.565984
536.000000	4.535177
537.000000	4.507592
538.000000	4.483106
539.000000	4.460894
540.000000	4.441145
541.000000	4.423396
542.000000	4.407631
543.000000	4.393678
544.000000	4.380979
545.000000	4.369556
546.000000	4.359208
547.000000	4.349873
548.000000	4.341664
549.000000	4.334394
550.000000	4.327376
551.000000	4.320993
552.000000	4.315245
553.000000	4.310140
554.000000	4.305722
555.000000	4.301390
556.000000	4.297596
557.000000	4.294074
558.000000	4.291015
559.000000	4.288470
560.000000	4.285866
561.000000	4.283544
562.000000	4.281586
563.000000	4.280099
564.000000	4.278631
565.000000	4.277405
566.000000	4.276311
567.000000	4.275826
568.000000	4.275463
569.000000	4.275249
570.000000	4.275033
571.000000	4.274932
572.000000	4.275393
573.000000	4.275901
574.000000	4.276759
575.000000	4.277730
576.000000	4.278893
577.000000	4.280233
578.000000	4.281063
579.000000	4.282481
580.000000	4.284319
581.000000	4.286300
582.000000	4.288590
583.000000	4.290950
584.000000	4.293379
585.000000	4.296241
586.000000	4.299305
587.000000	4.302287
588.000000	4.305247
589.000000	4.308456
590.000000	4.312360
591.000000	4.316299
592.000000	4.320795
593.000000	4.325197
594.000000	4.329780
595.000000	4.334441
596.000000	4.339161
597.000000	4.344082
598.000000	4.348816
599.000000	4.353985
600.000000	4.359564
601.000000	4.365533
602.000000	4.371731
603.000000	4.378042
604.000000	4.384985
605.000000	4.392356
606.000000	4.399793
607.000000	4.407357
608.000000	4.415193
609.000000	4.423407
610.000000	4.432248
611.000000	4.441245
612.000000	4.450549
613.000000	4.460700
614.000000	4.470681
615.000000	4.480800
616.000000	4.491418
617.000000	4.502167
618.000000	4.513433
619.000000	4.525235
620.000000	4.537525
621.000000	4.549979
622.000000	4.563051
623.000000	4.576788
624.000000	4.590820
625.000000	4.604937
626.000000	4.619774
627.000000	4.634843
628.000000	4.650770
629.000000	4.667150
630.000000	4.683960
631.000000	4.701465
632.000000	4.719415
633.000000	4.737789
634.000000	4.756663
635.000000	4.776153
636.000000	4.795920
637.000000	4.816152
638.000000	4.837032
639.000000	4.858263
640.000000	4.880424
641.000000	4.903292
642.000000	4.926580
643.000000	4.950808
644.000000	4.975515
645.000000	5.000649
646.000000	5.026606
647.000000	5.053259
648.000000	5.080437
649.000000	5.108356
650.000000	5.137100
651.000000	5.166411
652.000000	5.196345
653.000000	5.227077
654.000000	5.258306
655.000000	5.290257
656.000000	5.323104
657.000000	5.356415
658.000000	5.390303
659.000000	5.425247
660.000000	5.460971
661.000000	5.497082
662.000000	5.534201
663.000000	5.571987
664.000000	5.610553
665.000000	5.649833
666.000000	5.689715
667.000000	5.730439
668.000000	5.772024
669.000000	5.814400
670.000000	5.857362
671.000000	5.901042
672.000000	5.945479
673.000000	5.990934
674.000000	6.037358
675.000000	6.084007
676.000000	6.131174
677.000000	6.179478
678.000000	6.228489
679.000000	6.277999
680.000000	6.328135
681.000000	6.379114
682.000000	6.431011
683.000000	6.483825
684.000000	6.537531
685.000000	6.591748
686.000000	6.646574
687.000000	6.701991
688.000000	6.757576
689.000000	6.814042
690.000000	6.871224
691.000000	6.929165
692.000000	6.987916
693.000000	7.047234
694.000000	7.107503
695.000000	7.168736
696.000000	7.230837
697.000000	7.292864
698.000000	7.355838
699.000000	7.419384
700.000000	7.483702
701.000000	7.548767
702.000000	7.614797
703.000000	7.681850
704.000000	7.749228
705.000000	7.817146
706.000000	7.885606
707.000000	7.954520
708.000000	8.024199
709.000000	8.094039
710.000000	8.164372
711.000000	8.236517
712.000000	8.309508
713.000000	8.382245
714.000000	8.455945
715.000000	8.530524
716.000000	8.605363
717.000000	8.680635
718.000000	8.756568
719.000000	8.833463
720.000000	8.911440
721.000000	8.990322
722.000000	9.069772
723.000000	9.149632
724.000000	9.230152
725.000000	9.310954
726.000000	9.392403
727.000000	9.474476
728.000000	9.557314
729.000000	9.640532
730.000000	9.724355
731.000000	9.808747
732.000000	9.894303
733.000000	9.980200
734.000000	10.067052
735.000000	10.154761
736.000000	10.242544
737.000000	10.330484
738.000000	10.418916
739.000000	10.508263
740.000000	10.598757
741.000000	10.689464
742.000000	10.780454
743.000000	10.871914
744.000000	10.964756
745.000000	11.058539
746.000000	11.151345
747.000000	11.244259
748.000000	11.338421
749.000000	11.433567
750.000000	11.528868
751.000000	11.625490
752.000000	11.723319
753.000000	11.821925
754.000000	11.920670
755.000000	12.018673
756.000000	12.117124
757.000000	12.216943
758.000000	12.317178
759.000000	12.416857
760.000000	12.517819
761.000000	12.619454
762.000000	12.721512
763.000000	12.824826
764.000000	12.928873
765.000000	13.033161
766.000000	13.137958
767.000000	13.241982
768.000000	13.347474
769.000000	13.453042
770.000000	13.558168
771.000000	13.665322
772.000000	13.773127
773.000000	13.882054
774.000000	13.989801
775.000000	14.098054
776.000000	14.207331
777.000000	14.317651
778.000000	14.428545
779.000000	14.540754
780.000000	14.651489
781.000000	14.762936
782.000000	14.875695
783.000000	14.989377
784.000000	15.101092
785.000000	15.212954
786.000000	15.327058
787.000000	15.441571
788.000000	15.554415
789.000000	15.667905
790.000000	15.783911
791.000000	15.900474
792.000000	16.016184
793.000000	16.132728
794.000000	16.251275
795.000000	16.368567
796.000000	16.485720
797.000000	16.604101
798.000000	16.722189
799.000000	16.842086
800.000000	16.960938
801.000000	17.080138
802.000000	17.200913
803.000000	17.321978
804.000000	17.443640
805.000000	17.566462
806.000000	17.688009
807.000000	17.809982
808.000000	17.931251
809.000000	18.055251
810.000000	18.178145
811.000000	18.302679
812.000000	18.426186
813.000000	18.550983
814.000000	18.673430
815.000000	18.799410
816.000000	18.924485
817.000000	19.049432
818.000000	19.176229
819.000000	19.303935
820.000000	19.429509
821.000000	19.553014
822.000000	19.678632
823.000000	19.803735
824.000000	19.928883
825.000000	20.053519
826.000000	20.180812
827.000000	20.308144
828.000000	20.437133
829.000000	20.560583
830.000000	20.687087
831.000000	20.814473
832.000000	20.944452
833.000000	21.071662
834.000000	21.200708
835.000000	21.329599
836.000000	21.456757
837.000000	21.581169
838.000000	21.705086
839.000000	21.831900
840.000000	21.961663
841.000000	22.088208
842.000000	22.217076
843.000000	22.344204
844.000000	22.474899
845.000000	22.603745
846.000000	22.730328
847.000000	22.858308
848.000000	22.991257
849.000000	23.123381
850.000000	23.249279
851.000000	23.377546
852.000000	23.504065
853.000000	23.626944
854.000000	23.762087
855.000000	23.894300
856.000000	24.025847
857.000000	24.148368
858.000000	24.235893
859.000000	24.361463
860.000000	24.500878
861.000000	24.642278
862.000000	24.775694
863.000000	24.906583
864.000000	25.029881
865.000000	25.156522
866.000000	25.250143
867.000000	25.395259
868.000000	25.526327
869.000000	25.650340
870.000000	25.776571
871.000000	25.922664
872.000000	26.088225
873.000000	26.257923
874.000000	26.400394
875.000000	26.545030
876.000000	26.701491
877.000000	26.878157
878.000000	27.037769
879.000000	27.185570
880.000000	27.316564
881.000000	27.444390
882.000000	27.578579
883.000000	27.702722
884.000000	27.862044
885.000000	28.027540
886.000000	28.151143
887.000000	28.278420
888.000000	28.442748
889.000000	28.564873
890.000000	28.740560
891.000000	28.887640
892.000000	29.078431
893.000000	29.275141
894.000000	29.411639
895.000000	29.541641
896.000000	29.699039
897.000000	29.815805
898.000000	29.926537
899.000000	30.081681
900.000000	30.215806
901.000000	30.377528
902.000000	30.490883
903.000000	30.652699
904.000000	30.801734
905.000000	30.934241
906.000000	31.055909
907.000000	31.164447
908.000000	31.292554
909.000000	31.413328
910.000000	31.529072
911.000000	31.652658
912.000000	31.723333
913.000000	31.841447
914.000000	31.966561
915.000000	32.106434
916.000000	32.237129
917.000000	32.403207
918.000000	32.574436
919.000000	32.683034
920.000000	32.799488
921.000000	32.946457
922.000000	33.051739
923.000000	33.148417
924.000000	33.298349
925.000000	33.371625
926.000000	33.496245
927.000000	33.546686
928.000000	33.651435
929.000000	33.767942
930.000000	33.885546
931.000000	33.949014
932.000000	34.070108
933.000000	34.218889
934.000000	34.355617
935.000000	34.488707
936.000000	34.602976
937.000000	34.693025
938.000000	34.761523
939.000000	34.878918
940.000000	35.032153
941.000000	35.161696
942.000000	35.288009
943.000000	35.380123
944.000000	35.499509
945.000000	35.622890
946.000000	35.686029
947.000000	35.823382
948.000000	35.915698
949.000000	35.996380
950.000000	36.088356
951.000000	36.204003
952.000000	36.292622
953.000000	36.360941
954.000000	36.485926
955.000000	36.593143
956.000000	36.709219
957.000000	36.868259
958.000000	37.013408
959.000000	37.125151
960.000000	37.257560
961.000000	37.349285
962.000000	37.498207
963.000000	37.617114
964.000000	37.744247
965.000000	37.881678
966.000000	38.024976
967.000000	38.136215
968.000000	38.234293
969.000000	38.303628
970.000000	38.378905
971.000000	38.474079
972.000000	38.589191
973.000000	38.704572
974.000000	38.808332
975.000000	38.899084
976.000000	38.995401
977.000000	39.088530
978.000000	39.203748
979.000000	39.309472
980.000000	39.416024
981.000000	39.570541
982.000000	39.694221
983.000000	39.807092
984.000000	39.946905
985.000000	40.105850
986.000000	40.223600
987.000000	40.325930
988.000000	40.458761
989.000000	40.577055
990.000000	40.678637
991.000000	40.752945
992.000000	40.831505
993.000000	40.902049
994.000000	40.987855
995.000000	41.083716
996.000000	41.192304
997.000000	41.287337
998.000000	41.399998
999.000000	41.493852
1000.000000	41.557831
1001.000000	41.654511
1002.000000	41.771349
1003.000000	41.873408
1004.000000	41.993797
1005.000000	42.132968
1006.000000	42.259862
1007.000000	42.367724
1008.000000	42.477586
1009.000000	42.564193
1010.000000	42.641004
1011.000000	42.717961
1012.000000	42.801198
1013.000000	42.881324
1014.000000	42.983100
1015.000000	43.062822
1016.000000	43.129667
1017.000000	43.184088
1018.000000	43.252831
1019.000000	43.320495
1020.000000	43.372916
1021.000000	43.464743
1022.000000	43.541945
1023.000000	43.587716
1024.000000	43.605202
1025.000000	43.673934
1026.000000	43.786442
1027.000000	43.886073
1028.000000	43.995673
1029.000000	44.096836
1030.000000	44.165838
1031.000000	44.228100
1032.000000	44.279478
1033.000000	44.315914
1034.000000	44.380401
1035.000000	44.460494
1036.000000	44.539420
1037.000000	44.596716
1038.000000	44.656529
1039.000000	44.709989
1040.000000	44.760116
1041.000000	44.826271
1042.000000	44.911768
1043.000000	45.002942
1044.000000	45.070948
1045.000000	45.150996
1046.000000	45.234930
1047.000000	45.317222
1048.000000	45.368187
1049.000000	45.411294
1050.000000	45.480392
1051.000000	45.551384
1052.000000	45.599765
1053.000000	45.641784
1054.000000	45.695841
1055.000000	45.768549
1056.000000	45.817710
1057.000000	45.877905
1058.000000	45.943997
1059.000000	46.020614
1060.000000	46.086997
1061.000000	46.134219
1062.000000	46.163743
1063.000000	46.191919
1064.000000	46.206404
1065.000000	46.269293
1066.000000	46.359732
1067.000000	46.442959
1068.000000	46.530548
1069.000000	46.643581
1070.000000	46.723841
1071.000000	46.798336
1072.000000	46.877495
1073.000000	46.952191
1074.000000	46.998280
1075.000000	47.055576
1076.000000	47.099700
1077.000000	47.155680
1078.000000	47.200504
1079.000000	47.229543
1080.000000	47.255421
1081.000000	47.317509
1082.000000	47.343494
1083.000000	47.458793
1084.000000	47.559253
1085.000000	47.642743
1086.000000	47.751168
1087.000000	47.826404
1088.000000	47.930219
1089.000000	48.002865
1090.000000	48.043734
1091.000000	48.097092
1092.000000	48.114585
1093.000000	48.127956
1094.000000	48.205846
1095.000000	48.294895
1096.000000	48.344787
1097.000000	48.428948
1098.000000	48.500421
1099.000000	48.587205
1100.000000	48.636757
1101.000000	48.694273
1102.000000	48.765983
1103.000000	48.784552
1104.000000	48.807950
1105.000000	48.843764
1106.000000	48.891610
1107.000000	48.960078
1108.000000	48.996332
1109.000000	49.037347
1110.000000	49.111664
1111.000000	49.199898
1112.000000	49.248811
1113.000000	49.289799
1114.000000	49.365212
1115.000000	49.444350
1116.000000	49.445645
1117.000000	49.504694
1118.000000	49.534020
1119.000000	49.541109
1120.000000	49.543995
1121.000000	49.549791
1122.000000	49.599232
1123.000000	49.614472
1124.000000	49.675851
1125.000000	49.712588
1126.000000	49.752933
1127.000000	49.869018
1128.000000	49.998335
1129.000000	50.034760
1130.000000	50.042951
1131.000000	50.111014
1132.000000	50.137235
1133.000000	50.217570
1134.000000	50.270793
1135.000000	50.337900
1136.000000	50.362957
1137.000000	50.383129
1138.000000	50.451401
1139.000000	50.471107
1140.000000	50.483722
1141.000000	50.472290
1142.000000	50.480005
1143.000000	50.533351
1144.000000	50.575218
1145.000000	50.601092
1146.000000	50.621022
1147.000000	50.666225
1148.000000	50.697716
1149.000000	50.732114
1150.000000	50.761502
1151.000000	50.824911
1152.000000	50.846586
1153.000000	50.866372
1154.000000	50.887439
1155.000000	50.956854
1156.000000	50.963137
1157.000000	50.961254
1158.000000	51.036847
1159.000000	51.033815
1160.000000	51.070585
1161.000000	51.106936
1162.000000	51.113171
1163.000000	51.091294
1164.000000	51.092382
1165.000000	51.110323
1166.000000	51.089244
1167.000000	51.093410
1168.000000	51.060520
1169.000000	51.044279
1170.000000	50.982834
1171.000000	50.962152
1172.000000	50.957764
1173.000000	50.982157
1174.000000	51.013860
1175.000000	51.053084
1176.000000	51.094209
1177.000000	51.123849
1178.000000	51.102849
1179.000000	51.131838
1180.000000	51.132034
1181.000000	51.149350
1182.000000	51.155875
1183.000000	51.185275
1184.000000	51.176815
1185.000000	51.158677
1186.000000	51.166887
1187.000000	51.226362
1188.000000	51.243160
1189.000000	51.261272
1190.000000	51.241474
1191.000000	51.287190
1192.000000	51.347020
1193.000000	51.337252
1194.000000	51.339201
1195.000000	51.343761
1196.000000	51.385585
1197.000000	51.388423
1198.000000	51.435762
1199.000000	51.480927
1200.000000	51.524124
1201.000000	51.567166
1202.000000	51.621818
1203.000000	51.628699
1204.000000	51.656272
1205.000000	51.748430
1206.000000	51.805975
1207.000000	51.835637
1208.000000	51.824040
1209.000000	51.810078
1210.000000	51.804705
1211.000000	51.825240
1212.000000	51.839464
