PE UV       SUBTECH     SPECTRUM    ASCII       PEDS        4.00        
   -1
C.BOUC.INB5423-TX3.ASC
23/11/30
16:47:56.00
23/11/30
16:47:56.00
Vinicio Soto Monge
C.BOUCARDI_INB0040G5423_COBRE
250,000000
1
Lambda 1050
1050L1511233
PerkinElmer UV WinLab 6.3.2.0749 / 2.02.05 Lambda 900 UV/VIS/NIR, Aug  7 2015 09:38:08

0
0
3350/servo 860,8/2
0
0
UV/VIS
1
1
1
DoubleDePol,CommonBeamDepol,RBeamAtt,SBeamAtt,60mm sphere, WB InGaAs Detector
0
0
0
0
Program
Program
3350/servo 860,8/2
3350/0,4 860,8/0,4
3350/0,4 860,8/0,4
0
20.00
 
 
 
0
 
860,8
319,2
860,8
Front
100
on
S:100 R:100
0
0
0
0
 
0
 
 
 
0
 
 
0
0
0
0
0
 
 
 
 
0
0


0
0
#HDR
-1
-1
#GR
nm
%R
1.0
0.0
2200,000000
-1,000000
1951
8
49,250288
0,338038
#DATA
284.000000	5.962577
285.000000	5.945925
286.000000	5.929164
287.000000	5.915063
288.000000	5.902778
289.000000	5.888193
290.000000	5.877298
291.000000	5.868130
292.000000	5.857152
293.000000	5.845979
294.000000	5.835072
295.000000	5.828785
296.000000	5.821019
297.000000	5.815121
298.000000	5.810514
299.000000	5.804814
300.000000	5.798100
301.000000	5.791161
302.000000	5.784899
303.000000	5.776499
304.000000	5.768793
305.000000	5.762072
306.000000	5.755476
307.000000	5.747664
308.000000	5.737485
309.000000	5.727322
310.000000	5.719136
311.000000	5.709465
312.000000	5.698976
313.000000	5.689891
314.000000	5.682646
315.000000	5.673009
316.000000	5.665874
317.000000	5.652354
318.000000	5.631937
319.000000	5.618962
320.000000	5.610459
321.000000	5.595825
322.000000	5.579700
323.000000	5.567278
324.000000	5.552853
325.000000	5.538536
326.000000	5.522737
327.000000	5.507433
328.000000	5.492470
329.000000	5.476188
330.000000	5.451972
331.000000	5.433528
332.000000	5.419064
333.000000	5.399267
334.000000	5.375532
335.000000	5.353639
336.000000	5.333043
337.000000	5.316994
338.000000	5.299821
339.000000	5.280843
340.000000	5.259225
341.000000	5.239228
342.000000	5.220537
343.000000	5.202945
344.000000	5.184628
345.000000	5.167060
346.000000	5.146994
347.000000	5.126438
348.000000	5.108637
349.000000	5.090850
350.000000	5.072561
351.000000	5.052800
352.000000	5.037534
353.000000	5.026642
354.000000	5.006955
355.000000	4.984679
356.000000	4.968923
357.000000	4.953030
358.000000	4.935531
359.000000	4.919550
360.000000	4.901004
361.000000	4.886590
362.000000	4.870940
363.000000	4.853010
364.000000	4.838644
365.000000	4.827588
366.000000	4.814007
367.000000	4.794889
368.000000	4.778370
369.000000	4.767346
370.000000	4.756567
371.000000	4.744856
372.000000	4.727976
373.000000	4.716181
374.000000	4.703336
375.000000	4.690407
376.000000	4.678170
377.000000	4.669270
378.000000	4.662729
379.000000	4.657292
380.000000	4.649886
381.000000	4.645440
382.000000	4.641392
383.000000	4.636152
384.000000	4.631847
385.000000	4.627281
386.000000	4.624059
387.000000	4.622209
388.000000	4.622549
389.000000	4.623484
390.000000	4.626512
391.000000	4.628332
392.000000	4.632907
393.000000	4.635180
394.000000	4.640468
395.000000	4.647559
396.000000	4.652928
397.000000	4.659563
398.000000	4.670182
399.000000	4.680520
400.000000	4.693062
401.000000	4.706541
402.000000	4.722151
403.000000	4.740601
404.000000	4.758439
405.000000	4.776219
406.000000	4.795144
407.000000	4.816720
408.000000	4.838211
409.000000	4.861657
410.000000	4.888032
411.000000	4.914940
412.000000	4.939524
413.000000	4.965978
414.000000	4.993448
415.000000	5.022547
416.000000	5.053313
417.000000	5.085539
418.000000	5.118897
419.000000	5.153458
420.000000	5.190063
421.000000	5.228324
422.000000	5.267833
423.000000	5.308849
424.000000	5.350763
425.000000	5.393805
426.000000	5.438373
427.000000	5.484268
428.000000	5.531402
429.000000	5.580058
430.000000	5.629783
431.000000	5.680629
432.000000	5.732952
433.000000	5.786024
434.000000	5.839594
435.000000	5.894215
436.000000	5.950246
437.000000	6.006778
438.000000	6.063809
439.000000	6.121852
440.000000	6.180996
441.000000	6.241079
442.000000	6.302450
443.000000	6.364734
444.000000	6.427849
445.000000	6.491184
446.000000	6.554937
447.000000	6.619134
448.000000	6.683764
449.000000	6.749080
450.000000	6.814418
451.000000	6.879367
452.000000	6.944548
453.000000	7.010121
454.000000	7.075945
455.000000	7.141307
456.000000	7.206592
457.000000	7.271782
458.000000	7.337064
459.000000	7.402596
460.000000	7.467843
461.000000	7.532488
462.000000	7.596767
463.000000	7.660790
464.000000	7.724473
465.000000	7.787580
466.000000	7.849734
467.000000	7.910686
468.000000	7.970845
469.000000	8.030167
470.000000	8.087872
471.000000	8.144164
472.000000	8.199431
473.000000	8.253498
474.000000	8.306489
475.000000	8.357693
476.000000	8.406983
477.000000	8.454839
478.000000	8.500562
479.000000	8.544801
480.000000	8.587306
481.000000	8.628344
482.000000	8.667798
483.000000	8.705112
484.000000	8.740835
485.000000	8.775000
486.000000	8.807715
487.000000	8.838782
488.000000	8.868297
489.000000	8.896091
490.000000	8.922650
491.000000	8.947831
492.000000	8.972064
493.000000	8.994895
494.000000	9.016349
495.000000	9.037106
496.000000	9.057755
497.000000	9.077147
498.000000	9.095604
499.000000	9.113498
500.000000	9.130849
501.000000	9.147668
502.000000	9.165422
503.000000	9.183736
504.000000	9.202665
505.000000	9.223024
506.000000	9.243804
507.000000	9.265122
508.000000	9.287717
509.000000	9.310974
510.000000	9.335650
511.000000	9.362748
512.000000	9.391617
513.000000	9.422968
514.000000	9.456402
515.000000	9.491948
516.000000	9.529704
517.000000	9.569433
518.000000	9.611597
519.000000	9.656324
520.000000	9.703662
521.000000	9.753709
522.000000	9.806383
523.000000	9.862173
524.000000	9.920853
525.000000	9.982056
526.000000	10.045498
527.000000	10.111348
528.000000	10.180261
529.000000	10.251904
530.000000	10.326465
531.000000	10.402820
532.000000	10.482018
533.000000	10.563740
534.000000	10.648301
535.000000	10.735279
536.000000	10.825480
537.000000	10.917899
538.000000	11.012103
539.000000	11.107795
540.000000	11.205495
541.000000	11.305794
542.000000	11.408165
543.000000	11.512215
544.000000	11.618115
545.000000	11.726196
546.000000	11.835642
547.000000	11.946461
548.000000	12.058941
549.000000	12.172684
550.000000	12.288231
551.000000	12.404779
552.000000	12.523127
553.000000	12.643249
554.000000	12.764628
555.000000	12.887921
556.000000	13.012454
557.000000	13.138463
558.000000	13.264826
559.000000	13.392042
560.000000	13.522375
561.000000	13.654058
562.000000	13.786317
563.000000	13.919282
564.000000	14.053335
565.000000	14.188021
566.000000	14.324406
567.000000	14.461975
568.000000	14.600945
569.000000	14.739505
570.000000	14.878489
571.000000	15.017601
572.000000	15.156974
573.000000	15.296998
574.000000	15.437650
575.000000	15.577802
576.000000	15.717668
577.000000	15.856891
578.000000	15.995768
579.000000	16.134675
580.000000	16.273260
581.000000	16.411048
582.000000	16.548351
583.000000	16.683701
584.000000	16.817809
585.000000	16.950593
586.000000	17.082694
587.000000	17.213832
588.000000	17.342766
589.000000	17.469916
590.000000	17.593500
591.000000	17.714996
592.000000	17.833979
593.000000	17.950139
594.000000	18.063446
595.000000	18.172040
596.000000	18.278254
597.000000	18.380629
598.000000	18.480426
599.000000	18.576506
600.000000	18.668783
601.000000	18.756716
602.000000	18.841078
603.000000	18.921328
604.000000	18.998143
605.000000	19.071173
606.000000	19.139181
607.000000	19.203031
608.000000	19.262453
609.000000	19.317887
610.000000	19.370243
611.000000	19.417559
612.000000	19.460888
613.000000	19.499803
614.000000	19.534243
615.000000	19.564412
616.000000	19.589989
617.000000	19.610436
618.000000	19.627286
619.000000	19.641014
620.000000	19.650411
621.000000	19.656233
622.000000	19.657656
623.000000	19.655968
624.000000	19.649838
625.000000	19.641603
626.000000	19.629754
627.000000	19.613567
628.000000	19.596204
629.000000	19.576710
630.000000	19.553994
631.000000	19.528193
632.000000	19.501505
633.000000	19.471595
634.000000	19.439652
635.000000	19.406408
636.000000	19.371551
637.000000	19.335353
638.000000	19.298029
639.000000	19.260143
640.000000	19.221723
641.000000	19.184588
642.000000	19.147188
643.000000	19.110082
644.000000	19.072808
645.000000	19.034508
646.000000	18.997781
647.000000	18.962855
648.000000	18.930479
649.000000	18.900668
650.000000	18.873240
651.000000	18.847898
652.000000	18.825400
653.000000	18.806344
654.000000	18.790301
655.000000	18.778093
656.000000	18.768540
657.000000	18.763278
658.000000	18.762163
659.000000	18.765988
660.000000	18.774411
661.000000	18.789388
662.000000	18.812120
663.000000	18.839495
664.000000	18.872029
665.000000	18.911938
666.000000	18.959118
667.000000	19.013398
668.000000	19.075968
669.000000	19.147788
670.000000	19.227744
671.000000	19.317168
672.000000	19.415973
673.000000	19.525745
674.000000	19.647360
675.000000	19.781376
676.000000	19.925827
677.000000	20.081800
678.000000	20.251811
679.000000	20.436347
680.000000	20.635805
681.000000	20.850047
682.000000	21.079553
683.000000	21.324916
684.000000	21.585894
685.000000	21.862689
686.000000	22.155840
687.000000	22.466099
688.000000	22.793860
689.000000	23.138175
690.000000	23.499427
691.000000	23.877974
692.000000	24.272825
693.000000	24.684845
694.000000	25.113760
695.000000	25.558892
696.000000	26.018943
697.000000	26.491256
698.000000	26.977795
699.000000	27.478003
700.000000	27.989064
701.000000	28.511111
702.000000	29.043848
703.000000	29.584225
704.000000	30.129841
705.000000	30.680054
706.000000	31.233124
707.000000	31.788132
708.000000	32.343119
709.000000	32.897440
710.000000	33.449395
711.000000	33.998728
712.000000	34.544833
713.000000	35.083263
714.000000	35.613917
715.000000	36.135944
716.000000	36.648581
717.000000	37.150374
718.000000	37.639462
719.000000	38.115152
720.000000	38.577079
721.000000	39.023203
722.000000	39.453605
723.000000	39.868349
724.000000	40.265038
725.000000	40.643456
726.000000	41.005052
727.000000	41.349216
728.000000	41.674602
729.000000	41.980683
730.000000	42.268690
731.000000	42.539378
732.000000	42.793597
733.000000	43.031191
734.000000	43.254978
735.000000	43.463869
736.000000	43.656073
737.000000	43.831325
738.000000	43.993688
739.000000	44.143604
740.000000	44.282185
741.000000	44.410388
742.000000	44.527024
743.000000	44.632846
744.000000	44.727660
745.000000	44.815221
746.000000	44.895670
747.000000	44.967395
748.000000	45.035740
749.000000	45.098335
750.000000	45.157654
751.000000	45.210670
752.000000	45.257574
753.000000	45.299773
754.000000	45.338405
755.000000	45.374421
756.000000	45.407026
757.000000	45.436920
758.000000	45.463810
759.000000	45.490993
760.000000	45.516388
761.000000	45.537652
762.000000	45.556585
763.000000	45.574607
764.000000	45.592728
765.000000	45.608589
766.000000	45.623689
767.000000	45.639164
768.000000	45.652219
769.000000	45.660105
770.000000	45.665606
771.000000	45.670128
772.000000	45.674906
773.000000	45.678088
774.000000	45.679835
775.000000	45.680418
776.000000	45.677656
777.000000	45.675892
778.000000	45.673562
779.000000	45.668538
780.000000	45.662143
781.000000	45.652839
782.000000	45.643418
783.000000	45.632180
784.000000	45.617186
785.000000	45.598572
786.000000	45.581169
787.000000	45.566104
788.000000	45.550659
789.000000	45.537914
790.000000	45.520849
791.000000	45.503254
792.000000	45.489408
793.000000	45.474834
794.000000	45.456988
795.000000	45.441935
796.000000	45.430540
797.000000	45.417033
798.000000	45.403379
799.000000	45.391828
800.000000	45.378017
801.000000	45.362639
802.000000	45.345260
803.000000	45.334852
804.000000	45.330065
805.000000	45.325387
806.000000	45.323189
807.000000	45.319077
808.000000	45.316963
809.000000	45.315601
810.000000	45.313498
811.000000	45.316431
812.000000	45.323014
813.000000	45.331960
814.000000	45.343244
815.000000	45.353457
816.000000	45.369098
817.000000	45.384091
818.000000	45.395658
819.000000	45.413614
820.000000	45.434139
821.000000	45.457411
822.000000	45.473742
823.000000	45.495137
824.000000	45.510621
825.000000	45.525548
826.000000	45.546053
827.000000	45.567218
828.000000	45.583329
829.000000	45.604400
830.000000	45.623643
831.000000	45.640230
832.000000	45.655852
833.000000	45.671880
834.000000	45.685656
835.000000	45.696496
836.000000	45.705553
837.000000	45.714431
838.000000	45.709816
839.000000	45.709616
840.000000	45.705648
841.000000	45.700557
842.000000	45.690917
843.000000	45.682410
844.000000	45.667140
845.000000	45.656877
846.000000	45.634385
847.000000	45.611763
848.000000	45.587473
849.000000	45.557932
850.000000	45.518016
851.000000	45.483350
852.000000	45.450446
853.000000	45.422982
854.000000	45.386781
855.000000	45.347879
856.000000	45.292446
857.000000	45.233807
858.000000	45.135873
859.000000	45.117237
860.000000	45.066882
861.000000	45.037226
862.000000	45.011881
863.000000	44.991247
864.000000	44.960945
865.000000	44.933012
866.000000	44.888716
867.000000	44.887020
868.000000	44.778280
869.000000	44.766088
870.000000	44.709067
871.000000	44.642667
872.000000	44.584986
873.000000	44.486332
874.000000	44.441245
875.000000	44.388471
876.000000	44.343249
877.000000	44.301094
878.000000	44.264532
879.000000	44.243233
880.000000	44.187685
881.000000	44.096021
882.000000	44.034991
883.000000	43.975673
884.000000	43.907215
885.000000	43.846955
886.000000	43.721279
887.000000	43.654620
888.000000	43.571536
889.000000	43.499135
890.000000	43.402229
891.000000	43.297920
892.000000	43.198672
893.000000	43.159618
894.000000	43.054690
895.000000	42.977719
896.000000	42.850559
897.000000	42.761421
898.000000	42.641543
899.000000	42.491512
900.000000	42.384590
901.000000	42.240294
902.000000	42.058875
903.000000	42.020294
904.000000	41.845113
905.000000	41.703549
906.000000	41.588532
907.000000	41.456226
908.000000	41.377671
909.000000	41.231308
910.000000	41.078941
911.000000	40.942120
912.000000	40.764160
913.000000	40.588367
914.000000	40.428765
915.000000	40.296348
916.000000	40.200405
917.000000	40.098660
918.000000	39.923485
919.000000	39.790135
920.000000	39.679757
921.000000	39.616255
922.000000	39.479121
923.000000	39.371309
924.000000	39.269470
925.000000	39.167276
926.000000	39.082254
927.000000	38.980596
928.000000	38.885310
929.000000	38.759531
930.000000	38.609351
931.000000	38.519211
932.000000	38.380503
933.000000	38.271379
934.000000	38.192126
935.000000	38.056281
936.000000	38.002505
937.000000	37.903428
938.000000	37.754711
939.000000	37.680024
940.000000	37.575726
941.000000	37.467195
942.000000	37.404033
943.000000	37.291653
944.000000	37.211881
945.000000	37.181641
946.000000	37.137839
947.000000	37.062591
948.000000	37.004537
949.000000	36.930518
950.000000	36.848402
951.000000	36.770091
952.000000	36.683800
953.000000	36.677744
954.000000	36.615060
955.000000	36.532672
956.000000	36.483055
957.000000	36.420309
958.000000	36.366287
959.000000	36.359047
960.000000	36.355025
961.000000	36.263641
962.000000	36.201199
963.000000	36.117054
964.000000	36.035395
965.000000	36.028452
966.000000	36.026386
967.000000	36.010867
968.000000	35.971043
969.000000	35.963118
970.000000	35.990103
971.000000	35.987470
972.000000	36.009711
973.000000	36.009984
974.000000	35.989561
975.000000	36.005132
976.000000	36.039481
977.000000	36.045629
978.000000	36.066339
979.000000	36.084669
980.000000	36.065519
981.000000	36.034435
982.000000	36.129343
983.000000	36.174652
984.000000	36.181052
985.000000	36.208056
986.000000	36.251808
987.000000	36.298414
988.000000	36.326375
989.000000	36.379719
990.000000	36.455328
991.000000	36.493394
992.000000	36.588671
993.000000	36.637194
994.000000	36.612495
995.000000	36.611671
996.000000	36.704937
997.000000	36.820750
998.000000	36.915654
999.000000	37.045783
1000.000000	37.155724
1001.000000	37.199064
1002.000000	37.241440
1003.000000	37.314267
1004.000000	37.370176
1005.000000	37.390027
1006.000000	37.418893
1007.000000	37.483279
1008.000000	37.567367
1009.000000	37.629906
1010.000000	37.714936
1011.000000	37.783001
1012.000000	37.878981
1013.000000	37.990282
1014.000000	38.065585
1015.000000	38.169558
1016.000000	38.262863
1017.000000	38.282039
1018.000000	38.339693
1019.000000	38.447323
1020.000000	38.534827
1021.000000	38.635519
1022.000000	38.702389
1023.000000	38.777257
1024.000000	38.832027
1025.000000	38.855799
1026.000000	38.904841
1027.000000	38.948730
1028.000000	39.040721
1029.000000	39.134046
1030.000000	39.208858
1031.000000	39.299456
1032.000000	39.370753
1033.000000	39.435605
1034.000000	39.445676
1035.000000	39.457185
1036.000000	39.522271
1037.000000	39.634189
1038.000000	39.756914
1039.000000	39.815225
1040.000000	39.884657
1041.000000	39.973723
1042.000000	39.987194
1043.000000	40.034560
1044.000000	40.120289
1045.000000	40.193057
1046.000000	40.246964
1047.000000	40.279313
1048.000000	40.317777
1049.000000	40.400086
1050.000000	40.431618
1051.000000	40.480420
1052.000000	40.532801
1053.000000	40.596381
1054.000000	40.653714
1055.000000	40.699590
1056.000000	40.746704
1057.000000	40.824006
1058.000000	40.857184
1059.000000	40.907528
1060.000000	40.988632
1061.000000	41.048302
1062.000000	41.111525
1063.000000	41.165274
1064.000000	41.235325
1065.000000	41.341022
1066.000000	41.391623
1067.000000	41.468513
1068.000000	41.563219
1069.000000	41.672127
1070.000000	41.726473
1071.000000	41.776793
1072.000000	41.818972
1073.000000	41.875065
1074.000000	41.943637
1075.000000	42.020776
1076.000000	42.054973
1077.000000	42.149972
1078.000000	42.226775
1079.000000	42.286198
1080.000000	42.342099
1081.000000	42.440878
1082.000000	42.516237
1083.000000	42.580342
1084.000000	42.664892
1085.000000	42.744648
1086.000000	42.775487
1087.000000	42.856941
1088.000000	42.975635
1089.000000	43.063375
1090.000000	43.155802
1091.000000	43.198495
1092.000000	43.237862
1093.000000	43.347579
1094.000000	43.487532
1095.000000	43.604429
1096.000000	43.679827
1097.000000	43.727824
1098.000000	43.803215
1099.000000	43.880179
1100.000000	43.933972
1101.000000	44.021368
1102.000000	44.057745
1103.000000	44.119617
1104.000000	44.171476
1105.000000	44.296067
1106.000000	44.369522
1107.000000	44.435079
1108.000000	44.406528
1109.000000	44.473259
1110.000000	44.531593
1111.000000	44.637873
1112.000000	44.752547
1113.000000	44.868363
1114.000000	44.972051
1115.000000	45.035140
1116.000000	45.131602
1117.000000	45.200218
1118.000000	45.275722
1119.000000	45.310519
1120.000000	45.361557
1121.000000	45.504989
1122.000000	45.578560
1123.000000	45.545059
1124.000000	45.593038
1125.000000	45.729044
1126.000000	45.790145
1127.000000	45.841030
1128.000000	45.869977
1129.000000	45.812201
1130.000000	45.802276
1131.000000	45.866654
1132.000000	45.912516
1133.000000	45.937655
1134.000000	45.914296
1135.000000	45.977801
1136.000000	46.011133
1137.000000	46.107385
1138.000000	46.143531
1139.000000	46.201677
1140.000000	46.223229
1141.000000	46.289190
1142.000000	46.347092
1143.000000	46.421375
1144.000000	46.430065
1145.000000	46.469540
1146.000000	46.426228
1147.000000	46.395161
1148.000000	46.391277
1149.000000	46.358383
1150.000000	46.420602
1151.000000	46.397943
1152.000000	46.398358
1153.000000	46.409070
1154.000000	46.434512
1155.000000	46.434779
1156.000000	46.434232
1157.000000	46.461027
1158.000000	46.517251
1159.000000	46.509773
1160.000000	46.411566
1161.000000	46.443343
1162.000000	46.458886
1163.000000	46.425360
1164.000000	46.542876
1165.000000	46.574567
1166.000000	46.573137
1167.000000	46.600905
1168.000000	46.600714
1169.000000	46.634659
1170.000000	46.589343
1171.000000	46.571204
1172.000000	46.562199
1173.000000	46.533201
1174.000000	46.541604
1175.000000	46.547122
1176.000000	46.591168
1177.000000	46.585618
1178.000000	46.648232
1179.000000	46.670310
1180.000000	46.680963
1181.000000	46.744491
1182.000000	46.784853
1183.000000	46.813983
1184.000000	46.866652
1185.000000	46.832039
1186.000000	46.852469
1187.000000	46.944372
1188.000000	46.939112
1189.000000	46.919953
1190.000000	46.941534
1191.000000	46.911691
1192.000000	46.925049
1193.000000	46.928670
1194.000000	46.968247
1195.000000	47.079335
1196.000000	47.111600
1197.000000	47.140860
1198.000000	47.252796
1199.000000	47.274130
1200.000000	47.294310
1201.000000	47.309660
1202.000000	47.354827
1203.000000	47.350665
