PE UV       SUBTECH     SPECTRUM    ASCII       PEDS        4.00        
   -1
S.GLAB.0620-TX3.ASC
23/11/30
12:29:55.00
23/11/30
12:29:55.00
Vinicio Soto Monge
STRIGIDA GLABRA INBIOCRI0003420620
250,000000
1
Lambda 1050
1050L1511233
PerkinElmer UV WinLab 6.3.2.0749 / 2.02.05 Lambda 900 UV/VIS/NIR, Aug  7 2015 09:38:08

0
0
3350/servo 860,8/2
0
0
UV/VIS
1
1
1
DoubleDePol,CommonBeamDepol,RBeamAtt,SBeamAtt,60mm sphere, WB InGaAs Detector
0
0
0
0
Program
Program
3350/servo 860,8/2
3350/0,4 860,8/0,4
3350/0,4 860,8/0,4
0
20.00
 
 
 
0
 
860,8
319,2
860,8
Front
100
on
S:100 R:100
0
0
0
0
 
0
 
 
 
0
 
 
0
0
0
0
0
 
 
 
 
0
0


0
0
#HDR
-1
-1
#GR
nm
%R
1.0
0.0
2200,000000
-1,000000
1951
8
56,969429
0,360001
#DATA
284.000000	5.014294
285.000000	5.044845
286.000000	5.071522
287.000000	5.098211
288.000000	5.124404
289.000000	5.148275
290.000000	5.172027
291.000000	5.194710
292.000000	5.216761
293.000000	5.237701
294.000000	5.256957
295.000000	5.273106
296.000000	5.289829
297.000000	5.306410
298.000000	5.324549
299.000000	5.340586
300.000000	5.353993
301.000000	5.370231
302.000000	5.384690
303.000000	5.397472
304.000000	5.409905
305.000000	5.421675
306.000000	5.431486
307.000000	5.440529
308.000000	5.452268
309.000000	5.461171
310.000000	5.469315
311.000000	5.476553
312.000000	5.482995
313.000000	5.489565
314.000000	5.495611
315.000000	5.501201
316.000000	5.504721
317.000000	5.500665
318.000000	5.497823
319.000000	5.496105
320.000000	5.492660
321.000000	5.491390
322.000000	5.490243
323.000000	5.482224
324.000000	5.479529
325.000000	5.470889
326.000000	5.462199
327.000000	5.455532
328.000000	5.448031
329.000000	5.438256
330.000000	5.432556
331.000000	5.423251
332.000000	5.411074
333.000000	5.401475
334.000000	5.389979
335.000000	5.379147
336.000000	5.365466
337.000000	5.354637
338.000000	5.344443
339.000000	5.331054
340.000000	5.318289
341.000000	5.306903
342.000000	5.295484
343.000000	5.281691
344.000000	5.271123
345.000000	5.259089
346.000000	5.247226
347.000000	5.234732
348.000000	5.222177
349.000000	5.211582
350.000000	5.200906
351.000000	5.191307
352.000000	5.185796
353.000000	5.178248
354.000000	5.170277
355.000000	5.163602
356.000000	5.156430
357.000000	5.146963
358.000000	5.144496
359.000000	5.136254
360.000000	5.132494
361.000000	5.129473
362.000000	5.122739
363.000000	5.117127
364.000000	5.113688
365.000000	5.107440
366.000000	5.104275
367.000000	5.101475
368.000000	5.095532
369.000000	5.091850
370.000000	5.086741
371.000000	5.081805
372.000000	5.076397
373.000000	5.069796
374.000000	5.065910
375.000000	5.060913
376.000000	5.054704
377.000000	5.052275
378.000000	5.049581
379.000000	5.044610
380.000000	5.042152
381.000000	5.038788
382.000000	5.035482
383.000000	5.031623
384.000000	5.026892
385.000000	5.022158
386.000000	5.016681
387.000000	5.013192
388.000000	5.011251
389.000000	5.007539
390.000000	5.003533
391.000000	4.999260
392.000000	4.995669
393.000000	4.990727
394.000000	4.986065
395.000000	4.982884
396.000000	4.978114
397.000000	4.975351
398.000000	4.971953
399.000000	4.967915
400.000000	4.963511
401.000000	4.958966
402.000000	4.955770
403.000000	4.952025
404.000000	4.948589
405.000000	4.946709
406.000000	4.944366
407.000000	4.940650
408.000000	4.938040
409.000000	4.935458
410.000000	4.933478
411.000000	4.931664
412.000000	4.927786
413.000000	4.924202
414.000000	4.920651
415.000000	4.916960
416.000000	4.913618
417.000000	4.910913
418.000000	4.908264
419.000000	4.905495
420.000000	4.902937
421.000000	4.901080
422.000000	4.899298
423.000000	4.897436
424.000000	4.895945
425.000000	4.894709
426.000000	4.893623
427.000000	4.892571
428.000000	4.891559
429.000000	4.890642
430.000000	4.890029
431.000000	4.889782
432.000000	4.889278
433.000000	4.889170
434.000000	4.889004
435.000000	4.888971
436.000000	4.889320
437.000000	4.889433
438.000000	4.889776
439.000000	4.890109
440.000000	4.890666
441.000000	4.891412
442.000000	4.892349
443.000000	4.893279
444.000000	4.894439
445.000000	4.895468
446.000000	4.896625
447.000000	4.898024
448.000000	4.899371
449.000000	4.900914
450.000000	4.902568
451.000000	4.904329
452.000000	4.906219
453.000000	4.908173
454.000000	4.910259
455.000000	4.912119
456.000000	4.913499
457.000000	4.915099
458.000000	4.917140
459.000000	4.919247
460.000000	4.921390
461.000000	4.923558
462.000000	4.925891
463.000000	4.928429
464.000000	4.930911
465.000000	4.933400
466.000000	4.936058
467.000000	4.939069
468.000000	4.942233
469.000000	4.945699
470.000000	4.949214
471.000000	4.952753
472.000000	4.956690
473.000000	4.960856
474.000000	4.965260
475.000000	4.969677
476.000000	4.974024
477.000000	4.978850
478.000000	4.984067
479.000000	4.989646
480.000000	4.995472
481.000000	5.001187
482.000000	5.006664
483.000000	5.012571
484.000000	5.019010
485.000000	5.026160
486.000000	5.034032
487.000000	5.042676
488.000000	5.052298
489.000000	5.063042
490.000000	5.075294
491.000000	5.089103
492.000000	5.104217
493.000000	5.120458
494.000000	5.138305
495.000000	5.158105
496.000000	5.179868
497.000000	5.203205
498.000000	5.228580
499.000000	5.256018
500.000000	5.285133
501.000000	5.315620
502.000000	5.347999
503.000000	5.382227
504.000000	5.418108
505.000000	5.455666
506.000000	5.495246
507.000000	5.537007
508.000000	5.580739
509.000000	5.627224
510.000000	5.676444
511.000000	5.728450
512.000000	5.783778
513.000000	5.842735
514.000000	5.905805
515.000000	5.973373
516.000000	6.045798
517.000000	6.123416
518.000000	6.206278
519.000000	6.294719
520.000000	6.388874
521.000000	6.489127
522.000000	6.595970
523.000000	6.709452
524.000000	6.829559
525.000000	6.956226
526.000000	7.089846
527.000000	7.230739
528.000000	7.379274
529.000000	7.535116
530.000000	7.698473
531.000000	7.869499
532.000000	8.048617
533.000000	8.235515
534.000000	8.430555
535.000000	8.633706
536.000000	8.845645
537.000000	9.065665
538.000000	9.293734
539.000000	9.530081
540.000000	9.774287
541.000000	10.026109
542.000000	10.285417
543.000000	10.551819
544.000000	10.824768
545.000000	11.103795
546.000000	11.388592
547.000000	11.677504
548.000000	11.970609
549.000000	12.266268
550.000000	12.564090
551.000000	12.862997
552.000000	13.162040
553.000000	13.460398
554.000000	13.756549
555.000000	14.049275
556.000000	14.337447
557.000000	14.619886
558.000000	14.894952
559.000000	15.161901
560.000000	15.419586
561.000000	15.666671
562.000000	15.902265
563.000000	16.125147
564.000000	16.334201
565.000000	16.528579
566.000000	16.707688
567.000000	16.871429
568.000000	17.018771
569.000000	17.148974
570.000000	17.261982
571.000000	17.357955
572.000000	17.436557
573.000000	17.498112
574.000000	17.542949
575.000000	17.571743
576.000000	17.584618
577.000000	17.582323
578.000000	17.565812
579.000000	17.535594
580.000000	17.492837
581.000000	17.438080
582.000000	17.373133
583.000000	17.298709
584.000000	17.216699
585.000000	17.127628
586.000000	17.033606
587.000000	16.936080
588.000000	16.835996
589.000000	16.734819
590.000000	16.633855
591.000000	16.534904
592.000000	16.437975
593.000000	16.345173
594.000000	16.257150
595.000000	16.174953
596.000000	16.099242
597.000000	16.030373
598.000000	15.968550
599.000000	15.915273
600.000000	15.870340
601.000000	15.834112
602.000000	15.806670
603.000000	15.788210
604.000000	15.779794
605.000000	15.781054
606.000000	15.791906
607.000000	15.812616
608.000000	15.843052
609.000000	15.883334
610.000000	15.932567
611.000000	15.991389
612.000000	16.059411
613.000000	16.135997
614.000000	16.220784
615.000000	16.314014
616.000000	16.414676
617.000000	16.522178
618.000000	16.636544
619.000000	16.756696
620.000000	16.883086
621.000000	17.013555
622.000000	17.147840
623.000000	17.285140
624.000000	17.424940
625.000000	17.566237
626.000000	17.708526
627.000000	17.852481
628.000000	17.996936
629.000000	18.141518
630.000000	18.286291
631.000000	18.431663
632.000000	18.577080
633.000000	18.723614
634.000000	18.870296
635.000000	19.017944
636.000000	19.167478
637.000000	19.318950
638.000000	19.472352
639.000000	19.627310
640.000000	19.785840
641.000000	19.946864
642.000000	20.110872
643.000000	20.278348
644.000000	20.449087
645.000000	20.623438
646.000000	20.801112
647.000000	20.981598
648.000000	21.164937
649.000000	21.351357
650.000000	21.539915
651.000000	21.732185
652.000000	21.927533
653.000000	22.124928
654.000000	22.324520
655.000000	22.525372
656.000000	22.728015
657.000000	22.932127
658.000000	23.137657
659.000000	23.345650
660.000000	23.557344
661.000000	23.771243
662.000000	23.986485
663.000000	24.204202
664.000000	24.424399
665.000000	24.646393
666.000000	24.870757
667.000000	25.098010
668.000000	25.328741
669.000000	25.562720
670.000000	25.799370
671.000000	26.038351
672.000000	26.280020
673.000000	26.524682
674.000000	26.771396
675.000000	27.019017
676.000000	27.269134
677.000000	27.520939
678.000000	27.774257
679.000000	28.028387
680.000000	28.284401
681.000000	28.541004
682.000000	28.798549
683.000000	29.057853
684.000000	29.317489
685.000000	29.577272
686.000000	29.837286
687.000000	30.097977
688.000000	30.356743
689.000000	30.616577
690.000000	30.875779
691.000000	31.136197
692.000000	31.397140
693.000000	31.658910
694.000000	31.920623
695.000000	32.181475
696.000000	32.442638
697.000000	32.703516
698.000000	32.964038
699.000000	33.226276
700.000000	33.489314
701.000000	33.753321
702.000000	34.018778
703.000000	34.283782
704.000000	34.549637
705.000000	34.816210
706.000000	35.083432
707.000000	35.351566
708.000000	35.620897
709.000000	35.892193
710.000000	36.164426
711.000000	36.439108
712.000000	36.715582
713.000000	36.991472
714.000000	37.269254
715.000000	37.547358
716.000000	37.826668
717.000000	38.106025
718.000000	38.386122
719.000000	38.666735
720.000000	38.950012
721.000000	39.234938
722.000000	39.519122
723.000000	39.805910
724.000000	40.092850
725.000000	40.380493
726.000000	40.669407
727.000000	40.959099
728.000000	41.249223
729.000000	41.537909
730.000000	41.826778
731.000000	42.115806
732.000000	42.404671
733.000000	42.692668
734.000000	42.977884
735.000000	43.262606
736.000000	43.547056
737.000000	43.828225
738.000000	44.107345
739.000000	44.382259
740.000000	44.653485
741.000000	44.920219
742.000000	45.181563
743.000000	45.438484
744.000000	45.686320
745.000000	45.928016
746.000000	46.162729
747.000000	46.388529
748.000000	46.608160
749.000000	46.818297
750.000000	47.018602
751.000000	47.210215
752.000000	47.393011
753.000000	47.566371
754.000000	47.730932
755.000000	47.884368
756.000000	48.027040
757.000000	48.160706
758.000000	48.283559
759.000000	48.394980
760.000000	48.496140
761.000000	48.586702
762.000000	48.667801
763.000000	48.739003
764.000000	48.804007
765.000000	48.859710
766.000000	48.903522
767.000000	48.939483
768.000000	48.966876
769.000000	48.987412
770.000000	48.997829
771.000000	49.000543
772.000000	48.998526
773.000000	48.988351
774.000000	48.972569
775.000000	48.953563
776.000000	48.930583
777.000000	48.902485
778.000000	48.871038
779.000000	48.839772
780.000000	48.810272
781.000000	48.775132
782.000000	48.742768
783.000000	48.711669
784.000000	48.681604
785.000000	48.654873
786.000000	48.628903
787.000000	48.602371
788.000000	48.577708
789.000000	48.559212
790.000000	48.544409
791.000000	48.533141
792.000000	48.525551
793.000000	48.518381
794.000000	48.516623
795.000000	48.521472
796.000000	48.532338
797.000000	48.545888
798.000000	48.563352
799.000000	48.584386
800.000000	48.606444
801.000000	48.637884
802.000000	48.675127
803.000000	48.719356
804.000000	48.764775
805.000000	48.811829
806.000000	48.862068
807.000000	48.918080
808.000000	48.976952
809.000000	49.040744
810.000000	49.108602
811.000000	49.180775
812.000000	49.257172
813.000000	49.337036
814.000000	49.420443
815.000000	49.500037
816.000000	49.583610
817.000000	49.671900
818.000000	49.760470
819.000000	49.847555
820.000000	49.932222
821.000000	50.026747
822.000000	50.118487
823.000000	50.215211
824.000000	50.307894
825.000000	50.399444
826.000000	50.491466
827.000000	50.584996
828.000000	50.688461
829.000000	50.786821
830.000000	50.883643
831.000000	50.973526
832.000000	51.069843
833.000000	51.161495
834.000000	51.257009
835.000000	51.358219
836.000000	51.451409
837.000000	51.544248
838.000000	51.637987
839.000000	51.726550
840.000000	51.819221
841.000000	51.909271
842.000000	51.996575
843.000000	52.076035
844.000000	52.161399
845.000000	52.257227
846.000000	52.338051
847.000000	52.421244
848.000000	52.500839
849.000000	52.577255
850.000000	52.662713
851.000000	52.750678
852.000000	52.840922
853.000000	52.920260
854.000000	52.997780
855.000000	53.078477
856.000000	53.145212
857.000000	53.218136
858.000000	53.282433
859.000000	53.387922
860.000000	53.476038
861.000000	53.585683
862.000000	53.670799
863.000000	53.748601
864.000000	53.846665
865.000000	53.916431
866.000000	54.007690
867.000000	54.118389
868.000000	54.202521
869.000000	54.281088
870.000000	54.363665
871.000000	54.447886
872.000000	54.517184
873.000000	54.599923
874.000000	54.687667
875.000000	54.778095
876.000000	54.861299
877.000000	54.923340
878.000000	55.022839
879.000000	55.091584
880.000000	55.149181
881.000000	55.253328
882.000000	55.328160
883.000000	55.399412
884.000000	55.497727
885.000000	55.584016
886.000000	55.657755
887.000000	55.729144
888.000000	55.763099
889.000000	55.829699
890.000000	55.888957
891.000000	55.945658
892.000000	56.025619
893.000000	56.114062
894.000000	56.180133
895.000000	56.246996
896.000000	56.295237
897.000000	56.342047
898.000000	56.419531
899.000000	56.438048
900.000000	56.530874
901.000000	56.581780
902.000000	56.604995
903.000000	56.656063
904.000000	56.721219
905.000000	56.736186
906.000000	56.791958
907.000000	56.827118
908.000000	56.876641
909.000000	56.932876
910.000000	56.956659
911.000000	56.996853
912.000000	57.048572
913.000000	57.091495
914.000000	57.163374
915.000000	57.230432
916.000000	57.256876
917.000000	57.291953
918.000000	57.335847
919.000000	57.380527
920.000000	57.382912
921.000000	57.439135
922.000000	57.466269
923.000000	57.536055
924.000000	57.563879
925.000000	57.590607
926.000000	57.632175
927.000000	57.650204
928.000000	57.676047
929.000000	57.660287
930.000000	57.683735
931.000000	57.695479
932.000000	57.722558
933.000000	57.752240
934.000000	57.831867
935.000000	57.828351
936.000000	57.850580
937.000000	57.900674
938.000000	57.931110
939.000000	57.941920
940.000000	58.010541
941.000000	58.024324
942.000000	58.074411
943.000000	58.068941
944.000000	58.097952
945.000000	58.141862
946.000000	58.183144
947.000000	58.223267
948.000000	58.253902
949.000000	58.274346
950.000000	58.294140
951.000000	58.293695
952.000000	58.293452
953.000000	58.301497
954.000000	58.301549
955.000000	58.318147
956.000000	58.305452
957.000000	58.312408
958.000000	58.309057
959.000000	58.326727
960.000000	58.370463
961.000000	58.380443
962.000000	58.444709
963.000000	58.496554
964.000000	58.535674
965.000000	58.573334
966.000000	58.610591
967.000000	58.660534
968.000000	58.659630
969.000000	58.644585
970.000000	58.658236
971.000000	58.684729
972.000000	58.687443
973.000000	58.685424
974.000000	58.698648
975.000000	58.701377
976.000000	58.733952
977.000000	58.753119
978.000000	58.804369
979.000000	58.810641
980.000000	58.838546
981.000000	58.844174
982.000000	58.861001
983.000000	58.861570
984.000000	58.872183
985.000000	58.914396
986.000000	58.972248
987.000000	59.029640
988.000000	59.063095
989.000000	59.051409
990.000000	59.074465
991.000000	59.098068
992.000000	59.155962
993.000000	59.205290
994.000000	59.224210
995.000000	59.242487
996.000000	59.301818
997.000000	59.294290
998.000000	59.265004
999.000000	59.284455
1000.000000	59.278886
1001.000000	59.265716
1002.000000	59.240484
1003.000000	59.238868
1004.000000	59.236080
1005.000000	59.245756
1006.000000	59.245747
1007.000000	59.248876
1008.000000	59.300263
1009.000000	59.333741
1010.000000	59.360034
1011.000000	59.360870
1012.000000	59.355880
1013.000000	59.336471
1014.000000	59.349180
1015.000000	59.364745
1016.000000	59.401577
1017.000000	59.397822
1018.000000	59.411474
1019.000000	59.421676
1020.000000	59.391975
1021.000000	59.374482
1022.000000	59.384849
1023.000000	59.389119
1024.000000	59.421134
1025.000000	59.441224
1026.000000	59.423275
1027.000000	59.380595
1028.000000	59.369326
1029.000000	59.356518
1030.000000	59.357214
1031.000000	59.339432
1032.000000	59.322234
1033.000000	59.320957
1034.000000	59.311873
1035.000000	59.314151
1036.000000	59.335664
1037.000000	59.375029
1038.000000	59.388934
1039.000000	59.404555
1040.000000	59.432984
1041.000000	59.426782
1042.000000	59.430771
1043.000000	59.446775
1044.000000	59.457630
1045.000000	59.457638
1046.000000	59.456308
1047.000000	59.477393
1048.000000	59.510940
1049.000000	59.481148
1050.000000	59.440051
1051.000000	59.411492
1052.000000	59.416420
1053.000000	59.402470
1054.000000	59.381429
1055.000000	59.397542
1056.000000	59.396075
1057.000000	59.379101
1058.000000	59.388715
1059.000000	59.391748
1060.000000	59.428647
1061.000000	59.456866
1062.000000	59.480587
1063.000000	59.479031
1064.000000	59.507442
1065.000000	59.501111
1066.000000	59.524807
1067.000000	59.571967
1068.000000	59.587948
1069.000000	59.598765
1070.000000	59.588733
1071.000000	59.575731
1072.000000	59.544874
1073.000000	59.529110
1074.000000	59.538637
1075.000000	59.547129
1076.000000	59.553653
1077.000000	59.544144
1078.000000	59.509161
1079.000000	59.475264
1080.000000	59.462377
1081.000000	59.449790
1082.000000	59.422039
1083.000000	59.426855
1084.000000	59.442537
1085.000000	59.444639
1086.000000	59.459539
1087.000000	59.447687
1088.000000	59.470285
1089.000000	59.496634
1090.000000	59.455771
1091.000000	59.445927
1092.000000	59.440532
1093.000000	59.421862
1094.000000	59.406375
1095.000000	59.380086
1096.000000	59.364143
1097.000000	59.363674
1098.000000	59.376104
1099.000000	59.392050
1100.000000	59.364178
1101.000000	59.324223
1102.000000	59.291393
1103.000000	59.263458
1104.000000	59.263299
1105.000000	59.246700
1106.000000	59.269654
1107.000000	59.288002
1108.000000	59.272017
1109.000000	59.255143
1110.000000	59.224863
1111.000000	59.240720
1112.000000	59.212277
1113.000000	59.192172
1114.000000	59.203777
1115.000000	59.204437
1116.000000	59.194288
1117.000000	59.179958
1118.000000	59.179082
1119.000000	59.165431
1120.000000	59.171384
1121.000000	59.146672
1122.000000	59.160590
1123.000000	59.169995
1124.000000	59.193334
1125.000000	59.231354
1126.000000	59.233809
1127.000000	59.246503
1128.000000	59.263018
1129.000000	59.281789
1130.000000	59.258712
1131.000000	59.281319
1132.000000	59.251607
1133.000000	59.246666
1134.000000	59.276498
1135.000000	59.296777
1136.000000	59.361430
1137.000000	59.358175
1138.000000	59.383896
1139.000000	59.366762
1140.000000	59.346009
1141.000000	59.292385
1142.000000	59.250661
1143.000000	59.262918
1144.000000	59.276019
1145.000000	59.261881
1146.000000	59.242707
1147.000000	59.268560
1148.000000	59.281242
1149.000000	59.255547
1150.000000	59.238504
1151.000000	59.222946
1152.000000	59.250632
1153.000000	59.196294
1154.000000	59.188180
1155.000000	59.195982
1156.000000	59.190960
1157.000000	59.166599
1158.000000	59.097308
1159.000000	59.028676
1160.000000	58.994072
1161.000000	58.981398
1162.000000	58.915207
1163.000000	58.868992
1164.000000	58.798245
1165.000000	58.773950
1166.000000	58.731980
1167.000000	58.739052
1168.000000	58.667529
1169.000000	58.548663
1170.000000	58.494003
1171.000000	58.407608
1172.000000	58.367600
1173.000000	58.357428
1174.000000	58.360305
1175.000000	58.354831
1176.000000	58.331780
1177.000000	58.324488
1178.000000	58.287082
1179.000000	58.232431
1180.000000	58.198318
1181.000000	58.179653
1182.000000	58.134641
1183.000000	58.101199
1184.000000	58.105292
1185.000000	58.069773
1186.000000	58.035504
1187.000000	57.997958
1188.000000	57.992954
1189.000000	57.947453
1190.000000	57.903660
1191.000000	57.889626
1192.000000	57.869614
1193.000000	57.856734
1194.000000	57.828250
1195.000000	57.792178
1196.000000	57.743947
1197.000000	57.734503
1198.000000	57.742549
1199.000000	57.793509
1200.000000	57.818553
1201.000000	57.808680
1202.000000	57.797128
1203.000000	57.824839
