PE UV       SUBTECH     SPECTRUM    ASCII       PEDS        4.00        
   -1
P.GRAT.3610-TX3.ASC
23/11/30
13:34:42.00
23/11/30
13:34:42.00
Vinicio Soto Monge
PTENOMELA GRATIOSA 03610
250,000000
1
Lambda 1050
1050L1511233
PerkinElmer UV WinLab 6.3.2.0749 / 2.02.05 Lambda 900 UV/VIS/NIR, Aug  7 2015 09:38:08

0
0
3350/servo 860,8/2
0
0
UV/VIS
1
1
1
DoubleDePol,CommonBeamDepol,RBeamAtt,SBeamAtt,60mm sphere, WB InGaAs Detector
0
0
0
0
Program
Program
3350/servo 860,8/2
3350/0,4 860,8/0,4
3350/0,4 860,8/0,4
0
20.00
 
 
 
0
 
860,8
319,2
860,8
Front
100
on
S:100 R:100
0
0
0
0
 
0
 
 
 
0
 
 
0
0
0
0
0
 
 
 
 
0
0


0
0
#HDR
-1
-1
#GR
nm
%R
1.0
0.0
2200,000000
-1,000000
1951
8
63,190396
0,115787
#DATA
284.000000	6.498851
285.000000	6.475070
286.000000	6.450511
287.000000	6.430409
288.000000	6.412459
289.000000	6.394564
290.000000	6.377735
291.000000	6.363526
292.000000	6.349668
293.000000	6.337910
294.000000	6.325993
295.000000	6.315054
296.000000	6.304380
297.000000	6.295122
298.000000	6.287317
299.000000	6.279149
300.000000	6.272225
301.000000	6.264839
302.000000	6.260149
303.000000	6.254483
304.000000	6.251040
305.000000	6.248062
306.000000	6.244012
307.000000	6.240385
308.000000	6.238047
309.000000	6.234214
310.000000	6.230554
311.000000	6.227465
312.000000	6.220680
313.000000	6.214744
314.000000	6.210414
315.000000	6.206735
316.000000	6.203043
317.000000	6.201635
318.000000	6.195497
319.000000	6.186713
320.000000	6.183250
321.000000	6.180286
322.000000	6.175606
323.000000	6.164371
324.000000	6.157013
325.000000	6.145420
326.000000	6.133232
327.000000	6.121754
328.000000	6.109411
329.000000	6.096900
330.000000	6.086405
331.000000	6.074415
332.000000	6.059389
333.000000	6.043883
334.000000	6.028896
335.000000	6.013471
336.000000	5.998647
337.000000	5.984794
338.000000	5.971124
339.000000	5.951853
340.000000	5.932918
341.000000	5.917125
342.000000	5.900793
343.000000	5.883830
344.000000	5.868639
345.000000	5.852033
346.000000	5.835451
347.000000	5.820631
348.000000	5.806259
349.000000	5.791856
350.000000	5.778045
351.000000	5.762640
352.000000	5.742939
353.000000	5.730452
354.000000	5.720471
355.000000	5.705402
356.000000	5.690237
357.000000	5.674526
358.000000	5.665299
359.000000	5.653396
360.000000	5.643708
361.000000	5.631820
362.000000	5.619899
363.000000	5.608694
364.000000	5.596574
365.000000	5.582122
366.000000	5.570685
367.000000	5.560395
368.000000	5.549917
369.000000	5.538456
370.000000	5.526536
371.000000	5.514007
372.000000	5.503332
373.000000	5.492086
374.000000	5.484138
375.000000	5.476474
376.000000	5.464543
377.000000	5.452913
378.000000	5.440074
379.000000	5.427884
380.000000	5.416847
381.000000	5.405169
382.000000	5.392840
383.000000	5.380849
384.000000	5.367453
385.000000	5.352503
386.000000	5.338921
387.000000	5.326631
388.000000	5.313030
389.000000	5.299460
390.000000	5.285748
391.000000	5.273081
392.000000	5.260079
393.000000	5.245940
394.000000	5.232265
395.000000	5.219686
396.000000	5.207990
397.000000	5.196395
398.000000	5.183593
399.000000	5.171634
400.000000	5.160832
401.000000	5.149543
402.000000	5.138276
403.000000	5.127034
404.000000	5.116760
405.000000	5.107339
406.000000	5.097509
407.000000	5.084800
408.000000	5.073563
409.000000	5.063284
410.000000	5.053677
411.000000	5.045455
412.000000	5.037570
413.000000	5.029988
414.000000	5.022312
415.000000	5.014997
416.000000	5.008349
417.000000	5.001901
418.000000	4.995475
419.000000	4.989570
420.000000	4.984190
421.000000	4.978852
422.000000	4.973634
423.000000	4.968557
424.000000	4.963679
425.000000	4.958794
426.000000	4.953828
427.000000	4.949242
428.000000	4.944917
429.000000	4.941288
430.000000	4.937359
431.000000	4.933841
432.000000	4.930659
433.000000	4.927719
434.000000	4.925176
435.000000	4.922084
436.000000	4.919190
437.000000	4.916574
438.000000	4.914170
439.000000	4.911927
440.000000	4.909579
441.000000	4.907418
442.000000	4.905465
443.000000	4.903597
444.000000	4.901923
445.000000	4.900322
446.000000	4.898925
447.000000	4.897833
448.000000	4.896970
449.000000	4.896535
450.000000	4.895889
451.000000	4.895075
452.000000	4.894711
453.000000	4.894552
454.000000	4.894451
455.000000	4.894402
456.000000	4.894345
457.000000	4.894377
458.000000	4.894907
459.000000	4.895482
460.000000	4.896112
461.000000	4.897137
462.000000	4.898438
463.000000	4.899845
464.000000	4.901221
465.000000	4.902993
466.000000	4.905082
467.000000	4.907400
468.000000	4.909582
469.000000	4.912090
470.000000	4.915319
471.000000	4.919143
472.000000	4.923465
473.000000	4.928096
474.000000	4.933432
475.000000	4.939169
476.000000	4.945451
477.000000	4.952779
478.000000	4.960827
479.000000	4.969881
480.000000	4.979783
481.000000	4.990707
482.000000	5.002855
483.000000	5.016394
484.000000	5.031428
485.000000	5.048464
486.000000	5.067391
487.000000	5.088177
488.000000	5.111076
489.000000	5.136780
490.000000	5.165245
491.000000	5.196958
492.000000	5.232128
493.000000	5.270828
494.000000	5.313818
495.000000	5.361202
496.000000	5.413338
497.000000	5.470317
498.000000	5.532834
499.000000	5.601253
500.000000	5.675434
501.000000	5.756219
502.000000	5.843765
503.000000	5.939049
504.000000	6.042348
505.000000	6.153709
506.000000	6.273593
507.000000	6.402735
508.000000	6.541232
509.000000	6.689154
510.000000	6.847234
511.000000	7.014745
512.000000	7.190616
513.000000	7.374981
514.000000	7.566178
515.000000	7.763086
516.000000	7.964538
517.000000	8.168434
518.000000	8.374022
519.000000	8.580020
520.000000	8.785180
521.000000	8.989514
522.000000	9.192442
523.000000	9.393561
524.000000	9.592453
525.000000	9.789518
526.000000	9.984696
527.000000	10.178243
528.000000	10.370117
529.000000	10.560067
530.000000	10.748288
531.000000	10.934783
532.000000	11.119149
533.000000	11.300733
534.000000	11.479221
535.000000	11.654030
536.000000	11.825063
537.000000	11.991666
538.000000	12.152762
539.000000	12.307510
540.000000	12.455757
541.000000	12.596883
542.000000	12.729558
543.000000	12.853656
544.000000	12.967921
545.000000	13.071862
546.000000	13.165407
547.000000	13.248231
548.000000	13.320092
549.000000	13.381404
550.000000	13.432146
551.000000	13.472663
552.000000	13.503998
553.000000	13.525371
554.000000	13.537882
555.000000	13.541741
556.000000	13.536274
557.000000	13.521523
558.000000	13.496582
559.000000	13.461852
560.000000	13.415481
561.000000	13.357583
562.000000	13.287949
563.000000	13.206698
564.000000	13.113643
565.000000	13.009166
566.000000	12.893725
567.000000	12.768112
568.000000	12.633095
569.000000	12.489203
570.000000	12.338058
571.000000	12.179464
572.000000	12.014543
573.000000	11.845015
574.000000	11.670818
575.000000	11.492830
576.000000	11.311545
577.000000	11.127799
578.000000	10.941804
579.000000	10.754936
580.000000	10.567322
581.000000	10.379249
582.000000	10.191882
583.000000	10.006740
584.000000	9.824273
585.000000	9.645729
586.000000	9.472193
587.000000	9.304512
588.000000	9.144119
589.000000	8.990970
590.000000	8.846067
591.000000	8.710319
592.000000	8.583690
593.000000	8.467609
594.000000	8.361272
595.000000	8.266317
596.000000	8.182501
597.000000	8.109295
598.000000	8.046512
599.000000	7.993670
600.000000	7.950443
601.000000	7.915835
602.000000	7.889575
603.000000	7.870598
604.000000	7.858810
605.000000	7.852650
606.000000	7.851694
607.000000	7.855658
608.000000	7.862811
609.000000	7.873275
610.000000	7.886130
611.000000	7.901048
612.000000	7.918088
613.000000	7.937019
614.000000	7.957340
615.000000	7.979108
616.000000	8.001742
617.000000	8.025255
618.000000	8.048807
619.000000	8.073131
620.000000	8.098083
621.000000	8.123096
622.000000	8.148256
623.000000	8.174106
624.000000	8.199626
625.000000	8.224978
626.000000	8.250735
627.000000	8.277461
628.000000	8.303905
629.000000	8.331180
630.000000	8.359160
631.000000	8.387664
632.000000	8.416706
633.000000	8.446737
634.000000	8.478364
635.000000	8.511578
636.000000	8.546633
637.000000	8.583682
638.000000	8.623137
639.000000	8.664618
640.000000	8.709435
641.000000	8.757958
642.000000	8.809244
643.000000	8.864675
644.000000	8.925049
645.000000	8.991109
646.000000	9.062440
647.000000	9.139200
648.000000	9.222361
649.000000	9.312568
650.000000	9.409689
651.000000	9.514922
652.000000	9.628068
653.000000	9.750171
654.000000	9.880994
655.000000	10.020262
656.000000	10.168416
657.000000	10.325085
658.000000	10.491116
659.000000	10.667644
660.000000	10.854200
661.000000	11.049800
662.000000	11.254560
663.000000	11.469119
664.000000	11.692471
665.000000	11.925334
666.000000	12.166173
667.000000	12.415694
668.000000	12.673922
669.000000	12.940143
670.000000	13.213851
671.000000	13.494411
672.000000	13.782253
673.000000	14.076019
674.000000	14.375390
675.000000	14.679553
676.000000	14.988213
677.000000	15.301510
678.000000	15.618570
679.000000	15.938881
680.000000	16.261596
681.000000	16.585688
682.000000	16.912200
683.000000	17.239889
684.000000	17.567653
685.000000	17.895111
686.000000	18.221891
687.000000	18.546950
688.000000	18.870915
689.000000	19.193874
690.000000	19.513935
691.000000	19.832573
692.000000	20.148936
693.000000	20.461974
694.000000	20.772000
695.000000	21.077615
696.000000	21.380302
697.000000	21.679523
698.000000	21.973918
699.000000	22.265015
700.000000	22.551314
701.000000	22.834705
702.000000	23.114515
703.000000	23.390812
704.000000	23.664070
705.000000	23.932998
706.000000	24.198688
707.000000	24.460662
708.000000	24.720719
709.000000	24.979593
710.000000	25.235280
711.000000	25.487897
712.000000	25.737626
713.000000	25.984679
714.000000	26.229274
715.000000	26.471145
716.000000	26.712580
717.000000	26.950757
718.000000	27.186390
719.000000	27.419512
720.000000	27.650861
721.000000	27.880201
722.000000	28.108147
723.000000	28.333006
724.000000	28.555733
725.000000	28.777811
726.000000	28.998446
727.000000	29.217339
728.000000	29.434537
729.000000	29.649748
730.000000	29.864881
731.000000	30.077141
732.000000	30.287824
733.000000	30.498862
734.000000	30.707562
735.000000	30.916459
736.000000	31.125254
737.000000	31.331750
738.000000	31.536425
739.000000	31.737952
740.000000	31.939073
741.000000	32.140150
742.000000	32.337623
743.000000	32.533774
744.000000	32.726983
745.000000	32.920114
746.000000	33.112437
747.000000	33.302962
748.000000	33.492479
749.000000	33.680879
750.000000	33.867900
751.000000	34.053275
752.000000	34.237955
753.000000	34.421952
754.000000	34.603908
755.000000	34.783995
756.000000	34.964346
757.000000	35.145556
758.000000	35.325485
759.000000	35.501739
760.000000	35.675782
761.000000	35.851025
762.000000	36.026640
763.000000	36.199610
764.000000	36.371858
765.000000	36.544091
766.000000	36.713304
767.000000	36.880689
768.000000	37.047151
769.000000	37.213009
770.000000	37.376310
771.000000	37.538282
772.000000	37.701468
773.000000	37.861841
774.000000	38.019683
775.000000	38.179582
776.000000	38.337631
777.000000	38.493582
778.000000	38.647618
779.000000	38.801766
780.000000	38.955191
781.000000	39.104723
782.000000	39.255398
783.000000	39.405979
784.000000	39.554631
785.000000	39.703993
786.000000	39.851103
787.000000	39.993629
788.000000	40.134204
789.000000	40.275935
790.000000	40.419042
791.000000	40.561724
792.000000	40.699856
793.000000	40.834569
794.000000	40.971286
795.000000	41.107180
796.000000	41.238559
797.000000	41.370677
798.000000	41.503816
799.000000	41.633181
800.000000	41.758608
801.000000	41.888765
802.000000	42.020430
803.000000	42.150940
804.000000	42.278169
805.000000	42.406221
806.000000	42.532676
807.000000	42.656922
808.000000	42.779634
809.000000	42.905937
810.000000	43.026381
811.000000	43.143282
812.000000	43.267630
813.000000	43.390122
814.000000	43.509164
815.000000	43.624729
816.000000	43.740019
817.000000	43.854108
818.000000	43.968143
819.000000	44.073263
820.000000	44.179908
821.000000	44.289759
822.000000	44.401545
823.000000	44.513708
824.000000	44.617959
825.000000	44.722888
826.000000	44.826262
827.000000	44.925952
828.000000	45.027175
829.000000	45.127443
830.000000	45.228947
831.000000	45.326966
832.000000	45.423294
833.000000	45.515071
834.000000	45.610588
835.000000	45.714050
836.000000	45.807024
837.000000	45.889766
838.000000	45.976469
839.000000	46.061789
840.000000	46.143018
841.000000	46.221445
842.000000	46.306921
843.000000	46.389877
844.000000	46.474490
845.000000	46.562373
846.000000	46.640392
847.000000	46.712463
848.000000	46.790555
849.000000	46.864667
850.000000	46.937488
851.000000	47.014629
852.000000	47.082127
853.000000	47.143941
854.000000	47.208818
855.000000	47.277791
856.000000	47.346396
857.000000	47.402132
858.000000	47.398172
859.000000	47.487074
860.000000	47.560609
861.000000	47.645572
862.000000	47.694853
863.000000	47.750094
864.000000	47.813573
865.000000	47.841101
866.000000	47.867548
867.000000	47.912319
868.000000	47.967894
869.000000	47.986236
870.000000	48.049298
871.000000	48.134581
872.000000	48.173715
873.000000	48.223740
874.000000	48.268842
875.000000	48.303411
876.000000	48.371479
877.000000	48.403192
878.000000	48.487329
879.000000	48.529405
880.000000	48.583971
881.000000	48.667304
882.000000	48.719068
883.000000	48.770569
884.000000	48.845661
885.000000	48.895738
886.000000	48.910100
887.000000	48.981332
888.000000	49.008317
889.000000	49.088042
890.000000	49.152483
891.000000	49.172618
892.000000	49.227020
893.000000	49.345887
894.000000	49.362574
895.000000	49.396354
896.000000	49.432366
897.000000	49.454958
898.000000	49.510052
899.000000	49.541942
900.000000	49.611521
901.000000	49.696846
902.000000	49.760087
903.000000	49.799957
904.000000	49.861778
905.000000	49.874481
906.000000	49.878769
907.000000	49.912276
908.000000	49.974838
909.000000	50.033391
910.000000	50.071264
911.000000	50.106244
912.000000	50.163317
913.000000	50.174997
914.000000	50.210994
915.000000	50.198854
916.000000	50.188974
917.000000	50.212390
918.000000	50.227819
919.000000	50.240628
920.000000	50.271193
921.000000	50.344948
922.000000	50.345052
923.000000	50.404312
924.000000	50.387093
925.000000	50.392318
926.000000	50.433283
927.000000	50.455428
928.000000	50.449629
929.000000	50.456437
930.000000	50.509669
931.000000	50.503167
932.000000	50.533949
933.000000	50.571459
934.000000	50.611498
935.000000	50.639233
936.000000	50.636989
937.000000	50.632427
938.000000	50.638741
939.000000	50.676075
940.000000	50.706870
941.000000	50.733876
942.000000	50.772623
943.000000	50.762567
944.000000	50.759413
945.000000	50.802958
946.000000	50.800597
947.000000	50.826631
948.000000	50.820866
949.000000	50.864507
950.000000	50.924318
951.000000	50.945257
952.000000	50.912481
953.000000	50.908989
954.000000	50.900703
955.000000	50.899798
956.000000	50.902663
957.000000	50.932366
958.000000	50.940121
959.000000	50.974219
960.000000	51.000458
961.000000	51.006775
962.000000	51.027108
963.000000	51.047530
964.000000	51.070475
965.000000	51.068964
966.000000	51.086514
967.000000	51.113314
968.000000	51.097182
969.000000	51.087469
970.000000	51.081724
971.000000	51.086582
972.000000	51.124140
973.000000	51.147506
974.000000	51.153540
975.000000	51.161882
976.000000	51.198693
977.000000	51.241306
978.000000	51.261658
979.000000	51.268856
980.000000	51.288226
981.000000	51.306970
982.000000	51.293831
983.000000	51.311547
984.000000	51.311059
985.000000	51.311501
986.000000	51.321353
987.000000	51.383482
988.000000	51.400337
989.000000	51.384838
990.000000	51.382879
991.000000	51.373775
992.000000	51.373091
993.000000	51.384356
994.000000	51.379832
995.000000	51.369874
996.000000	51.418740
997.000000	51.440948
998.000000	51.462507
999.000000	51.486726
1000.000000	51.479849
1001.000000	51.480220
1002.000000	51.459329
1003.000000	51.433813
1004.000000	51.426763
1005.000000	51.426417
1006.000000	51.430987
1007.000000	51.396530
1008.000000	51.391819
1009.000000	51.403157
1010.000000	51.431542
1011.000000	51.423219
1012.000000	51.399524
1013.000000	51.371418
1014.000000	51.386024
1015.000000	51.393384
1016.000000	51.384426
1017.000000	51.375755
1018.000000	51.343647
1019.000000	51.256020
1020.000000	51.220253
1021.000000	51.221642
1022.000000	51.217452
1023.000000	51.219870
1024.000000	51.241452
1025.000000	51.226540
1026.000000	51.204431
1027.000000	51.193090
1028.000000	51.164502
1029.000000	51.159837
1030.000000	51.143537
1031.000000	51.102063
1032.000000	51.079610
1033.000000	51.040125
1034.000000	50.992781
1035.000000	50.952919
1036.000000	50.947383
1037.000000	50.974372
1038.000000	50.997491
1039.000000	51.006194
1040.000000	50.993605
1041.000000	50.982874
1042.000000	50.986975
1043.000000	51.008884
1044.000000	51.031937
1045.000000	51.022270
1046.000000	50.983046
1047.000000	50.981716
1048.000000	50.992344
1049.000000	50.948673
1050.000000	50.889173
1051.000000	50.850299
1052.000000	50.855060
1053.000000	50.869719
1054.000000	50.920350
1055.000000	50.954375
1056.000000	50.944288
1057.000000	50.927486
1058.000000	50.926436
1059.000000	50.930376
1060.000000	50.960424
1061.000000	50.954044
1062.000000	50.910711
1063.000000	50.901611
1064.000000	50.870835
1065.000000	50.890877
1066.000000	50.868985
1067.000000	50.845091
1068.000000	50.858818
1069.000000	50.851016
1070.000000	50.869836
1071.000000	50.889642
1072.000000	50.881951
1073.000000	50.871700
1074.000000	50.858465
1075.000000	50.867702
1076.000000	50.866774
1077.000000	50.857591
1078.000000	50.830099
1079.000000	50.797441
1080.000000	50.775375
1081.000000	50.773515
1082.000000	50.727418
1083.000000	50.711751
1084.000000	50.744414
1085.000000	50.752968
1086.000000	50.784223
1087.000000	50.793093
1088.000000	50.780987
1089.000000	50.763714
1090.000000	50.750099
1091.000000	50.728857
1092.000000	50.706968
1093.000000	50.681006
1094.000000	50.661328
1095.000000	50.639127
1096.000000	50.646581
1097.000000	50.638198
1098.000000	50.620486
1099.000000	50.603143
1100.000000	50.576658
1101.000000	50.551323
1102.000000	50.535707
1103.000000	50.515736
1104.000000	50.514620
1105.000000	50.506465
1106.000000	50.489078
1107.000000	50.454899
1108.000000	50.443474
1109.000000	50.434301
1110.000000	50.420565
1111.000000	50.409479
1112.000000	50.406352
1113.000000	50.373889
1114.000000	50.349283
1115.000000	50.343043
1116.000000	50.320218
1117.000000	50.312922
1118.000000	50.287218
1119.000000	50.297739
1120.000000	50.290821
1121.000000	50.256507
1122.000000	50.220118
1123.000000	50.194481
1124.000000	50.186349
1125.000000	50.156185
1126.000000	50.150515
1127.000000	50.158390
1128.000000	50.144352
1129.000000	50.124967
1130.000000	50.106876
1131.000000	50.086799
1132.000000	50.059181
1133.000000	50.052545
1134.000000	50.030345
1135.000000	50.019991
1136.000000	50.042975
1137.000000	50.041070
1138.000000	50.036987
1139.000000	50.010389
1140.000000	49.996620
1141.000000	49.974262
1142.000000	49.972835
1143.000000	49.949576
1144.000000	49.941679
1145.000000	49.924106
1146.000000	49.905149
1147.000000	49.895597
1148.000000	49.915442
1149.000000	49.915849
1150.000000	49.918052
1151.000000	49.932912
1152.000000	49.927448
1153.000000	49.964032
1154.000000	49.947044
1155.000000	49.963190
1156.000000	49.938102
1157.000000	49.913791
1158.000000	49.929549
1159.000000	49.929552
1160.000000	49.928868
1161.000000	49.936723
1162.000000	49.932086
1163.000000	49.935638
1164.000000	49.901772
1165.000000	49.904862
1166.000000	49.854609
1167.000000	49.778960
1168.000000	49.713754
1169.000000	49.596810
1170.000000	49.535550
1171.000000	49.465421
1172.000000	49.418394
1173.000000	49.366356
1174.000000	49.371360
1175.000000	49.343196
1176.000000	49.302289
1177.000000	49.259815
1178.000000	49.244924
1179.000000	49.246833
1180.000000	49.258169
1181.000000	49.211751
1182.000000	49.179368
1183.000000	49.117035
1184.000000	49.103423
1185.000000	49.064812
1186.000000	49.015542
1187.000000	48.943642
1188.000000	48.888069
1189.000000	48.829937
1190.000000	48.787121
1191.000000	48.766661
1192.000000	48.796124
1193.000000	48.752341
1194.000000	48.750598
1195.000000	48.754021
1196.000000	48.702139
1197.000000	48.657265
1198.000000	48.658568
1199.000000	48.634879
1200.000000	48.622286
1201.000000	48.642694
1202.000000	48.675611
1203.000000	48.668961
1204.000000	48.647885
1205.000000	48.636444
1206.000000	48.638503
