PE UV       SUBTECH     SPECTRUM    ASCII       PEDS        4.00        
   -1
C.CHRY.6713-TX3.ASC
23/11/29
14:23:42.00
23/11/29
14:23:42.00
Vinicio Soto Monge
C. CHRYSARGYREA INBIOCRI002426713
250,000000
1
Lambda 1050
1050L1511233
PerkinElmer UV WinLab 6.3.2.0749 / 2.02.05 Lambda 900 UV/VIS/NIR, Aug  7 2015 09:38:08

0
0
3350/servo 860,8/2
0
0
UV/VIS
1
1
1
DoubleDePol,CommonBeamDepol,RBeamAtt,SBeamAtt,60mm sphere, WB InGaAs Detector
0
0
0
0
Program
Program
3350/servo 860,8/2
3350/0,4 860,8/0,4
3350/0,4 860,8/0,4
0
20.00
 
 
 
0
 
860,8
319,2
860,8
Front
100
on
S:100 R:100
0
0
0
0
 
0
 
 
 
0
 
 
0
0
0
0
0
 
 
 
 
0
0


0
0
#HDR
-1
-1
#GR
nm
%R
1.0
0.0
2200,000000
-1,000000
1951
8
49,319150
0,212376
#DATA
284.000000	5.321508
285.000000	5.309889
286.000000	5.298311
287.000000	5.287691
288.000000	5.278124
289.000000	5.269181
290.000000	5.259739
291.000000	5.251499
292.000000	5.244289
293.000000	5.238614
294.000000	5.234560
295.000000	5.230897
296.000000	5.225608
297.000000	5.220290
298.000000	5.216797
299.000000	5.212910
300.000000	5.210806
301.000000	5.207871
302.000000	5.205152
303.000000	5.203640
304.000000	5.202100
305.000000	5.200876
306.000000	5.197369
307.000000	5.196791
308.000000	5.196819
309.000000	5.194610
310.000000	5.192855
311.000000	5.191952
312.000000	5.190830
313.000000	5.188865
314.000000	5.185517
315.000000	5.183095
316.000000	5.179954
317.000000	5.170644
318.000000	5.163282
319.000000	5.157403
320.000000	5.151364
321.000000	5.143890
322.000000	5.140383
323.000000	5.131788
324.000000	5.126537
325.000000	5.121642
326.000000	5.116822
327.000000	5.112644
328.000000	5.106289
329.000000	5.099348
330.000000	5.090771
331.000000	5.082910
332.000000	5.077103
333.000000	5.070442
334.000000	5.065876
335.000000	5.059333
336.000000	5.054641
337.000000	5.048530
338.000000	5.042654
339.000000	5.038397
340.000000	5.031556
341.000000	5.027898
342.000000	5.022336
343.000000	5.018238
344.000000	5.015684
345.000000	5.012309
346.000000	5.010392
347.000000	5.008533
348.000000	5.006105
349.000000	5.004978
350.000000	5.003992
351.000000	5.004633
352.000000	5.010913
353.000000	5.015301
354.000000	5.017196
355.000000	5.020105
356.000000	5.025703
357.000000	5.026076
358.000000	5.032316
359.000000	5.035065
360.000000	5.039150
361.000000	5.042290
362.000000	5.043131
363.000000	5.047412
364.000000	5.052109
365.000000	5.057356
366.000000	5.063225
367.000000	5.066334
368.000000	5.071259
369.000000	5.075168
370.000000	5.078129
371.000000	5.080316
372.000000	5.083054
373.000000	5.086536
374.000000	5.088377
375.000000	5.092681
376.000000	5.096010
377.000000	5.099633
378.000000	5.102564
379.000000	5.105929
380.000000	5.109620
381.000000	5.111623
382.000000	5.113943
383.000000	5.117183
384.000000	5.120531
385.000000	5.123436
386.000000	5.125882
387.000000	5.127777
388.000000	5.130626
389.000000	5.133768
390.000000	5.136196
391.000000	5.138207
392.000000	5.140956
393.000000	5.142677
394.000000	5.144487
395.000000	5.145302
396.000000	5.147365
397.000000	5.150439
398.000000	5.151701
399.000000	5.153248
400.000000	5.155498
401.000000	5.157208
402.000000	5.159303
403.000000	5.161070
404.000000	5.163039
405.000000	5.166433
406.000000	5.169539
407.000000	5.173077
408.000000	5.176188
409.000000	5.179847
410.000000	5.182964
411.000000	5.186465
412.000000	5.189060
413.000000	5.191597
414.000000	5.194224
415.000000	5.197098
416.000000	5.200163
417.000000	5.203603
418.000000	5.207416
419.000000	5.211519
420.000000	5.215579
421.000000	5.219800
422.000000	5.224467
423.000000	5.229024
424.000000	5.233642
425.000000	5.238577
426.000000	5.243808
427.000000	5.248993
428.000000	5.254269
429.000000	5.259718
430.000000	5.265419
431.000000	5.271527
432.000000	5.277506
433.000000	5.283690
434.000000	5.290153
435.000000	5.296705
436.000000	5.303445
437.000000	5.310653
438.000000	5.318048
439.000000	5.325562
440.000000	5.333263
441.000000	5.341396
442.000000	5.349623
443.000000	5.357725
444.000000	5.366113
445.000000	5.374918
446.000000	5.383508
447.000000	5.392216
448.000000	5.401235
449.000000	5.410201
450.000000	5.418947
451.000000	5.427912
452.000000	5.437115
453.000000	5.446142
454.000000	5.455152
455.000000	5.464443
456.000000	5.473717
457.000000	5.483184
458.000000	5.492984
459.000000	5.503153
460.000000	5.513321
461.000000	5.523668
462.000000	5.534030
463.000000	5.544525
464.000000	5.555267
465.000000	5.566404
466.000000	5.577490
467.000000	5.588883
468.000000	5.600638
469.000000	5.612759
470.000000	5.625433
471.000000	5.638362
472.000000	5.651463
473.000000	5.665016
474.000000	5.678813
475.000000	5.692985
476.000000	5.707934
477.000000	5.723639
478.000000	5.740280
479.000000	5.757436
480.000000	5.774860
481.000000	5.793115
482.000000	5.812198
483.000000	5.832094
484.000000	5.853529
485.000000	5.876272
486.000000	5.899812
487.000000	5.924822
488.000000	5.951327
489.000000	5.979156
490.000000	6.008646
491.000000	6.039982
492.000000	6.073335
493.000000	6.108628
494.000000	6.146353
495.000000	6.186844
496.000000	6.229744
497.000000	6.275615
498.000000	6.324793
499.000000	6.377288
500.000000	6.433667
501.000000	6.494776
502.000000	6.561202
503.000000	6.633627
504.000000	6.712608
505.000000	6.798973
506.000000	6.893295
507.000000	6.996461
508.000000	7.109476
509.000000	7.234047
510.000000	7.371703
511.000000	7.524673
512.000000	7.696674
513.000000	7.891965
514.000000	8.116192
515.000000	8.375741
516.000000	8.677768
517.000000	9.030739
518.000000	9.443000
519.000000	9.922080
520.000000	10.474109
521.000000	11.101793
522.000000	11.802521
523.000000	12.569944
524.000000	13.394936
525.000000	14.266148
526.000000	15.172807
527.000000	16.105900
528.000000	17.058825
529.000000	18.025741
530.000000	19.002426
531.000000	19.986179
532.000000	20.974578
533.000000	21.964973
534.000000	22.956950
535.000000	23.949497
536.000000	24.941228
537.000000	25.930074
538.000000	26.915800
539.000000	27.896760
540.000000	28.871844
541.000000	29.840709
542.000000	30.801921
543.000000	31.754312
544.000000	32.696888
545.000000	33.628573
546.000000	34.547549
547.000000	35.450303
548.000000	36.331834
549.000000	37.186256
550.000000	38.007033
551.000000	38.786953
552.000000	39.517048
553.000000	40.189212
554.000000	40.795139
555.000000	41.328119
556.000000	41.785937
557.000000	42.171394
558.000000	42.489397
559.000000	42.749139
560.000000	42.963838
561.000000	43.141586
562.000000	43.291380
563.000000	43.420307
564.000000	43.534378
565.000000	43.637133
566.000000	43.731738
567.000000	43.819664
568.000000	43.903467
569.000000	43.982714
570.000000	44.057276
571.000000	44.127971
572.000000	44.196161
573.000000	44.261681
574.000000	44.325267
575.000000	44.386296
576.000000	44.443468
577.000000	44.497625
578.000000	44.548861
579.000000	44.595632
580.000000	44.637126
581.000000	44.671234
582.000000	44.698400
583.000000	44.718114
584.000000	44.730048
585.000000	44.733010
586.000000	44.725450
587.000000	44.705247
588.000000	44.670404
589.000000	44.621039
590.000000	44.558870
591.000000	44.487416
592.000000	44.413768
593.000000	44.346513
594.000000	44.291253
595.000000	44.247464
596.000000	44.215775
597.000000	44.190213
598.000000	44.164906
599.000000	44.133469
600.000000	44.090107
601.000000	44.031939
602.000000	43.954847
603.000000	43.854749
604.000000	43.730688
605.000000	43.581403
606.000000	43.409580
607.000000	43.220768
608.000000	43.022946
609.000000	42.828071
610.000000	42.650361
611.000000	42.497838
612.000000	42.373289
613.000000	42.272431
614.000000	42.188344
615.000000	42.111681
616.000000	42.035366
617.000000	41.951318
618.000000	41.855297
619.000000	41.743260
620.000000	41.614209
621.000000	41.468190
622.000000	41.307787
623.000000	41.138537
624.000000	40.966905
625.000000	40.801567
626.000000	40.649045
627.000000	40.514290
628.000000	40.397126
629.000000	40.296621
630.000000	40.209948
631.000000	40.133051
632.000000	40.060563
633.000000	39.991297
634.000000	39.921509
635.000000	39.850688
636.000000	39.778044
637.000000	39.704294
638.000000	39.631484
639.000000	39.560763
640.000000	39.495265
641.000000	39.436143
642.000000	39.382267
643.000000	39.334511
644.000000	39.290636
645.000000	39.246606
646.000000	39.201532
647.000000	39.155747
648.000000	39.113261
649.000000	39.077461
650.000000	39.053152
651.000000	39.041602
652.000000	39.042902
653.000000	39.058242
654.000000	39.088563
655.000000	39.133199
656.000000	39.190091
657.000000	39.258432
658.000000	39.333892
659.000000	39.409869
660.000000	39.478020
661.000000	39.530883
662.000000	39.559462
663.000000	39.563514
664.000000	39.544717
665.000000	39.510040
666.000000	39.469499
667.000000	39.437409
668.000000	39.421678
669.000000	39.430068
670.000000	39.467434
671.000000	39.531443
672.000000	39.622246
673.000000	39.739811
674.000000	39.879415
675.000000	40.035872
676.000000	40.203393
677.000000	40.375476
678.000000	40.541137
679.000000	40.689110
680.000000	40.810838
681.000000	40.900168
682.000000	40.955348
683.000000	40.981616
684.000000	40.988324
685.000000	40.985058
686.000000	40.982824
687.000000	40.994546
688.000000	41.025786
689.000000	41.082613
690.000000	41.167833
691.000000	41.283643
692.000000	41.426524
693.000000	41.592938
694.000000	41.780391
695.000000	41.983236
696.000000	42.196038
697.000000	42.411771
698.000000	42.624173
699.000000	42.825812
700.000000	43.008566
701.000000	43.169884
702.000000	43.305751
703.000000	43.416032
704.000000	43.505462
705.000000	43.579355
706.000000	43.646304
707.000000	43.711490
708.000000	43.780525
709.000000	43.860639
710.000000	43.956083
711.000000	44.070646
712.000000	44.203771
713.000000	44.353832
714.000000	44.523068
715.000000	44.708024
716.000000	44.906069
717.000000	45.112870
718.000000	45.323071
719.000000	45.530891
720.000000	45.731430
721.000000	45.921138
722.000000	46.095259
723.000000	46.251310
724.000000	46.386417
725.000000	46.501132
726.000000	46.601261
727.000000	46.691099
728.000000	46.774464
729.000000	46.853615
730.000000	46.935413
731.000000	47.023223
732.000000	47.120772
733.000000	47.227326
734.000000	47.343022
735.000000	47.469890
736.000000	47.605169
737.000000	47.747727
738.000000	47.895315
739.000000	48.045078
740.000000	48.194821
741.000000	48.340119
742.000000	48.478919
743.000000	48.608812
744.000000	48.728030
745.000000	48.834728
746.000000	48.927522
747.000000	49.008815
748.000000	49.082981
749.000000	49.150534
750.000000	49.213616
751.000000	49.275340
752.000000	49.339889
753.000000	49.410725
754.000000	49.486338
755.000000	49.565537
756.000000	49.649708
757.000000	49.736897
758.000000	49.828531
759.000000	49.924191
760.000000	50.024667
761.000000	50.125622
762.000000	50.225133
763.000000	50.322300
764.000000	50.416599
765.000000	50.506242
766.000000	50.592138
767.000000	50.670687
768.000000	50.741082
769.000000	50.806721
770.000000	50.868336
771.000000	50.927905
772.000000	50.987568
773.000000	51.047930
774.000000	51.108787
775.000000	51.170984
776.000000	51.234488
777.000000	51.302500
778.000000	51.373350
779.000000	51.445881
780.000000	51.519703
781.000000	51.594359
782.000000	51.673145
783.000000	51.751906
784.000000	51.827627
785.000000	51.901897
786.000000	51.974608
787.000000	52.044341
788.000000	52.108064
789.000000	52.165772
790.000000	52.221596
791.000000	52.275918
792.000000	52.326381
793.000000	52.375505
794.000000	52.422295
795.000000	52.470230
796.000000	52.518825
797.000000	52.571441
798.000000	52.626668
799.000000	52.687578
800.000000	52.754477
801.000000	52.821438
802.000000	52.890702
803.000000	52.963403
804.000000	53.040396
805.000000	53.118389
806.000000	53.193127
807.000000	53.262815
808.000000	53.333378
809.000000	53.406036
810.000000	53.474812
811.000000	53.544832
812.000000	53.609411
813.000000	53.673888
814.000000	53.737277
815.000000	53.802519
816.000000	53.865806
817.000000	53.929118
818.000000	53.995714
819.000000	54.062144
820.000000	54.134815
821.000000	54.208533
822.000000	54.285558
823.000000	54.358584
824.000000	54.432723
825.000000	54.507460
826.000000	54.578253
827.000000	54.656920
828.000000	54.733993
829.000000	54.810139
830.000000	54.880545
831.000000	54.940458
832.000000	55.004821
833.000000	55.068095
834.000000	55.126531
835.000000	55.178421
836.000000	55.227804
837.000000	55.275141
838.000000	55.329159
839.000000	55.379649
840.000000	55.424222
841.000000	55.471752
842.000000	55.525402
843.000000	55.571820
844.000000	55.617289
845.000000	55.666832
846.000000	55.718113
847.000000	55.768318
848.000000	55.809256
849.000000	55.850232
850.000000	55.881105
851.000000	55.920622
852.000000	55.949436
853.000000	55.976322
854.000000	56.004552
855.000000	56.032482
856.000000	56.059238
857.000000	56.062183
858.000000	56.024982
859.000000	56.086029
860.000000	56.119412
861.000000	56.137344
862.000000	56.132686
863.000000	56.147645
864.000000	56.144650
865.000000	56.182429
866.000000	56.185053
867.000000	56.224541
868.000000	56.227574
869.000000	56.286889
870.000000	56.313293
871.000000	56.308445
872.000000	56.297354
873.000000	56.299295
874.000000	56.304577
875.000000	56.315608
876.000000	56.317607
877.000000	56.301100
878.000000	56.332143
879.000000	56.347503
880.000000	56.328593
881.000000	56.327648
882.000000	56.314892
883.000000	56.323444
884.000000	56.323338
885.000000	56.323704
886.000000	56.325838
887.000000	56.312967
888.000000	56.304444
889.000000	56.285831
890.000000	56.262303
891.000000	56.254150
892.000000	56.204081
893.000000	56.220432
894.000000	56.164149
895.000000	56.108546
896.000000	56.091141
897.000000	56.052395
898.000000	56.026239
899.000000	55.997411
900.000000	55.934444
901.000000	55.895898
902.000000	55.793208
903.000000	55.729054
904.000000	55.612209
905.000000	55.528854
906.000000	55.455079
907.000000	55.390918
908.000000	55.340451
909.000000	55.259380
910.000000	55.162692
911.000000	55.076803
912.000000	54.974852
913.000000	54.839747
914.000000	54.728170
915.000000	54.646587
916.000000	54.540298
917.000000	54.454604
918.000000	54.315974
919.000000	54.177917
920.000000	54.044023
921.000000	53.914561
922.000000	53.776177
923.000000	53.650902
924.000000	53.546541
925.000000	53.439977
926.000000	53.292103
927.000000	53.194829
928.000000	53.078600
929.000000	52.907648
930.000000	52.765868
931.000000	52.614315
932.000000	52.501659
933.000000	52.354166
934.000000	52.243896
935.000000	52.101070
936.000000	51.993810
937.000000	51.874002
938.000000	51.731442
939.000000	51.617048
940.000000	51.495084
941.000000	51.388780
942.000000	51.283044
943.000000	51.130443
944.000000	51.010765
945.000000	50.890345
946.000000	50.763292
947.000000	50.696256
948.000000	50.605206
949.000000	50.471342
950.000000	50.335853
951.000000	50.214020
952.000000	50.076728
953.000000	49.999751
954.000000	49.919023
955.000000	49.846054
956.000000	49.778945
957.000000	49.707319
958.000000	49.605425
959.000000	49.485473
960.000000	49.357176
961.000000	49.219039
962.000000	49.127773
963.000000	49.054305
964.000000	49.013497
965.000000	48.964702
966.000000	48.859745
967.000000	48.751664
968.000000	48.677491
969.000000	48.581195
970.000000	48.500894
971.000000	48.396071
972.000000	48.343662
973.000000	48.311537
974.000000	48.256284
975.000000	48.197616
976.000000	48.150978
977.000000	48.097099
978.000000	48.030275
979.000000	47.953043
980.000000	47.909165
981.000000	47.871563
982.000000	47.813122
983.000000	47.743918
984.000000	47.707602
985.000000	47.706889
986.000000	47.685156
987.000000	47.684469
988.000000	47.650843
989.000000	47.619432
990.000000	47.580039
991.000000	47.507480
992.000000	47.493678
993.000000	47.488521
994.000000	47.468726
995.000000	47.458856
996.000000	47.483775
997.000000	47.487977
998.000000	47.478299
999.000000	47.462973
1000.000000	47.460945
1001.000000	47.490264
1002.000000	47.492296
1003.000000	47.472455
1004.000000	47.459156
1005.000000	47.452128
1006.000000	47.464297
1007.000000	47.452264
1008.000000	47.458704
1009.000000	47.432087
1010.000000	47.417863
1011.000000	47.408279
1012.000000	47.401891
1013.000000	47.422932
1014.000000	47.432808
1015.000000	47.439368
1016.000000	47.428262
1017.000000	47.415073
1018.000000	47.438923
1019.000000	47.442551
1020.000000	47.403592
1021.000000	47.407366
1022.000000	47.413794
1023.000000	47.405286
1024.000000	47.397681
1025.000000	47.399897
1026.000000	47.412362
1027.000000	47.407227
1028.000000	47.393600
1029.000000	47.400219
1030.000000	47.416352
1031.000000	47.438192
1032.000000	47.429522
1033.000000	47.447867
1034.000000	47.471912
1035.000000	47.464405
1036.000000	47.475191
1037.000000	47.508242
1038.000000	47.542582
1039.000000	47.583678
1040.000000	47.612192
1041.000000	47.610816
1042.000000	47.630037
1043.000000	47.639058
1044.000000	47.659032
1045.000000	47.658154
1046.000000	47.648478
1047.000000	47.669085
1048.000000	47.667044
1049.000000	47.667256
1050.000000	47.654101
1051.000000	47.685658
1052.000000	47.701124
1053.000000	47.703714
1054.000000	47.713732
1055.000000	47.747832
1056.000000	47.737650
1057.000000	47.726992
1058.000000	47.728478
1059.000000	47.731808
1060.000000	47.743537
1061.000000	47.765782
1062.000000	47.756005
1063.000000	47.766257
1064.000000	47.799612
1065.000000	47.836112
1066.000000	47.848407
1067.000000	47.888667
1068.000000	47.898297
1069.000000	47.899816
1070.000000	47.900629
1071.000000	47.891546
1072.000000	47.886566
1073.000000	47.868556
1074.000000	47.842627
1075.000000	47.830929
1076.000000	47.842122
1077.000000	47.831067
1078.000000	47.816373
1079.000000	47.811990
1080.000000	47.830302
1081.000000	47.852129
1082.000000	47.810472
1083.000000	47.809287
1084.000000	47.831623
1085.000000	47.869488
1086.000000	47.881356
1087.000000	47.911194
1088.000000	47.902972
1089.000000	47.899343
1090.000000	47.899721
1091.000000	47.904474
1092.000000	47.902943
1093.000000	47.894432
1094.000000	47.888887
1095.000000	47.904715
1096.000000	47.878430
1097.000000	47.891444
1098.000000	47.899549
1099.000000	47.880259
1100.000000	47.853838
1101.000000	47.869366
1102.000000	47.866530
1103.000000	47.852919
1104.000000	47.863706
1105.000000	47.889075
1106.000000	47.892726
1107.000000	47.879075
1108.000000	47.862979
1109.000000	47.864632
1110.000000	47.899227
1111.000000	47.929286
1112.000000	47.938800
1113.000000	47.953471
1114.000000	47.953404
1115.000000	47.965978
1116.000000	47.927374
1117.000000	47.953765
1118.000000	47.981267
1119.000000	47.990502
1120.000000	47.997016
1121.000000	47.977824
1122.000000	48.008238
1123.000000	48.025340
1124.000000	48.090857
1125.000000	48.091266
1126.000000	48.061412
1127.000000	48.062142
1128.000000	48.091120
1129.000000	48.132064
1130.000000	48.073612
1131.000000	48.091417
1132.000000	48.098562
1133.000000	48.101874
1134.000000	48.156327
1135.000000	48.140568
1136.000000	48.108008
1137.000000	48.115358
1138.000000	48.100883
1139.000000	48.091121
1140.000000	48.063360
1141.000000	48.073198
1142.000000	48.055110
1143.000000	48.057571
1144.000000	48.064025
1145.000000	48.047133
1146.000000	48.018757
1147.000000	48.027455
1148.000000	48.017911
1149.000000	48.048901
1150.000000	48.010537
1151.000000	48.026945
1152.000000	48.017362
1153.000000	47.993831
1154.000000	47.951103
1155.000000	47.909962
1156.000000	47.887918
1157.000000	47.818815
1158.000000	47.810123
1159.000000	47.769880
1160.000000	47.750139
1161.000000	47.790172
1162.000000	47.770867
1163.000000	47.748972
1164.000000	47.675630
1165.000000	47.701323
1166.000000	47.658287
1167.000000	47.630237
1168.000000	47.651342
1169.000000	47.544938
1170.000000	47.517229
1171.000000	47.477159
1172.000000	47.418199
1173.000000	47.395862
1174.000000	47.331861
1175.000000	47.259436
1176.000000	47.233014
1177.000000	47.232295
1178.000000	47.227218
1179.000000	47.209091
1180.000000	47.159481
1181.000000	47.126406
1182.000000	47.100897
1183.000000	47.061817
1184.000000	46.989563
1185.000000	46.954109
1186.000000	46.932731
1187.000000	46.896927
1188.000000	46.875748
1189.000000	46.873513
1190.000000	46.841828
1191.000000	46.811263
1192.000000	46.793544
1193.000000	46.776752
1194.000000	46.706815
1195.000000	46.673198
1196.000000	46.636840
1197.000000	46.600512
1198.000000	46.561340
1199.000000	46.587782
1200.000000	46.595747
1201.000000	46.613247
1202.000000	46.614432
