Time1=100ms:Average1=5:Objective=10X:Aperture=1: (11/21/2018 10:08:31 AM)
11/21/2018 10:08:31 AM
Reflectance
10X
Ap#: 1
Avg1: 5.000000
Avg2: 0.000000
Int.Time1:100.000000

420.190645	6.327944
420.624620	6.251930
421.058582	6.177805
421.492531	6.103717
421.926468	6.041815
422.360391	5.982966
422.794301	5.927151
423.228199	5.884296
423.662083	5.853852
424.095955	5.828744
424.529813	5.803820
424.963658	5.775570
425.397491	5.768066
425.831310	5.749784
426.265116	5.727418
426.698909	5.715558
427.132689	5.711162
427.566455	5.690512
428.000209	5.690635
428.433949	5.692589
428.867676	5.688928
429.301389	5.681514
429.735090	5.685309
430.168777	5.679764
430.602451	5.674833
431.036111	5.656916
431.469759	5.657703
431.903392	5.646574
432.337013	5.639069
432.770620	5.623314
433.204213	5.613068
433.637794	5.613444
434.071360	5.613531
434.504914	5.608285
434.938453	5.608087
435.371979	5.609547
435.805492	5.604479
436.238991	5.598296
436.672477	5.594785
437.105949	5.595246
437.539407	5.592052
437.972852	5.578757
438.406283	5.568845
438.839700	5.545188
439.273104	5.534782
439.706494	5.532351
440.139871	5.519617
440.573233	5.500895
441.006582	5.491693
441.439917	5.476951
441.873238	5.456274
442.306546	5.437432
442.739839	5.416995
443.173119	5.393536
443.606385	5.371359
444.039636	5.352248
444.472874	5.342821
444.906099	5.324132
445.339309	5.309622
445.772505	5.302646
446.205687	5.297278
446.638855	5.286296
447.072009	5.272657
447.505149	5.262318
447.938275	5.255537
448.371387	5.242331
448.804485	5.235481
449.237569	5.231240
449.670638	5.234188
450.103694	5.221655
450.536735	5.206435
450.969762	5.199858
451.402774	5.194437
451.835773	5.186576
452.268757	5.183610
452.701727	5.177689
453.134683	5.171884
453.567624	5.165712
454.000551	5.162653
454.433464	5.158728
454.866362	5.149398
455.299246	5.146878
455.732116	5.143263
456.164971	5.140213
456.597811	5.139679
457.030638	5.136508
457.463449	5.132040
457.896246	5.125767
458.329029	5.120171
458.761797	5.119176
459.194551	5.108402
459.627290	5.099049
460.060014	5.092454
460.492724	5.085832
460.925419	5.076061
461.358099	5.065783
461.790765	5.058525
462.223416	5.048359
462.656052	5.034361
463.088674	5.017483
463.521281	5.009569
463.953873	4.996510
464.386450	4.980480
464.819012	4.967885
465.251560	4.953259
465.684093	4.935816
466.116611	4.919310
466.549114	4.902957
466.981602	4.884820
467.414075	4.864461
467.846533	4.845635
468.278977	4.825134
468.711405	4.800979
469.143818	4.778121
469.576216	4.752743
470.008600	4.726392
470.440968	4.705374
470.873321	4.680421
471.305659	4.652391
471.737982	4.627488
472.170289	4.596884
472.602582	4.570608
473.034859	4.545613
473.467122	4.522418
473.899369	4.500176
474.331600	4.478979
474.763817	4.457898
475.196018	4.439898
475.628204	4.421553
476.060375	4.407117
476.492530	4.394655
476.924670	4.381335
477.356795	4.371164
477.788904	4.367147
478.220998	4.359211
478.653076	4.359448
479.085139	4.360686
479.517186	4.367320
479.949219	4.374870
480.381235	4.386941
480.813236	4.405111
481.245221	4.425960
481.677191	4.449705
482.109146	4.478707
482.541084	4.509686
482.973008	4.546111
483.404915	4.585850
483.836807	4.626124
484.268683	4.676790
484.700544	4.734250
485.132388	4.793259
485.564217	4.856028
485.996031	4.925982
486.427828	4.999745
486.859610	5.073115
487.291376	5.148500
487.723126	5.225940
488.154860	5.304380
488.586579	5.383397
489.018281	5.463993
489.449968	5.549425
489.881639	5.633397
490.313293	5.718168
490.744932	5.807042
491.176555	5.893527
491.608162	5.985567
492.039753	6.076247
492.471328	6.164480
492.902886	6.249548
493.334429	6.332657
493.765956	6.415197
494.197466	6.494779
494.628960	6.571677
495.060439	6.647087
495.491901	6.719759
495.923347	6.789517
496.354776	6.854509
496.786190	6.919123
497.217587	6.982912
497.648968	7.038194
498.080332	7.092845
498.511681	7.141474
498.943013	7.188826
499.374328	7.225302
499.805628	7.256663
500.236911	7.282754
500.668177	7.304905
501.099427	7.318436
501.530661	7.329700
501.961878	7.329631
502.393079	7.325987
502.824264	7.312807
503.255431	7.295575
503.686583	7.273702
504.117717	7.248133
504.548835	7.215021
504.979937	7.180215
505.411022	7.139718
505.842090	7.100097
506.273142	7.055684
506.704177	7.010958
507.135195	6.964632
507.566197	6.917457
507.997182	6.866842
508.428150	6.820628
508.859102	6.775372
509.290036	6.735136
509.720954	6.699769
510.151855	6.671885
510.582739	6.650239
511.013607	6.638673
511.444457	6.634103
511.875291	6.641415
512.306107	6.662325
512.736907	6.698089
513.167690	6.748797
513.598456	6.820964
514.029205	6.907768
514.459936	7.017850
514.890651	7.147437
515.321349	7.305449
515.752030	7.487276
516.182693	7.697024
516.613340	7.934284
517.043969	8.201245
517.474582	8.494923
517.905177	8.820374
518.335755	9.173022
518.766315	9.554940
519.196859	9.962835
519.627385	10.394572
520.057894	10.851834
520.488386	11.326898
520.918860	11.827171
521.349318	12.358840
521.779757	12.912807
522.210180	13.493932
522.640585	14.094912
523.070973	14.721136
523.501343	15.362896
523.931696	16.022612
524.362031	16.698798
524.792349	17.396056
525.222650	18.109744
525.652933	18.831009
526.083198	19.562921
526.513446	20.303228
526.943677	21.039414
527.373890	21.781596
527.804085	22.527116
528.234262	23.274456
528.664422	24.007926
529.094565	24.738297
529.524689	25.468334
529.954796	26.188660
530.384885	26.897145
530.814957	27.597932
531.245011	28.287671
531.675047	28.962161
532.105065	29.627961
532.535065	30.286176
532.965048	30.935167
533.395013	31.564925
533.824959	32.179446
534.254888	32.780574
534.684799	33.376390
535.114693	33.955133
535.544568	34.512329
535.974425	35.055962
536.404264	35.575044
536.834086	36.077540
537.263889	36.569740
537.693674	37.040857
538.123441	37.489777
538.553190	37.921548
538.982921	38.339100
539.412634	38.742842
539.842329	39.133287
540.272006	39.514787
540.701664	39.875690
541.131304	40.219427
541.560926	40.549282
541.990530	40.865537
542.420116	41.178346
542.849683	41.473856
543.279232	41.756945
543.708763	42.026550
544.138275	42.283302
544.567769	42.536105
544.997245	42.781139
545.426702	43.014154
545.856141	43.241015
546.285562	43.456137
546.714964	43.663204
547.144347	43.860204
547.573713	44.055748
548.003059	44.235909
548.432387	44.415993
548.861697	44.588040
549.290988	44.755898
549.720260	44.923151
550.149514	45.088259
550.578750	45.237747
551.007966	45.378738
551.437164	45.517889
551.866344	45.650062
552.295504	45.775444
552.724646	45.900920
553.153769	46.018547
553.582874	46.130886
554.011960	46.247867
554.441027	46.358240
554.870075	46.461820
555.299104	46.568312
555.728115	46.660287
556.157106	46.750395
556.586079	46.833053
557.015033	46.925164
557.443968	47.013460
557.872884	47.083328
558.301781	47.157571
558.730659	47.233888
559.159518	47.295745
559.588358	47.361678
560.017180	47.427907
560.445982	47.493714
560.874765	47.555028
561.303528	47.618888
561.732273	47.673850
562.160999	47.734536
562.589705	47.795156
563.018393	47.845740
563.447061	47.904858
563.875710	47.963043
564.304340	48.021629
564.732950	48.078009
565.161542	48.134123
565.590114	48.187302
566.018666	48.239873
566.447200	48.295119
566.875714	48.349437
567.304208	48.396978
567.732684	48.448012
568.161140	48.497623
568.589576	48.541642
569.017993	48.584305
569.446391	48.620681
569.874769	48.661291
570.303128	48.694343
570.731467	48.720217
571.159787	48.749353
571.588087	48.772179
572.016368	48.785652
572.444629	48.805456
572.872870	48.823360
573.301092	48.829956
573.729294	48.835709
574.157476	48.845595
574.585639	48.844910
575.013782	48.845719
575.441906	48.838292
575.870009	48.829159
576.298093	48.823665
576.726157	48.808363
577.154202	48.792830
577.582226	48.784018
578.010231	48.776990
578.438216	48.765449
578.866181	48.763994
579.294126	48.751600
579.722051	48.745004
580.149957	48.739827
580.577842	48.733179
581.005707	48.731183
581.433553	48.721477
581.861378	48.724264
582.289184	48.720133
582.716969	48.721570
583.144734	48.724707
583.572479	48.726926
584.000205	48.732466
584.427910	48.737151
584.855594	48.740542
585.283259	48.747788
585.710904	48.759691
586.138528	48.759041
586.566132	48.770543
586.993716	48.777176
587.421280	48.774637
587.848823	48.775432
588.276346	48.781596
588.703849	48.781105
589.131332	48.782202
589.558794	48.780115
589.986236	48.770792
590.413657	48.761953
590.841058	48.749828
591.268438	48.728098
591.695799	48.704688
592.123138	48.671799
592.550458	48.641750
592.977756	48.607443
593.405034	48.562649
593.832292	48.519026
594.259529	48.466222
594.686746	48.419620
595.113942	48.360368
595.541117	48.302841
595.968272	48.235612
596.395406	48.165654
596.822519	48.093403
597.249612	48.018086
597.676684	47.943166
598.103735	47.863925
598.530766	47.780420
598.957775	47.681670
599.384764	47.591667
599.811733	47.489493
600.238680	47.387392
600.665606	47.282729
601.092512	47.171935
601.519397	47.048702
601.946261	46.928583
602.373104	46.790891
602.799926	46.656909
603.226727	46.511526
603.653507	46.358488
604.080266	46.196535
604.507004	46.029283
604.933721	45.859636
605.360417	45.686274
605.787092	45.502707
606.213746	45.306416
606.640379	45.110590
607.066991	44.906795
607.493581	44.697092
607.920150	44.482051
608.346699	44.259776
608.773226	44.035973
609.199731	43.806696
609.626216	43.567528
610.052679	43.318823
610.479121	43.059581
610.905542	42.791270
611.331941	42.516123
611.758319	42.228652
612.184676	41.929699
612.611011	41.618851
613.037325	41.298221
613.463617	40.960122
613.889888	40.612654
614.316138	40.253037
614.742366	39.875568
615.168573	39.482850
615.594758	39.080935
616.020921	38.653226
616.447063	38.216926
616.873184	37.764620
617.299283	37.294201
617.725360	36.816011
618.151416	36.320822
618.577450	35.813589
619.003462	35.288259
619.429453	34.750807
619.855422	34.202998
620.281369	33.636641
620.707295	33.063423
621.133199	32.474357
621.559081	31.876768
621.984941	31.263420
622.410779	30.645103
622.836596	30.013200
623.262391	29.371772
623.688163	28.723368
624.113914	28.066229
624.539644	27.397169
624.965351	26.722257
625.391036	26.046391
625.816699	25.369747
626.242340	24.690126
626.667960	24.012468
627.093557	23.338039
627.519132	22.668523
627.944685	22.007541
628.370216	21.361948
628.795725	20.733042
629.221212	20.127204
629.646677	19.542969
630.072119	18.984294
630.497540	18.459877
630.922938	17.963036
631.348314	17.507600
631.773668	17.086968
632.198999	16.708400
632.624308	16.374338
633.049595	16.076796
633.474860	15.825837
633.900102	15.615136
634.325322	15.448176
634.750520	15.320480
635.175695	15.235718
635.600848	15.187108
636.025978	15.178924
636.451086	15.205778
636.876171	15.266938
637.301234	15.361593
637.726275	15.488691
638.151293	15.648755
638.576288	15.838222
639.001261	16.053553
639.426211	16.298915
639.851139	16.569931
640.276044	16.860785
640.700927	17.177221
641.125787	17.516393
641.550624	17.870649
641.975438	18.240230
642.400230	18.622301
642.824999	19.017773
643.249745	19.421501
643.674469	19.827943
644.099169	20.240376
644.523847	20.652808
644.948502	21.064132
645.373135	21.475312
645.797744	21.882383
646.222330	22.287907
646.646894	22.690918
647.071435	23.084286
647.495953	23.469464
647.920447	23.847477
648.344919	24.212968
648.769368	24.572520
649.193794	24.923854
649.618197	25.269369
650.042576	25.599807
650.466933	25.920702
650.891267	26.231508
651.315577	26.533839
651.739864	26.828358
652.164129	27.115630
652.588370	27.386637
653.012587	27.656320
653.436782	27.918695
653.860953	28.169293
654.285102	28.414310
654.709226	28.654391
655.133328	28.888637
655.557406	29.114729
655.981461	29.337039
656.405493	29.553063
656.829501	29.763045
657.253486	29.966970
657.677448	30.157699
658.101386	30.345858
658.525301	30.522757
658.949192	30.688721
659.373060	30.842745
659.796904	30.991017
660.220725	31.127406
660.644522	31.257175
661.068296	31.375407
661.492046	31.485755
661.915772	31.583750
662.339475	31.669565
662.763154	31.744030
663.186810	31.810338
663.610442	31.866558
664.034050	31.910860
664.457635	31.944542
664.881196	31.964527
665.304733	31.971781
665.728247	31.974955
666.151736	31.960742
666.575202	31.939550
666.998644	31.909895
667.422062	31.868835
667.845457	31.817843
668.268827	31.756079
668.692174	31.684175
669.115496	31.599510
669.538795	31.504197
669.962070	31.395485
670.385321	31.271518
670.808547	31.138658
671.231750	30.990172
671.654929	30.832656
672.078084	30.663981
672.501214	30.486872
672.924321	30.290634
673.347404	30.082147
673.770462	29.857425
674.193496	29.621936
674.616506	29.376917
675.039492	29.121523
675.462454	28.858566
675.885391	28.589908
676.308305	28.316698
676.731194	28.040685
677.154058	27.762258
677.576899	27.481018
677.999715	27.203894
678.422507	26.925812
678.845274	26.651814
679.268017	26.386368
679.690736	26.120571
680.113430	25.864806
680.536100	25.610986
680.958746	25.366568
681.381367	25.130543
681.803963	24.903397
682.226535	24.683357
682.649083	24.474249
683.071605	24.275897
683.494104	24.089097
683.916578	23.913425
684.339027	23.748391
684.761451	23.599300
685.183851	23.464032
685.606227	23.340292
686.028577	23.228888
686.450903	23.136923
686.873204	23.062679
687.295481	23.010397
687.717733	22.972420
688.139959	22.953929
688.562162	22.954485
688.984339	22.975304
689.406492	23.016592
689.828619	23.073305
690.250722	23.150477
690.672800	23.246033
691.094853	23.358867
691.516881	23.492813
691.938884	23.640619
692.360863	23.795909
692.782816	23.970851
693.204744	24.152555
693.626647	24.349378
694.048526	24.552432
694.470379	24.765369
694.892207	24.985181
695.314010	25.213525
695.735788	25.447173
696.157540	25.685627
696.579268	25.930063
697.000970	26.183468
697.422648	26.441141
697.844300	26.699714
698.265926	26.965543
698.687528	27.238294
699.109104	27.517292
699.530655	27.799021
699.952181	28.090222
