PE UV       SUBTECH     SPECTRUM    ASCII       PEDS        4.00        
   -1
CICIMAUCR0235-3.Sample.ASC
24/06/19
16:11:19.00
24/06/19
16:11:19.00
Vinicio Soto Monge
C. resplendens. Sex M. Ventral 
250,000000
1
Lambda 1050
1050L1511233
PerkinElmer UV WinLab 6.3.2.0749 / 2.02.05 Lambda 900 UV/VIS/NIR, Aug  7 2015 09:38:08

0
0
3350/servo 860,8/2
0
0
UV/VIS
1
1
1
DoubleDePol,CommonBeamDepol,RBeamAtt,SBeamAtt,60mm sphere, WB InGaAs Detector
0
0
0
0
Program
Program
3350/servo 860,8/2
3350/0,2 860,8/0,2
3350/0,2 860,8/0,2
0
15.00
 
 
 
0
 
860,8
319,2
860,8
Front
100
on
S:100 R:100
0
0
0
0
 
0
 
 
 
0
 
 
0
0
0
0
0
 
 
 
 
0
0


0
0
#HDR
-1
-1
#GR
nm
%R
1.0
0.0
2500,000000
-1,000000
2251
8
61,572500
4,349800
#DATA
2482.000000	6.147407
2481.000000	6.239178
2480.000000	6.179957
2479.000000	6.144903
2478.000000	6.130098
2477.000000	6.127812
2476.000000	6.176800
2475.000000	6.198463
2474.000000	6.185400
2473.000000	6.187359
2472.000000	6.204233
2471.000000	6.156769
2470.000000	6.141311
2469.000000	6.163737
2468.000000	6.123567
2467.000000	6.139352
2466.000000	6.195524
2465.000000	6.198681
2464.000000	6.179521
2463.000000	6.216534
2462.000000	6.214684
2461.000000	6.208914
2460.000000	6.256487
2459.000000	6.290996
2458.000000	6.280763
2457.000000	6.333343
2456.000000	6.333669
2455.000000	6.366763
2454.000000	6.361538
2453.000000	6.391039
2452.000000	6.432407
2451.000000	6.452873
2450.000000	6.466045
2449.000000	6.473883
2448.000000	6.524286
2447.000000	6.565980
2446.000000	6.613552
2445.000000	6.635216
2444.000000	6.658076
2443.000000	6.688340
2442.000000	6.709350
2441.000000	6.741464
2440.000000	6.787622
2439.000000	6.805693
2438.000000	6.845863
2437.000000	6.851414
2436.000000	6.896810
2435.000000	6.940790
2434.000000	6.947975
2433.000000	6.980198
2432.000000	7.019932
2431.000000	7.033213
2430.000000	7.054659
2429.000000	7.081765
2428.000000	7.132168
2427.000000	7.149695
2426.000000	7.166895
2425.000000	7.179632
2424.000000	7.184748
2423.000000	7.213161
2422.000000	7.233083
2421.000000	7.270313
2420.000000	7.276627
2419.000000	7.302319
2418.000000	7.317886
2417.000000	7.306673
2416.000000	7.330405
2415.000000	7.366220
2414.000000	7.390061
2413.000000	7.395395
2412.000000	7.403669
2411.000000	7.420978
2410.000000	7.437742
2409.000000	7.448628
2408.000000	7.469312
2407.000000	7.477694
2406.000000	7.482920
2405.000000	7.487927
2404.000000	7.496854
2403.000000	7.507631
2402.000000	7.532670
2401.000000	7.552591
2400.000000	7.572186
2399.000000	7.608764
2398.000000	7.622154
2397.000000	7.640769
2396.000000	7.642075
2395.000000	7.642075
2394.000000	7.683769
2393.000000	7.700534
2392.000000	7.697268
2391.000000	7.717625
2390.000000	7.740268
2389.000000	7.738527
2388.000000	7.747998
2387.000000	7.765851
2386.000000	7.771947
2385.000000	7.770532
2384.000000	7.778914
2383.000000	7.781309
2382.000000	7.775539
2381.000000	7.779567
2380.000000	7.775975
2379.000000	7.763891
2378.000000	7.787514
2377.000000	7.798292
2376.000000	7.771076
2375.000000	7.773253
2374.000000	7.765851
2373.000000	7.758557
2372.000000	7.755291
2371.000000	7.744187
2370.000000	7.736132
2369.000000	7.720782
2368.000000	7.712291
2367.000000	7.698466
2366.000000	7.683878
2365.000000	7.659820
2364.000000	7.638592
2363.000000	7.633911
2362.000000	7.610179
2361.000000	7.584923
2360.000000	7.575343
2359.000000	7.560211
2358.000000	7.536589
2357.000000	7.532670
2356.000000	7.511224
2355.000000	7.481069
2354.000000	7.481396
2353.000000	7.477041
2352.000000	7.471381
2351.000000	7.468115
2350.000000	7.470619
2349.000000	7.467462
2348.000000	7.481722
2347.000000	7.496963
2346.000000	7.505019
2345.000000	7.527335
2344.000000	7.529404
2343.000000	7.563695
2342.000000	7.594176
2341.000000	7.587862
2340.000000	7.585467
2339.000000	7.599293
2338.000000	7.619214
2337.000000	7.633475
2336.000000	7.637939
2335.000000	7.635761
2334.000000	7.635326
2333.000000	7.643164
2332.000000	7.656663
2331.000000	7.639789
2330.000000	7.623133
2329.000000	7.610070
2328.000000	7.593850
2327.000000	7.571098
2326.000000	7.550087
2325.000000	7.536806
2324.000000	7.516558
2323.000000	7.480416
2322.000000	7.464958
2321.000000	7.441444
2320.000000	7.401165
2319.000000	7.367962
2318.000000	7.326486
2317.000000	7.294807
2316.000000	7.254964
2315.000000	7.211093
2314.000000	7.187361
2313.000000	7.147300
2312.000000	7.110505
2311.000000	7.064347
2310.000000	7.042902
2309.000000	7.029512
2308.000000	7.005018
2307.000000	6.992826
2306.000000	6.977911
2305.000000	6.972904
2304.000000	6.972577
2303.000000	6.970727
2302.000000	6.989342
2301.000000	7.015469
2300.000000	7.031254
2299.000000	7.082201
2298.000000	7.095155
2297.000000	7.106695
2296.000000	7.161234
2295.000000	7.183115
2294.000000	7.222741
2293.000000	7.262693
2292.000000	7.282832
2291.000000	7.304496
2290.000000	7.336719
2289.000000	7.358927
2288.000000	7.359362
2287.000000	7.358056
2286.000000	7.353701
2285.000000	7.373079
2284.000000	7.376344
2283.000000	7.371119
2282.000000	7.335848
2281.000000	7.342380
2280.000000	7.334433
2279.000000	7.309830
2278.000000	7.282832
2277.000000	7.279784
2276.000000	7.280002
2275.000000	7.282506
2274.000000	7.262475
2273.000000	7.263891
2272.000000	7.252460
2271.000000	7.266394
2270.000000	7.258992
2269.000000	7.272273
2268.000000	7.302428
2267.000000	7.316253
2266.000000	7.352068
2265.000000	7.386142
2264.000000	7.441988
2263.000000	7.513292
2262.000000	7.576541
2261.000000	7.662324
2260.000000	7.735152
2259.000000	7.849456
2258.000000	7.932844
2257.000000	8.057055
2256.000000	8.168965
2255.000000	8.287733
2254.000000	8.412270
2253.000000	8.530494
2252.000000	8.650133
2251.000000	8.752353
2250.000000	8.864699
2249.000000	8.970294
2248.000000	9.090042
2247.000000	9.205217
2246.000000	9.288496
2245.000000	9.395507
2244.000000	9.479113
2243.000000	9.575128
2242.000000	9.654815
2241.000000	9.727643
2240.000000	9.787626
2239.000000	9.844343
2238.000000	9.915212
2237.000000	9.955273
2236.000000	10.005458
2235.000000	10.033762
2234.000000	10.091241
2233.000000	10.122811
2232.000000	10.161021
2231.000000	10.168968
2230.000000	10.184970
2229.000000	10.215996
2228.000000	10.208158
2227.000000	10.238748
2226.000000	10.216105
2225.000000	10.237442
2224.000000	10.230039
2223.000000	10.246695
2222.000000	10.195639
2221.000000	10.196619
2220.000000	10.168206
2219.000000	10.174846
2218.000000	10.142297
2217.000000	10.112578
2216.000000	10.088193
2215.000000	10.085471
2214.000000	10.052921
2213.000000	10.051615
2212.000000	10.030931
2211.000000	9.982706
2210.000000	9.988802
2209.000000	9.963655
2208.000000	9.961042
2207.000000	9.926969
2206.000000	9.920546
2205.000000	9.905958
2204.000000	9.902366
2203.000000	9.870034
2202.000000	9.865462
2201.000000	9.857515
2200.000000	9.831280
2199.000000	9.835743
2198.000000	9.825401
2197.000000	9.805915
2196.000000	9.806677
2195.000000	9.795029
2194.000000	9.804064
2193.000000	9.787735
2192.000000	9.787953
2191.000000	9.768031
2190.000000	9.771406
2189.000000	9.742449
2188.000000	9.756818
2187.000000	9.744952
2186.000000	9.723942
2185.000000	9.707069
2184.000000	9.706307
2183.000000	9.707504
2182.000000	9.665157
2181.000000	9.681486
2180.000000	9.684425
2179.000000	9.662762
2178.000000	9.656230
2177.000000	9.643058
2176.000000	9.628688
2175.000000	9.620959
2174.000000	9.629233
2173.000000	9.635982
2172.000000	9.619653
2171.000000	9.637397
2170.000000	9.645671
2169.000000	9.648392
2168.000000	9.648066
2167.000000	9.650896
2166.000000	9.681486
2165.000000	9.678547
2164.000000	9.671362
2163.000000	9.679309
2162.000000	9.686058
2161.000000	9.706415
2160.000000	9.728950
2159.000000	9.771297
2158.000000	9.789694
2157.000000	9.812991
2156.000000	9.840642
2155.000000	9.856644
2154.000000	9.877872
2153.000000	9.912599
2152.000000	9.944278
2151.000000	9.963328
2150.000000	9.985972
2149.000000	10.034415
2148.000000	10.064243
2147.000000	10.082423
2146.000000	10.119109
2145.000000	10.163960
2144.000000	10.183664
2143.000000	10.215887
2142.000000	10.254533
2141.000000	10.283490
2140.000000	10.304718
2139.000000	10.325946
2138.000000	10.362415
2137.000000	10.402802
2136.000000	10.432630
2135.000000	10.432739
2134.000000	10.438509
2133.000000	10.483033
2132.000000	10.510793
2131.000000	10.511773
2130.000000	10.520808
2129.000000	10.533654
2128.000000	10.565115
2127.000000	10.571102
2126.000000	10.575674
2125.000000	10.587758
2124.000000	10.599297
2123.000000	10.620199
2122.000000	10.616497
2121.000000	10.600821
2120.000000	10.603216
2119.000000	10.606482
2118.000000	10.601801
2117.000000	10.607353
2116.000000	10.603652
2115.000000	10.599515
2114.000000	10.591024
2113.000000	10.590697
2112.000000	10.578069
2111.000000	10.564462
2110.000000	10.555099
2109.000000	10.534851
2108.000000	10.533763
2107.000000	10.532130
2106.000000	10.508833
2105.000000	10.489129
2104.000000	10.473236
2103.000000	10.468119
2102.000000	10.455491
2101.000000	10.441992
2100.000000	10.431542
2099.000000	10.419240
2098.000000	10.401605
2097.000000	10.382881
2096.000000	10.370144
2095.000000	10.369055
2094.000000	10.362088
2093.000000	10.353597
2092.000000	10.344888
2091.000000	10.338574
2090.000000	10.328341
2089.000000	10.313100
2088.000000	10.321047
2087.000000	10.311359
2086.000000	10.296662
2085.000000	10.295138
2084.000000	10.289260
2083.000000	10.275325
2082.000000	10.257799
2081.000000	10.228842
2080.000000	10.217411
2079.000000	10.193026
2078.000000	10.144583
2077.000000	10.121940
2076.000000	10.108114
2075.000000	10.082423
2074.000000	10.053248
2073.000000	10.027666
2072.000000	9.999906
2071.000000	9.953749
2070.000000	9.914450
2069.000000	9.874498
2068.000000	9.849568
2067.000000	9.820829
2066.000000	9.775542
2065.000000	9.743319
2064.000000	9.714580
2063.000000	9.680506
2062.000000	9.650025
2061.000000	9.619326
2060.000000	9.585906
2059.000000	9.556949
2058.000000	9.538224
2057.000000	9.523419
2056.000000	9.522984
2055.000000	9.527991
2054.000000	9.538333
2053.000000	9.547913
2052.000000	9.556078
2051.000000	9.579047
2050.000000	9.604086
2049.000000	9.628688
2048.000000	9.684099
2047.000000	9.753335
2046.000000	9.792089
2045.000000	9.851201
2044.000000	9.911946
2043.000000	9.969207
2042.000000	10.038987
2041.000000	10.098752
2040.000000	10.158844
2039.000000	10.225140
2038.000000	10.278700
2037.000000	10.318870
2036.000000	10.384514
2035.000000	10.457995
2034.000000	10.507854
2033.000000	10.544104
2032.000000	10.592330
2031.000000	10.630976
2030.000000	10.691176
2029.000000	10.707397
2028.000000	10.757146
2027.000000	10.799929
2026.000000	10.814952
2025.000000	10.830846
2024.000000	10.854251
2023.000000	10.888107
2022.000000	10.917499
2021.000000	10.932849
2020.000000	10.952117
2019.000000	10.980203
2018.000000	10.980530
2017.000000	11.002520
2016.000000	11.004044
2015.000000	11.023639
2014.000000	11.012209
2013.000000	11.031260
2012.000000	11.021027
2011.000000	11.020700
2010.000000	11.018196
2009.000000	10.985647
2008.000000	11.004697
2007.000000	10.979441
2006.000000	10.961370
2005.000000	10.941340
2004.000000	10.920765
2003.000000	10.900408
2002.000000	10.893659
2001.000000	10.857625
2000.000000	10.824314
1999.000000	10.789696
1998.000000	10.741579
1997.000000	10.730693
1996.000000	10.688128
1995.000000	10.657103
1994.000000	10.627057
1993.000000	10.579702
1992.000000	10.546717
1991.000000	10.501540
1990.000000	10.459301
1989.000000	10.391154
1988.000000	10.351637
1987.000000	10.320068
1986.000000	10.274128
1985.000000	10.216976
1984.000000	10.181051
1983.000000	10.130104
1982.000000	10.095595
1981.000000	10.039532
1980.000000	10.004696
1979.000000	9.943407
1978.000000	9.881356
1977.000000	9.840642
1976.000000	9.796770
1975.000000	9.749416
1974.000000	9.698686
1973.000000	9.667770
1972.000000	9.626838
1971.000000	9.577197
1970.000000	9.534088
1969.000000	9.482161
1968.000000	9.481399
1967.000000	9.439269
1966.000000	9.373082
1965.000000	9.333891
1964.000000	9.321155
1963.000000	9.280876
1962.000000	9.226119
1961.000000	9.207721
1960.000000	9.156774
1959.000000	9.104629
1958.000000	9.080462
1957.000000	9.043776
1956.000000	9.009593
1955.000000	8.970947
1954.000000	8.926532
1953.000000	8.921089
1952.000000	8.888430
1951.000000	8.825508
1950.000000	8.802865
1949.000000	8.790020
1948.000000	8.744842
1947.000000	8.733085
1946.000000	8.701733
1945.000000	8.677239
1944.000000	8.645560
1943.000000	8.617474
1942.000000	8.622917
1941.000000	8.616385
1940.000000	8.602125
1939.000000	8.612902
1938.000000	8.599621
1937.000000	8.602451
1936.000000	8.594287
1935.000000	8.586122
1934.000000	8.595593
1933.000000	8.617365
1932.000000	8.654814
1931.000000	8.660910
1930.000000	8.661345
1929.000000	8.722308
1928.000000	8.758885
1927.000000	8.775106
1926.000000	8.813207
1925.000000	8.858385
1924.000000	8.935458
1923.000000	8.949502
1922.000000	9.017975
1921.000000	9.109528
1920.000000	9.165592
1919.000000	9.252899
1918.000000	9.331279
1917.000000	9.392568
1916.000000	9.496530
1915.000000	9.566420
1914.000000	9.668532
1913.000000	9.770753
1912.000000	9.914123
1911.000000	10.044321
1910.000000	10.138813
1909.000000	10.270209
1908.000000	10.376022
1907.000000	10.494246
1906.000000	10.669295
1905.000000	10.845324
1904.000000	11.021897
1903.000000	11.192919
1902.000000	11.369710
1901.000000	11.560762
1900.000000	11.756930
1899.000000	11.979334
1898.000000	12.205113
1897.000000	12.435246
1896.000000	12.656561
1895.000000	12.880707
1894.000000	13.085475
1893.000000	13.303416
1892.000000	13.575243
1891.000000	13.868081
1890.000000	14.182255
1889.000000	14.489026
1888.000000	14.779360
1887.000000	15.121947
1886.000000	15.440911
1885.000000	15.786764
1884.000000	16.140455
1883.000000	16.558374
1882.000000	17.014395
1881.000000	17.437431
1880.000000	17.871570
1879.000000	18.254980
1878.000000	18.649059
1877.000000	19.089077
1876.000000	19.477495
1875.000000	19.883330
1874.000000	20.281763
1873.000000	20.660928
1872.000000	21.043467
1871.000000	21.420454
1870.000000	21.772621
1869.000000	22.107697
1868.000000	22.438418
1867.000000	22.672905
1866.000000	22.902059
1865.000000	23.080265
1864.000000	23.257491
1863.000000	23.387037
1862.000000	23.525835
1861.000000	23.679438
1860.000000	23.826075
1859.000000	23.962914
1858.000000	24.110530
1857.000000	24.210138
1856.000000	24.288627
1855.000000	24.336309
1854.000000	24.391284
1853.000000	24.459758
1852.000000	24.476196
1851.000000	24.483816
1850.000000	24.488279
1849.000000	24.487191
1848.000000	24.507439
1847.000000	24.532586
1846.000000	24.524421
1845.000000	24.507112
1844.000000	24.460955
1843.000000	24.407069
1842.000000	24.387582
1841.000000	24.408810
1840.000000	24.424051
1839.000000	24.406198
1838.000000	24.354380
1837.000000	24.317802
1836.000000	24.292764
1835.000000	24.258908
1834.000000	24.217323
1833.000000	24.143188
1832.000000	24.074714
1831.000000	24.027904
1830.000000	23.976957
1829.000000	23.940706
1828.000000	23.884425
1827.000000	23.801472
1826.000000	23.740401
1825.000000	23.690869
1824.000000	23.637962
1823.000000	23.577326
1822.000000	23.542055
1821.000000	23.540640
1820.000000	23.531278
1819.000000	23.502212
1818.000000	23.478589
1817.000000	23.431888
1816.000000	23.407285
1815.000000	23.391391
1814.000000	23.382464
1813.000000	23.385730
1812.000000	23.367986
1811.000000	23.338158
1810.000000	23.308003
1809.000000	23.262390
1808.000000	23.210790
1807.000000	23.160605
1806.000000	23.125551
1805.000000	23.095288
1804.000000	23.046953
1803.000000	22.994373
1802.000000	22.944406
1801.000000	22.903147
1800.000000	22.858188
1799.000000	22.798749
1798.000000	22.748782
1797.000000	22.695004
1796.000000	22.644166
1795.000000	22.625115
1794.000000	22.582006
1793.000000	22.514294
1792.000000	22.462150
1791.000000	22.429600
1790.000000	22.389757
1789.000000	22.336523
1788.000000	22.280024
1787.000000	22.221457
1786.000000	22.178130
1785.000000	22.122611
1784.000000	22.060668
1783.000000	22.004822
1782.000000	21.926224
1781.000000	21.859057
1780.000000	21.804626
1779.000000	21.733213
1778.000000	21.666916
1777.000000	21.596265
1776.000000	21.507543
1775.000000	21.421652
1774.000000	21.322043
1773.000000	21.234628
1772.000000	21.144164
1771.000000	21.045971
1770.000000	20.939504
1769.000000	20.828030
1768.000000	20.715903
1767.000000	20.634257
1766.000000	20.548800
1765.000000	20.471509
1764.000000	20.396612
1763.000000	20.358946
1762.000000	20.339677
1761.000000	20.347407
1760.000000	20.375711
1759.000000	20.416969
1758.000000	20.473359
1757.000000	20.529423
1756.000000	20.566545
1755.000000	20.610198
1754.000000	20.656682
1753.000000	20.700118
1752.000000	20.702077
1751.000000	20.698485
1750.000000	20.701860
1749.000000	20.692171
1748.000000	20.650477
1747.000000	20.601054
1746.000000	20.541724
1745.000000	20.463997
1744.000000	20.362974
1743.000000	20.252153
1742.000000	20.105843
1741.000000	19.960839
1740.000000	19.787750
1739.000000	19.603121
1738.000000	19.439828
1737.000000	19.252913
1736.000000	19.106930
1735.000000	18.999266
1734.000000	18.902488
1733.000000	18.836409
1732.000000	18.813440
1731.000000	18.817141
1730.000000	18.837498
1729.000000	18.893344
1728.000000	18.969438
1727.000000	19.034319
1726.000000	19.103991
1725.000000	19.185964
1724.000000	19.230161
1723.000000	19.288511
1722.000000	19.339458
1721.000000	19.395848
1720.000000	19.445163
1719.000000	19.490667
1718.000000	19.555875
1717.000000	19.607802
1716.000000	19.690754
1715.000000	19.780238
1714.000000	19.886052
1713.000000	19.969984
1712.000000	20.052283
1711.000000	20.121519
1710.000000	20.181937
1709.000000	20.233646
1708.000000	20.229510
1707.000000	20.248234
1706.000000	20.255854
1705.000000	20.221018
1704.000000	20.196851
1703.000000	20.120322
1702.000000	20.070790
1701.000000	19.986204
1700.000000	19.873859
1699.000000	19.746382
1698.000000	19.644379
1697.000000	19.512221
1696.000000	19.426221
1695.000000	19.353066
1694.000000	19.330749
1693.000000	19.323238
1692.000000	19.387031
1691.000000	19.458226
1690.000000	19.570462
1689.000000	19.690754
1688.000000	19.783504
1687.000000	19.873206
1686.000000	19.948538
1685.000000	19.991756
1684.000000	20.061863
1683.000000	20.176494
1682.000000	20.335323
1681.000000	20.593107
1680.000000	20.951043
1679.000000	21.386272
1678.000000	21.807239
1677.000000	22.296027
1676.000000	22.717430
1675.000000	23.131974
1674.000000	23.483488
1673.000000	23.809093
1672.000000	24.109550
1671.000000	24.359932
1670.000000	24.610095
1669.000000	24.832717
1668.000000	25.012665
1667.000000	25.193484
1666.000000	25.343604
1665.000000	25.462045
1664.000000	25.578853
1663.000000	25.688042
1662.000000	25.790698
1661.000000	25.875610
1660.000000	25.953010
1659.000000	26.019742
1658.000000	26.090938
1657.000000	26.129910
1656.000000	26.154077
1655.000000	26.167467
1654.000000	26.195227
1653.000000	26.208073
1652.000000	26.210577
1651.000000	26.206766
1650.000000	26.180531
1649.000000	26.172693
1648.000000	26.142865
1647.000000	26.121854
1646.000000	26.061219
1645.000000	26.029213
1644.000000	25.964550
1643.000000	25.919372
1642.000000	25.893354
1641.000000	25.851987
1640.000000	25.781118
1639.000000	25.715801
1638.000000	25.674543
1637.000000	25.609552
1636.000000	25.550114
1635.000000	25.471734
1634.000000	25.416323
1633.000000	25.348394
1632.000000	25.245193
1631.000000	25.192831
1630.000000	25.127514
1629.000000	25.041187
1628.000000	24.979353
1627.000000	24.887474
1626.000000	24.793527
1625.000000	24.713296
1624.000000	24.632738
1623.000000	24.559692
1622.000000	24.474345
1621.000000	24.414253
1620.000000	24.336744
1619.000000	24.268488
1618.000000	24.187495
1617.000000	24.114340
1616.000000	24.052398
1615.000000	23.976413
1614.000000	23.916212
1613.000000	23.819434
1612.000000	23.770664
1611.000000	23.704150
1610.000000	23.628709
1609.000000	23.558929
1608.000000	23.481855
1607.000000	23.399338
1606.000000	23.355249
1605.000000	23.271970
1604.000000	23.198053
1603.000000	23.125442
1602.000000	23.035849
1601.000000	22.974560
1600.000000	22.880504
1599.000000	22.810180
1598.000000	22.749870
1597.000000	22.669095
1596.000000	22.592130
1595.000000	22.540312
1594.000000	22.481636
1593.000000	22.418387
1592.000000	22.357969
1591.000000	22.296680
1590.000000	22.226247
1589.000000	22.178130
