PE UV       SUBTECH     SPECTRUM    ASCII       PEDS        4.00        
   -1
CICIMAUCR0201-1.ASC
24/06/06
12:06:02.00
24/06/06
12:06:02.00
Vinicio Soto Monge
C. cupreomarginata. Sex F. Ventral
250,000000
1
Lambda 1050
1050L1511233
PerkinElmer UV WinLab 6.3.2.0749 / 2.02.05 Lambda 900 UV/VIS/NIR, Aug  7 2015 09:38:08

0
0
3350/servo 860,8/2
0
0
UV/VIS
1
1
1
DoubleDePol,CommonBeamDepol,RBeamAtt,SBeamAtt,60mm sphere, WB InGaAs Detector
0
0
0
0
Program
Program
3350/servo 860,8/2
3350/0,2 860,8/0,2
3350/0,2 860,8/0,2
0
15.00
 
 
 
0
 
860,8
319,2
860,8
Front
100
on
S:100 R:100
0
0
0
0
 
0
 
 
 
0
 
 
0
0
0
0
0
 
 
 
 
0
0


0
0
#HDR
-1
-1
#GR
nm
%R
1.0
0.0
2500,000000
-1,000000
2251
8
48,916300
4,023100
#DATA
2500.000000	6.108975
2499.000000	6.214632
2498.000000	6.146900
2497.000000	6.158614
2496.000000	6.137390
2495.000000	6.110483
2494.000000	6.109091
2493.000000	6.056437
2492.000000	6.069194
2491.000000	6.106308
2490.000000	6.075573
2489.000000	6.058524
2488.000000	6.056901
2487.000000	6.036024
2486.000000	6.050406
2485.000000	6.005754
2484.000000	5.917957
2483.000000	5.857068
2482.000000	5.966669
2481.000000	5.938254
2480.000000	5.963885
2479.000000	5.962841
2478.000000	5.914246
2477.000000	5.872030
2476.000000	5.904156
2475.000000	5.948112
2474.000000	5.931063
2473.000000	5.897893
2472.000000	5.910303
2471.000000	5.909839
2470.000000	5.923060
2469.000000	5.879336
2468.000000	5.892442
2467.000000	5.922133
2466.000000	5.936282
2465.000000	5.936050
2464.000000	5.922829
2463.000000	5.942429
2462.000000	5.909143
2461.000000	5.959362
2460.000000	5.946952
2459.000000	5.955303
2458.000000	6.016772
2457.000000	6.000303
2456.000000	6.006450
2455.000000	6.011437
2454.000000	6.034285
2453.000000	6.070354
2452.000000	6.065599
2451.000000	6.091926
2450.000000	6.108511
2449.000000	6.138666
2448.000000	6.164065
2447.000000	6.195264
2446.000000	6.243395
2445.000000	6.246527
2444.000000	6.284220
2443.000000	6.317042
2442.000000	6.323073
2441.000000	6.325045
2440.000000	6.364130
2439.000000	6.404722
2438.000000	6.425135
2437.000000	6.449606
2436.000000	6.495070
2435.000000	6.521281
2434.000000	6.506088
2433.000000	6.516642
2432.000000	6.562570
2431.000000	6.581011
2430.000000	6.619400
2429.000000	6.631346
2428.000000	6.656861
2427.000000	6.676578
2426.000000	6.690959
2425.000000	6.701629
2424.000000	6.731900
2423.000000	6.754632
2422.000000	6.765766
2421.000000	6.743962
2420.000000	6.760315
2419.000000	6.786294
2418.000000	6.802183
2417.000000	6.843356
2416.000000	6.842660
2415.000000	6.841732
2414.000000	6.863884
2413.000000	6.865044
2412.000000	6.870727
2411.000000	6.894851
2410.000000	6.930340
2409.000000	6.944606
2408.000000	6.941242
2407.000000	6.936951
2406.000000	6.954696
2405.000000	6.969077
2404.000000	6.985430
2403.000000	7.021616
2402.000000	7.055714
2401.000000	7.067428
2400.000000	7.103845
2399.000000	7.132956
2398.000000	7.127969
2397.000000	7.138059
2396.000000	7.153368
2395.000000	7.179812
2394.000000	7.199992
2393.000000	7.214721
2392.000000	7.234902
2391.000000	7.244528
2390.000000	7.253922
2389.000000	7.261113
2388.000000	7.263665
2387.000000	7.269348
2386.000000	7.283265
2385.000000	7.313188
2384.000000	7.326757
2383.000000	7.327453
2382.000000	7.325830
2381.000000	7.326293
2380.000000	7.329541
2379.000000	7.330817
2378.000000	7.338471
2377.000000	7.336384
2376.000000	7.317711
2375.000000	7.323626
2374.000000	7.328381
2373.000000	7.314811
2372.000000	7.319799
2371.000000	7.330353
2370.000000	7.329657
2369.000000	7.308665
2368.000000	7.312376
2367.000000	7.298342
2366.000000	7.267260
2365.000000	7.257518
2364.000000	7.253690
2363.000000	7.257054
2362.000000	7.237453
2361.000000	7.210894
2360.000000	7.196397
2359.000000	7.183291
2358.000000	7.161139
2357.000000	7.142466
2356.000000	7.150933
2355.000000	7.151629
2354.000000	7.147801
2353.000000	7.135856
2352.000000	7.141191
2351.000000	7.145482
2350.000000	7.149541
2349.000000	7.150353
2348.000000	7.159515
2347.000000	7.183871
2346.000000	7.213330
2345.000000	7.224928
2344.000000	7.235134
2343.000000	7.248123
2342.000000	7.261809
2341.000000	7.288020
2340.000000	7.302982
2339.000000	7.309244
2338.000000	7.319799
2337.000000	7.332092
2336.000000	7.333484
2335.000000	7.342067
2334.000000	7.342067
2333.000000	7.338703
2332.000000	7.345082
2331.000000	7.321654
2330.000000	7.311912
2329.000000	7.316551
2328.000000	7.315391
2327.000000	7.281641
2326.000000	7.255778
2325.000000	7.254386
2324.000000	7.225623
2323.000000	7.199412
2322.000000	7.185495
2321.000000	7.156848
2320.000000	7.127853
2319.000000	7.093523
2318.000000	7.062209
2317.000000	7.024399
2316.000000	6.989838
2315.000000	6.943214
2314.000000	6.905985
2313.000000	6.885688
2312.000000	6.850199
2311.000000	6.826655
2310.000000	6.804039
2309.000000	6.775740
2308.000000	6.757415
2307.000000	6.745237
2306.000000	6.740946
2305.000000	6.754748
2304.000000	6.752660
2303.000000	6.756255
2302.000000	6.778407
2301.000000	6.802067
2300.000000	6.816449
2299.000000	6.847415
2298.000000	6.889400
2297.000000	6.899026
2296.000000	6.933124
2295.000000	6.984735
2294.000000	6.992041
2293.000000	7.014773
2292.000000	7.031822
2291.000000	7.057338
2290.000000	7.062673
2289.000000	7.084941
2288.000000	7.100714
2287.000000	7.112196
2286.000000	7.102917
2285.000000	7.100134
2284.000000	7.093175
2283.000000	7.086912
2282.000000	7.066268
2281.000000	7.077750
2280.000000	7.048755
2279.000000	7.051539
2278.000000	7.022080
2277.000000	7.005611
2276.000000	7.001088
2275.000000	6.976500
2274.000000	6.973253
2273.000000	6.964090
2272.000000	6.960959
2271.000000	6.981255
2270.000000	6.987170
2269.000000	6.990649
2268.000000	7.014425
2267.000000	7.043652
2266.000000	7.064296
2265.000000	7.110456
2264.000000	7.161371
2263.000000	7.226435
2262.000000	7.286397
2261.000000	7.372453
2260.000000	7.442041
2259.000000	7.517891
2258.000000	7.626100
2257.000000	7.706357
2256.000000	7.806332
2255.000000	7.895520
2254.000000	8.011151
2253.000000	8.086305
2252.000000	8.202981
2251.000000	8.295880
2250.000000	8.392491
2249.000000	8.460571
2248.000000	8.534333
2247.000000	8.638831
2246.000000	8.696936
2245.000000	8.793431
2244.000000	8.838663
2243.000000	8.874964
2242.000000	8.940029
2241.000000	8.993959
2240.000000	9.069230
2239.000000	9.104255
2238.000000	9.144036
2237.000000	9.172103
2236.000000	9.214088
2235.000000	9.235776
2234.000000	9.290518
2233.000000	9.319049
2232.000000	9.322064
2231.000000	9.320673
2230.000000	9.347580
2229.000000	9.388057
2228.000000	9.368108
2227.000000	9.377271
2226.000000	9.358134
2225.000000	9.352103
2224.000000	9.337838
2223.000000	9.369616
2222.000000	9.361845
2221.000000	9.352103
2220.000000	9.352799
2219.000000	9.318237
2218.000000	9.319397
2217.000000	9.266046
2216.000000	9.252709
2215.000000	9.252593
2214.000000	9.256768
2213.000000	9.212348
2212.000000	9.202606
2211.000000	9.185789
2210.000000	9.180106
2209.000000	9.189732
2208.000000	9.181846
2207.000000	9.157258
2206.000000	9.149951
2205.000000	9.123508
2204.000000	9.137657
2203.000000	9.104139
2202.000000	9.115969
2201.000000	9.123740
2200.000000	9.134874
2199.000000	9.088018
2198.000000	9.093933
2197.000000	9.098108
2196.000000	9.101356
2195.000000	9.087786
2194.000000	9.070273
2193.000000	9.076072
2192.000000	9.081523
2191.000000	9.071549
2190.000000	9.065402
2189.000000	9.053688
2188.000000	9.051485
2187.000000	9.045338
2186.000000	9.023070
2185.000000	9.017851
2184.000000	9.023998
2183.000000	9.029565
2182.000000	9.001962
2181.000000	9.010544
2180.000000	8.991987
2179.000000	8.991987
2178.000000	9.001846
2177.000000	8.980622
2176.000000	8.980390
2175.000000	8.979926
2174.000000	8.988508
2173.000000	8.970647
2172.000000	8.968792
2171.000000	8.980158
2170.000000	8.985609
2169.000000	8.994075
2168.000000	9.010892
2167.000000	8.992335
2166.000000	9.001846
2165.000000	9.011588
2164.000000	9.013328
2163.000000	9.018895
2162.000000	9.022374
2161.000000	9.070737
2160.000000	9.086279
2159.000000	9.091034
2158.000000	9.108547
2157.000000	9.126755
2156.000000	9.168856
2155.000000	9.180802
2154.000000	9.205389
2153.000000	9.193327
2152.000000	9.226382
2151.000000	9.263727
2150.000000	9.281820
2149.000000	9.296317
2148.000000	9.328907
2147.000000	9.367644
2146.000000	9.403946
2145.000000	9.407309
2144.000000	9.406729
2143.000000	9.425634
2142.000000	9.454281
2141.000000	9.496265
2140.000000	9.513430
2139.000000	9.540337
2138.000000	9.553211
2137.000000	9.558430
2136.000000	9.566433
2135.000000	9.582090
2134.000000	9.608533
2133.000000	9.623495
2132.000000	9.635324
2131.000000	9.631729
2130.000000	9.659448
2129.000000	9.673482
2128.000000	9.678353
2127.000000	9.679165
2126.000000	9.672090
2125.000000	9.682180
2124.000000	9.695518
2123.000000	9.694590
2122.000000	9.719641
2121.000000	9.707579
2120.000000	9.687283
2119.000000	9.689603
2118.000000	9.696677
2117.000000	9.678353
2116.000000	9.686123
2115.000000	9.693662
2114.000000	9.684616
2113.000000	9.673714
2112.000000	9.675221
2111.000000	9.654461
2110.000000	9.641355
2109.000000	9.649242
2108.000000	9.634281
2107.000000	9.625930
2106.000000	9.627206
2105.000000	9.621987
2104.000000	9.590092
2103.000000	9.591136
2102.000000	9.587077
2101.000000	9.570260
2100.000000	9.551123
2099.000000	9.543469
2098.000000	9.529435
2097.000000	9.533495
2096.000000	9.544049
2095.000000	9.551355
2094.000000	9.534770
2093.000000	9.523056
2092.000000	9.529551
2091.000000	9.525956
2090.000000	9.525840
2089.000000	9.522013
2088.000000	9.502180
2087.000000	9.487219
2086.000000	9.491394
2085.000000	9.497773
2084.000000	9.484435
2083.000000	9.443843
2082.000000	9.423198
2081.000000	9.414384
2080.000000	9.427374
2079.000000	9.426562
2078.000000	9.390608
2077.000000	9.376575
2076.000000	9.360917
2075.000000	9.340041
2074.000000	9.315338
2073.000000	9.307451
2072.000000	9.289590
2071.000000	9.264075
2070.000000	9.241227
2069.000000	9.224062
2068.000000	9.213508
2067.000000	9.173379
2066.000000	9.148559
2065.000000	9.121652
2064.000000	9.094049
2063.000000	9.074681
2062.000000	9.055660
2061.000000	9.034088
2060.000000	9.018315
2059.000000	9.016111
2058.000000	8.998714
2057.000000	8.990016
2056.000000	8.998366
2055.000000	8.999758
2054.000000	9.018663
2053.000000	9.027477
2052.000000	9.025274
2051.000000	9.040699
2050.000000	9.077348
2049.000000	9.107619
2048.000000	9.125016
2047.000000	9.169436
2046.000000	9.205157
2045.000000	9.250621
2044.000000	9.298173
2043.000000	9.350943
2042.000000	9.384809
2041.000000	9.442335
2040.000000	9.484899
2039.000000	9.517605
2038.000000	9.559822
2037.000000	9.596935
2036.000000	9.631497
2035.000000	9.668958
2034.000000	9.706304
2033.000000	9.732051
2032.000000	9.748172
2031.000000	9.782386
2030.000000	9.793636
2029.000000	9.819383
2028.000000	9.849654
2027.000000	9.883056
2026.000000	9.889203
2025.000000	9.903120
2024.000000	9.916806
2023.000000	9.935479
2022.000000	9.951020
2021.000000	9.971664
2020.000000	9.991033
2019.000000	9.985466
2018.000000	9.992772
2017.000000	9.998339
2016.000000	10.005878
2015.000000	10.018172
2014.000000	9.998687
2013.000000	10.012721
2012.000000	10.027218
2011.000000	9.999383
2010.000000	10.000659
2009.000000	10.012721
2008.000000	9.986510
2007.000000	9.967025
2006.000000	9.951832
2005.000000	9.937334
2004.000000	9.919242
2003.000000	9.916458
2002.000000	9.899873
2001.000000	9.871458
2000.000000	9.862064
1999.000000	9.839332
1998.000000	9.809061
1997.000000	9.764989
1996.000000	9.742373
1995.000000	9.733907
1994.000000	9.708275
1993.000000	9.684500
1992.000000	9.657476
1991.000000	9.610621
1990.000000	9.576407
1989.000000	9.545904
1988.000000	9.510531
1987.000000	9.476317
1986.000000	9.447090
1985.000000	9.412528
1984.000000	9.375067
1983.000000	9.340621
1982.000000	9.313714
1981.000000	9.254449
1980.000000	9.230325
1979.000000	9.199126
1978.000000	9.166420
1977.000000	9.130583
1976.000000	9.086743
1975.000000	9.059487
1974.000000	9.026085
1973.000000	9.001614
1972.000000	8.966588
1971.000000	8.938753
1970.000000	8.886098
1969.000000	8.860699
1968.000000	8.854320
1967.000000	8.815931
1966.000000	8.767684
1965.000000	8.759101
1964.000000	8.721640
1963.000000	8.690789
1962.000000	8.681627
1961.000000	8.610648
1960.000000	8.610532
1959.000000	8.588844
1958.000000	8.528882
1957.000000	8.536305
1956.000000	8.509630
1955.000000	8.470197
1954.000000	8.468805
1953.000000	8.406060
1952.000000	8.394926
1951.000000	8.390751
1950.000000	8.353406
1949.000000	8.333341
1948.000000	8.299359
1947.000000	8.298664
1946.000000	8.257143
1945.000000	8.255635
1944.000000	8.236731
1943.000000	8.201589
1942.000000	8.221537
1941.000000	8.225481
1940.000000	8.167027
1939.000000	8.176885
1938.000000	8.152414
1937.000000	8.184076
1936.000000	8.192311
1935.000000	8.181756
1934.000000	8.196022
1933.000000	8.185352
1932.000000	8.208084
1931.000000	8.230468
1930.000000	8.263174
1929.000000	8.262594
1928.000000	8.266421
1927.000000	8.333341
1926.000000	8.338096
1925.000000	8.380081
1924.000000	8.436911
1923.000000	8.478895
1922.000000	8.523315
1921.000000	8.560777
1920.000000	8.616795
1919.000000	8.665158
1918.000000	8.714797
1917.000000	8.816163
1916.000000	8.864526
1915.000000	8.954990
1914.000000	8.996511
1913.000000	9.101240
1912.000000	9.188224
1911.000000	9.272657
1910.000000	9.363237
1909.000000	9.456948
1908.000000	9.533379
1907.000000	9.632425
1906.000000	9.765917
1905.000000	9.894422
1904.000000	10.020607
1903.000000	10.107940
1902.000000	10.280053
1901.000000	10.390233
1900.000000	10.554112
1899.000000	10.716251
1898.000000	10.856702
1897.000000	11.039717
1896.000000	11.200348
1895.000000	11.352745
1894.000000	11.553041
1893.000000	11.709845
1892.000000	11.942036
1891.000000	12.155670
1890.000000	12.381481
1889.000000	12.590940
1888.000000	12.840991
1887.000000	13.083504
1886.000000	13.344341
1885.000000	13.586622
1884.000000	13.914727
1883.000000	14.227755
1882.000000	14.565370
1881.000000	14.899623
1880.000000	15.201633
1879.000000	15.493436
1878.000000	15.792547
1877.000000	16.119029
1876.000000	16.415935
1875.000000	16.677933
1874.000000	16.983190
1873.000000	17.265020
1872.000000	17.503705
1871.000000	17.751784
1870.000000	17.987338
1869.000000	18.187635
1868.000000	18.405676
1867.000000	18.558188
1866.000000	18.695972
1865.000000	18.808703
1864.000000	18.926190
1863.000000	19.033355
1862.000000	19.146435
1861.000000	19.256731
1860.000000	19.346151
1859.000000	19.428381
1858.000000	19.496692
1857.000000	19.553290
1856.000000	19.595391
1855.000000	19.623806
1854.000000	19.684463
1853.000000	19.712414
1852.000000	19.699656
1851.000000	19.717053
1850.000000	19.719025
1849.000000	19.753122
1848.000000	19.764025
1847.000000	19.729579
1846.000000	19.704179
1845.000000	19.671705
1844.000000	19.650713
1843.000000	19.651873
1842.000000	19.667414
1841.000000	19.658020
1840.000000	19.639927
1839.000000	19.603741
1838.000000	19.573587
1837.000000	19.564540
1836.000000	19.548651
1835.000000	19.512929
1834.000000	19.456564
1833.000000	19.410056
1832.000000	19.372247
1831.000000	19.333857
1830.000000	19.295700
1829.000000	19.249541
1828.000000	19.198394
1827.000000	19.153278
1826.000000	19.117324
1825.000000	19.067569
1824.000000	19.045301
1823.000000	19.026396
1822.000000	19.005056
1821.000000	19.009927
1820.000000	18.964464
1819.000000	18.941500
1818.000000	18.919464
1817.000000	18.896732
1816.000000	18.890933
1815.000000	18.871564
1814.000000	18.869824
1813.000000	18.868201
1812.000000	18.838742
1811.000000	18.804528
1810.000000	18.792930
1809.000000	18.776925
1808.000000	18.737492
1807.000000	18.710121
1806.000000	18.690405
1805.000000	18.646216
1804.000000	18.611655
1803.000000	18.583936
1802.000000	18.538588
1801.000000	18.516204
1800.000000	18.490920
1799.000000	18.432931
1798.000000	18.379812
1797.000000	18.357776
1796.000000	18.351281
1795.000000	18.322866
1794.000000	18.272647
1793.000000	18.227879
1792.000000	18.201088
1791.000000	18.176964
1790.000000	18.130689
1789.000000	18.085573
1788.000000	18.057622
1787.000000	18.030715
1786.000000	18.002764
1785.000000	17.961243
1784.000000	17.922738
1783.000000	17.876578
1782.000000	17.808498
1781.000000	17.758859
1780.000000	17.719194
1779.000000	17.680109
1778.000000	17.624555
1777.000000	17.551024
1776.000000	17.488976
1775.000000	17.440728
1774.000000	17.373460
1773.000000	17.291927
1772.000000	17.231734
1771.000000	17.151360
1770.000000	17.065999
1769.000000	16.987713
1768.000000	16.914530
1767.000000	16.838100
1766.000000	16.787533
1765.000000	16.733371
1764.000000	16.677121
1763.000000	16.658216
1762.000000	16.645806
1761.000000	16.648358
1760.000000	16.668770
1759.000000	16.703912
1758.000000	16.741257
1757.000000	16.792288
1756.000000	16.825806
1755.000000	16.858744
1754.000000	16.886463
1753.000000	16.898757
1752.000000	16.906528
1751.000000	16.912907
1750.000000	16.900613
1749.000000	16.890175
1748.000000	16.869182
1747.000000	16.834853
1746.000000	16.782314
1745.000000	16.732211
1744.000000	16.665639
1743.000000	16.580626
1742.000000	16.485871
1741.000000	16.371051
1740.000000	16.251245
1739.000000	16.125059
1738.000000	16.022650
1737.000000	15.898436
1736.000000	15.805305
1735.000000	15.729338
1734.000000	15.677148
1733.000000	15.641310
1732.000000	15.620782
1731.000000	15.637599
1730.000000	15.651632
1729.000000	15.694545
1728.000000	15.757521
1727.000000	15.816091
1726.000000	15.872921
1725.000000	15.899016
1724.000000	15.935201
1723.000000	15.976258
1722.000000	16.007573
1721.000000	16.046773
1720.000000	16.077276
1719.000000	16.096413
1718.000000	16.143848
1717.000000	16.196155
1716.000000	16.242546
1715.000000	16.310858
1714.000000	16.373719
1713.000000	16.421386
1712.000000	16.484247
1711.000000	16.541077
1710.000000	16.574711
1709.000000	16.599183
1708.000000	16.607533
1707.000000	16.596979
1706.000000	16.595239
1705.000000	16.591992
1704.000000	16.562069
1703.000000	16.542005
1702.000000	16.509879
1701.000000	16.467546
1700.000000	16.381374
1699.000000	16.322340
1698.000000	16.256232
1697.000000	16.221786
1696.000000	16.175510
1695.000000	16.145820
1694.000000	16.168784
1693.000000	16.214827
1692.000000	16.304131
1691.000000	16.387868
1690.000000	16.509299
1689.000000	16.629685
1688.000000	16.701476
1687.000000	16.751463
1686.000000	16.806554
1685.000000	16.875097
1684.000000	16.946193
1683.000000	17.068783
1682.000000	17.222455
1681.000000	17.497442
1680.000000	17.811978
1679.000000	18.158524
1678.000000	18.491616
1677.000000	18.849296
1676.000000	19.176358
1675.000000	19.474308
1674.000000	19.749063
1673.000000	20.010364
1672.000000	20.211472
1671.000000	20.390197
1670.000000	20.538418
1669.000000	20.701485
1668.000000	20.854114
1667.000000	20.966729
1666.000000	21.037941
1665.000000	21.138263
1664.000000	21.204835
1663.000000	21.302257
1662.000000	21.366046
1661.000000	21.422760
1660.000000	21.497798
1659.000000	21.528765
1658.000000	21.594293
1657.000000	21.645324
1656.000000	21.620157
1655.000000	21.663533
1654.000000	21.678610
1653.000000	21.688352
1652.000000	21.681510
1651.000000	21.674087
1650.000000	21.655994
1649.000000	21.622476
1648.000000	21.595917
1647.000000	21.559151
1646.000000	21.547322
1645.000000	21.516239
1644.000000	21.488752
1643.000000	21.452798
1642.000000	21.385299
1641.000000	21.364074
1640.000000	21.333224
1639.000000	21.294255
1638.000000	21.236845
1637.000000	21.181175
1636.000000	21.150672
1635.000000	21.115067
1634.000000	21.035157
1633.000000	20.996652
1632.000000	20.936691
1631.000000	20.887168
1630.000000	20.819088
1629.000000	20.775480
1628.000000	20.706588
1627.000000	20.670402
1626.000000	20.616820
1625.000000	20.527632
1624.000000	20.461872
1623.000000	20.427426
1622.000000	20.351343
1621.000000	20.274101
1620.000000	20.242091
1619.000000	20.195235
1618.000000	20.152439
1617.000000	20.093638
1616.000000	20.022078
1615.000000	19.992968
1614.000000	19.940313
1613.000000	19.870841
1612.000000	19.832684
1611.000000	19.768780
1610.000000	19.707659
1609.000000	19.676460
1608.000000	19.618471
1607.000000	19.561177
1606.000000	19.507826
1605.000000	19.448445
1604.000000	19.407040
1603.000000	19.346731
1602.000000	19.296048
1601.000000	19.238291
1600.000000	19.181577
1599.000000	19.119064
1598.000000	19.066525
