PE UV       SUBTECH     SPECTRUM    ASCII       PEDS        4.00        
   -1
CICIMAUCR0225-1.ASC
24/05/30
14:22:50.00
24/05/30
14:22:50.00
Vinicio Soto Monge
C. resplendens, F Ventral
250,000000
1
Lambda 1050
1050L1511233
PerkinElmer UV WinLab 6.3.2.0749 / 2.02.05 Lambda 900 UV/VIS/NIR, Aug  7 2015 09:38:08

0
0
3350/servo 860,8/2
0
0
UV/VIS
1
1
1
DoubleDePol,CommonBeamDepol,RBeamAtt,SBeamAtt,60mm sphere, WB InGaAs Detector
0
0
0
0
Program
Program
3350/servo 860,8/2
3350/0,2 860,8/0,2
3350/0,2 860,8/0,2
0
15.00
 
 
 
0
 
860,8
319,2
860,8
Front
100
on
S:100 R:100
0
0
0
0
 
0
 
 
 
0
 
 
0
0
0
0
0
 
 
 
 
0
0


0
0
#HDR
-1
-1
#GR
nm
%R
1.0
0.0
2500,000000
-1,000000
2251
8
50,965100
3,714600
#DATA
2500.000000	4.989565
2499.000000	4.959521
2498.000000	4.882498
2497.000000	4.868077
2496.000000	4.770732
2495.000000	4.977875
2494.000000	4.862942
2493.000000	4.786028
2492.000000	4.937233
2491.000000	4.905769
2490.000000	4.817711
2489.000000	4.912652
2488.000000	4.873430
2487.000000	4.767783
2486.000000	4.832351
2485.000000	4.807004
2484.000000	4.733368
2483.000000	4.866219
2482.000000	4.844041
2481.000000	4.720149
2480.000000	4.742764
2479.000000	4.758278
2478.000000	4.714795
2477.000000	4.834317
2476.000000	4.707147
2475.000000	4.732276
2474.000000	4.703979
2473.000000	4.734570
2472.000000	4.680053
2471.000000	4.691634
2470.000000	4.682347
2469.000000	4.652084
2468.000000	4.670329
2467.000000	4.643562
2466.000000	4.649244
2465.000000	4.671750
2464.000000	4.661589
2463.000000	4.649353
2462.000000	4.665085
2461.000000	4.669565
2460.000000	4.677431
2459.000000	4.655580
2458.000000	4.681145
2457.000000	4.642907
2456.000000	4.687263
2455.000000	4.700920
2454.000000	4.691415
2453.000000	4.709770
2452.000000	4.726704
2451.000000	4.731402
2450.000000	4.713812
2449.000000	4.698626
2448.000000	4.722661
2447.000000	4.745714
2446.000000	4.766362
2445.000000	4.768329
2444.000000	4.803727
2443.000000	4.805912
2442.000000	4.803508
2441.000000	4.827107
2440.000000	4.821098
2439.000000	4.833334
2438.000000	4.859227
2437.000000	4.862832
2436.000000	4.877581
2435.000000	4.875943
2434.000000	4.857261
2433.000000	4.890583
2432.000000	4.911231
2431.000000	4.916803
2430.000000	4.927073
2429.000000	4.934284
2428.000000	4.941494
2427.000000	4.952201
2426.000000	4.969791
2425.000000	4.962143
2424.000000	4.968807
2423.000000	4.996667
2422.000000	5.009122
2421.000000	4.996011
2420.000000	4.987380
2419.000000	4.986506
2418.000000	5.006609
2417.000000	5.007592
2416.000000	5.015349
2415.000000	5.042881
2414.000000	5.051184
2413.000000	5.054243
2412.000000	5.043427
2411.000000	5.027476
2410.000000	5.024526
2409.000000	5.042007
2408.000000	5.059269
2407.000000	5.061017
2406.000000	5.080027
2405.000000	5.095759
2404.000000	5.089204
2403.000000	5.082430
2402.000000	5.074892
2401.000000	5.077295
2400.000000	5.103297
2399.000000	5.108323
2398.000000	5.118265
2397.000000	5.138586
2396.000000	5.153116
2395.000000	5.156940
2394.000000	5.165462
2393.000000	5.183489
2392.000000	5.177480
2391.000000	5.170269
2390.000000	5.170378
2389.000000	5.194851
2388.000000	5.198129
2387.000000	5.189935
2386.000000	5.196490
2385.000000	5.203373
2384.000000	5.203700
2383.000000	5.204356
2382.000000	5.216920
2381.000000	5.219542
2380.000000	5.210365
2379.000000	5.211457
2378.000000	5.215500
2377.000000	5.218340
2376.000000	5.201078
2375.000000	5.188624
2374.000000	5.179774
2373.000000	5.197036
2372.000000	5.200532
2371.000000	5.189388
2370.000000	5.183707
2369.000000	5.175295
2368.000000	5.176497
2367.000000	5.169177
2366.000000	5.163277
2365.000000	5.155848
2364.000000	5.142956
2363.000000	5.143393
2362.000000	5.134762
2361.000000	5.123291
2360.000000	5.119576
2359.000000	5.094776
2358.000000	5.086254
2357.000000	5.074673
2356.000000	5.061017
2355.000000	5.061781
2354.000000	5.053697
2353.000000	5.047032
2352.000000	5.036544
2351.000000	5.032065
2350.000000	5.035233
2349.000000	5.038838
2348.000000	5.029661
2347.000000	5.036544
2346.000000	5.046923
2345.000000	5.040477
2344.000000	5.047906
2343.000000	5.059596
2342.000000	5.072816
2341.000000	5.071723
2340.000000	5.084943
2339.000000	5.083850
2338.000000	5.086909
2337.000000	5.103953
2336.000000	5.113349
2335.000000	5.123837
2334.000000	5.116954
2333.000000	5.098381
2332.000000	5.097179
2331.000000	5.120559
2330.000000	5.128316
2329.000000	5.106684
2328.000000	5.090733
2327.000000	5.085052
2326.000000	5.084397
2325.000000	5.063639
2324.000000	5.049982
2323.000000	5.043645
2322.000000	5.027039
2321.000000	5.005953
2320.000000	4.996230
2319.000000	4.985414
2318.000000	4.959630
2317.000000	4.941822
2316.000000	4.907517
2315.000000	4.865236
2314.000000	4.844806
2313.000000	4.836503
2312.000000	4.813013
2311.000000	4.773573
2310.000000	4.761664
2309.000000	4.761664
2308.000000	4.733477
2307.000000	4.711955
2306.000000	4.709005
2305.000000	4.716325
2304.000000	4.692835
2303.000000	4.695130
2302.000000	4.710534
2301.000000	4.719930
2300.000000	4.726048
2299.000000	4.750302
2298.000000	4.759698
2297.000000	4.767783
2296.000000	4.788650
2295.000000	4.796188
2294.000000	4.808097
2293.000000	4.820333
2292.000000	4.838797
2291.000000	4.864034
2290.000000	4.881187
2289.000000	4.861740
2288.000000	4.862505
2287.000000	4.867640
2286.000000	4.864799
2285.000000	4.871026
2284.000000	4.885557
2283.000000	4.879657
2282.000000	4.872884
2281.000000	4.876161
2280.000000	4.865891
2279.000000	4.870371
2278.000000	4.860538
2277.000000	4.867312
2276.000000	4.850924
2275.000000	4.860210
2274.000000	4.864471
2273.000000	4.852890
2272.000000	4.872447
2271.000000	4.872774
2270.000000	4.860538
2269.000000	4.866765
2268.000000	4.895827
2267.000000	4.907407
2266.000000	4.919971
2265.000000	4.953294
2264.000000	4.960067
2263.000000	4.998852
2262.000000	5.050965
2261.000000	5.059050
2260.000000	5.115315
2259.000000	5.161638
2258.000000	5.203482
2257.000000	5.234182
2256.000000	5.297548
2255.000000	5.369218
2254.000000	5.431383
2253.000000	5.486118
2252.000000	5.539652
2251.000000	5.574176
2250.000000	5.637542
2249.000000	5.684412
2248.000000	5.735651
2247.000000	5.799018
2246.000000	5.850039
2245.000000	5.889151
2244.000000	5.924658
2243.000000	5.984529
2242.000000	6.018725
2241.000000	6.047677
2240.000000	6.066031
2239.000000	6.115850
2238.000000	6.152231
2237.000000	6.186100
2236.000000	6.198882
2235.000000	6.229036
2234.000000	6.261375
2233.000000	6.260391
2232.000000	6.260938
2231.000000	6.297537
2230.000000	6.332061
2229.000000	6.339490
2228.000000	6.339709
2227.000000	6.322228
2226.000000	6.348449
2225.000000	6.336977
2224.000000	6.352819
2223.000000	6.340911
2222.000000	6.347684
2221.000000	6.342768
2220.000000	6.338070
2219.000000	6.312833
2218.000000	6.320043
2217.000000	6.326380
2216.000000	6.301798
2215.000000	6.293276
2214.000000	6.293823
2213.000000	6.318623
2212.000000	6.282679
2211.000000	6.260501
2210.000000	6.291091
2209.000000	6.281149
2208.000000	6.268804
2207.000000	6.268258
2206.000000	6.258316
2205.000000	6.247937
2204.000000	6.224447
2203.000000	6.243785
2202.000000	6.255584
2201.000000	6.219312
2200.000000	6.215379
2199.000000	6.209480
2198.000000	6.225431
2197.000000	6.178780
2196.000000	6.218001
2195.000000	6.222699
2194.000000	6.217783
2193.000000	6.191999
2192.000000	6.189159
2191.000000	6.197462
2190.000000	6.191125
2189.000000	6.198008
2188.000000	6.173973
2187.000000	6.160862
2186.000000	6.182057
2185.000000	6.190142
2184.000000	6.168182
2183.000000	6.184352
2182.000000	6.175174
2181.000000	6.159114
2180.000000	6.147533
2179.000000	6.156820
2178.000000	6.158677
2177.000000	6.150702
2176.000000	6.148189
2175.000000	6.152341
2174.000000	6.137701
2173.000000	6.151357
2172.000000	6.152341
2171.000000	6.181293
2170.000000	6.178233
2169.000000	6.171132
2168.000000	6.160862
2167.000000	6.175939
2166.000000	6.168619
2165.000000	6.192546
2164.000000	6.206093
2163.000000	6.218985
2162.000000	6.228271
2161.000000	6.235700
2160.000000	6.230128
2159.000000	6.239196
2158.000000	6.272081
2157.000000	6.281914
2156.000000	6.312505
2155.000000	6.320590
2154.000000	6.317093
2153.000000	6.331406
2152.000000	6.371283
2151.000000	6.362324
2150.000000	6.370081
2149.000000	6.398924
2148.000000	6.403949
2147.000000	6.426674
2146.000000	6.436179
2145.000000	6.450928
2144.000000	6.472341
2143.000000	6.484796
2142.000000	6.483376
2141.000000	6.494410
2140.000000	6.515168
2139.000000	6.512656
2138.000000	6.524564
2137.000000	6.533960
2136.000000	6.535380
2135.000000	6.551113
2134.000000	6.547835
2133.000000	6.561601
2132.000000	6.571215
2131.000000	6.565425
2130.000000	6.565425
2129.000000	6.571761
2128.000000	6.584216
2127.000000	6.578644
2126.000000	6.572308
2125.000000	6.571215
2124.000000	6.560617
2123.000000	6.563130
2122.000000	6.551003
2121.000000	6.532867
2120.000000	6.552970
2119.000000	6.551768
2118.000000	6.533632
2117.000000	6.521396
2116.000000	6.502167
2115.000000	6.494629
2114.000000	6.500201
2113.000000	6.485998
2112.000000	6.477804
2111.000000	6.471358
2110.000000	6.449835
2109.000000	6.448087
2108.000000	6.438036
2107.000000	6.429733
2106.000000	6.424380
2105.000000	6.423506
2104.000000	6.406134
2103.000000	6.384612
2102.000000	6.381990
2101.000000	6.383956
2100.000000	6.368114
2099.000000	6.348012
2098.000000	6.336977
2097.000000	6.325287
2096.000000	6.332498
2095.000000	6.333481
2094.000000	6.320371
2093.000000	6.321136
2092.000000	6.312942
2091.000000	6.308244
2090.000000	6.289999
2089.000000	6.281149
2088.000000	6.296991
2087.000000	6.285192
2086.000000	6.288797
2085.000000	6.286721
2084.000000	6.255475
2083.000000	6.243348
2082.000000	6.248592
2081.000000	6.245096
2080.000000	6.240070
2079.000000	6.227179
2078.000000	6.199975
2077.000000	6.206530
2076.000000	6.194512
2075.000000	6.178452
2074.000000	6.182713
2073.000000	6.172771
2072.000000	6.155946
2071.000000	6.125901
2070.000000	6.099899
2069.000000	6.103505
2068.000000	6.095529
2067.000000	6.062753
2066.000000	6.046912
2065.000000	6.045601
2064.000000	6.012497
2063.000000	6.010968
2062.000000	6.009110
2061.000000	5.981907
2060.000000	5.953719
2059.000000	5.939080
2058.000000	5.942029
2057.000000	5.935802
2056.000000	5.930230
2055.000000	5.924221
2054.000000	5.937659
2053.000000	5.936348
2052.000000	5.938424
2051.000000	5.946946
2050.000000	5.972511
2049.000000	5.992176
2048.000000	6.006707
2047.000000	6.022221
2046.000000	6.050517
2045.000000	6.080889
2044.000000	6.098261
2043.000000	6.119346
2042.000000	6.157038
2041.000000	6.174956
2040.000000	6.196479
2039.000000	6.230893
2038.000000	6.274813
2037.000000	6.296773
2036.000000	6.331406
2035.000000	6.369207
2034.000000	6.391713
2033.000000	6.395974
2032.000000	6.418698
2031.000000	6.435523
2030.000000	6.456609
2029.000000	6.477258
2028.000000	6.496814
2027.000000	6.525110
2026.000000	6.537674
2025.000000	6.534397
2024.000000	6.554172
2023.000000	6.564114
2022.000000	6.568374
2021.000000	6.570778
2020.000000	6.574820
2019.000000	6.605957
2018.000000	6.605520
2017.000000	6.612185
2016.000000	6.613605
2015.000000	6.615790
2014.000000	6.599184
2013.000000	6.615790
2012.000000	6.609453
2011.000000	6.612512
2010.000000	6.616227
2009.000000	6.597654
2008.000000	6.597763
2007.000000	6.588695
2006.000000	6.594814
2005.000000	6.571215
2004.000000	6.560945
2003.000000	6.547398
2002.000000	6.558214
2001.000000	6.517790
2000.000000	6.517353
1999.000000	6.506974
1998.000000	6.490477
1997.000000	6.471904
1996.000000	6.434322
1995.000000	6.416732
1994.000000	6.401655
1993.000000	6.412471
1992.000000	6.375653
1991.000000	6.336650
1990.000000	6.310101
1989.000000	6.279183
1988.000000	6.278090
1987.000000	6.250886
1986.000000	6.228380
1985.000000	6.213413
1984.000000	6.189705
1983.000000	6.163266
1982.000000	6.142945
1981.000000	6.110606
1980.000000	6.090722
1979.000000	6.065376
1978.000000	6.038281
1977.000000	6.020254
1976.000000	5.993487
1975.000000	5.958636
1974.000000	5.944651
1973.000000	5.947820
1972.000000	5.901060
1971.000000	5.889916
1970.000000	5.860090
1969.000000	5.832340
1968.000000	5.818246
1967.000000	5.810162
1966.000000	5.775419
1965.000000	5.748871
1964.000000	5.738383
1963.000000	5.734559
1962.000000	5.723524
1961.000000	5.703312
1960.000000	5.670755
1959.000000	5.681680
1958.000000	5.649997
1957.000000	5.634483
1956.000000	5.615255
1955.000000	5.596026
1954.000000	5.576579
1953.000000	5.555712
1952.000000	5.544568
1951.000000	5.551451
1950.000000	5.548611
1949.000000	5.523592
1948.000000	5.486992
1947.000000	5.479017
1946.000000	5.476723
1945.000000	5.464268
1944.000000	5.467327
1943.000000	5.475958
1942.000000	5.464814
1941.000000	5.457385
1940.000000	5.457057
1939.000000	5.429963
1938.000000	5.458368
1937.000000	5.468529
1936.000000	5.461209
1935.000000	5.439905
1934.000000	5.463503
1933.000000	5.458150
1932.000000	5.484043
1931.000000	5.477924
1930.000000	5.505893
1929.000000	5.508406
1928.000000	5.549485
1927.000000	5.551998
1926.000000	5.569587
1925.000000	5.601380
1924.000000	5.628584
1923.000000	5.639072
1922.000000	5.683538
1921.000000	5.735433
1920.000000	5.760670
1919.000000	5.786344
1918.000000	5.820759
1917.000000	5.854955
1916.000000	5.887294
1915.000000	5.930449
1914.000000	5.997639
1913.000000	6.016212
1912.000000	6.084495
1911.000000	6.149282
1910.000000	6.174628
1909.000000	6.229582
1908.000000	6.311631
1907.000000	6.358937
1906.000000	6.418480
1905.000000	6.519866
1904.000000	6.606831
1903.000000	6.705923
1902.000000	6.782182
1901.000000	6.856364
1900.000000	6.946607
1899.000000	7.059793
1898.000000	7.176693
1897.000000	7.252733
1896.000000	7.363187
1895.000000	7.458018
1894.000000	7.557438
1893.000000	7.686575
1892.000000	7.837889
1891.000000	7.984725
1890.000000	8.128174
1889.000000	8.285279
1888.000000	8.439434
1887.000000	8.612162
1886.000000	8.811439
1885.000000	9.011044
1884.000000	9.242550
1883.000000	9.525951
1882.000000	9.817328
1881.000000	10.110015
1880.000000	10.401173
1879.000000	10.695500
1878.000000	10.981195
1877.000000	11.282623
1876.000000	11.619340
1875.000000	11.926012
1874.000000	12.226238
1873.000000	12.536734
1872.000000	12.828657
1871.000000	13.081249
1870.000000	13.320839
1869.000000	13.520335
1868.000000	13.738294
1867.000000	13.924132
1866.000000	14.052285
1865.000000	14.178254
1864.000000	14.288162
1863.000000	14.387800
1862.000000	14.493447
1861.000000	14.590464
1860.000000	14.692833
1859.000000	14.768436
1858.000000	14.851687
1857.000000	14.901397
1856.000000	14.934500
1855.000000	14.965746
1854.000000	14.988143
1853.000000	14.995026
1852.000000	14.969461
1851.000000	14.957880
1850.000000	14.953182
1849.000000	14.946846
1848.000000	14.954166
1847.000000	14.937887
1846.000000	14.883807
1845.000000	14.832240
1844.000000	14.814869
1843.000000	14.779798
1842.000000	14.768764
1841.000000	14.783732
1840.000000	14.749863
1839.000000	14.722987
1838.000000	14.695455
1837.000000	14.658965
1836.000000	14.628593
1835.000000	14.589043
1834.000000	14.531358
1833.000000	14.481430
1832.000000	14.421778
1831.000000	14.370866
1830.000000	14.338637
1829.000000	14.281279
1828.000000	14.235611
1827.000000	14.164706
1826.000000	14.099155
1825.000000	14.046386
1824.000000	13.996348
1823.000000	13.957017
1822.000000	13.947840
1821.000000	13.950462
1820.000000	13.915938
1819.000000	13.876717
1818.000000	13.839352
1817.000000	13.826460
1816.000000	13.820124
1815.000000	13.810073
1814.000000	13.800458
1813.000000	13.792264
1812.000000	13.788003
1811.000000	13.769977
1810.000000	13.730974
1809.000000	13.700274
1808.000000	13.687600
1807.000000	13.655043
1806.000000	13.612762
1805.000000	13.583920
1804.000000	13.547211
1803.000000	13.509628
1802.000000	13.472810
1801.000000	13.431731
1800.000000	13.386719
1799.000000	13.344766
1798.000000	13.311662
1797.000000	13.274407
1796.000000	13.234748
1795.000000	13.192905
1794.000000	13.153683
1793.000000	13.125277
1792.000000	13.088459
1791.000000	13.051641
1790.000000	13.004772
1789.000000	12.956373
1788.000000	12.919445
1787.000000	12.881535
1786.000000	12.833791
1785.000000	12.766492
1784.000000	12.713177
1783.000000	12.669039
1782.000000	12.612555
1781.000000	12.555197
1780.000000	12.506361
1779.000000	12.440373
1778.000000	12.379956
1777.000000	12.318993
1776.000000	12.247979
1775.000000	12.177511
1774.000000	12.101581
1773.000000	12.012212
1772.000000	11.929289
1771.000000	11.850300
1770.000000	11.756452
1769.000000	11.672327
1768.000000	11.594867
1767.000000	11.503860
1766.000000	11.438417
1765.000000	11.396683
1764.000000	11.347192
1763.000000	11.303163
1762.000000	11.287758
1761.000000	11.297591
1760.000000	11.325669
1759.000000	11.378219
1758.000000	11.417113
1757.000000	11.447267
1756.000000	11.481463
1755.000000	11.517626
1754.000000	11.542863
1753.000000	11.573235
1752.000000	11.600548
1751.000000	11.589295
1750.000000	11.575420
1749.000000	11.557066
1748.000000	11.511507
1747.000000	11.476110
1746.000000	11.433501
1745.000000	11.360083
1744.000000	11.284808
1743.000000	11.184296
1742.000000	11.086187
1741.000000	10.957815
1740.000000	10.824855
1739.000000	10.669716
1738.000000	10.542219
1737.000000	10.413628
1736.000000	10.288862
1735.000000	10.196543
1734.000000	10.133177
1733.000000	10.091333
1732.000000	10.089257
1731.000000	10.105427
1730.000000	10.133177
1729.000000	10.198728
1728.000000	10.262313
1727.000000	10.308746
1726.000000	10.372003
1725.000000	10.439630
1724.000000	10.480491
1723.000000	10.532058
1722.000000	10.548009
1721.000000	10.574994
1720.000000	10.594878
1719.000000	10.630932
1718.000000	10.651471
1717.000000	10.671355
1716.000000	10.710468
1715.000000	10.768808
1714.000000	10.805845
1713.000000	10.855555
1712.000000	10.894667
1711.000000	10.944705
1710.000000	10.959454
1709.000000	10.975405
1708.000000	10.996709
1707.000000	10.983708
1706.000000	10.955740
1705.000000	10.952899
1704.000000	10.911055
1703.000000	10.876641
1702.000000	10.854572
1701.000000	10.764001
1700.000000	10.673977
1699.000000	10.592584
1698.000000	10.514031
1697.000000	10.412864
1696.000000	10.363044
1695.000000	10.320654
1694.000000	10.302628
1693.000000	10.321747
1692.000000	10.368179
1691.000000	10.473717
1690.000000	10.558606
1689.000000	10.658682
1688.000000	10.721502
1687.000000	10.775254
1686.000000	10.819174
1685.000000	10.818300
1684.000000	10.865934
1683.000000	10.927771
1682.000000	11.073623
1681.000000	11.279673
1680.000000	11.552259
1679.000000	11.896295
1678.000000	12.285453
1677.000000	12.641179
1676.000000	13.013949
1675.000000	13.351212
1674.000000	13.672305
1673.000000	13.960623
1672.000000	14.219660
1671.000000	14.397305
1670.000000	14.569159
1669.000000	14.744073
1668.000000	14.875941
1667.000000	15.053585
1666.000000	15.138912
1665.000000	15.227843
1664.000000	15.310657
1663.000000	15.382436
1662.000000	15.478796
1661.000000	15.511791
1660.000000	15.569695
1659.000000	15.605857
1658.000000	15.651416
1657.000000	15.684519
1656.000000	15.689982
1655.000000	15.715547
1654.000000	15.712160
1653.000000	15.719917
1652.000000	15.693806
1651.000000	15.700579
1650.000000	15.677745
1649.000000	15.621808
1648.000000	15.605202
1647.000000	15.592201
1646.000000	15.551668
1645.000000	15.502504
1644.000000	15.450719
1643.000000	15.414665
1642.000000	15.389428
1641.000000	15.329667
1640.000000	15.261712
1639.000000	15.234398
1638.000000	15.172780
1637.000000	15.134979
1636.000000	15.092370
1635.000000	15.000816
1634.000000	14.963452
1633.000000	14.905876
1632.000000	14.849065
1631.000000	14.770621
1630.000000	14.702229
1629.000000	14.650116
1628.000000	14.579866
1627.000000	14.533762
1626.000000	14.438166
1625.000000	14.371303
1624.000000	14.325417
1623.000000	14.256260
1622.000000	14.190381
1621.000000	14.121989
1620.000000	14.051084
1619.000000	14.010223
1618.000000	13.933200
1617.000000	13.884146
1616.000000	13.828645
1615.000000	13.787020
1614.000000	13.718519
1613.000000	13.685743
1612.000000	13.631445
1611.000000	13.570591
1610.000000	13.506023
1609.000000	13.429655
1608.000000	13.386828
1607.000000	13.354489
1606.000000	13.291014
1605.000000	13.223058
1604.000000	13.170180
1603.000000	13.124076
1602.000000	13.082450
1601.000000	13.025202
1600.000000	12.958339
1599.000000	12.913000
1598.000000	12.862306
1597.000000	12.800251
1596.000000	12.752726
